Dividing Wavelength (nm)	Counts (n)	Blue Motor Position (mm): 0.000000	Red Motor Position (mm): 29.400000	
326.493990	2127.087139
326.888308	2127.087139
327.282561	2127.087139
327.676750	2096.593199
328.070874	2093.601275
328.464933	2097.485484
328.858929	2104.303644
329.252859	2112.193050
329.646726	2124.536315
330.040528	2138.338994
330.434265	2154.659730
330.827938	2170.942657
331.221547	2190.872859
331.615091	2208.927751
332.008571	2228.217726
332.401986	2249.163721
332.795338	2267.213572
333.188625	2287.438681
333.581847	2305.722946
333.975006	2323.684577
334.368100	2342.619151
334.761129	2361.669672
335.154095	2374.461599
335.546996	2393.423900
335.939833	2411.922414
336.332606	2426.932449
336.725315	2438.073399
337.117960	2450.310800
337.510540	2456.491255
337.903056	2465.966103
338.295508	2474.294090
338.687896	2479.141159
339.080220	2493.904178
339.472480	2499.462050
339.864676	2504.031856
340.256807	2505.594614
340.648875	2509.045284
341.040879	2510.323216
341.432818	2515.228259
341.824694	2514.146931
342.216506	2516.284381
342.608253	2519.034330
342.999937	2519.462828
343.391557	2517.592560
343.783113	2513.844462
344.174605	2514.532580
344.566033	2510.436642
344.957397	2511.238186
345.348697	2510.126611
345.739934	2509.834224
346.131106	2506.020591
346.522215	2505.957577
346.913260	2503.227792
347.304241	2499.812410
347.695159	2499.908192
348.086012	2499.850219
348.476802	2495.313181
348.867528	2495.245125
349.258191	2494.065495
349.648789	2490.587099
350.039324	2490.476193
350.429796	2490.461070
350.820203	2489.117602
351.210548	2487.658188
351.600828	2488.532829
351.991045	2485.830770
352.381198	2486.465956
352.771288	2488.187510
353.161314	2485.175420
353.551276	2482.611993
353.941175	2486.639875
354.331010	2482.811119
354.720782	2483.680718
355.110490	2483.736171
355.500135	2483.017806
355.889717	2487.761532
356.279235	2485.455204
356.668689	2486.740698
357.058080	2482.513691
357.447408	2481.442446
357.836672	2482.191057
358.225873	2484.842704
358.615010	2480.489668
359.004084	2489.992243
359.393095	2487.509474
359.782043	2489.644403
360.170927	2490.231698
360.559748	2490.093066
360.948505	2490.564414
361.337199	2492.152377
361.725830	2496.147492
362.114398	2492.469970
362.502903	2492.744713
362.891344	2496.636483
363.279722	2494.957779
363.668037	2498.189159
364.056289	2494.463746
364.444478	2498.791577
364.832603	2498.970538
365.220665	2498.186638
365.608665	2499.439365
365.996601	2499.348624
366.384474	2501.448265
366.772284	2500.215703
367.160031	2506.300375
367.547715	2503.918430
367.935336	2506.123935
368.322893	2512.460665
368.710388	2515.064421
369.097820	2520.821419
369.485189	2524.456091
369.872495	2529.928263
370.259738	2537.424459
370.646918	2544.945861
371.034035	2551.017931
371.421090	2564.273645
371.808081	2571.505180
372.195010	2579.709658
372.581875	2594.959148
372.968678	2607.383072
373.355418	2616.661315
373.742096	2635.588327
374.128710	2649.794299
374.515262	2664.809376
374.901751	2681.843435
375.288177	2691.542615
375.674540	2718.301059
376.060841	2733.364027
376.447079	2756.215577
376.833254	2775.664349
377.219367	2785.242541
377.605417	2824.349292
377.991404	2832.273986
378.377329	2856.562265
378.763191	2875.436345
379.148991	2910.437076
379.534727	2933.369285
379.920402	2962.086218
380.306013	2977.413846
380.691563	3025.077956
381.077049	3048.652912
381.462474	3065.999522
381.847835	3102.628546
382.233134	3125.099489
382.618371	3123.569499
383.003545	3193.722196
383.388657	3200.938608
383.773706	3234.749627
384.158693	3250.223448
384.543618	3278.055659
384.928480	3313.479847
385.313280	3358.018441
385.698017	3356.158255
386.082692	3411.431987
386.467305	3414.552461
386.851856	3446.483129
387.236344	3470.945328
387.620770	3498.807786
388.005133	3528.616128
388.389435	3553.869789
388.773674	3565.340934
389.157851	3606.456585
389.541965	3629.368629
389.926018	3586.682659
390.310008	3656.845438
390.693936	3676.596679
391.077802	3718.128225
391.461606	3706.402501
391.845348	3770.984723
392.229027	3772.867594
392.612645	3781.253553
392.996200	3862.464021
393.379694	3900.645721
393.763125	3965.921101
394.146494	3933.103190
394.529801	3995.550483
394.913047	4043.481774
395.296230	4007.553470
395.679351	4065.062953
396.062410	4092.391048
396.445408	4065.461204
396.828343	4098.490844
397.211217	4126.844814
397.594028	4043.257442
397.976778	4112.853092
398.359466	4134.777070
398.742092	4162.579033
399.124656	4088.262343
399.507158	4167.196730
399.889598	4193.163714
400.271977	4254.660749
400.654294	4225.719485
401.036549	4235.552256
401.418742	4205.706104
401.800874	4306.859377
402.182944	4324.684897
402.564952	4395.122419
402.946898	4380.777816
403.328783	4376.273545
403.710606	4288.844814
404.092367	4478.193073
404.474067	4447.195018
404.855705	4453.919917
405.237282	4380.621540
405.618797	4490.128004
406.000250	4526.550341
406.381642	4606.888689
406.762972	4569.596754
407.144240	4580.253753
407.525447	4576.490532
407.906593	4638.587465
408.287677	4680.781922
408.668700	4610.155357
409.049661	4659.699817
409.430560	4700.722206
409.811399	4629.654540
410.192176	4788.468530
410.572891	4729.146752
410.953545	4833.256662
411.334138	4713.463723
411.714669	4781.547026
412.095139	4676.895193
412.475547	4819.196883
412.855894	4800.390859
413.236180	4808.754133
413.616405	4761.016927
413.996568	4846.139330
414.376670	4787.878715
414.756711	4740.751488
415.136691	4776.170635
415.516609	4854.369014
415.896466	4895.388883
416.276262	4924.393161
416.655997	4906.446654
417.035670	5083.479374
417.415283	5176.947407
417.794834	5121.134273
418.174324	5078.846553
418.553753	4985.965814
418.933121	5169.478938
419.312428	5239.558538
419.691674	5172.150749
420.070859	5299.253361
420.449983	5213.662131
420.829045	5327.748483
421.208047	5233.509153
421.586988	5301.849556
421.965867	5319.223892
422.344686	5448.292554
422.723444	5306.540349
423.102141	5123.415395
423.480777	5421.647536
423.859352	5189.199932
424.237866	5452.118790
424.616319	5444.327687
424.994712	5551.427000
425.373044	5430.819915
425.751314	5572.937604
426.129524	5375.105083
426.507673	5570.222942
426.885762	5655.466333
427.263789	5584.776753
427.641756	5464.953568
428.019662	5584.484367
428.397508	5589.475109
428.775292	5539.814702
429.153016	5639.516122
429.530679	5561.978135
429.908282	5649.860570
430.285824	5521.772413
430.663305	5797.810874
431.040726	5526.589235
431.418086	5530.352457
431.795385	5629.751407
432.172624	5645.061392
432.549802	5642.981916
432.926920	5655.216796
433.303977	5662.264329
433.680974	5698.313620
434.057910	5721.331529
434.434786	5725.800512
434.811601	5694.900759
435.188355	5929.752993
435.565050	5799.071162
435.941683	5785.465088
436.318257	5995.013251
436.694770	5979.403318
437.071222	6012.185941
437.447614	5943.482576
437.823946	5861.210945
438.200218	6010.514799
438.576429	5879.661568
438.952580	5974.037009
439.328670	6015.291292
439.704700	5927.469351
440.080670	5913.291106
440.456580	6186.428383
440.832429	6067.401699
441.208218	5911.617443
441.583947	6069.839097
441.959616	6069.408078
442.335224	5998.786554
442.710773	6140.753008
443.086261	6164.590104
443.461689	5962.626358
443.837057	6107.970385
444.212365	6260.825731
444.587612	6154.671634
444.962800	6312.164842
445.337927	6286.626357
445.712995	5896.935082
446.088002	6476.171221
446.462949	6305.845756
446.837837	6236.779427
447.212664	6410.406848
447.587431	6553.386574
447.962139	7090.697957
448.336786	8022.517437
448.711374	7758.809638
449.085901	6834.650191
449.460369	6749.590802
449.834776	6687.274579
450.209124	7077.855617
450.583412	7232.203145
450.957640	7371.543158
451.331808	7143.073025
451.705917	6692.131731
452.079965	6614.986953
452.453954	6823.741134
452.827883	6701.087341
453.201752	6790.658562
453.575562	6594.444252
453.949311	6800.720705
454.323001	6687.430855
454.696632	6759.650425
455.070202	6897.352063
455.443713	7050.827471
455.817164	7150.508727
456.190556	7225.720221
456.563888	7304.117725
456.937160	7341.460072
457.310373	7000.768813
457.683526	7024.636156
458.056619	6912.619197
458.429653	6898.294758
458.802628	6832.550551
459.175542	6943.506347
459.548398	7287.824716
459.921194	7446.225332
460.293930	7445.930424
460.666607	7962.326060
461.039224	8261.778160
461.411782	8383.930359
461.784280	8393.385043
462.156719	8281.577292
462.529099	8157.978282
462.901419	7748.976867
463.273680	7631.628888
463.645882	7643.634396
464.018024	7506.295721
464.390106	7660.615523
464.762130	8031.800721
465.134094	8472.412691
465.505999	9444.374879
465.877845	10607.807652
466.249631	11230.324617
466.621358	10850.481236
466.993026	10229.895033
467.364634	9965.826792
467.736184	9600.650648
468.107674	9266.800235
468.479105	9272.368189
468.850477	9037.841109
469.221790	8799.102145
469.593043	8472.589131
469.964238	8316.204977
470.335373	8309.452352
470.706449	8349.494237
471.077467	8306.392371
471.448425	9492.424637
471.819324	10450.231265
472.190164	10457.787954
472.560945	9277.684086
472.931667	8523.827419
473.302330	8370.946867
473.672934	8019.500306
474.043479	8312.330851
474.413965	8232.368068
474.784393	8082.121519
475.154761	8198.436062
475.525070	8234.578614
475.895321	8048.799492
476.265513	8167.075044
476.635645	8282.275491
477.005719	8227.994867
477.375734	8290.797562
477.745691	8446.191129
478.115588	8511.514401
478.485427	8666.063575
478.855207	9048.150269
479.224928	9624.568402
479.594591	10084.293907
479.964194	9878.032577
480.333739	9784.262074
480.703226	9631.323549
481.072653	9643.644129
481.442022	9728.111182
481.811333	9800.630701
482.180584	9587.669677
482.549777	9287.778996
482.918912	9078.583715
483.287988	9018.120115
483.657005	8958.722720
484.025964	8651.093868
484.394864	8667.790170
484.763706	8566.546157
485.132489	8328.538160
485.501213	8223.500679
485.869879	8201.218779
486.238487	8000.129672
486.607036	8012.644337
486.975527	7768.503777
487.343959	7827.331521
487.712333	7768.133252
488.080648	7647.997514
488.448905	7574.978922
488.817104	7463.919782
489.185244	7537.775206
489.553326	7530.659618
489.921350	7751.938545
490.289315	8213.357877
490.657222	8320.275709
491.025070	8160.758478
491.392861	8005.967328
491.760593	7712.158800
492.128267	7438.499763
492.495883	7177.791451
492.863440	6922.310815
493.230939	6669.454100
493.598380	6555.251801
493.965763	6404.100365
494.333088	6287.969824
494.700354	6159.962325
495.067563	6120.895903
495.434713	5959.407581
495.801805	5940.551145
496.168839	5828.045194
496.535815	5722.443103
496.902733	5657.394575
497.269593	5545.140681
497.636395	5519.173698
498.003139	5430.288073
498.369825	5319.498635
498.736453	5291.618534
499.103023	5205.135019
499.469535	5139.589937
499.835989	5071.025203
500.202385	4981.761492
500.568723	4870.883834
500.935003	4881.772726
501.301226	4743.632508
501.667390	4761.886526
502.033497	4716.846337
502.399546	4620.409064
502.765537	4529.378428
503.131470	4485.258250
503.497345	4459.006441
503.863163	4322.582736
504.228923	4321.574505
504.594625	4280.448772
504.960269	4173.183100
505.325856	4160.766738
505.691385	4069.421031
506.056856	4044.878173
506.422270	3997.987881
506.787625	3933.246862
507.152924	3896.877458
507.518164	3851.330633
507.883347	3787.234883
508.248472	3737.183787
508.613540	3723.368504
508.978550	3662.168897
509.343503	3619.059470
509.708398	3594.667847
510.073236	3566.399577
510.438016	3528.865666
510.802738	3482.005620
511.167403	3454.251548
511.532010	3402.063002
511.896561	3396.273237
512.261053	3366.086808
512.625488	3316.696103
512.989866	3283.273253
513.354186	3252.557503
513.718449	3212.409753
514.082655	3201.200748
514.446803	3165.542146
514.810894	3148.918941
515.174927	3114.336626
515.538904	3092.263934
515.902822	3076.500246
516.266684	3046.288611
516.630488	3021.423119
516.994235	3006.085409
517.357925	2988.340547
517.721558	2971.861015
518.085133	2953.730506
518.448651	2937.472784
518.812112	2913.340781
519.175516	2897.874521
519.538863	2886.925135
519.902152	2869.250849
520.265385	2857.956144
520.628560	2842.197497
520.991678	2823.361226
521.354739	2818.410813
521.717743	2803.758699
522.080690	2794.677061
522.443580	2786.699435
522.806413	2775.873557
523.169189	2765.884510
523.531908	2760.752616
523.894569	2746.851634
524.257174	2738.261508
524.619722	2733.275807
524.982213	2729.905795
525.344647	2721.361040
525.707025	2715.621686
526.069345	2708.599359
526.431608	2701.587114
526.793815	2699.106866
527.155964	2692.197965
527.518057	2688.396935
527.880093	2685.215967
528.242072	2681.165399
528.603995	2677.283711
528.965860	2670.823472
529.327669	2668.653256
529.689421	2667.032525
530.051117	2663.579334
530.412755	2660.698315
530.774337	2655.601708
531.135862	2655.021976
531.497331	2649.151552
531.858743	2647.225831
532.220098	2646.265491
532.581396	2640.306847
532.942638	2641.980511
533.303824	2643.366828
533.664953	2640.566467
534.026025	2640.987403
534.387040	2640.357259
534.747999	2636.276445
535.108902	2635.295941
535.469748	2631.147071
535.830537	2632.351907
536.191270	2630.184211
536.551947	2630.779067
536.912567	2630.781587
537.273131	2628.891155
537.633638	2625.606843
537.994089	2624.167593
538.354483	2626.683129
538.714821	2626.252111
539.075103	2624.971657
539.435328	2625.339662
539.795497	2621.377315
540.155609	2624.233128
540.515665	2622.158694
540.875665	2621.624331
541.235609	2620.341358
541.595496	2620.147273
541.955328	2619.459156
542.315102	2616.197529
542.674821	2617.483023
543.034483	2615.451438
543.394090	2615.703496
543.753640	2615.927827
544.113134	2616.126953
544.472571	2617.069649
544.831953	2615.529576
545.191278	2615.020420
545.550548	2614.639813
545.909761	2614.458331
546.268918	2614.957405
546.628019	2616.822632
546.987064	2613.296345
547.346053	2615.383383
547.704986	2609.815428
548.063863	2613.185440
548.422684	2615.612755
548.781449	2612.285594
549.140158	2612.835080
549.498811	2612.255347
549.857408	2611.602518
550.215949	2607.713267
550.574434	2607.131014
550.932864	2610.748042
551.291237	2609.386930
551.649555	2610.236365
552.007817	2609.734770
552.366022	2608.086313
552.724173	2611.746190
553.082267	2605.679162
553.440305	2613.031685
553.798288	2608.905500
554.156215	2610.795933
554.514086	2611.786520
554.871902	2607.937599
555.229661	2610.064966
555.587365	2609.800305
555.945014	2609.462548
556.302606	2609.591097
556.660143	2609.165120
557.017625	2608.532455
557.375050	2608.293000
557.732421	2608.028339
558.089735	2608.056066
558.446994	2605.260746
558.804197	2610.427929
559.161345	2608.071189
559.518437	2607.783843
559.875474	2606.503390
560.232455	2608.661004
560.589381	2605.043976
560.946251	2608.411467
561.303065	2609.044132
561.659825	2606.047166
562.016528	2606.911724
562.373177	2607.304934
562.729770	2607.062958
563.086307	2607.027670
563.442789	2607.017588
563.799216	2608.214862
564.155587	2606.649584
564.511904	2607.173864
564.868164	2603.939964
565.224370	2607.756117
565.580520	2604.771754
565.936615	2606.798298
566.292654	2602.689757
566.648638	2604.053390
567.004567	2605.656477
567.360441	2605.603544
567.716260	2605.976590
568.072023	2606.967177
568.427732	2602.115066
568.783385	2606.238730
569.138982	2601.749582
569.494525	2602.919130
569.850013	2599.932246
570.205445	2604.118925
570.560823	2605.543051
570.916145	2603.766044
571.271412	2600.922833
571.626625	2604.076075
571.981782	2602.112545
572.336884	2602.515838
572.691931	2602.707402
573.046923	2600.955601
573.401860	2603.405601
573.756743	2601.679006
574.111570	2601.421907
574.466342	2603.314861
574.821059	2604.887701
575.175722	2601.850405
575.530330	2601.258070
575.884882	2602.641867
576.239380	2601.366455
576.593823	2601.900817
576.948211	2600.529623
577.302544	2599.710436
577.656823	2600.600199
578.011047	2599.274376
578.365216	2598.611464
578.719330	2600.496856
579.073389	2597.671289
579.427394	2598.866042
579.781344	2599.919643
580.135239	2599.153388
580.489080	2599.589448
580.842866	2596.978130
581.196597	2601.379057
581.550273	2598.568614
581.903895	2596.574838
582.257463	2597.267997
582.610975	2600.275045
582.964434	2596.879828
583.317837	2597.182297
583.671186	2596.781525
584.024481	2598.724890
584.377721	2598.117431
584.730906	2594.823037
585.084037	2596.509303
585.437113	2596.395877
585.790135	2600.353183
586.143103	2597.031062
586.496016	2594.991916
586.848874	2592.922522
587.201679	2595.687595
587.554428	2592.128540
587.907124	2594.364292
588.259765	2590.464959
588.612352	2594.916298
588.964884	2593.666092
589.317362	2597.169694
589.669786	2594.959148
590.022155	2595.218768
590.374470	2595.430496
590.726731	2595.455702
591.078937	2594.379415
591.431090	2596.562235
591.783188	2593.436720
592.135232	2591.720207
592.487222	2595.299426
592.839157	2592.562079
593.191038	2592.052923
593.542866	2596.179107
593.894639	2589.955803
594.246358	2592.083170
594.598022	2593.648448
594.949633	2590.969075
595.301190	2589.126533
595.652692	2590.956472
596.004141	2591.964703
596.355535	2592.791452
596.706876	2592.269692
597.058162	2587.871286
597.409395	2591.372367
597.760573	2592.504106
598.111698	2589.802048
598.462768	2594.260948
598.813785	2590.222984
599.164748	2587.379773
599.515657	2590.303642
599.866511	2586.386666
600.217312	2588.020000
600.568060	2588.125864
600.918753	2592.100814
601.269392	2586.250555
601.619978	2590.719538
601.970510	2589.358426
602.320988	2588.773652
602.671412	2589.434043
603.021783	2587.455391
603.372100	2590.558221
603.722363	2587.510843
604.072572	2588.526636
604.422728	2588.725761
604.772830	2584.382807
605.122878	2583.755184
605.472872	2585.927921
605.822813	2582.971284
606.172701	2585.461614
606.522534	2585.554876
606.872314	2587.893971
607.222041	2586.147211
607.571714	2588.521595
607.921333	2588.929928
608.270899	2590.144846
608.620411	2590.681729
608.969870	2591.082501
609.319276	2588.735844
609.668627	2592.383118
610.017926	2594.245825
610.367171	2597.081474
610.716362	2594.891093
611.065500	2592.262131
611.414585	2592.884713
611.763616	2593.540063
612.112594	2593.519899
612.461518	2592.909919
612.810389	2590.323807
613.159207	2590.109558
613.507971	2591.132912
613.856682	2591.039651
614.205340	2592.499065
614.553945	2591.074939
614.902496	2591.032089
615.250994	2590.051585
615.599439	2590.359095
615.947830	2590.507809
616.296169	2590.021338
616.644454	2587.367170
616.992686	2590.888416
617.340864	2590.323807
617.688990	2588.060329
618.037063	2591.014445
618.385082	2590.449836
618.733048	2590.404466
619.080961	2590.051585
619.428821	2592.080649
619.776628	2592.032758
620.124382	2590.901019
620.472083	2590.381780
620.819731	2589.456729
621.167326	2587.994794
621.514868	2590.356575
621.862357	2587.820874
622.209793	2589.784404
622.557176	2589.870103
622.904506	2586.512695
623.251783	2582.099165
623.599007	2585.643096
623.946179	2581.332909
624.293297	2584.420616
624.640363	2585.827098
624.987376	2586.268199
625.334336	2584.440781
625.681243	2586.167376
626.028097	2582.578074
626.374899	2585.275092
626.721647	2585.002869
627.068343	2583.553537
627.414987	2583.137642
627.761577	2581.960533
628.108115	2582.250399
628.454600	2583.470358
628.801032	2582.096644
629.147412	2583.369535
629.493739	2583.891295
629.840014	2583.056984
630.186236	2584.622262
630.532405	2583.004052
630.878521	2580.564133
631.224585	2580.685121
631.570597	2578.325861
631.916556	2580.402816
632.262462	2580.725450
632.608316	2579.316448
632.954117	2579.225707
633.299866	2579.974318
633.645562	2578.303176
633.991206	2576.833679
634.336797	2580.541448
634.682336	2578.270408
635.027823	2579.180337
635.373257	2578.567836
635.718639	2577.115984
636.063968	2575.928792
636.409245	2579.296283
636.754470	2578.333423
637.099642	2575.870819
637.444762	2576.667321
637.789829	2577.388206
638.134845	2575.918710
638.479808	2575.830490
638.824719	2575.379307
639.169577	2571.941240
639.514383	2572.314285
639.859137	2575.026426
640.203839	2574.565160
640.548489	2573.234296
640.893086	2573.035170
641.237632	2569.526527
641.582125	2571.424521
641.926566	2570.012998
642.270955	2572.462999
642.615292	2569.917216
642.959576	2572.442834
643.303809	2572.682289
643.647990	2574.103895
643.992118	2576.485840
644.336195	2573.118349
644.680219	2572.039542
645.024192	2573.526682
645.368112	2571.177505
645.711981	2572.684810
646.055797	2574.330747
646.399562	2574.101374
646.743274	2574.446693
647.086935	2578.522466
647.430544	2577.103381
647.774101	2574.665983
648.117606	2576.097671
648.461059	2577.007599
648.804460	2577.408371
649.147810	2575.323854
649.491108	2575.528021
649.834354	2572.810839
650.177548	2574.834862
650.520690	2570.111301
650.863781	2571.832855
651.206820	2574.232444
651.549807	2573.675397
651.892742	2571.999213
652.235626	2569.473595
652.578458	2570.625498
652.921238	2570.055848
653.263967	2573.105746
653.606644	2573.047773
653.949269	2569.133317
654.291843	2568.273800
654.634365	2571.747155
654.976836	2571.540468
655.319255	2570.885118
655.661622	2569.652556
656.003938	2569.813873
656.346203	2566.688357
656.688416	2569.695406
657.030577	2569.418142
657.372687	2571.704305
657.714746	2568.775395
658.056753	2570.078533
658.398708	2564.676937
658.740612	2567.245405
659.082465	2565.433110
659.424266	2565.206258
659.766016	2565.130641
660.107715	2569.939902
660.449362	2568.717422
660.790958	2570.517114
661.132503	2569.322360
661.473996	2568.961918
661.815438	2568.389747
662.156829	2568.755230
662.498168	2570.290262
662.839456	2570.343194
663.180693	2565.107956
663.521879	2566.257339
663.863013	2566.171639
664.204097	2570.431414
664.545129	2570.955694
664.886110	2569.657597
665.227040	2567.648697
665.567918	2571.109449
665.908746	2572.566343
666.249522	2568.162895
666.590248	2568.903944
666.930922	2571.008626
667.271545	2569.660117
667.612118	2570.348235
667.952639	2570.501990
668.293109	2570.169274
668.633528	2569.801270
668.973896	2569.836558
669.314213	2569.718091
669.654480	2570.300344
669.994695	2568.087277
670.334859	2568.319171
670.674973	2569.740776
671.015035	2569.022412
671.355047	2569.740776
671.695008	2568.735066
672.034918	2567.681465
672.374777	2568.430076
672.714585	2569.637432
673.054342	2568.843451
673.394049	2568.977041
673.733705	2571.270766
674.073310	2570.007957
674.412864	2569.410580
674.752368	2569.259346
675.091820	2571.117011
675.431223	2566.413614
675.770574	2570.791857
676.109875	2564.593758
676.449125	2567.565518
676.788324	2562.053016
677.127473	2564.616443
677.466571	2564.092163
677.805619	2567.794891
678.144616	2566.874880
678.483562	2564.099725
678.822458	2565.785991
679.161303	2566.872359
679.500098	2563.577965
679.838842	2564.369427
680.177535	2564.384550
680.516179	2566.852195
680.854771	2568.546022
681.193314	2570.383523
681.531805	2566.511917
681.870247	2568.054510
682.208638	2572.984758
682.546978	2570.998544
682.885268	2571.122052
683.223508	2568.891342
683.561697	2569.219017
683.899836	2569.967628
684.237925	2569.524006
684.575963	2566.993347
684.913951	2567.212637
685.251889	2569.854202
685.589776	2567.278172
685.927614	2570.048286
686.265401	2568.470405
686.603137	2566.408573
686.940824	2569.589541
687.278460	2570.499470
687.616046	2569.347566
687.953582	2569.680282
688.291068	2570.290262
688.628504	2572.420149
688.965889	2573.768658
689.303224	2572.276476
689.640510	2570.212124
689.977745	2568.538461
690.314930	2566.398491
690.652065	2570.126424
690.989150	2565.967472
691.326185	2565.130641
691.663170	2564.114848
692.000105	2566.791701
692.336990	2564.074519
692.673825	2562.209292
693.010610	2565.546536
693.347345	2559.245094
693.684030	2558.211657
694.020665	2560.248283
694.357251	2555.723848
694.693786	2560.797769
695.030272	2560.084446
695.366707	2560.507903
695.703093	2560.591082
696.039429	2561.503531
696.375716	2560.351627
696.711952	2558.365412
697.048139	2559.726524
697.384276	2560.878428
697.720363	2560.270968
698.056400	2558.335165
698.392388	2561.652245
698.728326	2559.471946
699.064214	2557.551266
699.400053	2558.604867
699.735842	2555.534804
700.071581	2561.299364
700.407270	2559.202244
700.742910	2556.938766
701.078501	2556.374157
701.414042	2556.656461
701.749533	2557.863817
702.084974	2555.396173
702.420366	2554.904660
702.755709	2555.391132
703.091002	2555.376008
703.426246	2557.909188
703.761440	2553.137736
704.096584	2554.405586
704.431679	2552.802499
704.766725	2555.756615
705.101721	2555.890206
705.436668	2554.095555
705.771565	2556.270813
706.106413	2555.086142
706.441212	2553.094886
706.775961	2555.887685
707.110661	2553.752757
707.445311	2558.226781
707.779913	2557.218550
708.114465	2557.500854
708.448967	2556.535473
708.783421	2557.427758
709.117825	2557.531101
709.452180	2558.612429
709.786485	2556.870710
710.120742	2558.383056
710.454949	2561.924467
710.789107	2560.497820
711.123216	2554.876934
711.457275	2556.185113
711.791286	2554.589588
712.125247	2559.754250
712.459159	2563.676268
712.793023	2561.513613
713.126837	2562.690722
713.460602	2559.078736
713.794318	2560.954045
714.127985	2561.102759
714.461602	2559.643345
714.795171	2559.378684
715.128691	2558.128478
715.462162	2558.509085
715.795584	2558.246945
716.128957	2554.687891
716.462281	2557.463046
716.795556	2558.441030
717.128782	2553.316697
717.461960	2557.952038
717.795088	2555.476831
718.128167	2554.390463
718.461198	2555.363405
718.794180	2554.607232
719.127113	2552.633620
719.459997	2553.306614
719.792833	2553.747715
720.125619	2556.094372
720.458357	2554.198899
720.791046	2553.299053
721.123686	2551.504402
721.456278	2551.428785
721.788821	2554.629917
722.121315	2554.375339
722.453761	2554.095555
722.786158	2552.744526
723.118506	2551.194371
723.450805	2552.832746
723.783056	2551.365770
724.115259	2552.757129
724.447412	2550.430636
724.779518	2551.045657
725.111574	2552.744526
725.443582	2555.562531
725.775542	2550.780996
726.107453	2553.215874
726.439315	2553.901471
726.771129	2557.745350
727.102895	2552.434495
727.434612	2556.573282
727.766281	2557.538663
728.097901	2552.689073
728.429473	2547.544576
728.760996	2551.421223
729.092471	2549.165307
729.423897	2554.808878
729.755276	2553.561193
730.086606	2555.305432
730.417887	2554.508930
730.749120	2554.531615
731.080305	2556.543035
731.411442	2556.636297
731.742530	2555.333158
732.073570	2556.996739
732.404562	2557.193344
732.735506	2557.815927
733.066401	2556.522871
733.397249	2557.571431
733.728048	2554.576985
734.058798	2554.934907
734.389501	2556.283416
734.720156	2552.678991
735.050762	2553.026830
735.381320	2552.353836
735.711831	2551.338044
736.042293	2551.486758
736.372707	2550.546583
736.703073	2550.617159
737.033391	2549.359391
737.363661	2552.426933
737.693883	2553.523384
738.024056	2553.735112
738.354182	2553.407438
738.684260	2554.579506
739.014290	2554.463559
739.344272	2554.725699
739.674207	2553.649413
740.004093	2553.694783
740.333931	2553.974567
740.663722	2554.297201
740.993464	2553.387273
741.323159	2552.270657
741.652806	2555.413817
741.982405	2549.697148
742.311956	2551.108671
742.641460	2552.389124
742.970915	2551.181768
743.300323	2548.678835
743.629683	2551.517005
743.958996	2550.995245
744.288260	2550.334854
744.617477	2550.748229
744.946647	2547.554658
745.275768	2548.615821
745.604842	2545.649102
745.933869	2547.353012
746.262847	2544.792106
746.591778	2550.402910
746.920662	2547.857127
747.249498	2549.787889
747.578286	2550.521377
747.907027	2550.549103
748.235720	2549.427447
748.564365	2548.595656
748.892963	2547.645399
749.221514	2551.711089
749.550017	2548.527601
749.878473	2551.121274
750.206881	2549.324103
750.535242	2549.256047
750.863555	2547.572302
751.191821	2547.017775
751.520039	2548.396531
751.848210	2549.288815
752.176334	2549.152704
752.504411	2548.676315
752.832440	2548.623383
753.160421	2550.995245
753.488356	2548.099102
753.816243	2549.956768
754.144082	2546.891746
754.471875	2546.740512
754.799620	2544.232538
755.127318	2549.487940
755.454969	2546.611962
755.782572	2550.622200
756.110129	2546.992569
756.437638	2548.429298
756.765100	2545.608773
757.092515	2548.507436
757.419882	2547.398382
757.747203	2548.149514
758.074477	2546.947199
758.401703	2552.242931
758.728882	2548.905687
759.056014	2548.850234
759.383099	2548.260419
759.710138	2549.949206
760.037129	2549.356870
760.364073	2547.232024
760.690970	2550.211346
761.017820	2549.203115
761.344623	2548.822508
761.671379	2550.241593
761.998088	2546.017106
762.324751	2552.018600
762.651366	2553.049516
762.977935	2563.686350
763.304456	2565.831361
763.630931	2567.875549
763.957359	2565.758264
764.283740	2562.642831
764.610074	2556.069167
764.936362	2558.914898
765.262602	2552.953734
765.588796	2550.365101
765.914943	2549.397200
766.241044	2546.188505
766.567097	2549.518187
766.893104	2546.493495
767.219064	2547.539534
767.544978	2545.586087
767.870845	2547.587425
768.196665	2546.254040
768.522438	2547.731098
768.848165	2545.510470
769.173846	2543.897301
769.499479	2545.071890
769.825066	2544.658515
770.150607	2546.629606
770.476101	2540.716333
770.801548	2545.984338
771.126949	2545.061807
771.452303	2546.072559
771.777611	2541.729605
772.102872	2545.669266
772.428087	2539.163657
772.753256	2543.844369
773.078378	2544.184647
773.403453	2542.647095
773.728482	2540.988555
774.053465	2543.151210
774.378401	2541.175078
774.703291	2541.028884
775.028135	2541.033925
775.352932	2539.662732
775.677683	2540.996117
776.002388	2540.882691
776.327046	2541.969059
776.651658	2540.386137
776.976224	2544.199770
777.300743	2539.481250
777.625216	2540.358411
777.949643	2542.198432
778.274024	2543.534338
778.598359	2537.608461
778.922647	2537.278266
779.246889	2540.557536
779.571086	2535.193749
779.895236	2539.403112
780.219339	2542.634492
780.543397	2538.982176
780.867409	2539.085519
781.191374	2544.240099
781.515294	2540.948226
781.839167	2540.529810
782.162995	2540.449152
782.486776	2541.124666
782.810511	2540.118956
783.134201	2541.129707
783.457844	2542.599204
783.781441	2541.326312
784.104993	2541.694317
784.428498	2542.977290
784.751958	2539.640046
785.075372	2541.517876
785.398739	2542.742877
785.722061	2542.135418
786.045337	2540.842362
786.368568	2541.177598
786.691752	2540.368493
787.014891	2541.369162
787.337983	2539.622402
787.661030	2542.397558
787.984031	2544.512322
788.306987	2542.977290
788.629897	2541.613658
788.952760	2542.085006
789.275579	2543.917465
789.598351	2545.061807
789.921078	2544.056097
790.243759	2541.497712
790.566395	2541.091899
790.888984	2540.925541
791.211529	2540.721374
791.534027	2543.347815
791.856480	2539.771116
792.178888	2542.778165
792.501249	2540.471837
792.823566	2540.171888
793.145836	2541.417053
793.468062	2540.184491
793.790241	2538.979655
794.112375	2541.676673
794.434464	2538.793132
794.756507	2539.438400
795.078505	2540.310520
795.400457	2538.228523
795.722364	2537.366486
796.044226	2541.041487
796.366042	2535.511341
796.687812	2538.770447
797.009538	2538.790612
797.331218	2545.172713
797.652852	2539.680376
797.974442	2541.291024
798.295986	2540.716333
798.617484	2541.706919
798.938938	2540.716333
799.260346	2539.763555
799.581709	2539.443441
799.903026	2539.579552
800.224299	2538.659542
800.545526	2539.622402
800.866708	2541.041487
801.187845	2541.701878
801.508936	2537.873122
801.829983	2537.409336
802.150984	2538.387320
802.471940	2540.459234
802.792851	2539.350180
803.113717	2541.215407
803.434538	2540.111394
803.755314	2542.185829
804.076045	2539.907228
804.396731	2538.657021
804.717372	2539.251877
805.037967	2539.259439
805.358518	2539.617361
805.679024	2537.958822
805.999485	2540.010571
806.319901	2538.120138
806.640272	2539.637526
806.960598	2538.223482
807.280879	2540.071065
807.601115	2540.880170
807.921306	2541.069213
808.241453	2539.670293
808.561554	2538.382278
808.881611	2539.559388
809.201623	2540.033256
809.521590	2539.496373
809.841513	2537.842875
810.161390	2540.000489
810.481223	2539.824048
810.801011	2539.619882
811.120755	2540.013092
811.440453	2541.333874
811.760107	2537.535365
812.079716	2537.190046
812.399281	2533.726773
812.718801	2535.259284
813.038276	2533.830117
813.357707	2536.471681
813.677093	2536.552340
813.996434	2536.660724
814.315731	2537.328677
814.634983	2538.596527
814.954191	2538.858668
815.273354	2540.980993
815.592473	2537.522762
815.911547	2540.229861
816.230577	2540.938143
816.549562	2540.010571
816.868502	2539.705581
817.187399	2540.779347
817.506250	2540.297917
817.825058	2541.182639
818.143821	2539.201466
818.462539	2542.720191
818.781213	2543.652805
819.099843	2543.983000
819.418429	2545.323947
819.736970	2548.265461
820.055466	2552.358877
820.373919	2550.115564
820.692327	2555.363405
821.010691	2562.829354
821.329011	2574.129100
821.647286	2605.018771
821.965517	2632.127575
822.283704	2652.955102
822.601847	2660.801658
822.919945	2646.832621
823.237999	2625.344703
823.556010	2608.613113
823.873976	2594.223140
824.191897	2581.617734
824.509775	2575.243195
824.827609	2568.876218
825.145398	2563.376319
825.463144	2564.155177
825.780845	2565.927143
826.098502	2565.818758
826.416116	2574.776889
826.733685	2585.955647
827.051210	2589.587799
827.368692	2585.615369
827.686129	2576.448031
828.003522	2565.730538
828.320872	2557.621842
828.638177	2555.199568
828.955439	2546.259081
829.272656	2544.519883
829.589830	2539.912269
829.906960	2546.054915
830.224046	2543.887218
830.541088	2544.509801
830.858086	2542.142979
831.175041	2542.586601
831.491952	2540.658359
831.808819	2541.038967
832.125642	2542.347146
832.442421	2541.580891
832.759157	2548.414175
833.075849	2552.772252
833.392497	2558.461194
833.709101	2564.112328
834.025662	2561.173335
834.342179	2561.410269
834.658653	2557.125288
834.975083	2552.182437
835.291469	2553.223435
835.607811	2545.298742
835.924110	2543.294883
836.240366	2546.528783
836.556578	2539.861857
836.872746	2544.847558
837.188871	2538.747762
837.504952	2542.889070
837.820990	2534.097298
838.136984	2538.251208
838.452935	2536.280117
838.768842	2539.763555
839.084706	2538.883873
839.400526	2540.393699
839.716303	2542.944523
840.032037	2548.721685
840.347727	2551.804351
840.663373	2548.661191
840.978977	2541.878319
841.294537	2540.131559
841.610054	2536.537216
841.925527	2537.169881
842.240957	2535.962525
842.556344	2537.444624
842.871687	2536.512010
843.186987	2536.083512
843.502244	2537.391692
843.817458	2534.167874
844.132629	2535.571835
844.447756	2534.997144
844.762840	2530.399611
845.077881	2530.323994
845.392879	2531.596885
845.707833	2531.980013
846.022745	2530.152595
846.337613	2534.450178
846.652438	2533.880528
846.967221	2532.779036
847.281960	2535.012267
847.596656	2535.281969
847.911309	2531.876669
848.225919	2530.646628
848.540485	2533.628470
848.855009	2533.562935
849.169490	2533.512524
849.483928	2532.514375
849.798323	2535.032432
850.112675	2533.734335
850.426984	2533.610826
850.741251	2535.004705
851.055474	2533.126876
851.369654	2533.104190
851.683792	2534.850950
851.997887	2533.694005
852.311938	2532.446320
852.625947	2534.911444
852.939914	2534.626619
853.253837	2536.925385
853.567718	2534.843388
853.881555	2535.211393
854.195350	2534.614016
854.509103	2533.820034
854.822812	2535.463450
855.136479	2534.092257
855.450103	2534.172915
855.763685	2534.684592
856.077224	2532.325332
856.390720	2533.220137
856.704173	2535.092926
857.017584	2534.016639
857.330953	2532.370702
857.644278	2533.958666
857.957561	2536.212062
858.270802	2534.689633
858.584000	2534.689633
858.897155	2533.767102
859.210268	2533.641073
859.523339	2533.532688
859.836367	2533.320960
860.149352	2532.526978
860.462295	2534.951773
860.775195	2530.881042
861.088054	2529.376257
861.400869	2529.792152
861.713642	2528.667975
862.026373	2533.081505
862.339062	2533.522606
862.651708	2532.320291
862.964312	2535.496218
863.276873	2535.014788
863.589392	2533.048738
863.901869	2532.789118
864.214303	2534.104859
864.526696	2536.859850
864.839045	2535.496218
865.151353	2533.850281
865.463619	2535.433203
865.775842	2535.498738
866.088023	2532.751310
866.400162	2534.457740
866.712258	2535.687782
867.024313	2530.956659
867.336325	2534.200641
867.648296	2534.334232
867.960224	2535.276928
868.272110	2535.012267
868.583954	2533.628470
868.895755	2536.970755
869.207515	2532.665610
869.519233	2534.966897
869.830909	2532.474046
870.142542	2535.009747
870.454134	2534.901362
870.765684	2533.860363
871.077191	2536.932947
871.388657	2537.222813
871.700081	2536.537216
872.011463	2534.402287
872.322803	2534.838347
872.634101	2537.598379
872.945357	2534.929088
873.256571	2535.193749
873.567744	2538.697351
873.878874	2535.176105
874.189963	2534.137627
874.501010	2539.009902
874.812015	2535.115611
875.122979	2537.293389
875.433900	2538.004192
875.744780	2537.863040
876.055618	2533.419262
876.366415	2536.393543
876.677169	2538.563760
876.987882	2532.746268
877.298554	2534.747607
877.609183	2533.457071
877.919771	2534.251053
878.230317	2533.167205
878.540822	2540.928061
878.851285	2541.694317
879.161707	2541.230530
879.472087	2541.792619
879.782425	2543.284801
880.092722	2551.522046
880.402977	2559.534960
880.713191	2576.296797
881.023363	2590.722058
881.333494	2602.157916
881.643583	2603.140941
881.953631	2600.287648
882.263637	2600.078440
882.573602	2594.928901
882.883526	2587.157962
883.193408	2577.378124
883.503248	2569.395457
883.813048	2565.032338
884.122806	2561.720300
884.432522	2557.326935
884.742197	2555.499516
885.051831	2547.605069
885.361424	2544.673638
885.670975	2545.245809
885.980485	2544.172044
886.289954	2545.215562
886.599382	2539.292207
886.908768	2542.453010
887.218113	2538.530992
887.527417	2539.100643
887.836680	2538.856147
888.145901	2538.049562
888.455082	2537.318595
888.764221	2538.420087
889.073319	2533.641073
889.382376	2537.404295
889.691392	2538.062165
890.000366	2535.660055
890.309300	2536.300282
890.618193	2536.814480
890.927044	2536.133924
891.235855	2537.338760
891.544625	2534.934129
891.853353	2538.089892
892.162041	2538.044521
892.470687	2539.491332
892.779293	2537.908410
893.087858	2540.340767
893.396381	2541.764893
893.704864	2539.945036
894.013306	2543.756148
894.321707	2552.376522
894.630068	2555.822150
894.938387	2559.280382
895.246665	2556.175031
895.554903	2556.764846
895.863100	2553.140256
896.171256	2549.699669
896.479371	2546.463248
896.787446	2545.724719
897.095480	2544.814791
897.403473	2539.508976
897.711425	2542.309337
898.019336	2537.933616
898.327207	2539.244316
898.635038	2539.577032
898.942827	2538.931764
899.250576	2537.363965
899.558284	2538.372196
899.865952	2539.725746
900.173579	2538.311702
900.481165	2535.045035
900.788711	2534.034283
901.096216	2536.305323
901.403681	2536.499408
901.711105	2537.124511
902.018489	2538.440252
902.325832	2539.259439
902.633135	2534.298944
902.940397	2537.003523
903.247619	2537.164840
903.554800	2543.206663
903.861941	2552.951213
904.169041	2562.078222
904.476101	2569.403019
904.783121	2568.977041
905.090100	2564.447564
905.397039	2555.456667
905.703938	2551.121274
906.010796	2546.841335
906.317614	2544.522404
906.624391	2542.216076
906.931129	2540.338246
907.237826	2537.520241
907.544483	2536.017977
907.851099	2533.860363
908.157675	2535.405477
908.464211	2535.266845
908.770707	2532.834489
909.077163	2532.279962
909.383578	2530.802904
909.689954	2530.513037
909.996289	2530.571011
910.302584	2533.315919
910.608839	2533.953625
910.915054	2531.435568
911.221229	2530.691998
911.527363	2532.731145
911.833458	2534.157792
912.139513	2533.394057
912.445527	2533.245343
912.751502	2534.452699
913.057436	2533.280631
913.363331	2533.625950
913.669186	2533.119314
913.975000	2534.293903
914.280775	2537.749614
914.586510	2539.193904
914.892205	2543.052907
915.197859	2547.814277
915.503475	2552.903322
915.809050	2559.091338
916.114585	2563.499827
916.420081	2566.761454
916.725536	2564.923953
917.030952	2560.560835
917.336328	2556.401883
917.641665	2555.202088
917.946961	2549.248486
918.252218	2547.600028
918.557435	2545.076931
918.862612	2545.303783
919.167750	2540.111394
919.472848	2542.790767
919.777906	2538.682227
920.082925	2538.631816
920.387904	2539.418236
920.692843	2535.982689
920.997743	2536.189377
921.302603	2534.974458
921.607423	2537.734490
921.912204	2535.057638
922.216946	2536.045704
922.521647	2534.069571
922.826310	2531.997657
923.130932	2533.885569
923.435516	2532.710980
923.740059	2531.828778
924.044564	2531.445651
924.349028	2531.231402
924.653454	2529.424148
924.957840	2529.499765
925.262186	2528.115969
925.566493	2531.301978
925.870761	2526.593540
926.174989	2530.429858
926.479178	2531.977493
926.783328	2531.054961
927.087438	2529.560259
927.391509	2531.407842
927.695541	2531.508665
927.999533	2529.346010
928.303486	2529.018335
928.607400	2531.876669
928.911275	2531.291896
929.215110	2531.783408
929.518906	2529.106555
929.822663	2527.279137
930.126381	2531.024714
930.430060	2531.876669
930.733699	2532.514375
931.037299	2531.584283
931.340861	2531.223840
931.644383	2531.354910
931.947866	2528.889786
932.251309	2529.749303
932.554714	2531.533871
932.858080	2529.066226
933.161407	2529.409025
933.464694	2531.405322
933.767943	2530.767616
934.071153	2531.536392
934.374323	2530.210568
934.677455	2530.807945
934.980548	2529.751823
935.283602	2530.573531
935.586617	2531.380116
935.889593	2529.910619
936.192530	2530.016484
936.495428	2531.480939
936.798287	2527.596730
937.101108	2532.511855
937.403890	2530.233253
937.706632	2530.230733
938.009336	2528.862059
938.312002	2531.284334
938.614628	2533.641073
938.917216	2530.989426
939.219765	2534.140147
939.522275	2532.221988
939.824747	2532.829448
940.127179	2529.698891
940.429573	2526.301153
940.731929	2528.426000
941.034246	2527.412728
941.336524	2530.613860
941.638763	2532.327853
941.940964	2529.262831
942.243126	2533.036135
942.545250	2532.148892
942.847335	2529.955990
943.149381	2527.624456
943.451389	2528.274765
943.753359	2527.291740
944.055290	2530.601258
944.357182	2530.747451
944.659036	2528.516740
944.960851	2530.792821
945.262628	2531.105373
945.564367	2530.734848
945.866067	2532.350538
946.167729	2531.760723
946.469352	2529.923222
946.770937	2529.096473
947.072484	2530.455064
947.373992	2530.046731
947.675462	2532.335414
947.976893	2532.153933
948.278286	2527.195958
948.579641	2528.794004
948.880958	2528.458767
949.182236	2528.408356
949.483476	2526.976668
949.784678	2531.538912
950.085841	2527.526154
950.386967	2531.488501
950.688054	2530.838192
950.989103	2529.189734
951.290114	2526.858201
951.591087	2531.188552
951.892021	2530.235774
952.192917	2531.536392
952.493776	2528.128572
952.794596	2533.260466
953.095378	2528.113448
953.396122	2531.846422
953.696828	2529.585465
953.997496	2529.154446
954.298126	2530.182842
954.598718	2528.995650
954.899272	2529.668644
955.199788	2529.940866
955.500266	2529.424148
955.800706	2527.314425
956.101108	2525.277799
956.401472	2526.510361
956.701798	2523.974661
957.002087	2529.887934
957.302337	2525.391225
957.602550	2529.358613
957.902724	2528.821730
958.202861	2528.373068
958.502960	2528.670496
958.803022	2527.866432
959.103045	2529.807276
959.403031	2526.525485
959.702979	2530.150074
960.002889	2526.356606
960.302762	2529.741741
960.602596	2529.754344
960.902393	2527.216123
961.202153	2528.310053
961.501875	2524.871986
961.801559	2529.298119
962.101205	2527.286699
962.400814	2526.404497
962.700385	2528.320135
962.999918	2528.647810
963.299414	2528.962883
963.598873	2526.467511
963.898293	2528.436082
964.197677	2526.752337
964.497022	2527.430372
964.796331	2527.314425
965.095601	2525.257634
965.394835	2527.621936
965.694030	2525.645803
965.993189	2525.459281
966.292309	2523.984743
966.591393	2528.262162
966.890439	2526.157480
967.189447	2529.154446
967.488419	2527.803417
967.787353	2525.698735
968.086249	2525.655886
968.385108	2527.029600
968.683930	2524.766122
968.982714	2527.624456
969.281462	2527.397604
969.580172	2527.392563
969.878844	2527.203520
970.177480	2527.465660
970.476078	2526.061698
970.774639	2528.448685
971.073162	2527.296781
971.371649	2525.439116
971.670098	2522.086749
971.968510	2523.248735
972.266885	2522.558097
972.565223	2528.289888
972.863524	2528.131092
973.161788	2525.023221
973.460014	2527.848787
973.758204	2524.743437
974.056356	2527.014477
974.354471	2524.095648
974.652550	2527.483304
974.950591	2526.835516
975.248595	2527.468180
975.546563	2525.812161
975.844493	2523.883920
976.142386	2528.310053
976.440243	2524.350227
976.738062	2528.539426
977.035845	2527.730320
977.333590	2527.528674
977.631299	2527.687471
977.928971	2528.045393
978.226606	2528.088242
978.524204	2526.959024
978.821765	2525.928108
979.119290	2528.080681
979.416777	2528.645290
979.714228	2528.587317
980.011642	2528.196627
980.309020	2528.879703
980.606360	2527.140505
980.903664	2525.287881
981.200931	2527.158149
981.498162	2525.418951
981.795356	2525.744106
982.092513	2530.117307
982.389633	2528.746113
982.686717	2529.303160
982.983764	2527.115300
983.280775	2529.366175
983.577749	2531.581762
983.874686	2531.614529
984.171587	2526.641431
984.468451	2526.734692
984.765279	2527.437933
985.062070	2526.165042
985.358824	2527.236287
985.655543	2527.586647
985.952224	2527.919364
986.248869	2527.289219
986.545478	2521.272602
986.842050	2525.318128
987.138586	2523.082377
987.435086	2522.976512
987.731549	2521.290246
988.027975	2525.116482
988.324366	2524.400638
988.620719	2526.036493
988.917037	2524.836698
989.213318	2528.909950
989.509563	2526.971627
989.805772	2525.718900
990.101944	2528.602440
990.398080	2526.659075
990.694180	2527.717718
990.990244	2527.233767
991.286271	2527.657224
991.582262	2524.783766
991.878217	2525.580268
992.174136	2525.292923
992.470019	2525.844929
992.765865	2528.564631
993.061676	2524.466173
993.357450	2528.375588
993.653188	2525.912984
993.948890	2525.502130
994.244556	2524.882068
994.540186	2527.687471
994.835780	2526.951462
995.131337	2526.144877
995.426859	2527.959693
995.722345	2525.751667
996.017795	2525.524816
996.313208	2528.032790
996.608586	2526.989271
996.903928	2522.936183
997.199234	2523.286543
997.494504	2525.338293
997.789738	2527.548839
998.084936	2527.458098
998.380099	2526.596061
998.675225	2525.451719
998.970316	2526.230577
999.265371	2523.823426
999.560390	2525.310567
999.855373	2527.498427
1000.150320	2526.470032
1000.445232	2526.775022
1000.740108	2526.162522
1001.034948	2525.068591
1001.329752	2523.967099
1001.624521	2525.791997
1001.919254	2521.242355
1002.213951	2523.309228
1002.508613	2521.181862
1002.803239	2524.319980
1003.097829	2522.525329
1003.392384	2528.499096
1003.686903	2524.249404
1003.981386	2525.746626
1004.275834	2526.379291
1004.570246	2525.166894
1004.864623	2524.314939
1005.158964	2526.046575
1005.453270	2522.782428
1005.747540	2526.903571
1006.041775	2524.151101
1006.335974	2527.637059
1006.630138	2525.804600
1006.924266	2525.267717
1007.218359	2525.003056
1007.512416	2526.651513
1007.806438	2528.083201
1008.100425	2525.297964
1008.394376	2529.121679
1008.688292	2525.373581
1008.982172	2525.575227
1009.276017	2525.207223
1009.569827	2526.361647
1009.863602	2528.670496
1010.157341	2526.102028
1010.451045	2526.444826
1010.744714	2525.534898
1011.038347	2525.023221
1011.331945	2524.035155
1011.625508	2524.493900
1011.919036	2526.525485
1012.212528	2524.889630
1012.505986	2523.667150
1012.799408	2527.170752
1013.092795	2527.059847
1013.386147	2524.834177
1013.679464	2526.648993
1013.972745	2522.411903
1014.265992	2524.632531
1014.559204	2525.232429
1014.852380	2525.567665
1015.145521	2526.407017
1015.438628	2523.788138
1015.731699	2527.163191
1016.024736	2525.890299
1016.317737	2525.189579
1016.610703	2526.810310
1016.903635	2523.145391
1017.196531	2522.154804
1017.489393	2523.067253
1017.782219	2517.199350
1018.075011	2524.652696
1018.367768	2521.771677
1018.660490	2527.087573
1018.953177	2527.087573
1019.245829	2527.087573
