Dividing Wavelength (nm)	Counts (n)	Blue Motor Position (mm): 0.000000	Red Motor Position (mm): 41.400000	
326.493990	2128.627212
326.888308	2128.627212
327.282561	2128.627212
327.676750	2098.266863
328.070874	2095.186718
328.464933	2095.736203
328.858929	2103.484457
329.252859	2114.897629
329.646726	2123.964144
330.040528	2139.450569
330.434265	2155.562097
330.827938	2171.797133
331.221547	2187.545697
331.615091	2210.319110
332.008571	2227.862325
332.401986	2248.568864
332.795338	2267.329518
333.188625	2287.637807
333.581847	2303.356124
333.975006	2324.791111
334.368100	2341.532783
334.761129	2358.733199
335.154095	2375.789943
335.546996	2394.575803
335.939833	2418.851480
336.332606	2430.720876
336.725315	2444.377362
337.117960	2455.530915
337.510540	2462.260855
337.903056	2475.952629
338.295508	2481.596201
338.687896	2491.255052
339.080220	2498.413490
339.472480	2506.489419
339.864676	2508.092506
340.256807	2513.307579
340.648875	2517.897550
341.040879	2520.471059
341.432818	2517.945441
341.824694	2523.533560
342.216506	2525.340813
342.608253	2524.269568
342.999937	2524.781245
343.391557	2526.510361
343.783113	2523.478107
344.174605	2520.324865
344.566033	2520.282016
344.957397	2519.893847
345.348697	2513.927641
345.739934	2514.890502
346.131106	2512.478309
346.522215	2510.129132
346.913260	2508.788185
347.304241	2505.501353
347.695159	2507.643843
348.086012	2502.927843
348.476802	2502.070847
348.867528	2500.218223
349.258191	2500.492966
349.648789	2497.677482
350.039324	2496.066833
350.429796	2495.330825
350.820203	2495.350989
351.210548	2495.449292
351.600828	2494.269662
351.991045	2494.045330
352.381198	2493.284116
352.771288	2493.707573
353.161314	2491.885196
353.551276	2492.306132
353.941175	2490.869403
354.331010	2493.195896
354.720782	2492.482573
355.110490	2494.602378
355.500135	2492.081801
355.889717	2492.916112
356.279235	2491.388642
356.668689	2495.696308
357.058080	2491.325628
357.447408	2491.353354
357.836672	2490.960144
358.225873	2491.013076
358.615010	2489.152891
359.004084	2496.061792
359.393095	2496.961638
359.782043	2494.889724
360.170927	2494.990547
360.559748	2499.020949
360.948505	2499.865343
361.337199	2498.771412
361.725830	2500.656804
362.114398	2498.920126
362.502903	2501.647390
362.891344	2500.109838
363.279722	2502.070847
363.668037	2501.871722
364.056289	2501.808707
364.444478	2504.742659
364.832603	2504.886332
365.220665	2505.458503
365.608665	2507.537979
365.996601	2507.238030
366.384474	2507.941271
366.772284	2510.600480
367.160031	2510.310613
367.547715	2512.601818
367.935336	2514.043588
368.322893	2519.452746
368.710388	2521.612880
369.097820	2529.653521
369.485189	2528.436082
369.872495	2536.577545
370.259738	2542.881508
370.646918	2550.932231
371.034035	2558.191492
371.421090	2569.297154
371.808081	2579.210583
372.195010	2588.554362
372.581875	2601.295878
372.968678	2615.280039
373.355418	2624.001235
373.742096	2644.337250
374.128710	2658.545742
374.515262	2671.284738
374.901751	2690.415917
375.288177	2701.738348
375.674540	2724.282388
376.060841	2740.489698
376.447079	2762.360744
376.833254	2782.936213
377.219367	2791.934673
377.605417	2830.055878
377.991404	2842.903259
378.377329	2861.043851
378.763191	2880.767365
379.148991	2919.143149
379.534727	2944.641305
379.920402	2972.304637
380.306013	2983.579178
380.691563	3032.117927
381.077049	3057.442164
381.462474	3072.048907
381.847835	3112.264712
382.233134	3134.639873
382.618371	3133.543422
383.003545	3204.018753
383.388657	3213.143241
383.773706	3244.022829
384.158693	3258.682505
384.543618	3281.700413
384.928480	3320.182061
385.313280	3367.163094
385.698017	3364.854246
386.082692	3420.117895
386.467305	3426.323555
386.851856	3456.260447
387.236344	3481.730877
387.620770	3510.410001
388.005133	3533.828682
388.389435	3563.032086
388.773674	3572.312850
389.157851	3614.988738
389.541965	3632.542036
389.926018	3596.049123
390.310008	3668.062006
390.693936	3686.200077
391.077802	3726.625090
391.461606	3714.443142
391.845348	3778.140641
392.229027	3782.087864
392.612645	3790.708238
392.996200	3871.240670
393.379694	3909.482863
393.763125	3972.741782
394.146494	3944.773461
394.529801	4003.094570
394.913047	4053.135583
395.296230	4016.554450
395.679351	4076.483687
396.062410	4097.762398
396.445408	4081.111467
396.828343	4112.762351
397.211217	4134.151967
397.594028	4055.580543
397.976778	4121.937251
398.359466	4152.037981
398.742092	4174.977751
399.124656	4101.896144
399.507158	4180.563350
399.889598	4206.416907
400.271977	4268.561731
400.654294	4236.711721
401.036549	4245.788319
401.418742	4214.807908
401.800874	4317.450841
402.182944	4340.819110
402.564952	4406.288575
402.946898	4390.474475
403.328783	4388.528590
403.710606	4300.593223
404.092367	4496.552955
404.474067	4455.802788
404.855705	4469.310560
405.237282	4394.179723
405.618797	4507.202392
406.000250	4541.648597
406.381642	4615.569556
406.762972	4578.401129
407.144240	4588.475875
407.525447	4591.107357
407.906593	4650.194721
408.287677	4695.635682
408.668700	4625.097337
409.049661	4677.142209
409.430560	4715.031522
409.811399	4644.636849
410.192176	4804.990912
410.572891	4744.048403
410.953545	4850.197459
411.334138	4721.864806
411.714669	4794.580929
412.095139	4686.455741
412.475547	4832.261034
412.855894	4811.408301
413.236180	4821.798119
413.616405	4773.970172
413.996568	4864.763873
414.376670	4801.197444
414.756711	4758.529117
415.136691	4788.186226
415.516609	4866.966857
415.896466	4902.796858
416.276262	4938.523516
416.655997	4920.700516
417.035670	5095.474799
417.415283	5194.382238
417.794834	5134.800841
418.174324	5091.474644
418.553753	4995.712885
418.933121	5184.988048
419.312428	5247.692440
419.691674	5187.788409
420.070859	5311.405063
420.449983	5226.063369
420.829045	5342.206513
421.208047	5249.449282
421.586988	5320.416125
421.965867	5330.964740
422.344686	5464.646057
422.723444	5318.611392
423.102141	5136.053567
423.480777	5434.220173
423.859352	5200.114030
424.237866	5464.126818
424.616319	5460.915603
424.994712	5569.214712
425.373044	5441.547490
425.751314	5583.934881
426.129524	5386.692175
426.507673	5584.809521
426.885762	5668.588457
427.263789	5597.558599
427.641756	5482.574921
428.019662	5599.877530
428.397508	5609.427996
428.775292	5554.754162
429.153016	5654.518596
429.530679	5582.982103
429.908282	5666.778682
430.285824	5533.891347
430.663305	5811.608512
431.040726	5542.239497
431.418086	5543.716555
431.795385	5651.866949
432.172624	5663.201984
432.549802	5655.705788
432.926920	5672.263458
433.303977	5676.654303
433.680974	5718.301795
434.057910	5735.275360
434.434786	5739.068829
434.811601	5707.743099
435.188355	5942.207164
435.565050	5817.592362
435.941683	5801.148118
436.318257	6013.496641
436.694770	5994.877139
437.071222	6029.396440
437.447614	5962.323888
437.823946	5874.769128
438.200218	6026.906110
438.576429	5895.389968
438.952580	5993.614330
439.328670	6035.004724
439.704700	5946.303102
440.080670	5932.180309
440.456580	6204.087545
440.832429	6082.096663
441.208218	5932.303817
441.583947	6088.244350
441.959616	6096.358087
442.335224	6020.420666
442.710773	6154.321274
443.086261	6184.011149
443.461689	5977.485159
443.837057	6127.620802
444.212365	6280.156036
444.587612	6178.465880
444.962800	6332.926834
445.337927	6306.680067
445.712995	5913.142392
446.088002	6498.105281
446.462949	6327.989024
446.837837	6256.245843
447.212664	6429.331340
447.587431	6571.907773
447.962139	7114.280474
448.336786	8044.595170
448.711374	7788.751571
449.085901	6851.906061
449.460369	6774.547034
449.834776	6713.039916
450.209124	7102.355625
450.583412	7256.481342
450.957640	7401.590956
451.331808	7167.444483
451.705917	6718.179373
452.079965	6641.657178
452.453954	6855.056782
452.827883	6727.671865
453.201752	6824.285579
453.575562	6620.474249
453.949311	6825.810528
454.323001	6713.733075
454.696632	6788.992461
455.070202	6922.661176
455.443713	7086.624704
455.817164	7180.470824
456.190556	7261.454440
456.563888	7339.710792
456.937160	7382.311063
457.310373	7036.939092
457.683526	7063.982362
458.056619	6956.031093
458.429653	6941.250430
458.802628	6874.631582
459.175542	6984.604353
459.548398	7336.590318
459.921194	7499.026377
460.293930	7506.152048
460.666607	8034.795167
461.039224	8346.063732
461.411782	8467.190056
461.784280	8485.398703
462.156719	8382.241572
462.529099	8257.929239
462.901419	7845.867844
463.273680	7741.820949
463.645882	7752.561128
464.018024	7615.905529
464.390106	7786.568751
464.762130	8171.317175
465.134094	8641.644226
465.505999	9663.355040
465.877845	10884.806452
466.249631	11538.102182
466.621358	11153.963739
466.993026	10526.382935
467.364634	10269.521023
467.736184	9909.549871
468.107674	9571.873221
468.479105	9604.355896
468.850477	9367.683805
469.221790	9140.466399
469.593043	8814.268457
469.964238	8676.834000
470.335373	8686.450001
470.706449	8737.204338
471.077467	8720.833191
471.448425	10037.111228
471.819324	11112.026380
472.190164	11135.626542
472.560945	9886.602538
472.931667	9099.113814
473.302330	8958.684912
473.672934	8607.876057
474.043479	8958.445457
474.413965	8897.618894
474.784393	8784.608828
475.154761	8948.791647
475.525070	9025.606229
475.895321	8860.387453
476.265513	9030.811220
476.635645	9202.535605
477.005719	9201.484525
477.375734	9315.487698
477.745691	9551.809429
478.115588	9690.564668
478.485427	9933.628942
478.855207	10468.137443
479.224928	11284.456527
479.594591	11903.893347
479.964194	11724.660163
480.333739	11664.458703
480.703226	11586.507342
481.072653	11674.293995
481.442022	11916.087898
481.811333	12098.837286
482.180584	11902.940568
482.549777	11611.604726
482.918912	11437.536204
483.287988	11460.226438
483.657005	11468.773714
484.025964	11151.390230
484.394864	11284.819490
484.763706	11251.638615
485.132489	11005.264824
485.501213	10984.122224
485.869879	11046.017511
486.238487	10891.022195
486.607036	11007.188024
486.975527	10783.534713
487.343959	10974.138219
487.712333	11017.038438
488.080648	10947.541092
488.448905	10990.164047
488.817104	10933.123392
489.185244	11196.805985
489.553326	11350.203255
489.921350	11892.926316
490.289315	12953.295219
490.657222	13298.218527
491.025070	13203.787633
491.392861	13083.669540
491.760593	12699.629399
492.128267	12349.440606
492.495883	12024.840710
492.863440	11685.840758
493.230939	11354.687361
493.598380	11282.518203
493.965763	11150.349231
494.333088	11046.040197
494.700354	10966.871396
495.067563	11028.673422
495.434713	10860.392144
495.801805	10986.231947
496.168839	10911.827037
496.535815	10844.535195
496.902733	10847.363282
497.269593	10781.626636
497.636395	10873.668023
498.003139	10867.691735
498.369825	10730.968081
498.736453	10896.506971
499.103023	10817.065948
499.469535	10843.421100
499.835989	10835.156128
500.202385	10800.241097
500.568723	10651.332974
500.935003	10870.892868
501.301226	10676.768116
501.667390	10938.550194
502.033497	11037.747498
502.399546	10896.829604
502.765537	10799.280757
503.131470	10877.542150
503.497345	11047.726463
503.863163	10660.177678
504.228923	10973.298867
504.594625	11039.842098
504.960269	10785.538572
505.325856	11005.874803
505.691385	10797.748246
506.056856	10952.378079
506.422270	10982.204065
506.787625	10862.857269
507.152924	10985.180867
507.518164	10969.414658
507.883347	10888.806608
508.248472	10807.414659
508.613540	11040.182376
508.978550	10917.268963
509.343503	10897.245500
509.708398	11012.549291
510.073236	11129.262085
510.438016	11128.079934
510.802738	11080.630074
511.167403	11132.347271
511.532010	11029.434636
511.896561	11259.671694
512.261053	11335.916625
512.625488	11199.699607
512.989866	11186.756444
513.354186	11171.257417
513.718449	11075.679661
514.082655	11270.686615
514.446803	11161.651498
514.810894	11283.067689
515.174927	11145.950825
515.538904	11177.558859
515.902822	11329.567292
516.266684	11216.068233
516.630488	11154.823255
516.994235	11211.032121
517.357925	11280.456371
517.721558	11370.239321
518.085133	11383.668955
518.448651	11392.584235
518.812112	11270.583271
519.175516	11286.609099
519.538863	11407.395145
519.902152	11326.741725
520.265385	11481.366516
520.628560	11394.832590
520.991678	11372.338962
521.354739	11426.778382
521.717743	11365.218332
522.080690	11340.423417
522.443580	11478.724952
522.806413	11434.546800
523.169189	11463.162910
523.531908	11516.594099
523.894569	11338.084321
524.257174	11348.892555
524.619722	11465.544855
524.982213	11408.839436
525.344647	11463.067128
525.707025	11410.266083
526.069345	11504.066832
526.431608	11429.941706
526.793815	11540.136288
527.155964	11324.460603
527.518057	11379.527647
527.880093	11326.978659
528.242072	11392.082641
528.603995	11300.265585
528.965860	11229.563402
529.327669	11269.033116
529.689421	11220.421270
530.051117	11194.915552
530.412755	11298.775924
530.774337	11181.538850
531.135862	11164.288022
531.497331	11184.399705
531.858743	11038.291943
532.220098	11205.393590
532.581396	11080.201576
532.942638	11057.279449
533.303824	11024.748883
533.664953	11032.950841
534.026025	10949.285331
534.387040	11045.263859
534.747999	11051.701412
535.108902	11104.709145
535.469748	10868.447908
535.830537	10967.854421
536.191270	10945.534712
536.551947	10968.083793
536.912567	10972.535132
537.273131	10897.129553
537.633638	10864.036899
537.994089	10855.232523
538.354483	10814.676441
538.714821	10949.436565
539.075103	10962.667074
539.435328	10921.712740
539.795497	10751.472974
540.155609	10912.328632
540.515665	10998.630665
540.875665	10734.136446
541.235609	10798.080962
541.595496	10802.466766
541.955328	10952.241968
542.315102	10838.705101
542.674821	10791.000662
543.034483	10783.194435
543.394090	10797.886878
543.753640	10720.419467
544.113134	10941.849629
544.472571	10798.315376
544.831953	10944.695360
545.191278	10743.928888
545.550548	10776.774526
545.909761	10910.786039
546.268918	10881.975845
546.628019	10972.951027
546.987064	10829.192443
547.346053	10751.246123
547.704986	10854.488953
548.063863	10839.793990
548.422684	10835.435912
548.781449	10746.787222
549.140158	10849.767913
549.498811	10726.453728
549.857408	10587.012892
550.215949	10814.502521
550.574434	10666.030458
550.932864	10765.663823
551.291237	10818.971504
551.649555	10767.219018
552.007817	10779.932808
552.366022	10749.610268
552.724173	10734.491848
553.082267	10725.957174
553.440305	10856.966680
553.798288	10653.694754
554.156215	10812.468415
554.514086	10794.673142
554.871902	10636.645572
555.229661	10677.368013
555.587365	10654.236678
555.945014	10544.495800
556.302606	10669.876858
556.660143	10566.901209
557.017625	10719.174302
557.375050	10624.889601
557.732421	10753.239899
558.089735	10662.476444
558.446994	10671.064050
558.804197	10701.016066
559.161345	10708.466891
559.518437	10553.113653
559.875474	10640.759154
560.232455	10672.561273
560.589381	10619.049425
560.946251	10620.491195
561.303065	10734.088555
561.659825	10661.281691
562.016528	10590.486247
562.373177	10473.758330
562.729770	10587.189332
563.086307	10497.459314
563.442789	10586.433159
563.799216	10467.373708
564.155587	10515.141162
564.511904	10473.055089
564.868164	10457.704775
565.224370	10474.433844
565.580520	10399.096321
565.936615	10399.567668
566.292654	10278.476633
566.648638	10410.126365
567.004567	10364.299756
567.360441	10343.452064
567.716260	10255.345298
568.072023	10347.701757
568.427732	10305.214912
568.783385	10212.165295
569.138982	10283.243043
569.494525	10298.454725
569.850013	10176.632722
570.205445	10260.426781
570.560823	10147.457044
570.916145	10067.070805
571.271412	10139.575200
571.626625	10085.465975
571.981782	10063.526874
572.336884	10032.135609
572.691931	10041.086177
573.046923	9987.382765
573.401860	9946.120921
573.756743	9876.459737
574.111570	9919.949771
574.466342	9907.041897
574.821059	9937.576165
575.175722	9822.905039
575.530330	9836.024642
575.884882	9825.750770
576.239380	9756.704607
576.593823	9733.835412
576.948211	9745.571218
577.302544	9626.542014
577.656823	9638.769333
578.011047	9646.247885
578.365216	9605.137275
578.719330	9532.315287
579.073389	9542.178305
579.427394	9488.227876
579.781344	9466.248445
580.135239	9420.240355
580.489080	9424.449718
580.842866	9327.004214
581.196597	9333.587961
581.550273	9364.848156
581.903895	9338.467798
582.257463	9398.157580
582.610975	9275.292058
582.964434	9302.932705
583.317837	9225.671981
583.671186	9208.763951
584.024481	9193.038072
584.377721	9117.728274
584.730906	9094.453267
585.084037	9125.894943
585.437113	9064.589472
585.790135	9075.591790
586.143103	8975.925658
586.496016	8954.162997
586.848874	9005.421449
587.201679	8996.468360
587.554428	8878.250781
587.907124	8925.935056
588.259765	8895.047906
588.612352	8888.111278
588.964884	8770.044935
589.317362	8785.007079
589.669786	8779.476933
590.022155	8830.954676
590.374470	8840.595883
590.726731	8787.003376
591.078937	8630.447823
591.431090	8742.963856
591.783188	8614.895863
592.135232	8610.066438
592.487222	8600.604192
592.839157	8652.086976
593.191038	8582.806398
593.542866	8526.988223
593.894639	8425.900485
594.246358	8480.218918
594.598022	8491.528746
594.949633	8383.847180
595.301190	8356.289712
595.652692	8379.221921
596.004141	8487.168148
596.355535	8272.805684
596.706876	8254.281964
597.058162	8179.894698
597.409395	8252.517560
597.760573	8312.411509
598.111698	8217.151345
598.462768	8193.321811
598.813785	8160.640011
599.164748	8127.348231
599.515657	8117.515460
599.866511	8024.690174
600.217312	8147.268350
600.568060	8002.743511
600.918753	8100.607430
601.269392	8068.064262
601.619978	7980.685942
601.970510	8038.528141
602.320988	8027.649331
602.671412	8081.776200
603.021783	8021.567179
603.372100	7983.856828
603.722363	7991.053075
604.072572	7953.204092
604.422728	7959.553425
604.772830	7889.506592
605.122878	7890.320739
605.472872	7883.729430
605.822813	7904.632574
606.172701	7850.667022
606.522534	7919.529184
606.872314	7912.116167
607.222041	7878.484109
607.571714	7925.777694
607.921333	7875.953450
608.270899	7875.431691
608.620411	7962.535268
608.969870	7862.065071
609.319276	7846.508071
609.668627	7857.951490
610.017926	7894.683857
610.367171	7918.523474
610.716362	7893.718476
611.065500	7879.721713
611.414585	7890.749237
611.763616	7882.307825
612.112594	7849.868000
612.461518	7856.998712
612.810389	7904.534272
613.159207	7838.192687
613.507971	7777.676156
613.856682	7885.297229
614.205340	7831.550967
614.553945	7897.761482
614.902496	7787.100593
615.250994	7835.977100
615.599439	7809.178326
615.947830	7812.490364
616.296169	7771.898994
616.644454	7776.912421
616.992686	7759.628825
617.340864	7802.279507
617.688990	7700.218827
618.037063	7776.622555
618.385082	7712.582257
618.733048	7771.760362
619.080961	7709.807102
619.428821	7715.382618
619.776628	7701.290072
620.124382	7647.672360
620.472083	7622.597661
620.819731	7637.126266
621.167326	7530.566356
621.514868	7533.948970
621.862357	7422.869666
622.209793	7428.740090
622.557176	7360.205603
622.904506	7321.534912
623.251783	7255.299192
623.599007	7208.776903
623.946179	7200.259874
624.293297	7145.802809
624.640363	7073.973929
624.987376	7041.607201
625.334336	6987.414797
625.681243	6933.234996
626.028097	6914.270175
626.374899	6877.411779
626.721647	6860.607092
627.068343	6796.007226
627.414987	6761.215703
627.761577	6705.402568
628.108115	6727.447534
628.454600	6621.369054
628.801032	6645.969885
629.147412	6609.124092
629.493739	6584.046872
629.840014	6517.899372
630.186236	6546.734772
630.532405	6438.816271
630.878521	6471.041847
631.224585	6420.718528
631.570597	6349.842426
631.916556	6356.398446
632.262462	6344.213977
632.608316	6298.011803
632.954117	6267.969046
633.299866	6245.152784
633.645562	6226.639146
633.991206	6150.111910
634.336797	6093.484629
634.682336	6047.834461
635.027823	6009.683008
635.373257	5993.979814
635.718639	5929.505977
636.063968	5926.289721
636.409245	5837.885526
636.754470	5824.113094
637.099642	5777.311022
637.444762	5719.052927
637.789829	5721.104677
638.134845	5655.065562
638.479808	5633.282736
638.824719	5631.772910
639.169577	5564.423095
639.514383	5571.526081
639.859137	5503.417572
640.203839	5494.663608
640.548489	5473.218539
640.893086	5447.886741
641.237632	5408.250669
641.582125	5415.751906
641.926566	5385.731835
642.270955	5378.775043
642.615292	5363.633937
642.959576	5359.248133
643.303809	5344.996791
643.647990	5332.998845
643.992118	5319.007123
644.336195	5269.742447
644.680219	5266.581643
645.024192	5259.639974
645.368112	5306.507582
645.711981	5311.316842
646.055797	5354.859809
646.399562	5307.304084
646.743274	5379.518613
647.086935	5405.435185
647.430544	5389.132093
647.774101	5386.009098
648.117606	5384.521958
648.461059	5367.203074
648.804460	5323.440818
649.147810	5258.924131
649.491108	5222.345518
649.834354	5196.083627
650.177548	5127.007217
650.520690	5056.859561
650.863781	5033.468607
651.206820	5032.220922
651.549807	4974.678671
651.892742	4919.818314
652.235626	4911.137447
652.578458	4892.144900
652.921238	4821.954395
653.263967	4836.609029
653.606644	4790.560609
653.949269	4775.837919
654.291843	4732.433585
654.634365	4753.528293
654.976836	4704.556004
655.319255	4699.456877
655.661622	4671.317156
656.003938	4655.445083
656.346203	4628.754694
656.688416	4630.246876
657.030577	4600.572123
657.372687	4568.291095
657.714746	4552.308117
658.056753	4568.651537
658.398708	4515.802601
658.740612	4509.596941
659.082465	4517.509032
659.424266	4508.205582
659.766016	4497.147811
660.107715	4469.849963
660.449362	4466.916012
660.790958	4453.108291
661.132503	4431.053243
661.473996	4437.722690
661.815438	4426.591822
662.156829	4417.391716
662.498168	4398.804982
662.839456	4380.850913
663.180693	4385.990369
663.521879	4378.741190
663.863013	4362.090258
664.204097	4353.384186
664.545129	4368.467318
664.886110	4353.661449
665.227040	4362.657388
665.567918	4340.216692
665.908746	4337.408769
666.249522	4335.162935
666.590248	4319.880677
666.930922	4320.500739
667.271545	4312.810459
667.612118	4307.882731
667.952639	4285.356335
668.293109	4281.804842
668.633528	4251.709154
668.973896	4247.958535
669.314213	4230.596802
669.654480	4206.948749
669.994695	4202.099159
670.334859	4186.332950
670.674973	4166.095238
671.015035	4165.984333
671.355047	4148.252074
671.695008	4133.005104
672.034918	4116.374338
672.374777	4108.363944
672.714585	4097.643931
673.054342	4086.006427
673.394049	4075.137699
673.733705	4080.849327
674.073310	4057.806212
674.412864	4040.550343
674.752368	4021.893032
675.091820	4014.386754
675.431223	3979.867453
675.770574	3962.823312
676.109875	3934.797017
676.449125	3925.634720
676.788324	3905.855753
677.127473	3875.160167
677.466571	3859.396479
677.805619	3844.038604
678.144616	3830.808096
678.483562	3811.686999
678.822458	3793.634627
679.161303	3781.722381
679.500098	3769.573200
679.838842	3755.924276
680.177535	3753.922938
680.516179	3751.898915
680.854771	3746.872884
681.193314	3770.740227
681.531805	3810.572904
681.870247	3861.715410
682.208638	3897.462232
682.546978	3892.254720
682.885268	3872.027090
683.223508	3829.262982
683.561697	3798.751398
683.899836	3779.070734
684.237925	3754.492588
684.575963	3735.827716
684.913951	3715.484140
685.251889	3724.603587
685.589776	3718.395406
685.927614	3704.628015
686.265401	3709.192780
686.603137	3708.282852
686.940824	3722.604770
687.278460	3732.019124
687.616046	3729.579206
687.953582	3753.990993
688.291068	3739.122110
688.628504	3749.519490
688.965889	3736.311667
689.303224	3707.587172
689.640510	3679.263449
689.977745	3643.040238
690.314930	3598.781428
690.652065	3572.804363
690.989150	3533.289278
691.326185	3496.612363
691.663170	3467.996253
692.000105	3430.389246
692.336990	3400.845564
692.673825	3380.678428
693.010610	3353.617514
693.347345	3327.965603
693.684030	3305.953404
694.020665	3291.253400
694.357251	3256.837442
694.693786	3255.315014
695.030272	3243.460741
695.366707	3225.728482
695.703093	3211.572922
696.039429	3213.712892
696.375716	3201.535985
696.711952	3189.651464
697.048139	3185.840352
697.384276	3174.253260
697.720363	3176.327695
698.056400	3164.619615
698.392388	3153.428253
698.728326	3144.167654
699.064214	3133.603916
699.400053	3126.720220
699.735842	3109.529886
700.071581	3095.344079
700.407270	3084.838314
700.742910	3072.578228
701.078501	3057.132133
701.414042	3046.066800
701.749533	3033.910058
702.084974	3019.076462
702.420366	3027.971578
702.755709	3007.678413
703.091002	2989.101762
703.426246	2990.654437
703.761440	2983.233858
704.096584	2969.468988
704.431679	2968.559060
704.766725	2962.358440
705.101721	2956.072122
705.436668	2957.198819
705.771565	2946.241872
706.106413	2947.671039
706.441212	2949.712706
706.775961	2949.044753
707.110661	2944.825307
707.445311	2947.479475
707.779913	2947.542489
708.114465	2950.274795
708.448967	2953.440639
708.783421	2964.818523
709.117825	2970.421766
709.452180	2970.736838
709.786485	2981.507263
710.120742	3000.426714
710.454949	3002.228926
710.789107	3010.277128
711.123216	3027.091897
711.457275	3029.867052
711.791286	3041.318033
712.125247	3042.905997
712.459159	3029.912423
712.793023	3039.677138
713.126837	3017.296935
713.460602	3010.816532
713.794318	2994.768018
714.127985	2985.421719
714.461602	2958.343161
714.795171	2952.140022
715.128691	2929.147319
715.462162	2913.807088
715.795584	2898.187073
716.128957	2889.352450
716.462281	2876.641181
716.795556	2865.901003
717.128782	2855.664940
717.461960	2837.559636
717.795088	2840.246571
718.128167	2827.694098
718.461198	2813.218424
718.794180	2812.452169
719.127113	2807.799184
719.459997	2797.638738
719.792833	2788.458797
720.125619	2782.916049
720.458357	2775.916407
720.791046	2773.632764
721.123686	2769.471291
721.456278	2762.189345
721.788821	2760.218253
722.121315	2756.059302
722.453761	2754.214239
722.786158	2749.896491
723.118506	2751.817171
723.450805	2746.753332
723.783056	2747.063362
724.115259	2748.424474
724.447412	2743.332909
724.779518	2744.714185
725.111574	2743.587487
725.443582	2746.876840
725.775542	2743.791654
726.107453	2750.798857
726.439315	2749.730133
726.771129	2757.085176
727.102895	2758.355547
727.434612	2763.822678
727.766281	2765.133378
728.097901	2763.333687
728.429473	2760.611463
728.760996	2761.861670
729.092471	2754.088210
729.423897	2754.075607
729.755276	2751.053436
730.086606	2751.141656
730.417887	2753.591657
730.749120	2765.667741
731.080305	2767.457350
731.411442	2770.078750
731.742530	2761.435692
732.073570	2760.934097
732.404562	2764.258738
732.735506	2763.721855
733.066401	2759.356216
733.397249	2748.353898
733.728048	2729.850343
734.058798	2715.049515
734.389501	2705.481405
734.720156	2697.004705
735.050762	2691.973633
735.381320	2686.998014
735.711831	2682.166068
736.042293	2678.289421
736.372707	2677.956705
736.703073	2675.453772
737.033391	2675.047959
737.363661	2676.623320
737.693883	2678.975018
738.024056	2679.922755
738.354182	2678.367559
738.684260	2687.139167
739.014290	2689.372398
739.344272	2691.018335
739.674207	2694.080836
740.004093	2695.341124
740.333931	2694.043027
740.663722	2692.208047
740.993464	2690.322655
741.323159	2685.735205
741.652806	2680.091634
741.982405	2675.478978
742.311956	2670.437824
742.641460	2667.831547
742.970915	2663.723007
743.300323	2655.823519
743.629683	2653.141625
743.958996	2647.651809
744.288260	2645.073258
744.617477	2642.666107
744.946647	2636.223513
745.275768	2632.112452
745.604842	2630.358130
745.933869	2626.322687
746.262847	2625.546349
746.591778	2628.611371
746.920662	2625.463170
747.249498	2627.182203
747.578286	2625.937038
747.907027	2631.590692
748.235720	2629.549025
748.564365	2632.510703
748.892963	2630.103552
749.221514	2627.683798
749.550017	2627.618263
749.878473	2626.909981
750.206881	2621.515947
750.535242	2618.879423
750.863555	2620.321193
751.191821	2620.371605
751.520039	2617.767849
751.848210	2616.988990
752.176334	2615.063270
752.504411	2616.368928
752.832440	2615.141407
753.160421	2613.979422
753.488356	2613.281222
753.816243	2615.217025
754.144082	2610.599328
754.471875	2610.861468
754.799620	2610.841303
755.127318	2609.807867
755.454969	2606.964656
755.782572	2606.861312
756.110129	2608.131683
756.437638	2605.278390
756.765100	2605.553133
757.092515	2606.546240
757.419882	2604.353338
757.747203	2606.268977
758.074477	2608.938268
758.401703	2606.069851
758.728882	2607.993051
759.056014	2609.810387
759.383099	2608.993720
759.710138	2609.727208
760.037129	2609.848196
760.364073	2610.541355
760.690970	2610.634616
761.017820	2609.386930
761.344623	2606.712598
761.671379	2612.235182
761.998088	2609.381889
762.324751	2618.103085
762.651366	2638.106384
762.977935	2674.828669
763.304456	2700.120138
763.630931	2704.682382
763.957359	2682.103054
764.283740	2655.495844
764.610074	2640.634522
764.936362	2631.129427
765.262602	2617.939248
765.588796	2608.769389
765.914943	2604.078595
766.241044	2598.281268
766.567097	2595.720362
766.893104	2589.837336
767.219064	2590.515371
767.544978	2588.864393
767.870845	2582.562951
768.196665	2582.953640
768.522438	2582.318455
768.848165	2581.511870
769.173846	2580.934658
769.499479	2579.989442
769.825066	2578.454410
770.150607	2575.785119
770.476101	2574.988617
770.801548	2575.875860
771.126949	2575.505335
771.452303	2570.343194
771.777611	2572.047104
772.102872	2572.251271
772.428087	2571.568194
772.753256	2572.682289
773.078378	2571.422001
773.403453	2566.892524
773.728482	2569.831517
774.053465	2566.562328
774.378401	2567.134499
774.703291	2568.109963
775.028135	2562.085784
775.352932	2565.055023
775.677683	2564.422359
776.002388	2563.535116
776.327046	2563.661144
776.651658	2560.754919
776.976224	2560.026472
777.300743	2563.903120
777.625216	2562.499158
777.949643	2561.891699
778.274024	2562.723490
778.598359	2558.413303
778.922647	2557.304249
779.246889	2560.152501
779.571086	2558.662840
779.895236	2558.476318
780.219339	2563.449416
780.543397	2562.032852
780.867409	2561.916905
781.191374	2559.575289
781.515294	2559.222408
781.839167	2556.956410
782.162995	2562.327759
782.486776	2559.960938
782.810511	2559.134188
783.134201	2559.905485
783.457844	2558.998077
783.781441	2560.308777
784.104993	2555.305432
784.428498	2559.439178
784.751958	2556.046482
785.075372	2555.249979
785.398739	2555.305432
785.722061	2556.573282
786.045337	2557.407593
786.368568	2559.403890
786.691752	2560.152501
787.014891	2560.147460
787.337983	2561.153170
787.661030	2563.918243
787.984031	2567.416804
788.306987	2567.411763
788.629897	2566.514437
788.952760	2566.552246
789.275579	2562.952862
789.598351	2563.051165
789.921078	2559.776935
790.243759	2559.406411
790.566395	2557.649568
790.888984	2556.454815
791.211529	2555.943138
791.534027	2553.236038
791.856480	2553.346944
792.178888	2558.758622
792.501249	2554.977757
792.823566	2554.314845
793.145836	2555.769218
793.468062	2554.977757
793.790241	2554.438353
794.112375	2553.417520
794.434464	2553.944320
794.756507	2556.026317
795.078505	2556.374157
795.400457	2553.084804
795.722364	2552.497509
796.044226	2556.109496
796.366042	2552.893240
796.687812	2554.932387
797.009538	2558.113355
797.331218	2557.707542
797.652852	2556.694270
797.974442	2557.326935
798.295986	2555.108827
798.617484	2554.264434
798.938938	2558.110834
799.260346	2556.003632
799.581709	2552.031202
799.903026	2555.234856
800.224299	2554.463559
800.545526	2553.193188
800.866708	2551.451470
801.187845	2552.731923
801.508936	2552.245452
801.829983	2550.929710
802.150984	2551.693445
802.471940	2550.901984
802.792851	2550.455842
803.113717	2549.823177
803.434538	2548.958619
803.755314	2551.590102
804.076045	2549.697148
804.396731	2550.677653
804.717372	2551.753939
805.037967	2549.427447
805.358518	2551.955585
805.679024	2553.188147
805.999485	2549.303938
806.319901	2550.503733
806.640272	2552.603373
806.960598	2554.173693
807.280879	2551.995914
807.601115	2551.905174
807.921306	2549.646737
808.241453	2552.106820
808.561554	2551.786707
808.881611	2551.537169
809.201623	2552.563044
809.521590	2552.610935
809.841513	2550.763352
810.161390	2548.746891
810.481223	2550.997766
810.801011	2551.882488
811.120755	2552.200081
811.440453	2551.055739
811.760107	2550.901984
812.079716	2546.490974
812.399281	2549.132539
812.718801	2550.050029
813.038276	2544.499719
813.357707	2550.602035
813.677093	2551.005328
813.996434	2552.351316
814.315731	2549.230842
814.634983	2549.288815
814.954191	2550.133208
815.273354	2550.420554
815.592473	2548.547765
815.911547	2553.692263
816.230577	2551.562375
816.549562	2552.792417
816.868502	2549.964329
817.187399	2555.154197
817.506250	2555.038251
817.825058	2555.461708
818.143821	2554.251831
818.462539	2557.410114
818.781213	2557.042109
819.099843	2558.589744
819.418429	2560.137378
819.736970	2563.351113
820.055466	2564.923953
820.373919	2572.296641
820.692327	2578.204873
821.010691	2592.063005
821.329011	2622.110803
821.647286	2671.940088
821.965517	2742.463310
822.283704	2785.494599
822.601847	2793.031124
822.919945	2761.332348
823.237999	2719.145452
823.556010	2684.817715
823.873976	2656.660351
824.191897	2633.733183
824.509775	2617.893877
824.827609	2605.023812
825.145398	2595.947214
825.463144	2596.957966
825.780845	2598.445106
826.098502	2604.852413
826.416116	2618.430760
826.733685	2635.053965
827.051210	2644.793474
827.368692	2634.234778
827.686129	2617.732561
828.003522	2601.424428
828.320872	2584.324834
828.638177	2577.728484
828.955439	2571.540468
829.272656	2561.904302
829.589830	2557.279044
829.906960	2559.469425
830.224046	2557.253838
830.541088	2555.764177
830.858086	2555.151677
831.175041	2555.502037
831.491952	2553.024310
831.808819	2556.787531
832.125642	2555.877603
832.442421	2559.166956
832.759157	2565.120558
833.075849	2573.330077
833.392497	2586.215267
833.709101	2594.097111
834.025662	2594.586103
834.342179	2587.316759
834.658653	2579.084555
834.975083	2569.980231
835.291469	2569.942422
835.607811	2557.979764
835.924110	2556.837943
836.240366	2554.829043
836.556578	2550.372663
836.872746	2551.728733
837.188871	2551.159083
837.504952	2547.519370
837.820990	2548.497354
838.136984	2544.449307
838.452935	2548.457024
838.768842	2544.852599
839.084706	2548.537683
839.400526	2553.457849
839.716303	2556.767367
840.032037	2565.201217
840.347727	2561.730382
840.663373	2561.052347
840.978977	2556.830381
841.294537	2550.750749
841.610054	2547.153886
841.925527	2548.111705
842.240957	2547.736139
842.556344	2546.758156
842.871687	2543.166333
843.186987	2544.663556
843.502244	2543.110881
843.817458	2543.627599
844.132629	2542.148020
844.447756	2541.064172
844.762840	2540.454193
845.077881	2540.237423
845.392879	2539.390509
845.707833	2539.259439
846.022745	2537.011085
846.337613	2540.408822
846.652438	2541.167516
846.967221	2540.698689
847.281960	2538.972093
847.596656	2544.295552
847.911309	2540.028215
848.225919	2541.497712
848.540485	2542.626930
848.855009	2540.643236
849.169490	2539.723225
849.483928	2539.282124
849.798323	2539.284645
850.112675	2539.927392
850.426984	2541.878319
850.741251	2541.117104
851.055474	2541.875798
851.369654	2541.422094
851.683792	2540.834800
851.997887	2539.839172
852.311938	2541.885880
852.625947	2539.350180
852.939914	2542.047197
853.253837	2543.488967
853.567718	2540.749100
853.881555	2540.461754
854.195350	2541.079296
854.509103	2540.935623
854.822812	2539.733308
855.136479	2542.727753
855.450103	2539.496373
855.763685	2542.223638
856.077224	2538.467978
856.390720	2542.085006
856.704173	2541.364121
857.017584	2543.294883
857.330953	2540.318082
857.644278	2542.841179
857.957561	2542.649615
858.270802	2542.810932
858.584000	2541.694317
858.897155	2541.502753
859.210268	2539.239275
859.523339	2542.503422
859.836367	2540.434028
860.149352	2541.452341
860.462295	2542.100129
860.775195	2539.060314
861.088054	2536.900179
861.400869	2538.795653
861.713642	2537.477391
862.026373	2537.106867
862.339062	2540.633154
862.651708	2539.466127
862.964312	2538.962011
863.276873	2539.196425
863.589392	2540.759182
863.901869	2541.359080
864.214303	2540.476878
864.526696	2540.000489
864.839045	2543.942671
865.151353	2541.631302
865.463619	2541.742207
865.775842	2540.703730
866.088023	2539.841692
866.400162	2542.014430
866.712258	2541.583411
867.024313	2543.710778
867.336325	2543.796478
867.648296	2542.846220
867.960224	2541.880839
868.272110	2541.807743
868.583954	2542.253885
868.895755	2541.805222
869.207515	2542.069883
869.519233	2543.647764
869.830909	2542.904193
870.142542	2542.611807
870.454134	2543.612476
870.765684	2544.499719
871.077191	2543.458720
871.388657	2541.787578
871.700081	2542.710109
872.011463	2545.157589
872.322803	2543.037784
872.634101	2545.971736
872.945357	2541.860675
873.256571	2544.532486
873.567744	2545.417209
873.878874	2546.183464
874.189963	2545.220604
874.501010	2545.991900
874.812015	2543.685572
875.122979	2544.671118
875.433900	2545.760007
875.744780	2548.066335
876.055618	2545.893598
876.366415	2543.002496
876.677169	2546.150697
876.987882	2544.040974
877.298554	2540.812115
877.609183	2546.163299
877.919771	2543.761190
878.230317	2543.741025
878.540822	2549.835780
878.851285	2547.189174
879.161707	2554.181255
879.472087	2556.676626
879.782425	2560.139898
880.092722	2570.673389
880.402977	2582.245358
880.713191	2604.373503
881.023363	2633.657566
881.333494	2653.481903
881.643583	2657.935762
881.953631	2653.885195
882.263637	2646.308341
882.573602	2634.053296
882.883526	2625.611884
883.193408	2612.088989
883.503248	2599.460898
883.813048	2591.241297
884.122806	2580.977508
884.432522	2578.078844
884.742197	2571.243040
885.051831	2567.726835
885.361424	2562.678119
885.670975	2561.133006
885.980485	2557.069836
886.289954	2555.355843
886.599382	2549.734957
886.908768	2551.940462
887.218113	2550.788558
887.527417	2552.918446
887.836680	2547.511808
888.145901	2547.239586
888.455082	2546.806047
888.764221	2546.904349
889.073319	2547.481561
889.382376	2547.912580
889.691392	2546.954761
890.000366	2548.736808
890.309300	2549.190512
890.618193	2547.491643
890.927044	2546.022147
891.235855	2548.013403
891.544625	2547.587425
891.853353	2547.065666
892.162041	2545.702034
892.470687	2549.480379
892.779293	2548.651109
893.087858	2550.670091
893.396381	2550.531459
893.704864	2556.235525
894.013306	2560.296174
894.321707	2570.204562
894.630068	2574.897876
894.938387	2583.122519
895.246665	2579.238310
895.554903	2575.885942
895.863100	2566.955538
896.171256	2564.906309
896.479371	2561.284240
896.787446	2560.099569
897.095480	2555.575134
897.403473	2552.328631
897.711425	2552.575647
898.019336	2550.029864
898.327207	2549.291335
898.635038	2549.523228
898.942827	2548.401572
899.250576	2546.843855
899.558284	2548.910728
899.865952	2548.572971
900.173579	2547.806716
900.481165	2546.007024
900.788711	2544.963505
901.096216	2546.218752
901.403681	2544.633309
901.711105	2544.764379
902.018489	2543.458720
902.325832	2548.429298
902.633135	2547.516849
902.940397	2550.284443
903.247619	2549.984494
903.554800	2555.991029
903.861941	2571.084243
904.169041	2584.052612
904.476101	2595.243973
904.783121	2592.267172
905.090100	2588.110741
905.397039	2579.878536
905.703938	2569.980231
906.010796	2562.652914
906.317614	2554.269475
906.624391	2554.640000
906.931129	2551.499361
907.237826	2551.085986
907.544483	2547.516849
907.851099	2544.905532
908.157675	2545.775131
908.464211	2541.364121
908.770707	2539.236754
909.077163	2540.822197
909.383578	2537.822710
909.689954	2540.585263
909.996289	2536.438914
910.302584	2541.064172
910.608839	2541.301107
910.915054	2540.282793
911.221229	2543.199101
911.527363	2542.269008
911.833458	2539.718184
912.139513	2542.526107
912.445527	2539.718184
912.751502	2541.522917
913.057436	2545.313865
913.363331	2544.809750
913.669186	2544.514842
913.975000	2547.065666
914.280775	2546.473330
914.586510	2554.836605
914.892205	2555.181924
915.197859	2563.358675
915.503475	2571.197669
915.809050	2579.480285
916.114585	2586.820205
916.420081	2590.737182
916.725536	2587.969588
917.030952	2580.995152
917.336328	2575.374265
917.641665	2572.508369
917.946961	2567.931002
918.252218	2562.201730
918.557435	2557.972202
918.862612	2557.430278
919.167750	2551.791748
919.472848	2551.267468
919.777906	2550.052550
920.082925	2550.249155
920.387904	2547.252189
920.692843	2548.890564
920.997743	2547.945347
921.302603	2540.819676
921.607423	2542.939482
921.912204	2543.390665
922.216946	2542.992414
922.521647	2543.831766
922.826310	2542.450490
923.130932	2541.482588
923.435516	2539.546785
923.740059	2541.606096
924.044564	2539.030067
924.349028	2541.049049
924.653454	2534.472864
924.957840	2536.128883
925.262186	2535.047555
925.566493	2535.992772
925.870761	2533.925898
926.174989	2538.563760
926.479178	2537.618544
926.783328	2538.447813
927.087438	2536.302802
927.391509	2536.554860
927.695541	2535.312216
927.999533	2538.180632
928.303486	2535.516382
928.607400	2537.719367
928.911275	2535.886907
929.215110	2539.471168
929.518906	2538.263811
929.822663	2537.915972
930.126381	2535.276928
930.430060	2535.047555
930.733699	2535.758358
931.037299	2536.627957
931.340861	2534.303985
931.644383	2536.912782
931.947866	2534.432534
932.251309	2536.438914
932.554714	2536.839685
932.858080	2540.073586
933.161407	2537.164840
933.464694	2534.883718
933.767943	2537.875642
934.071153	2536.708615
934.374323	2536.854809
934.677455	2538.374717
934.980548	2536.517052
935.283602	2535.344983
935.586617	2536.340611
935.889593	2536.716177
936.192530	2537.822710
936.495428	2535.561753
936.798287	2535.902031
937.101108	2538.099974
937.403890	2537.918492
937.706632	2537.863040
938.009336	2536.625436
938.312002	2539.395550
938.614628	2541.570808
938.917216	2539.352701
939.219765	2541.893442
939.522275	2541.815304
939.824747	2539.808925
940.127179	2537.737011
940.429573	2535.292051
940.731929	2537.270704
941.034246	2534.520755
941.336524	2538.089892
941.638763	2539.017464
941.940964	2538.994779
942.243126	2539.216589
942.545250	2537.769778
942.847335	2535.783564
943.149381	2533.041176
943.451389	2537.341280
943.753359	2537.278266
944.055290	2538.132741
944.357182	2536.189377
944.659036	2533.066382
944.960851	2536.224665
945.262628	2534.089736
945.564367	2538.276414
945.866067	2535.571835
946.167729	2534.533358
946.469352	2536.343132
946.770937	2536.393543
947.072484	2533.416742
947.373992	2538.082330
947.675462	2536.017977
947.976893	2536.663245
948.278286	2536.620395
948.579641	2534.810621
948.880958	2535.642411
949.182236	2534.467822
949.483476	2535.523944
949.784678	2537.777340
950.085841	2534.777853
950.386967	2534.472864
950.688054	2537.369007
950.989103	2535.728111
951.290114	2536.227185
951.591087	2536.580066
951.892021	2535.985210
952.192917	2536.549819
952.493776	2537.749614
952.794596	2535.876825
953.095378	2533.782226
953.396122	2537.978986
953.696828	2533.031094
953.997496	2533.814993
954.298126	2533.590662
954.598718	2535.045035
954.899272	2536.365817
955.199788	2536.116280
955.500266	2533.696526
955.800706	2535.433203
956.101108	2529.532533
956.401472	2534.185518
956.701798	2530.092101
957.002087	2531.604447
957.302337	2533.361289
957.602550	2531.755682
957.902724	2531.460774
958.202861	2532.930271
958.502960	2532.705939
958.803022	2534.722401
959.103045	2533.966228
959.403031	2533.217616
959.702979	2532.791639
960.002889	2535.491177
960.302762	2532.002698
960.602596	2530.908768
960.902393	2533.434386
961.202153	2533.394057
961.501875	2533.169725
961.801559	2533.472195
962.101205	2533.494880
962.400814	2535.100487
962.700385	2532.751310
962.999918	2531.838861
963.299414	2532.375744
963.598873	2529.771988
963.898293	2532.169056
964.197677	2531.531350
964.497022	2530.218130
964.796331	2531.196114
965.095601	2532.426155
965.394835	2531.732997
965.694030	2530.681916
965.993189	2531.347348
966.292309	2531.188552
966.591393	2533.762061
966.890439	2529.484642
967.189447	2531.004550
967.488419	2529.555218
967.787353	2533.502442
968.086249	2531.604447
968.385108	2532.451361
968.683930	2531.606968
968.982714	2529.918181
969.281462	2530.936494
969.580172	2531.538912
969.878844	2533.646114
970.177480	2533.119314
970.476078	2534.301464
970.774639	2532.567307
971.073162	2532.400949
971.371649	2529.403983
971.670098	2527.606812
971.968510	2528.635207
972.266885	2526.096987
972.565223	2529.701412
972.863524	2532.312729
973.161788	2530.003881
973.460014	2531.498583
973.758204	2531.508665
974.056356	2533.792308
974.354471	2532.101001
974.652550	2530.583613
974.950591	2530.329035
975.248595	2527.039682
975.546563	2531.372554
975.844493	2532.098480
976.142386	2533.545291
976.440243	2528.055475
976.738062	2530.099663
977.035845	2530.230733
977.333590	2531.022194
977.631299	2532.537061
977.928971	2531.725435
978.226606	2531.158305
978.524204	2531.647297
978.821765	2531.717873
979.119290	2531.095291
979.416777	2531.680064
979.714228	2532.842050
980.011642	2529.840043
980.309020	2533.903213
980.606360	2531.070085
980.903664	2530.928932
981.200931	2532.300126
981.498162	2533.199972
981.795356	2528.768798
982.092513	2533.429345
982.389633	2532.010260
982.686717	2531.866587
982.983764	2530.180321
983.280775	2532.617719
983.577749	2532.622760
983.874686	2533.520086
984.171587	2529.981196
984.468451	2533.247863
984.765279	2532.695857
985.062070	2532.158974
985.358824	2531.307019
985.655543	2529.451874
985.952224	2531.286854
986.248869	2531.430527
986.545478	2524.725793
986.842050	2528.118489
987.138586	2526.356606
987.435086	2527.014477
987.731549	2524.912315
988.027975	2531.503624
988.324366	2529.351051
988.620719	2529.827440
988.917037	2529.091432
989.213318	2531.382636
989.509563	2529.391381
989.805772	2528.241998
990.101944	2528.788963
990.398080	2529.109076
990.694180	2528.955321
990.990244	2529.570342
991.286271	2530.908768
991.582262	2527.780732
991.878217	2530.598737
992.174136	2528.156298
992.470019	2528.158818
992.765865	2529.073788
993.061676	2530.858356
993.357450	2529.144364
993.653188	2530.036648
993.948890	2528.420958
994.244556	2529.892975
994.540186	2529.116638
994.835780	2527.258972
995.131337	2530.397091
995.426859	2527.379960
995.722345	2531.717873
996.017795	2527.833664
996.313208	2530.334076
996.608586	2531.594365
996.903928	2529.973634
997.199234	2528.811648
997.494504	2528.491535
997.789738	2529.913140
998.084936	2531.223840
998.380099	2530.402132
998.675225	2528.491535
998.970316	2526.838036
999.265371	2530.112266
999.560390	2528.753675
999.855373	2528.972965
1000.150320	2528.415917
1000.445232	2529.729138
1000.740108	2528.030269
1001.034948	2529.598068
1001.329752	2531.967410
1001.624521	2528.133613
1001.919254	2524.491379
1002.213951	2526.442306
1002.508613	2524.239321
1002.803239	2525.376102
1003.097829	2523.901564
1003.392384	2527.329549
1003.686903	2527.271575
1003.981386	2524.405679
1004.275834	2527.185876
1004.570246	2529.512368
1004.864623	2529.444313
1005.158964	2528.380629
1005.453270	2528.158818
1005.747540	2526.674199
1006.041775	2530.079498
1006.335974	2529.537574
1006.630138	2526.936339
1006.924266	2529.789632
1007.218359	2531.279293
1007.512416	2529.109076
1007.806438	2527.039682
1008.100425	2530.208048
1008.394376	2527.488345
1008.688292	2528.662934
1008.982172	2526.926256
1009.276017	2528.867101
1009.569827	2527.664785
1009.863602	2530.245856
1010.157341	2528.557070
1010.451045	2528.305012
1010.744714	2526.800227
1011.038347	2529.971113
1011.331945	2526.669157
1011.625508	2529.605630
1011.919036	2528.373068
1012.212528	2526.966586
1012.505986	2526.923736
1012.799408	2528.070598
1013.092795	2525.053468
1013.386147	2525.434075
1013.679464	2531.065044
1013.972745	2526.893489
1014.265992	2523.488189
1014.559204	2530.510517
1014.852380	2529.325846
1015.145521	2529.570342
1015.438628	2526.273427
1015.731699	2527.329549
1016.024736	2530.301309
1016.317737	2525.857532
1016.610703	2527.571524
1016.903635	2521.832170
1017.196531	2523.231091
1017.489393	2524.884589
1017.782219	2520.624814
1018.075011	2525.791997
1018.367768	2528.920033
1018.660490	2528.859539
1018.953177	2528.859539
1019.245829	2528.859539
