Dividing Wavelength (nm)	Counts (n)	Blue Motor Position (mm): 0.000000	Red Motor Position (mm): 44.100000	
326.493990	2128.796090
326.888308	2128.796090
327.282561	2128.796090
327.676750	2093.893662
328.070874	2095.479104
328.464933	2097.475401
328.858929	2104.868253
329.252859	2112.442587
329.646726	2127.858436
330.040528	2137.497122
330.434265	2151.897178
330.827938	2172.099602
331.221547	2191.807993
331.615091	2211.491178
332.008571	2228.084136
332.401986	2246.570047
332.795338	2266.011257
333.188625	2286.992539
333.581847	2304.250929
333.975006	2323.379588
334.368100	2342.382217
334.761129	2359.413755
335.154095	2374.902700
335.546996	2398.386916
335.939833	2421.397262
336.332606	2436.518203
336.725315	2447.641509
337.117960	2459.205916
337.510540	2466.167750
337.903056	2475.403143
338.295508	2486.952427
338.687896	2493.614312
339.080220	2500.722339
339.472480	2507.031343
339.864676	2510.224914
340.256807	2516.687673
340.648875	2519.026768
341.040879	2520.748322
341.432818	2527.165711
341.824694	2526.830474
342.216506	2526.217974
342.608253	2525.587830
342.999937	2524.950124
343.391557	2525.338293
343.783113	2520.902077
344.174605	2523.548683
344.566033	2519.127591
344.957397	2519.651871
345.348697	2520.861748
345.739934	2516.458300
346.131106	2515.865965
346.522215	2513.650378
346.913260	2513.559637
347.304241	2512.775738
347.695159	2509.917403
348.086012	2506.255005
348.476802	2506.144100
348.867528	2503.648728
349.258191	2503.313492
349.648789	2504.477998
350.039324	2500.707215
350.429796	2500.961793
350.820203	2498.264776
351.210548	2497.125475
351.600828	2495.345948
351.991045	2494.904847
352.381198	2496.255876
352.771288	2497.427945
353.161314	2495.330825
353.551276	2494.695639
353.941175	2493.954590
354.331010	2492.681698
354.720782	2494.766215
355.110490	2492.308653
355.500135	2495.169508
355.889717	2496.465084
356.279235	2495.913078
356.668689	2495.698829
357.058080	2495.313181
357.447408	2492.409476
357.836672	2495.550115
358.225873	2492.253200
358.615010	2494.380567
359.004084	2497.657317
359.393095	2498.080774
359.782043	2501.055055
360.170927	2500.709736
360.559748	2500.157729
360.948505	2497.990033
361.337199	2502.494304
361.725830	2500.797956
362.114398	2502.406084
362.502903	2505.327433
362.891344	2506.706188
363.279722	2505.302227
363.668037	2508.082423
364.056289	2503.999089
364.444478	2504.631753
364.832603	2505.019922
365.220665	2506.083606
365.608665	2507.709378
365.996601	2511.210459
366.384474	2509.982938
366.772284	2511.467558
367.160031	2514.184740
367.547715	2514.895543
367.935336	2520.894516
368.322893	2519.639268
368.710388	2523.372243
369.097820	2529.570342
369.485189	2531.430527
369.872495	2537.782381
370.259738	2544.189688
370.646918	2551.650595
371.034035	2561.783315
371.421090	2568.805642
371.808081	2578.351067
372.195010	2590.732141
372.581875	2604.376023
372.968678	2616.358846
373.355418	2625.909312
373.742096	2645.216931
374.128710	2658.596154
374.515262	2674.705161
374.901751	2690.859538
375.288177	2702.378575
375.674540	2726.523181
376.060841	2742.022209
376.447079	2762.113727
376.833254	2784.456121
377.219367	2794.455250
377.605417	2833.002433
377.991404	2841.955522
378.377329	2864.764223
378.763191	2882.975391
379.148991	2920.713468
379.534727	2945.773044
379.920402	2975.404947
380.306013	2987.244096
380.691563	3036.773433
381.077049	3056.738923
381.462474	3075.534865
381.847835	3115.639764
382.233134	3136.663896
382.618371	3135.781694
383.003545	3205.566387
383.388657	3212.258519
383.773706	3245.570463
384.158693	3261.308946
384.543618	3287.880868
384.928480	3320.166938
385.313280	3368.448588
385.698017	3369.809700
386.082692	3420.740477
386.467305	3425.605191
386.851856	3456.628452
387.236344	3480.019405
387.620770	3509.737007
388.005133	3539.840257
388.389435	3569.358734
388.773674	3577.805187
389.157851	3618.704068
389.541965	3635.256697
389.926018	3599.131788
390.310008	3670.522089
390.693936	3690.686704
391.077802	3729.148187
391.461606	3718.539079
391.845348	3779.758851
392.229027	3783.448976
392.612645	3793.571613
392.996200	3872.921895
393.379694	3910.400353
393.763125	3983.852485
394.146494	3946.179943
394.529801	4005.113552
394.913047	4057.292015
395.296230	4020.673073
395.679351	4078.081733
396.062410	4099.189044
396.445408	4078.139706
396.828343	4112.981641
397.211217	4142.101866
397.594028	4060.306625
397.976778	4124.092344
398.359466	4149.330881
398.742092	4177.473122
399.124656	4101.288685
399.507158	4183.396478
399.889598	4205.557390
400.271977	4273.592803
400.654294	4243.605499
401.036549	4251.910800
401.418742	4217.875450
401.800874	4320.173064
402.182944	4340.899768
402.564952	4407.188421
402.946898	4389.927510
403.328783	4390.179568
403.710606	4304.883245
404.092367	4494.085310
404.474067	4458.411585
404.855705	4466.837874
405.237282	4399.077204
405.618797	4504.943956
406.000250	4537.711456
406.381642	4622.309579
406.762972	4581.264504
407.144240	4594.890743
407.525447	4591.167851
407.906593	4648.783198
408.287677	4694.347667
408.668700	4621.208087
409.049661	4674.488042
409.430560	4720.173498
409.811399	4641.287002
410.192176	4803.395387
410.572891	4745.764916
410.953545	4849.300134
411.334138	4724.569385
411.714669	4794.230569
412.095139	4688.197460
412.475547	4831.787165
412.855894	4812.124145
413.236180	4819.466585
413.616405	4774.549904
413.996568	4863.707751
414.376670	4804.512002
414.756711	4754.987707
415.136691	4790.943737
415.516609	4866.026682
415.896466	4909.209206
416.276262	4939.516623
416.655997	4923.654632
417.035670	5099.273309
417.415283	5192.610272
417.794834	5141.397190
418.174324	5091.782154
418.553753	5000.058360
418.933121	5181.865053
419.312428	5254.641670
419.691674	5192.184295
420.070859	5313.920598
420.449983	5228.092434
420.829045	5341.770453
421.208047	5251.317029
421.586988	5321.626002
421.965867	5336.469680
422.344686	5460.620696
422.723444	5319.463347
423.102141	5140.043641
423.480777	5437.272592
423.859352	5207.458991
424.237866	5469.563703
424.616319	5457.769923
424.994712	5571.188323
425.373044	5444.201658
425.751314	5587.466209
426.129524	5387.597062
426.507673	5585.679120
426.885762	5669.785731
427.263789	5600.124546
427.641756	5482.269931
428.019662	5603.532366
428.397508	5609.017142
428.775292	5556.513524
429.153016	5656.356097
429.530679	5579.854067
429.908282	5665.334392
430.285824	5535.945617
430.663305	5812.021887
431.040726	5544.447523
431.418086	5549.662596
431.795385	5652.119007
432.172624	5662.677704
432.549802	5657.485315
432.926920	5669.110216
433.303977	5678.138923
433.680974	5723.327826
434.057910	5737.662347
434.434786	5741.392801
434.811601	5708.363161
435.188355	5947.303771
435.565050	5822.837682
435.941683	5798.889681
436.318257	6014.335993
436.694770	5997.990052
437.071222	6035.922214
437.447614	5967.871678
437.823946	5877.889603
438.200218	6030.664291
438.576429	5897.229989
438.952580	5996.439897
439.328670	6042.407658
439.704700	5945.919974
440.080670	5934.816833
440.456580	6204.969747
440.832429	6086.621098
441.208218	5930.068066
441.583947	6089.033290
441.959616	6091.876501
442.335224	6022.275811
442.710773	6156.466285
443.086261	6181.334297
443.461689	5981.253421
443.837057	6125.037211
444.212365	6284.924967
444.587612	6177.813051
444.962800	6332.841134
445.337927	6305.210570
445.712995	5916.933339
446.088002	6497.891032
446.462949	6328.301575
446.837837	6257.831286
447.212664	6430.997441
447.587431	6574.992959
447.962139	7116.927080
448.336786	8045.535345
448.711374	7782.069522
449.085901	6855.326484
449.460369	6778.325379
449.834776	6711.267951
450.209124	7102.700944
450.583412	7258.465036
450.957640	7402.750421
451.331808	7171.865575
451.705917	6716.931687
452.079965	6634.493698
452.453954	6855.313881
452.827883	6733.378452
453.201752	6817.669064
453.575562	6615.496110
453.949311	6827.068296
454.323001	6716.477983
454.696632	6790.376258
455.070202	6931.833555
455.443713	7082.677481
455.817164	7180.349837
456.190556	7266.901407
456.563888	7342.251534
456.937160	7384.521609
457.310373	7040.919083
457.683526	7061.139151
458.056619	6956.787267
458.429653	6945.469876
458.802628	6880.242387
459.175542	6987.253480
459.548398	7339.183992
459.921194	7504.037284
460.293930	7504.644743
460.666607	8035.137965
461.039224	8346.550203
461.411782	8472.722722
461.784280	8496.930343
462.156719	8379.390800
462.529099	8264.896113
462.901419	7848.877413
463.273680	7744.487720
463.645882	7753.455932
464.018024	7621.937270
464.390106	7783.559182
464.762130	8175.506373
465.134094	8637.820510
465.505999	9664.816975
465.877845	10886.530527
466.249631	11540.857173
466.621358	11153.930971
466.993026	10524.421926
467.364634	10267.255024
467.736184	9908.791177
468.107674	9580.181043
468.479105	9606.974776
468.850477	9367.323363
469.221790	9145.782295
469.593043	8816.121081
469.964238	8676.211417
470.335373	8680.723250
470.706449	8745.711285
471.077467	8727.006084
471.448425	10040.571980
471.819324	11110.214085
472.190164	11140.201389
472.560945	9888.422395
472.931667	9092.220036
473.302330	8958.342113
473.672934	8603.812887
474.043479	8965.649266
474.413965	8906.249350
474.784393	8790.650651
475.154761	8944.320144
475.525070	9029.896251
475.895321	8862.121610
476.265513	9032.464719
476.635645	9203.029638
477.005719	9206.339156
477.375734	9316.569026
477.745691	9556.694307
478.115588	9686.244399
478.485427	9929.890926
478.855207	10470.224481
479.224928	11280.579879
479.594591	11907.545663
479.964194	11726.933723
480.333739	11660.859320
480.703226	11583.868297
481.072653	11666.253354
481.442022	11909.955334
481.811333	12099.119591
482.180584	11909.758729
482.549777	11615.693102
482.918912	11435.885226
483.287988	11456.838782
483.657005	11473.346041
484.025964	11156.529686
484.394864	11287.471137
484.763706	11251.351269
485.132489	11012.483756
485.501213	10977.137706
485.869879	11054.027905
486.238487	10894.913966
486.607036	11002.771973
486.975527	10779.244691
487.343959	10972.827519
487.712333	11017.976093
488.080648	10944.531523
488.448905	10992.992135
488.817104	10934.887795
489.185244	11192.641992
489.553326	11344.494148
489.921350	11891.542520
490.289315	12955.959469
490.657222	13294.082260
491.025070	13213.065877
491.392861	13085.638111
491.760593	12704.428577
492.128267	12347.489679
492.495883	12021.715194
492.863440	11683.763802
493.230939	11347.970024
493.598380	11277.177100
493.965763	11151.972483
494.333088	11045.006760
494.700354	10975.827006
495.067563	11028.824656
495.434713	10860.452638
495.801805	10989.498615
496.168839	10915.184446
496.535815	10851.930568
496.902733	10850.710608
497.269593	10777.573548
497.636395	10884.251926
498.003139	10870.673578
498.369825	10732.482948
498.736453	10891.344829
499.103023	10817.645680
499.469535	10855.968532
499.835989	10836.560090
500.202385	10799.689090
500.568723	10649.440021
500.935003	10879.024249
501.301226	10678.605616
501.667390	10935.447363
502.033497	11028.093689
502.399546	10892.607638
502.765537	10797.773452
503.131470	10869.914884
503.497345	11051.346011
503.863163	10662.302525
504.228923	10974.115534
504.594625	11039.826974
504.960269	10786.803901
505.325856	11005.466470
505.691385	10799.787393
506.056856	10957.305807
506.422270	10976.469753
506.787625	10868.425223
507.152924	10992.850982
507.518164	10963.408123
507.883347	10887.190918
508.248472	10798.857300
508.613540	11044.777388
508.978550	10921.954715
509.343503	10892.884902
509.708398	11015.316884
510.073236	11127.472475
510.438016	11130.484565
510.802738	11075.994733
511.167403	11137.358178
511.532010	11034.805985
511.896561	11262.194791
512.261053	11331.203146
512.625488	11206.464835
512.989866	11181.339725
513.354186	11176.908550
513.718449	11069.884854
514.082655	11272.009918
514.446803	11166.967395
514.810894	11286.223451
515.174927	11153.230251
515.538904	11180.306288
515.902822	11332.476038
516.266684	11216.784077
516.630488	11153.341156
516.994235	11216.698378
517.357925	11278.200455
517.721558	11366.173630
518.085133	11381.266845
518.448651	11393.219421
518.812112	11276.231884
519.175516	11290.788216
519.538863	11404.932542
519.902152	11323.873308
520.265385	11486.931950
520.628560	11391.250850
520.991678	11375.449353
521.354739	11444.331680
521.717743	11369.490710
522.080690	11354.790705
522.443580	11486.309368
522.806413	11439.761874
523.169189	11469.860083
523.531908	11528.287056
523.894569	11345.928357
524.257174	11354.604182
524.619722	11470.792696
524.982213	11417.565673
525.344647	11471.609363
525.707025	11416.837227
526.069345	11511.837771
526.431608	11428.260481
526.793815	11536.073118
527.155964	11334.217756
527.518057	11387.147351
527.880093	11338.374187
528.242072	11404.796431
528.603995	11308.638942
528.965860	11224.900335
529.327669	11275.480752
529.689421	11225.159954
530.051117	11198.691376
530.412755	11312.641618
530.774337	11189.413132
531.135862	11173.097438
531.497331	11199.623990
531.858743	11049.107739
532.220098	11215.493542
532.581396	11090.750190
532.942638	11066.494678
533.303824	11029.051508
533.664953	11048.500280
534.026025	10959.823863
534.387040	11049.513552
534.747999	11058.338091
535.108902	11119.454520
535.469748	10876.009639
535.830537	10976.074022
536.191270	10960.010386
536.551947	10975.577469
536.912567	10981.339508
537.273131	10899.745912
537.633638	10876.831347
537.994089	10865.950017
538.354483	10821.761783
538.714821	10959.801178
539.075103	10970.075049
539.435328	10939.243352
539.795497	10761.583008
540.155609	10923.903121
540.515665	11013.988540
540.875665	10739.633825
541.235609	10815.225927
541.595496	10806.454319
541.955328	10965.180089
542.315102	10846.526451
542.674821	10799.459718
543.034483	10799.827722
543.394090	10799.182454
543.753640	10729.886754
544.113134	10960.327978
544.472571	10804.911726
544.831953	10954.414705
545.191278	10758.777606
545.550548	10781.772830
545.909761	10920.911196
546.268918	10902.450491
546.628019	10982.100722
546.987064	10840.734165
547.346053	10768.769173
547.704986	10858.589932
548.063863	10851.723880
548.422684	10845.548467
548.781449	10758.391958
549.140158	10853.674807
549.498811	10729.324665
549.857408	10592.603532
550.215949	10820.579632
550.574434	10672.836016
550.932864	10772.640779
551.291237	10828.607669
551.649555	10777.427355
552.007817	10795.192381
552.366022	10751.407439
552.724173	10752.750907
553.082267	10731.835160
553.440305	10863.762156
553.798288	10664.762608
554.156215	10826.997021
554.514086	10796.858483
554.871902	10649.450103
555.229661	10686.772285
555.587365	10667.114306
555.945014	10557.164220
556.302606	10677.710811
556.660143	10574.349513
557.017625	10730.252237
557.375050	10632.605087
557.732421	10765.378997
558.089735	10676.760554
558.446994	10676.233753
558.804197	10714.889321
559.161345	10722.919879
559.518437	10565.192257
559.875474	10645.921295
560.232455	10680.828765
560.589381	10631.218770
560.946251	10627.790785
561.303065	10738.542415
561.659825	10675.767447
562.016528	10601.707855
562.373177	10477.415687
562.729770	10596.245765
563.086307	10515.609989
563.442789	10604.057033
563.799216	10484.821142
564.155587	10532.868379
564.511904	10487.745011
564.868164	10476.460388
565.224370	10494.091824
565.580520	10416.400081
565.936615	10416.677345
566.292654	10294.673860
566.648638	10417.375544
567.004567	10372.887362
567.360441	10353.436070
567.716260	10269.571434
568.072023	10367.170693
568.427732	10312.902672
568.783385	10223.064269
569.138982	10297.612852
569.494525	10304.970417
569.850013	10184.476757
570.205445	10267.580178
570.560823	10164.788531
570.916145	10085.730636
571.271412	10159.036574
571.626625	10101.333007
571.981782	10076.381816
572.336884	10048.055573
572.691931	10057.301049
573.046923	10002.652420
573.401860	9962.517274
573.756743	9895.502695
574.111570	9940.192524
574.466342	9925.933621
574.821059	9954.522004
575.175722	9842.447072
575.530330	9856.219504
575.884882	9844.062762
576.239380	9773.302606
576.593823	9754.675542
576.948211	9760.031768
577.302544	9645.116146
577.656823	9658.686932
578.011047	9657.900512
578.365216	9634.993509
578.719330	9560.644051
579.073389	9573.188962
579.427394	9516.622175
579.781344	9496.008897
580.135239	9446.688768
580.489080	9451.747566
580.842866	9348.832411
581.196597	9357.203247
581.550273	9395.447960
581.903895	9370.411070
582.257463	9436.581255
582.610975	9307.555443
582.964434	9342.621709
583.317837	9257.287577
583.671186	9240.568591
584.024481	9233.594154
584.377721	9154.816043
584.730906	9129.519533
585.084037	9160.376436
585.437113	9099.423845
585.790135	9120.498388
586.143103	9017.454683
586.496016	8989.811516
586.848874	9051.336278
587.201679	9042.554588
587.554428	8921.342564
587.907124	8970.110687
588.259765	8945.396430
588.612352	8944.262170
588.964884	8818.152666
589.317362	8835.408535
589.669786	8834.922064
590.022155	8884.842090
590.374470	8899.960510
590.726731	8835.007764
591.078937	8692.169190
591.431090	8803.351838
591.783188	8675.354421
592.135232	8668.143051
592.487222	8664.581476
592.839157	8722.043068
593.191038	8651.759301
593.542866	8594.821989
593.894639	8493.310794
594.246358	8549.270123
594.598022	8566.052124
594.949633	8462.494221
595.301190	8435.629912
595.652692	8462.834499
596.004141	8573.389523
596.355535	8350.305863
596.706876	8330.549581
597.058162	8265.455682
597.409395	8344.160696
597.760573	8403.336280
598.111698	8311.128535
598.462768	8297.270403
598.813785	8264.956607
599.164748	8237.215138
599.515657	8221.143939
599.866511	8127.685988
600.217312	8258.309846
600.568060	8117.323896
600.918753	8217.206798
601.269392	8190.508847
601.619978	8100.781350
601.970510	8172.746342
602.320988	8163.987337
602.671412	8218.951037
603.021783	8155.218250
603.372100	8129.858725
603.722363	8130.055330
604.072572	8108.022967
604.422728	8120.668702
604.772830	8049.023823
605.122878	8057.472797
605.472872	8054.117909
605.822813	8081.922393
606.172701	8023.548352
606.522534	8097.902851
606.872314	8093.330525
607.222041	8070.826814
607.571714	8129.984754
607.921333	8077.801250
608.270899	8090.535205
608.620411	8181.122219
608.969870	8080.301662
609.319276	8069.937050
609.668627	8090.646110
610.017926	8128.855536
610.367171	8169.310795
610.716362	8150.053588
611.065500	8141.443297
611.414585	8165.368613
611.763616	8155.301429
612.112594	8136.523131
612.461518	8149.534349
612.810389	8212.299235
613.159207	8150.237590
613.507971	8099.637008
613.856682	8216.745533
614.205340	8172.096033
614.553945	8249.979339
614.902496	8150.121643
615.250994	8197.637039
615.599439	8181.286056
615.947830	8198.017646
616.296169	8169.567894
616.644454	8181.918721
616.992686	8179.241868
617.340864	8237.873008
617.688990	8137.725446
618.037063	8235.417966
618.385082	8185.001387
618.733048	8264.941484
619.080961	8201.695168
619.428821	8221.552273
619.776628	8226.598468
620.124382	8175.047628
620.472083	8159.150350
620.819731	8190.586985
621.167326	8078.479285
621.514868	8089.625277
621.862357	7971.455589
622.209793	7998.425762
622.557176	7927.622757
622.904506	7897.988334
623.251783	7833.088519
623.599007	7787.786190
623.946179	7790.513454
624.293297	7749.158349
624.640363	7668.656163
624.987376	7651.491034
625.334336	7596.063548
625.681243	7547.214767
626.028097	7528.307919
626.374899	7511.185640
626.721647	7502.202304
627.068343	7434.141686
627.414987	7397.510142
627.761577	7354.957762
628.108115	7397.855461
628.454600	7289.485776
628.801032	7337.565781
629.147412	7298.453989
629.493739	7289.727752
629.840014	7216.381484
630.186236	7277.782738
630.532405	7162.811662
630.878521	7211.186575
631.224585	7169.715523
631.570597	7090.188800
631.916556	7120.564273
632.262462	7119.820702
632.608316	7078.402582
632.954117	7058.729480
633.299866	7042.088631
633.645562	7031.197218
633.991206	6952.643438
634.336797	6893.697226
634.682336	6852.503438
635.027823	6816.630587
635.373257	6813.676471
635.718639	6738.651498
636.063968	6755.940136
636.409245	6652.961965
636.754470	6647.078939
637.099642	6603.326765
637.444762	6550.046810
637.789829	6555.720628
638.134845	6505.472927
638.479808	6486.712273
638.824719	6486.457695
639.169577	6416.012611
639.514383	6439.774090
639.859137	6357.129414
640.203839	6372.986363
640.548489	6357.313416
640.893086	6337.368091
641.237632	6299.289735
641.582125	6325.317212
641.926566	6290.719773
642.270955	6302.253933
642.615292	6301.142359
642.959576	6312.711807
643.303809	6306.435571
643.647990	6303.257123
643.992118	6299.347708
644.336195	6238.957206
644.680219	6265.279591
645.024192	6258.950422
645.368112	6344.763463
645.711981	6366.921855
646.055797	6445.808351
646.399562	6400.800929
646.743274	6522.895155
647.086935	6572.106899
647.430544	6562.208593
647.774101	6579.613177
648.117606	6585.191214
648.461059	6579.416572
648.804460	6539.036930
649.147810	6449.001922
649.491108	6422.533344
649.834354	6393.453448
650.177548	6309.374563
650.520690	6224.143775
650.863781	6196.719898
651.206820	6216.874431
651.549807	6135.432070
651.892742	6078.338483
652.235626	6078.000725
652.578458	6067.878088
652.921238	5971.380321
653.263967	6006.013048
653.606644	5951.901303
653.949269	5951.263597
654.291843	5891.173043
654.634365	5935.583088
654.976836	5887.971910
655.319255	5883.061827
655.661622	5862.430904
656.003938	5855.529565
656.346203	5815.011291
656.688416	5848.708884
657.030577	5797.460514
657.372687	5766.429691
657.714746	5752.322022
658.056753	5793.046983
658.398708	5730.413167
658.740612	5722.974945
659.082465	5765.136635
659.424266	5756.584318
659.766016	5750.333287
660.107715	5725.553495
660.449362	5739.630917
660.790958	5725.505604
661.132503	5709.782245
661.473996	5739.396504
661.815438	5729.178085
662.156829	5724.940995
662.498168	5714.984716
662.839456	5696.145924
663.180693	5719.476384
663.521879	5718.808431
663.863013	5708.390887
664.204097	5718.982351
664.545129	5761.317961
664.886110	5752.717753
665.227040	5775.579385
665.567918	5742.436319
665.908746	5761.285194
666.249522	5767.042191
666.590248	5748.435292
666.930922	5775.637359
667.271545	5781.119613
667.612118	5780.413852
667.952639	5756.549030
668.293109	5767.448004
668.633528	5723.612651
668.973896	5726.773454
669.314213	5713.313574
669.654480	5691.104770
669.994695	5684.644532
670.334859	5671.703890
670.674973	5659.582435
671.015035	5658.682589
671.355047	5651.319984
671.695008	5635.667202
672.034918	5610.448829
672.374777	5616.294047
672.714585	5595.630358
673.054342	5603.093786
673.394049	5588.635757
673.733705	5610.821875
674.073310	5592.015850
674.412864	5561.441252
674.752368	5541.788314
675.091820	5543.840064
675.431223	5489.183874
675.770574	5481.780939
676.109875	5429.007620
676.449125	5437.128919
676.788324	5397.102157
677.127473	5347.280434
677.466571	5337.235935
677.805619	5321.608358
678.144616	5302.154545
678.483562	5287.147030
678.822458	5249.169498
679.161303	5242.028703
679.500098	5228.715016
679.838842	5214.388057
680.177535	5210.637438
680.516179	5226.486826
680.854771	5228.364656
681.193314	5295.018792
681.531805	5388.547319
681.870247	5510.044168
682.208638	5597.349391
682.546978	5608.397080
682.885268	5585.812711
683.223508	5500.188712
683.561697	5450.651814
683.899836	5423.651394
684.237925	5371.548549
684.575963	5338.970092
684.913951	5300.306962
685.251889	5337.450184
685.589776	5313.892872
685.927614	5291.295900
686.265401	5336.164690
686.603137	5321.618440
686.940824	5373.043251
687.278460	5395.352877
687.616046	5387.753338
687.953582	5449.386485
688.291068	5426.905459
688.628504	5471.726358
688.965889	5439.291574
689.303224	5385.666300
689.640510	5340.837839
689.977745	5270.344865
690.314930	5187.806053
690.652065	5140.164628
690.989150	5058.210590
691.326185	4983.898941
691.663170	4931.629738
692.000105	4864.980643
692.336990	4805.074091
692.673825	4770.761477
693.010610	4709.130851
693.347345	4658.492461
693.684030	4627.915342
694.020665	4591.666925
694.357251	4520.392572
694.693786	4523.260988
695.030272	4488.648426
695.366707	4451.505204
695.703093	4427.927728
696.039429	4438.652782
696.375716	4412.216972
696.711952	4398.948655
697.048139	4384.488105
697.384276	4359.315103
697.720363	4363.375753
698.056400	4358.904249
698.392388	4317.614679
698.728326	4303.504489
699.064214	4286.480513
699.400053	4273.650776
699.735842	4236.550404
700.071581	4220.761510
700.407270	4195.608673
700.742910	4179.197197
701.078501	4136.508706
701.414042	4122.932879
701.749533	4095.193930
702.084974	4046.624933
702.420366	4084.753700
702.755709	4036.890465
703.091002	3995.628621
703.426246	4016.062938
703.761440	3993.110564
704.096584	3966.392449
704.431679	3969.074343
704.766725	3952.778813
705.101721	3939.553346
705.436668	3959.644865
705.771565	3923.343516
706.106413	3940.606947
706.441212	3950.230510
706.775961	3953.434163
707.110661	3947.160447
707.445311	3969.926298
707.779913	3969.510403
708.114465	3982.234275
708.448967	4003.603726
708.783421	4044.142165
709.117825	4065.405752
709.452180	4075.692226
709.786485	4106.506279
710.120742	4166.773273
710.454949	4156.562416
710.789107	4200.818706
711.123216	4250.254781
711.457275	4246.781426
711.791286	4293.505360
712.125247	4293.442346
712.459159	4241.183225
712.793023	4301.397287
713.126837	4237.614088
713.460602	4230.869024
713.794318	4188.535934
714.127985	4178.314995
714.461602	4101.628963
714.795171	4093.608487
715.128691	4039.194272
715.462162	3988.694514
715.795584	3943.072071
716.128957	3930.257458
716.462281	3901.023807
716.795556	3869.206565
717.128782	3831.927232
717.461960	3781.087195
717.795088	3784.772279
718.128167	3754.038884
718.461198	3716.999007
718.794180	3708.134137
719.127113	3681.786547
719.459997	3665.221315
719.792833	3636.277531
720.125619	3630.485245
720.458357	3600.046758
720.791046	3596.822940
721.123686	3575.629929
721.456278	3546.708830
721.788821	3556.997825
722.121315	3535.620812
722.453761	3516.829911
722.786158	3517.346629
723.118506	3528.124616
723.450805	3506.104856
723.783056	3519.068183
724.115259	3514.029550
724.447412	3512.003006
724.779518	3517.397041
725.111574	3516.819828
725.443582	3533.669885
725.775542	3519.521887
726.107453	3551.066907
726.439315	3547.775034
726.771129	3564.841860
727.102895	3589.306580
727.434612	3611.701906
727.766281	3623.331847
728.097901	3625.408803
728.429473	3619.465282
728.760996	3618.734315
729.092471	3620.309676
729.423897	3602.199331
729.755276	3597.614401
730.086606	3600.792849
730.417887	3632.116058
730.749120	3664.346675
731.080305	3693.660985
731.411442	3713.298800
731.742530	3701.124413
732.073570	3701.731872
732.404562	3723.892784
732.735506	3719.282649
733.066401	3697.945966
733.397249	3655.025582
733.728048	3599.277982
734.058798	3531.126623
734.389501	3482.169458
734.720156	3445.910958
735.050762	3413.559354
735.381320	3396.414389
735.711831	3373.651059
736.042293	3351.006196
736.372707	3354.552648
736.703073	3340.923888
737.033391	3337.795853
737.363661	3344.883715
737.693883	3353.337730
738.024056	3364.690408
738.354182	3364.047661
738.684260	3398.514030
739.014290	3410.832089
739.344272	3411.878129
739.674207	3432.811520
740.004093	3436.670523
740.333931	3432.743465
740.663722	3427.157866
740.993464	3421.012700
741.323159	3407.116759
741.652806	3384.081207
741.982405	3365.166797
742.311956	3342.327850
742.641460	3331.814523
742.970915	3314.261226
743.300323	3287.283491
743.629683	3270.327570
743.958996	3258.783328
744.288260	3236.972776
744.617477	3213.886812
744.946647	3203.812066
745.275768	3185.111905
745.604842	3177.512366
745.933869	3157.816578
746.262847	3150.030516
746.591778	3156.004283
746.920662	3147.053714
747.249498	3134.833957
747.578286	3149.546565
747.907027	3160.906805
748.235720	3172.660255
748.564365	3177.023374
748.892963	3165.466529
749.221514	3159.578461
749.550017	3151.149652
749.878473	3142.816625
750.206881	3123.236783
750.535242	3116.743777
750.863555	3116.552213
751.191821	3109.943260
751.520039	3105.708691
751.848210	3098.449430
752.176334	3101.300202
752.504411	3102.908330
752.832440	3084.261102
753.160421	3078.970411
753.488356	3077.044690
753.816243	3075.645770
754.144082	3058.180693
754.471875	3056.534756
754.799620	3059.682957
755.127318	3053.689025
755.454969	3054.871175
755.782572	3051.367573
756.110129	3045.368600
756.437638	3039.573794
756.765100	3037.847199
757.092515	3041.403733
757.419882	3042.583363
757.747203	3031.573483
758.074477	3035.591282
758.401703	3041.529762
758.728882	3047.342212
759.056014	3050.190464
759.383099	3055.435784
759.710138	3055.965106
760.037129	3066.107907
760.364073	3070.150913
760.690970	3063.647824
761.017820	3055.755898
761.344623	3065.999522
761.671379	3085.324786
761.998088	3102.207610
762.324751	3168.365192
762.651366	3314.709888
762.977935	3592.636262
763.304456	3819.326868
763.630931	3841.497862
763.957359	3651.635406
764.283740	3463.789411
764.610074	3347.825228
764.936362	3231.961869
765.262602	3160.430416
765.588796	3100.249122
765.914943	3048.703323
766.241044	3009.508352
766.567097	2988.660661
766.893104	2965.002526
767.219064	2945.941923
767.544978	2930.417690
767.870845	2904.974986
768.196665	2894.723800
768.522438	2893.135836
768.848165	2886.983108
769.173846	2873.571118
769.499479	2865.316229
769.825066	2855.730475
770.150607	2846.028774
770.476101	2846.883250
770.801548	2843.959381
771.126949	2825.957420
771.452303	2818.690597
771.777611	2814.725729
772.102872	2813.798157
772.428087	2802.420273
772.753256	2793.978861
773.078378	2792.222019
773.403453	2781.234824
773.728482	2772.808535
774.053465	2778.671397
774.378401	2771.971704
774.703291	2759.343613
775.028135	2759.847729
775.352932	2757.622059
775.677683	2748.822725
776.002388	2747.801892
776.327046	2745.467837
776.651658	2742.047414
776.976224	2733.996692
777.300743	2734.813359
777.625216	2730.200703
777.949643	2731.115672
778.274024	2731.294633
778.598359	2721.731564
778.922647	2722.923797
779.246889	2721.224928
779.571086	2714.195039
779.895236	2715.672097
780.219339	2718.664022
780.543397	2721.247614
780.867409	2723.909343
781.191374	2721.517315
781.515294	2720.809033
781.839167	2719.858776
782.162995	2716.758466
782.486776	2719.271481
782.810511	2715.382231
783.134201	2710.141952
783.457844	2712.438197
783.781441	2706.449307
784.104993	2699.293389
784.428498	2699.363965
784.751958	2701.498893
785.075372	2695.865404
785.398739	2693.962368
785.722061	2697.728110
786.045337	2701.529140
786.368568	2700.896476
786.691752	2695.247863
787.014891	2712.833928
787.337983	2722.349106
787.661030	2747.101171
787.984031	2775.190480
788.306987	2794.215795
788.629897	2787.647172
788.952760	2776.468413
789.275579	2761.654982
789.598351	2738.692527
789.921078	2719.783158
790.243759	2712.118084
790.566395	2701.395550
790.888984	2693.841381
791.211529	2688.311235
791.534027	2682.506346
791.856480	2677.699606
792.178888	2670.944460
792.501249	2669.147289
792.823566	2667.919768
793.145836	2667.105621
793.468062	2664.509427
793.790241	2662.263593
794.112375	2661.772081
794.434464	2666.299037
794.756507	2670.591579
795.078505	2673.870850
795.400457	2680.073990
795.722364	2692.122347
796.044226	2704.294213
796.366042	2706.872763
796.687812	2701.645087
797.009538	2710.444421
797.331218	2701.405632
797.652852	2694.469004
797.974442	2689.662264
798.295986	2686.388035
798.617484	2681.666994
798.938938	2676.772034
799.260346	2669.200221
799.581709	2666.115035
799.903026	2662.641680
800.224299	2661.777122
800.545526	2656.839312
800.866708	2653.890237
801.187845	2652.181285
801.508936	2649.781696
801.829983	2650.416882
802.150984	2646.217600
802.471940	2642.827424
802.792851	2640.576549
803.113717	2640.127887
803.434538	2641.050418
803.755314	2642.366159
804.076045	2636.316774
804.396731	2635.527834
804.717372	2639.530510
805.037967	2635.386681
805.358518	2639.936323
805.679024	2643.190387
805.999485	2641.962867
806.319901	2645.221972
806.640272	2639.769965
806.960598	2642.749287
807.280879	2644.314565
807.601115	2647.286325
807.921306	2643.767600
808.241453	2643.266005
808.561554	2640.707619
808.881611	2640.979842
809.201623	2644.170892
809.521590	2640.725263
809.841513	2636.362145
810.161390	2638.106384
810.481223	2634.691002
810.801011	2629.329735
811.120755	2629.647328
811.440453	2634.418780
811.760107	2626.499127
812.079716	2622.390587
812.399281	2619.668364
812.718801	2623.386215
813.038276	2616.240379
813.357707	2618.639968
813.677093	2622.536780
813.996434	2618.909670
814.315731	2617.840945
814.634983	2616.671398
814.954191	2617.019237
815.273354	2618.859258
815.592473	2620.674074
815.911547	2623.108951
816.230577	2626.211781
816.549562	2627.346041
816.868502	2627.600619
817.187399	2630.726135
817.506250	2633.710498
817.825058	2631.583131
818.143821	2634.572535
818.462539	2636.084881
818.781213	2645.418577
819.099843	2658.475166
819.418429	2674.861437
819.736970	2699.656352
820.055466	2718.800133
820.373919	2740.759400
820.692327	2781.801954
821.010691	2836.710201
821.329011	3010.191429
821.647286	3407.343611
821.965517	4005.877287
822.283704	4329.453828
822.601847	4289.875730
822.919945	3962.956903
823.237999	3676.425280
823.556010	3422.295673
823.873976	3223.530539
824.191897	3075.857499
824.509775	2973.915286
824.827609	2891.459653
825.145398	2855.959847
825.463144	2846.386696
825.780845	2874.160933
826.098502	2916.410844
826.416116	3017.271729
826.733685	3132.920840
827.051210	3156.808347
827.368692	3096.569079
827.686129	2989.298367
828.003522	2887.973695
828.320872	2807.325316
828.638177	2752.762387
828.955439	2713.837117
829.272656	2687.023220
829.589830	2666.248625
829.906960	2655.926863
830.224046	2640.730304
830.541088	2633.864253
830.858086	2627.988788
831.175041	2623.582820
831.491952	2621.546193
831.808819	2623.481997
832.125642	2627.441823
832.442421	2641.607465
832.759157	2669.308606
833.075849	2724.610063
833.392497	2804.071251
833.709101	2859.793645
834.025662	2842.499967
834.342179	2794.503141
834.658653	2742.322157
834.975083	2701.408153
835.291469	2671.073009
835.607811	2648.047539
835.924110	2631.421814
836.240366	2620.739609
836.556578	2607.317537
836.872746	2604.005499
837.188871	2593.749271
837.504952	2589.686101
837.820990	2588.234249
838.136984	2587.410020
838.452935	2586.628641
838.768842	2584.019844
839.084706	2587.909094
839.400526	2611.315172
839.716303	2653.675988
840.032037	2675.925120
840.347727	2669.873215
840.663373	2647.099802
840.978977	2623.207254
841.294537	2603.725715
841.610054	2593.666092
841.925527	2589.081163
842.240957	2582.348702
842.556344	2574.562640
842.871687	2571.255643
843.186987	2570.214644
843.502244	2568.445199
843.817458	2568.757751
844.132629	2559.852553
844.447756	2562.577296
844.762840	2555.388611
845.077881	2558.307439
845.392879	2558.569579
845.707833	2556.474980
846.022745	2554.302242
846.337613	2558.108313
846.652438	2557.742830
846.967221	2559.436658
847.281960	2555.643189
847.596656	2556.805175
847.911309	2555.000442
848.225919	2555.323076
848.540485	2555.781821
848.855009	2553.649413
849.169490	2553.533466
849.483928	2555.691080
849.798323	2555.507078
850.112675	2554.851728
850.426984	2555.388611
850.741251	2553.725030
851.055474	2555.106306
851.369654	2554.892057
851.683792	2551.267468
851.997887	2552.565565
852.311938	2551.963147
852.625947	2553.745195
852.939914	2553.210832
853.253837	2555.368446
853.567718	2553.205791
853.881555	2555.318035
854.195350	2553.576316
854.509103	2552.487427
854.822812	2552.880637
855.136479	2550.453321
855.450103	2555.204609
855.763685	2551.680842
856.077224	2553.152859
856.390720	2553.535987
856.704173	2551.895091
857.017584	2551.179247
857.330953	2554.377860
857.644278	2553.614125
857.957561	2557.435319
858.270802	2556.391801
858.584000	2555.433981
858.897155	2554.755946
859.210268	2552.951213
859.523339	2554.072870
859.836367	2551.821995
860.149352	2553.901471
860.462295	2552.779814
860.775195	2551.806871
861.088054	2550.261757
861.400869	2547.600028
861.713642	2548.885522
862.026373	2547.715975
862.339062	2551.988353
862.651708	2551.771583
862.964312	2555.262582
863.276873	2550.980122
863.589392	2554.672767
863.901869	2554.955072
864.214303	2557.644527
864.526696	2557.392470
864.839045	2555.870041
865.151353	2556.911039
865.463619	2556.253169
865.775842	2558.680484
866.088023	2556.613611
866.400162	2558.194013
866.712258	2553.621687
867.024313	2555.731409
867.336325	2555.716286
867.648296	2557.100083
867.960224	2555.401214
868.272110	2556.946327
868.583954	2553.160421
868.895755	2557.210988
869.207515	2556.437171
869.519233	2554.380380
869.830909	2560.276010
870.142542	2558.567058
870.454134	2557.944476
870.765684	2559.817265
871.077191	2558.083108
871.388657	2559.789538
871.700081	2559.860114
872.011463	2557.838612
872.322803	2556.152346
872.634101	2559.466904
872.945357	2561.485887
873.256571	2563.033521
873.567744	2562.743654
873.878874	2563.487225
874.189963	2563.938408
874.501010	2565.901937
874.812015	2564.029149
875.122979	2565.498645
875.433900	2561.886658
875.744780	2564.278686
876.055618	2561.117882
876.366415	2560.502862
876.677169	2562.242060
876.987882	2561.140568
877.298554	2560.391956
877.609183	2561.400187
877.919771	2561.027142
878.230317	2565.725497
878.540822	2571.626167
878.851285	2571.565674
879.161707	2575.664132
879.472087	2586.994125
879.782425	2595.037286
880.092722	2621.238683
880.402977	2665.757113
880.713191	2748.608476
881.023363	2863.771115
881.333494	2939.524534
881.643583	2969.020325
881.953631	2942.226593
882.263637	2888.311452
882.573602	2830.645693
882.883526	2783.543672
883.193408	2746.997827
883.503248	2710.043649
883.813048	2684.119516
884.122806	2663.186124
884.432522	2642.300624
884.742197	2625.682460
885.051831	2611.599997
885.361424	2601.963831
885.670975	2594.553335
885.980485	2587.087386
886.289954	2585.917839
886.599382	2580.354925
886.908768	2579.525656
887.218113	2574.794533
887.527417	2571.928637
887.836680	2568.722463
888.145901	2567.633574
888.455082	2562.698284
888.764221	2562.605023
889.073319	2559.298026
889.382376	2561.339693
889.691392	2562.315156
890.000366	2562.221895
890.309300	2559.260217
890.618193	2562.728531
890.927044	2562.431103
891.235855	2560.412121
891.544625	2562.529405
891.853353	2563.895558
892.162041	2566.020404
892.470687	2569.133317
892.779293	2571.031311
893.087858	2572.727660
893.396381	2576.919379
893.704864	2590.437233
894.013306	2601.636156
894.321707	2625.173304
894.630068	2641.791467
894.938387	2646.386479
895.246665	2643.238278
895.554903	2629.039869
895.863100	2617.041922
896.171256	2607.191508
896.479371	2594.018973
896.787446	2587.694845
897.095480	2577.902404
897.403473	2576.962229
897.711425	2574.993658
898.019336	2571.409398
898.327207	2566.549726
898.635038	2569.992834
898.942827	2565.828841
899.250576	2564.621484
899.558284	2564.074519
899.865952	2561.564024
900.173579	2561.871535
900.481165	2560.580999
900.788711	2556.961451
901.096216	2559.620660
901.403681	2557.745350
901.711105	2558.067984
902.018489	2556.709393
902.325832	2559.935732
902.633135	2555.859959
902.940397	2559.431616
903.247619	2568.689695
903.554800	2585.262489
903.861941	2618.697942
904.169041	2653.015596
904.476101	2669.842968
904.783121	2668.650735
905.090100	2651.009217
905.397039	2630.327883
905.703938	2611.035388
906.010796	2598.510641
906.317614	2585.043198
906.624391	2574.557598
906.931129	2570.895200
907.237826	2564.515620
907.544483	2560.507903
907.851099	2558.216698
908.157675	2551.249824
908.464211	2550.372663
908.770707	2547.569781
909.077163	2548.890564
909.383578	2544.139276
909.689954	2548.066335
909.996289	2544.812270
910.302584	2548.814946
910.608839	2547.927703
910.915054	2548.714123
911.221229	2548.807385
911.527363	2549.624052
911.833458	2544.038453
912.139513	2548.532642
912.445527	2550.108002
912.751502	2550.702858
913.057436	2550.939793
913.363331	2551.106151
913.669186	2553.818292
913.975000	2558.632593
914.280775	2562.468912
914.586510	2569.234140
914.892205	2578.824935
915.197859	2595.778336
915.503475	2613.475306
915.809050	2632.687143
916.114585	2637.423307
916.420081	2642.449338
916.725536	2641.141158
917.030952	2632.326701
917.336328	2618.387911
917.641665	2611.035388
917.946961	2601.031218
918.252218	2590.742223
918.557435	2584.839032
918.862612	2578.300655
919.167750	2570.171795
919.472848	2569.536609
919.777906	2563.535116
920.082925	2561.485887
920.387904	2556.485062
920.692843	2558.476318
920.997743	2558.990515
921.302603	2554.922304
921.607423	2553.977088
921.912204	2553.578837
922.216946	2551.821995
922.521647	2548.477189
922.826310	2547.884853
923.130932	2548.396531
923.435516	2546.584236
923.740059	2546.705223
924.044564	2546.473330
924.349028	2547.400903
924.653454	2539.778678
924.957840	2541.543082
925.262186	2539.882022
925.566493	2540.423946
925.870761	2540.244985
926.174989	2543.284801
926.479178	2541.774975
926.783328	2540.857485
927.087438	2542.702547
927.391509	2542.085006
927.695541	2542.148020
927.999533	2542.798329
928.303486	2541.293545
928.607400	2538.490663
928.911275	2538.397402
929.215110	2541.563247
929.518906	2541.762372
929.822663	2538.868750
930.126381	2539.892104
930.430060	2541.154913
930.733699	2540.305479
931.037299	2539.884542
931.340861	2540.368493
931.644383	2538.099974
931.947866	2541.036446
932.251309	2540.917979
932.554714	2538.919161
932.858080	2539.466127
933.161407	2542.783206
933.464694	2539.564429
933.767943	2537.104346
934.071153	2541.767413
934.374323	2538.876312
934.677455	2539.390509
934.980548	2538.604089
935.283602	2540.527289
935.586617	2537.721887
935.889593	2538.974614
936.192530	2539.703061
936.495428	2541.328833
936.798287	2542.216076
937.101108	2540.426466
937.403890	2539.289686
937.706632	2540.003009
938.009336	2544.300593
938.312002	2545.392003
938.614628	2544.202291
938.917216	2545.500388
939.219765	2546.919472
939.522275	2546.138094
939.824747	2542.480737
940.127179	2540.454193
940.429573	2544.212373
940.731929	2541.152392
941.034246	2539.851775
941.336524	2542.760521
941.638763	2542.800850
941.940964	2539.816487
942.243126	2542.203473
942.545250	2541.268339
942.847335	2539.635005
943.149381	2541.238092
943.451389	2539.703061
943.753359	2542.599204
944.055290	2539.080478
944.357182	2540.222300
944.659036	2540.552495
944.960851	2539.186342
945.262628	2540.257588
945.564367	2539.506456
945.866067	2540.812115
946.167729	2541.941333
946.469352	2540.786909
946.770937	2541.626261
947.072484	2540.277752
947.373992	2540.678524
947.675462	2538.727597
947.976893	2539.072917
948.278286	2539.566950
948.579641	2539.148534
948.880958	2538.495704
949.182236	2539.390509
949.483476	2537.948739
949.784678	2540.058462
950.085841	2537.376568
950.386967	2540.010571
950.688054	2539.536703
950.989103	2538.931764
951.290114	2538.886394
951.591087	2542.042156
951.892021	2537.651311
952.192917	2541.550644
952.493776	2542.276570
952.794596	2541.533000
953.095378	2537.510159
953.396122	2539.629964
953.696828	2542.798329
953.997496	2540.476878
954.298126	2538.291538
954.598718	2540.973432
954.899272	2536.539737
955.199788	2541.505273
955.500266	2538.677186
955.800706	2532.862215
956.101108	2532.968079
956.401472	2533.361289
956.701798	2530.384488
957.002087	2534.193080
957.302337	2535.128214
957.602550	2535.637370
957.902724	2535.302133
958.202861	2536.794315
958.502960	2534.818183
958.803022	2534.498069
959.103045	2533.993954
959.403031	2533.789787
959.702979	2534.225847
960.002889	2536.169212
960.302762	2532.983203
960.602596	2536.610313
960.902393	2533.661238
961.202153	2532.519417
961.501875	2530.039169
961.801559	2535.143337
962.101205	2534.089736
962.400814	2534.810621
962.700385	2532.143851
962.999918	2533.000847
963.299414	2533.147040
963.598873	2533.557894
963.898293	2531.690147
964.197677	2535.135775
964.497022	2534.656866
964.796331	2533.872966
965.095601	2532.920188
965.394835	2534.009078
965.694030	2532.320291
965.993189	2535.166022
966.292309	2530.513037
966.591393	2533.620909
966.890439	2532.645445
967.189447	2534.394726
967.488419	2531.493542
967.787353	2533.648635
968.086249	2529.945907
968.385108	2534.868594
968.683930	2532.138809
968.982714	2532.567307
969.281462	2531.349869
969.580172	2530.432379
969.878844	2531.571680
970.177480	2533.671320
970.476078	2530.205527
970.774639	2534.639222
971.073162	2532.993285
971.371649	2532.141330
971.670098	2529.673685
971.968510	2530.122348
972.266885	2528.168901
972.565223	2532.930271
972.863524	2534.482946
973.161788	2532.569828
973.460014	2531.506145
973.758204	2532.786598
974.056356	2531.808614
974.354471	2531.193593
974.652550	2531.604447
974.950591	2532.975641
975.248595	2533.726773
975.546563	2532.988244
975.844493	2531.531350
976.142386	2535.380271
976.440243	2528.927594
976.738062	2533.323481
977.035845	2531.435568
977.333590	2532.567308
977.631299	2531.574200
977.928971	2534.858512
978.226606	2532.005219
978.524204	2532.158974
978.821765	2531.934643
979.119290	2530.538243
979.416777	2534.157792
979.714228	2533.578059
980.011642	2532.032945
980.309020	2534.487987
980.606360	2531.753161
980.903664	2532.272400
981.200931	2531.130579
981.498162	2534.130065
981.795356	2533.404139
982.092513	2534.558563
982.389633	2537.668955
982.686717	2535.670138
982.983764	2533.227699
983.280775	2536.701054
983.577749	2534.588810
983.874686	2532.927750
984.171587	2535.649973
984.468451	2537.207690
984.765279	2534.603934
985.062070	2533.714170
985.358824	2532.811803
985.655543	2531.778367
985.952224	2533.449509
986.248869	2534.041845
986.545478	2527.994981
986.842050	2528.342821
987.138586	2526.943900
987.435086	2527.919364
987.731549	2526.777542
988.027975	2528.473891
988.324366	2529.895496
988.620719	2533.910775
988.917037	2529.469518
989.213318	2532.158974
989.509563	2531.047400
989.805772	2531.727955
990.101944	2526.931298
990.398080	2529.714014
990.694180	2531.231402
990.990244	2528.932636
991.286271	2529.557739
991.582262	2528.204189
991.878217	2528.662934
992.174136	2529.557739
992.470019	2528.499096
992.765865	2530.220650
993.061676	2529.547656
993.357450	2531.390198
993.653188	2531.833820
993.948890	2528.572193
994.244556	2530.732328
994.540186	2531.271731
994.835780	2528.476411
995.131337	2530.205527
995.426859	2531.216278
995.722345	2528.758716
996.017795	2532.811803
996.313208	2531.606968
996.608586	2532.690816
996.903928	2530.112266
997.199234	2532.194262
997.494504	2534.283820
997.789738	2531.843902
998.084936	2530.908768
998.380099	2530.303829
998.675225	2530.291227
998.970316	2530.747451
999.265371	2531.254087
999.560390	2531.112935
999.855373	2530.248377
1000.150320	2531.828778
1000.445232	2530.490352
1000.740108	2530.933974
1001.034948	2528.604961
1001.329752	2529.086391
1001.624521	2532.673172
1001.919254	2524.342665
1002.213951	2527.579086
1002.508613	2526.389373
1002.803239	2525.948272
1003.097829	2526.233098
1003.392384	2529.088911
1003.686903	2524.748478
1003.981386	2531.662420
1004.275834	2529.225023
1004.570246	2530.528161
1004.864623	2530.399611
1005.158964	2529.187214
1005.453270	2530.039169
1005.747540	2529.396422
1006.041775	2527.367357
1006.335974	2527.810979
1006.630138	2529.363654
1006.924266	2530.308871
1007.218359	2528.133613
1007.512416	2528.121010
1007.806438	2525.635721
1008.100425	2528.909950
1008.394376	2527.546318
1008.688292	2529.827440
1008.982172	2530.949097
1009.276017	2528.312574
1009.569827	2527.977337
1009.863602	2529.255269
1010.157341	2528.340300
1010.451045	2529.635877
1010.744714	2529.756864
1011.038347	2530.959179
1011.331945	2525.862573
1011.625508	2527.722759
1011.919036	2527.170752
1012.212528	2529.706453
1012.505986	2527.710156
1012.799408	2529.938346
1013.092795	2525.600433
1013.386147	2530.480270
1013.679464	2528.879703
1013.972745	2526.875845
1014.265992	2529.706453
1014.559204	2528.385670
1014.852380	2530.240815
1015.145521	2531.337266
1015.438628	2527.858870
1015.731699	2531.042358
1016.024736	2526.323838
1016.317737	2526.742254
1016.610703	2526.694363
1016.903635	2526.490197
1017.196531	2523.972140
1017.489393	2524.995494
1017.782219	2522.979033
1018.075011	2526.598581
1018.367768	2529.739220
1018.660490	2527.445495
1018.953177	2527.445495
1019.245829	2527.445495
