Dividing Wavelength (nm)	Counts (n)	Blue Motor Position (mm): 0.000000	Red Motor Position (mm): 10.000000	
326.493990	2147.115643
326.888308	2147.115643
327.282561	2147.115643
327.676750	2120.795779
328.070874	2121.045316
328.464933	2127.467746
328.858929	2136.239354
329.252859	2146.455252
329.646726	2162.528971
330.040528	2175.353667
330.434265	2193.968127
330.827938	2215.387990
331.221547	2233.742831
331.615091	2254.676222
332.008571	2273.250354
332.401986	2295.181893
332.795338	2313.549338
333.188625	2333.603048
333.581847	2354.395287
333.975006	2371.893132
334.368100	2391.346944
334.761129	2409.001065
335.154095	2425.052099
335.546996	2439.656322
335.939833	2456.425720
336.332606	2470.488018
336.725315	2477.769965
337.117960	2488.598364
337.510540	2495.282934
337.903056	2506.101250
338.295508	2512.899246
338.687896	2516.085255
339.080220	2526.964065
339.472480	2532.295085
339.864676	2536.796836
340.256807	2539.791281
340.648875	2539.839172
341.040879	2545.044163
341.432818	2542.463092
341.824694	2544.764379
342.216506	2546.443083
342.608253	2543.980480
342.999937	2544.792106
343.391557	2546.054915
343.783113	2542.218597
344.174605	2541.170037
344.566033	2537.684079
344.957397	2539.345139
345.348697	2537.749614
345.739934	2533.820034
346.131106	2534.780374
346.522215	2532.050589
346.913260	2526.744775
347.304241	2526.543129
347.695159	2525.600433
348.086012	2524.002387
348.476802	2523.745288
348.867528	2521.295288
349.258191	2517.262364
349.648789	2518.706655
350.039324	2519.971985
350.429796	2521.227232
350.820203	2514.711541
351.210548	2516.090296
351.600828	2516.733043
351.991045	2515.147600
352.381198	2512.513597
352.771288	2514.600635
353.161314	2513.007631
353.551276	2515.298835
353.941175	2512.110305
354.331010	2514.948475
354.720782	2512.987466
355.110490	2512.478309
355.500135	2514.661129
355.889717	2512.919410
356.279235	2512.261540
356.668689	2514.522497
357.058080	2517.320338
357.447408	2515.591222
357.836672	2513.504184
358.225873	2513.047960
358.615010	2515.286232
359.004084	2517.630369
359.393095	2519.636748
359.782043	2518.172293
360.170927	2519.319155
360.559748	2518.492406
360.948505	2517.388393
361.337199	2519.603980
361.725830	2522.132119
362.114398	2523.105062
362.502903	2521.907788
362.891344	2519.820750
363.279722	2522.726975
363.668037	2527.508510
364.056289	2522.653878
364.444478	2527.566483
364.832603	2523.087418
365.220665	2525.802079
365.608665	2526.399456
365.996601	2525.544980
366.384474	2527.069929
366.772284	2527.425331
367.160031	2527.374919
367.547715	2528.892306
367.935336	2526.817872
368.322893	2527.112779
368.710388	2527.271575
369.097820	2532.801721
369.485189	2529.356093
369.872495	2531.206196
370.259738	2529.403983
370.646918	2528.531864
371.034035	2531.092770
371.421090	2530.742410
371.808081	2529.943387
372.195010	2534.097298
372.581875	2530.381967
372.968678	2531.727955
373.355418	2533.189890
373.742096	2535.425642
374.128710	2532.779036
374.515262	2532.244674
374.901751	2538.657021
375.288177	2536.837165
375.674540	2539.415715
376.060841	2540.900335
376.447079	2541.137269
376.833254	2544.018288
377.219367	2544.308155
377.605417	2547.214380
377.991404	2548.756973
378.377329	2549.480379
378.763191	2550.632282
379.148991	2558.312480
379.534727	2563.469581
379.920402	2564.624005
380.306013	2567.167267
380.691563	2573.251940
381.077049	2576.213618
381.462474	2580.349884
381.847835	2587.029413
382.233134	2593.988726
382.618371	2595.692636
383.003545	2602.725046
383.388657	2607.415839
383.773706	2615.738784
384.158693	2620.283384
384.543618	2627.051133
384.928480	2634.910292
385.313280	2641.826755
385.698017	2651.596512
386.082692	2657.633293
386.467305	2664.632935
386.851856	2673.177691
387.236344	2685.493230
387.620770	2687.860052
388.005133	2699.568132
388.389435	2708.170861
388.773674	2712.057590
389.157851	2722.472614
389.541965	2730.818244
389.926018	2732.537278
390.310008	2742.801067
390.693936	2752.343971
391.077802	2759.948552
391.461606	2765.912237
391.845348	2772.813576
392.229027	2776.423042
392.612645	2789.053653
392.996200	2795.032462
393.379694	2803.209213
393.763125	2815.113898
394.146494	2819.013231
394.529801	2825.549087
394.913047	2835.240705
395.296230	2832.034531
395.679351	2831.537977
396.062410	2843.243537
396.445408	2834.424038
396.828343	2838.247753
397.211217	2836.783298
397.594028	2827.142091
397.976778	2833.625015
398.359466	2834.754234
398.742092	2828.326762
399.124656	2834.096363
399.507158	2836.206086
399.889598	2832.384891
400.271977	2832.163081
400.654294	2832.120231
401.036549	2829.360199
401.418742	2823.678819
401.800874	2831.290961
402.182944	2821.964826
402.564952	2828.430106
402.946898	2814.992911
403.328783	2808.867909
403.710606	2808.673824
404.092367	2810.831438
404.474067	2809.593835
404.855705	2794.598923
405.237282	2787.011986
405.618797	2787.256482
406.000250	2788.703293
406.381642	2787.385032
406.762972	2776.811211
407.144240	2763.555497
407.525447	2761.591968
407.906593	2752.384300
408.287677	2743.940368
408.668700	2742.380131
409.049661	2730.115003
409.430560	2725.630897
409.811399	2715.800647
410.192176	2709.849565
410.572891	2699.205168
410.953545	2698.900179
411.334138	2687.071111
411.714669	2684.994156
412.095139	2668.509583
412.475547	2665.663851
412.855894	2657.403921
413.236180	2652.196409
413.616405	2644.538896
413.996568	2637.047742
414.376670	2630.300157
414.756711	2623.345885
415.136691	2620.663992
415.516609	2616.573095
415.896466	2613.185440
416.276262	2609.989348
416.655997	2602.218410
417.035670	2596.531988
417.415283	2595.339755
417.794834	2591.490834
418.174324	2589.658375
418.553753	2588.022520
418.933121	2585.512026
419.312428	2579.933989
419.691674	2579.082034
420.070859	2578.509863
420.449983	2571.726991
420.829045	2572.760427
421.208047	2569.239181
421.586988	2568.851012
421.965867	2569.791188
422.344686	2567.691547
422.723444	2565.370096
423.102141	2563.643500
423.480777	2565.019735
423.859352	2564.475291
424.237866	2560.943962
424.616319	2560.369271
424.994712	2562.743654
425.373044	2563.217523
425.751314	2560.563355
426.129524	2561.712738
426.507673	2564.598799
426.885762	2559.814744
427.263789	2561.692574
427.641756	2561.939590
428.019662	2561.044786
428.397508	2562.297512
428.775292	2558.188972
429.153016	2559.076215
429.530679	2562.317677
429.908282	2558.625032
430.285824	2557.352140
430.663305	2560.306257
431.040726	2563.197358
431.418086	2559.880279
431.795385	2563.920764
432.172624	2560.016390
432.549802	2562.567214
432.926920	2560.868345
433.303977	2560.943962
433.680974	2561.606874
434.057910	2560.298695
434.434786	2558.216698
434.811601	2562.529405
435.188355	2560.616287
435.565050	2563.149467
435.941683	2561.821123
436.318257	2559.943293
436.694770	2560.023952
437.071222	2557.412634
437.447614	2558.715772
437.823946	2558.950186
438.200218	2562.899930
438.576429	2564.525702
438.952580	2561.601833
439.328670	2563.114179
439.704700	2563.666186
440.080670	2564.334138
440.456580	2562.836916
440.832429	2565.296999
441.208218	2565.909499
441.583947	2562.857080
441.959616	2565.430589
442.335224	2562.952862
442.710773	2563.174673
443.086261	2561.037224
443.461689	2565.332287
443.837057	2562.874724
444.212365	2563.096535
444.587612	2565.470919
444.962800	2565.498645
445.337927	2564.613923
445.712995	2563.726679
446.088002	2564.888665
446.462949	2563.983778
446.837837	2564.266083
447.212664	2565.785991
447.587431	2565.521330
447.962139	2567.048800
448.336786	2567.091650
448.711374	2566.784139
449.085901	2567.840261
449.460369	2565.506207
449.834776	2565.725497
450.209124	2566.882442
450.583412	2566.927812
450.957640	2566.395970
451.331808	2566.877401
451.705917	2565.463357
452.079965	2569.458471
452.453954	2567.048800
452.827883	2567.991496
453.201752	2565.728017
453.575562	2568.588872
453.949311	2565.881773
454.323001	2568.341856
454.696632	2570.363358
455.070202	2570.549881
455.443713	2566.890003
455.817164	2565.695250
456.190556	2567.797411
456.563888	2566.068295
456.937160	2566.040569
457.310373	2566.970662
457.683526	2570.234809
458.056619	2569.420663
458.429653	2569.985272
458.802628	2569.642473
459.175542	2570.267577
459.548398	2570.297823
459.921194	2568.787998
460.293930	2566.544684
460.666607	2570.600293
461.039224	2573.647670
461.411782	2569.576938
461.784280	2573.632547
462.156719	2571.449727
462.529099	2573.597259
462.901419	2573.534244
463.273680	2573.851837
463.645882	2572.379820
464.018024	2572.515931
464.390106	2571.709347
464.762130	2574.119018
465.134094	2576.974832
465.505999	2576.942064
465.877845	2576.939544
466.249631	2578.537589
466.621358	2576.392578
466.993026	2577.670511
467.364634	2579.734863
467.736184	2576.805953
468.107674	2574.968452
468.479105	2575.225551
468.850477	2575.354101
469.221790	2576.962229
469.593043	2576.208576
469.964238	2572.750345
470.335373	2576.488360
470.706449	2574.751683
471.077467	2575.956519
471.448425	2576.637074
471.819324	2578.240161
472.190164	2578.434246
472.560945	2578.761921
472.931667	2574.688668
473.302330	2574.010633
473.672934	2576.735377
474.043479	2576.006930
474.413965	2573.246898
474.784393	2571.875705
475.154761	2571.487536
475.525070	2571.883266
475.895321	2570.756568
476.265513	2569.329922
476.635645	2572.296641
477.005719	2576.342167
477.375734	2576.480799
477.745691	2575.283525
478.115588	2575.356621
478.485427	2576.311920
478.855207	2576.216138
479.224928	2578.424163
479.594591	2577.781416
479.964194	2577.904925
480.333739	2575.548185
480.703226	2580.125553
481.072653	2575.492733
481.442022	2578.194791
481.811333	2579.704617
482.180584	2581.416088
482.549777	2577.857034
482.918912	2580.460790
483.287988	2575.664132
483.657005	2580.675039
484.025964	2578.318299
484.394864	2577.078175
484.763706	2579.205542
485.132489	2575.817887
485.501213	2577.821746
485.869879	2576.173288
486.238487	2575.396951
486.607036	2577.297466
486.975527	2576.468196
487.343959	2577.736046
487.712333	2576.727815
488.080648	2580.496078
488.448905	2574.413926
488.817104	2577.148752
489.185244	2578.814853
489.553326	2576.972311
489.921350	2579.782754
490.289315	2579.316448
490.657222	2581.519432
491.025070	2581.116140
491.392861	2578.207394
491.760593	2578.953485
492.128267	2578.993814
492.495883	2578.860223
492.863440	2581.416088
493.230939	2578.187229
493.598380	2578.169585
493.965763	2576.914338
494.333088	2575.059193
494.700354	2574.875191
495.067563	2576.077506
495.434713	2572.263873
495.801805	2575.989286
496.168839	2577.516756
496.535815	2577.234451
496.902733	2576.400140
497.269593	2578.008268
497.636395	2578.663618
498.003139	2577.383165
498.369825	2573.849316
498.736453	2577.652867
499.103023	2576.264029
499.469535	2577.052970
499.835989	2577.536920
500.202385	2578.872826
500.568723	2576.606828
500.935003	2575.079358
501.301226	2575.172619
501.667390	2576.019533
502.033497	2579.346695
502.399546	2576.102712
502.765537	2575.901066
503.131470	2574.658422
503.497345	2578.164544
503.863163	2579.422312
504.228923	2574.918041
504.594625	2578.172106
504.960269	2577.332754
505.325856	2577.786457
505.691385	2575.422156
506.056856	2577.269739
506.422270	2576.276632
506.787625	2577.569688
507.152924	2576.589183
507.518164	2579.873495
507.883347	2576.034657
508.248472	2577.166396
508.613540	2579.475244
508.978550	2574.010633
509.343503	2574.880232
509.708398	2578.885429
510.073236	2576.823597
510.438016	2576.571539
510.802738	2575.225551
511.167403	2579.790316
511.532010	2579.392065
511.896561	2577.579770
512.261053	2579.066911
512.625488	2572.982238
512.989866	2573.693041
513.354186	2572.001733
513.718449	2573.481312
514.082655	2576.148082
514.446803	2578.648495
514.810894	2575.076837
515.174927	2580.596901
515.538904	2576.823597
515.902822	2577.630182
516.266684	2575.870819
516.630488	2576.574060
516.994235	2577.216807
517.357925	2578.063721
517.721558	2576.347208
518.085133	2579.039184
518.448651	2580.664956
518.812112	2576.286714
519.175516	2577.972980
519.538863	2578.214956
519.902152	2578.640933
520.265385	2574.671024
520.628560	2579.636561
520.991678	2577.491550
521.354739	2577.509194
521.717743	2577.925089
522.080690	2581.710996
522.443580	2579.944071
522.806413	2577.604976
523.169189	2580.165882
523.531908	2576.669842
523.894569	2577.080696
524.257174	2577.786458
524.619722	2579.071952
524.982213	2579.734863
525.344647	2576.458113
525.707025	2576.836200
526.069345	2578.618248
526.431608	2579.129925
526.793815	2577.788978
527.155964	2577.211766
527.518057	2578.847620
527.880093	2579.528176
528.242072	2579.452559
528.603995	2580.264185
528.965860	2577.773855
529.327669	2579.729822
529.689421	2578.956005
530.051117	2575.974163
530.412755	2577.471385
530.774337	2578.199832
531.135862	2578.880388
531.497331	2576.143041
531.858743	2574.260170
532.220098	2577.269739
532.581396	2576.778227
532.942638	2577.398289
533.303824	2577.640264
533.664953	2578.764441
534.026025	2578.542631
534.387040	2579.119843
534.747999	2576.493402
535.108902	2578.812332
535.469748	2577.405850
535.830537	2580.591860
536.191270	2576.536251
536.551947	2579.528176
536.912567	2577.642785
537.273131	2578.963567
537.633638	2577.403330
537.994089	2578.867785
538.354483	2577.985583
538.714821	2580.627148
539.075103	2577.630182
539.435328	2581.975656
539.795497	2579.308886
540.155609	2580.957343
540.515665	2578.348546
540.875665	2580.710327
541.235609	2577.453741
541.595496	2579.543300
541.955328	2577.728484
542.315102	2576.289235
542.674821	2577.297466
543.034483	2576.400140
543.394090	2577.496591
543.753640	2578.570357
544.113134	2576.304358
544.472571	2578.716550
544.831953	2577.909966
545.191278	2580.004565
545.550548	2580.281829
545.909761	2578.449369
546.268918	2575.868298
546.628019	2576.193453
546.987064	2577.796540
547.346053	2579.762590
547.704986	2576.410222
548.063863	2580.007086
548.422684	2577.519276
548.781449	2578.711509
549.140158	2576.805953
549.498811	2580.027250
549.857408	2579.858372
550.215949	2577.990624
550.574434	2575.245716
550.932864	2576.168247
551.291237	2578.325861
551.649555	2577.756211
552.007817	2580.233938
552.366022	2581.126222
552.724173	2580.400296
553.082267	2578.585480
553.440305	2579.011458
553.798288	2578.424163
554.156215	2578.376272
554.514086	2579.704617
554.871902	2579.076993
555.229661	2579.061869
555.587365	2576.357290
555.945014	2578.164544
556.302606	2578.237641
556.660143	2579.651684
557.017625	2578.746797
557.375050	2578.925758
557.732421	2579.495409
558.089735	2577.869637
558.446994	2577.927610
558.804197	2579.225707
559.161345	2576.753021
559.518437	2577.516756
559.875474	2576.415264
560.232455	2578.093968
560.589381	2578.169585
560.946251	2582.235276
561.303065	2575.936354
561.659825	2577.158834
562.016528	2577.297466
562.373177	2576.213617
562.729770	2578.109091
563.086307	2579.588670
563.442789	2577.451221
563.799216	2577.915007
564.155587	2579.732343
564.511904	2579.807960
564.868164	2577.685634
565.224370	2581.698393
565.580520	2579.059349
565.936615	2580.864082
566.292654	2579.276118
566.648638	2580.070100
567.004567	2578.532548
567.360441	2578.562795
567.716260	2577.095819
568.072023	2577.839390
568.427732	2575.170099
568.783385	2575.896025
569.138982	2573.211610
569.494525	2574.998699
569.850013	2574.454255
570.205445	2577.446180
570.560823	2580.347364
570.916145	2578.925758
571.271412	2578.648495
571.626625	2577.196642
571.981782	2579.631520
572.336884	2578.572877
572.691931	2577.806622
573.046923	2580.042374
573.401860	2577.836869
573.756743	2577.857034
574.111570	2577.761252
574.466342	2577.050449
574.821059	2580.508681
575.175722	2578.401478
575.530330	2577.854513
575.884882	2579.707137
576.239380	2578.414081
576.593823	2578.403999
576.948211	2577.743608
577.302544	2577.602455
577.656823	2578.272929
578.011047	2577.305027
578.365216	2577.662949
578.719330	2577.617579
579.073389	2577.524317
579.427394	2575.459965
579.781344	2581.438773
580.135239	2579.704617
580.489080	2579.588670
580.842866	2578.658577
581.196597	2584.720565
581.550273	2579.770152
581.903895	2578.633371
582.257463	2579.921386
582.610975	2577.748649
582.964434	2577.763772
583.317837	2577.882239
583.671186	2578.151941
584.024481	2579.419791
584.377721	2580.571695
584.730906	2577.937692
585.084037	2578.519945
585.437113	2577.945254
585.790135	2581.166551
586.143103	2578.288052
586.496016	2579.573547
586.848874	2573.627506
587.201679	2575.187743
587.554428	2575.379307
587.907124	2574.217321
588.259765	2576.432908
588.612352	2577.947774
588.964884	2578.409040
589.317362	2578.777044
589.669786	2575.631364
590.022155	2579.936510
590.374470	2578.403999
590.726731	2580.785944
591.078937	2578.794688
591.431090	2579.225707
591.783188	2580.004565
592.135232	2577.665470
592.487222	2575.507856
592.839157	2580.291911
593.191038	2576.251426
593.542866	2580.937179
593.894639	2576.901735
594.246358	2577.955336
594.598022	2580.911973
594.949633	2578.015830
595.301190	2576.115315
595.652692	2577.264698
596.004141	2576.785788
596.355535	2580.614545
596.706876	2579.818042
597.058162	2580.496078
597.409395	2579.918866
597.760573	2577.254616
598.111698	2578.353587
598.462768	2578.527507
598.813785	2579.339133
599.164748	2577.078175
599.515657	2575.525500
599.866511	2576.770665
600.217312	2579.883577
600.568060	2576.654718
600.918753	2578.406519
601.269392	2577.481468
601.619978	2577.100861
601.970510	2577.799060
602.320988	2578.993814
602.671412	2575.389389
603.021783	2579.709658
603.372100	2578.078844
603.722363	2577.723443
604.072572	2578.895511
604.422728	2576.773186
604.772830	2573.761096
605.122878	2574.189594
605.472872	2576.526169
605.822813	2574.668504
606.172701	2575.419636
606.522534	2577.383165
606.872314	2576.352249
607.222041	2576.722774
607.571714	2580.952302
607.921333	2577.645305
608.270899	2579.558423
608.620411	2578.845100
608.969870	2575.477609
609.319276	2578.623289
609.668627	2578.764441
610.017926	2576.085068
610.367171	2577.433577
610.716362	2578.620768
611.065500	2577.907445
611.414585	2576.332085
611.763616	2577.423494
612.112594	2577.657908
612.461518	2578.222517
612.810389	2578.446849
613.159207	2577.819225
613.507971	2576.382496
613.856682	2577.552044
614.205340	2577.037846
614.553945	2577.269739
614.902496	2578.507342
615.250994	2578.716550
615.599439	2580.937179
615.947830	2576.536251
616.296169	2580.244020
616.644454	2578.943402
616.992686	2578.275449
617.340864	2578.041036
617.688990	2577.741087
618.037063	2575.782599
618.385082	2576.727815
618.733048	2578.628330
619.080961	2579.707137
619.428821	2577.337795
619.776628	2577.882239
620.124382	2579.487847
620.472083	2577.113463
620.819731	2576.417784
621.167326	2577.637743
621.514868	2575.502815
621.862357	2580.657395
622.209793	2578.882908
622.557176	2581.158989
622.904506	2575.480130
623.251783	2574.116497
623.599007	2574.451734
623.946179	2574.139183
624.293297	2574.822259
624.640363	2575.515418
624.987376	2577.617579
625.334336	2577.010120
625.681243	2577.413412
626.028097	2577.196643
626.374899	2576.392578
626.721647	2576.747980
627.068343	2577.904925
627.414987	2577.168916
627.761577	2576.243864
628.108115	2577.947774
628.454600	2575.941395
628.801032	2579.558423
629.147412	2576.677404
629.493739	2578.716550
629.840014	2575.369224
630.186236	2577.728484
630.532405	2576.962229
630.878521	2577.756211
631.224585	2576.455593
631.570597	2578.030953
631.916556	2576.296797
632.262462	2577.637743
632.608316	2580.909452
632.954117	2578.756880
633.299866	2578.628330
633.645562	2576.732856
633.991206	2578.058680
634.336797	2578.772003
634.682336	2577.841910
635.027823	2576.009451
635.373257	2577.768813
635.718639	2575.306210
636.063968	2575.160016
636.409245	2576.455593
636.754470	2577.698237
637.099642	2576.909297
637.444762	2576.795871
637.789829	2575.835531
638.134845	2575.333936
638.479808	2576.853844
638.824719	2575.371745
639.169577	2577.834348
639.514383	2576.823597
639.859137	2574.792012
640.203839	2577.415933
640.548489	2578.736715
640.893086	2574.832341
641.237632	2572.790674
641.582125	2572.049624
641.926566	2572.261353
642.270955	2579.008937
642.615292	2576.541292
642.959576	2575.031467
643.303809	2576.347208
643.647990	2575.764955
643.992118	2574.252609
644.336195	2578.300655
644.680219	2577.032805
645.024192	2578.199832
645.368112	2577.720922
645.711981	2575.210428
646.055797	2576.853844
646.399562	2577.254616
646.743274	2577.471385
647.086935	2578.847620
647.430544	2574.436611
647.774101	2578.030953
648.117606	2576.087589
648.461059	2577.511715
648.804460	2579.419791
649.147810	2577.015161
649.491108	2576.175809
649.834354	2575.638926
650.177548	2577.834348
650.520690	2578.774524
650.863781	2574.481981
651.206820	2578.267888
651.549807	2576.727815
651.892742	2575.815366
652.235626	2574.822259
652.578458	2575.979204
652.921238	2577.698237
653.263967	2576.400140
653.606644	2577.390727
653.949269	2573.914851
654.291843	2575.099523
654.634365	2574.484502
654.976836	2575.434759
655.319255	2575.833010
655.661622	2576.107753
656.003938	2577.279822
656.346203	2575.749831
656.688416	2575.676735
657.030577	2573.998030
657.372687	2577.788978
657.714746	2577.201684
658.056753	2576.692527
658.398708	2573.602300
658.740612	2572.248750
659.082465	2570.081054
659.424266	2571.197669
659.766016	2569.690364
660.107715	2576.914338
660.449362	2575.649008
660.790958	2575.112125
661.132503	2575.717064
661.473996	2577.630182
661.815438	2576.987435
662.156829	2576.758062
662.498168	2575.916189
662.839456	2576.102712
663.180693	2575.812846
663.521879	2573.423339
663.863013	2577.610017
664.204097	2576.359811
664.545129	2575.364183
664.886110	2575.064234
665.227040	2573.874522
665.567918	2576.500963
665.908746	2575.734708
666.249522	2578.154462
666.590248	2576.294276
666.930922	2574.900397
667.271545	2576.868967
667.612118	2576.047259
667.952639	2575.379307
668.293109	2576.833679
668.633528	2573.662794
668.973896	2573.156158
669.314213	2573.100705
669.654480	2575.608679
669.994695	2573.524162
670.334859	2575.326374
670.674973	2573.990469
671.015035	2575.533062
671.355047	2576.715212
671.695008	2575.134811
672.034918	2574.880232
672.374777	2576.518607
672.714585	2576.614389
673.054342	2575.870819
673.394049	2577.390727
673.733705	2578.590522
674.073310	2574.915520
674.412864	2577.771334
674.752368	2576.024574
675.091820	2576.442990
675.431223	2576.916858
675.770574	2577.733525
676.109875	2573.256981
676.449125	2572.818400
676.788324	2568.117524
677.127473	2574.371076
677.466571	2571.986610
677.805619	2574.741601
678.144616	2574.592887
678.483562	2574.111456
678.822458	2576.158165
679.161303	2580.233938
679.500098	2575.104564
679.838842	2573.272104
680.177535	2574.686148
680.516179	2572.906621
680.854771	2575.696899
681.193314	2575.893504
681.531805	2574.202197
681.870247	2575.134811
682.208638	2575.081878
682.546978	2576.437949
682.885268	2574.081209
683.223508	2576.911817
683.561697	2574.497105
683.899836	2574.234965
684.237925	2573.491394
684.575963	2576.417784
684.913951	2574.174471
685.251889	2576.372414
685.589776	2573.655232
685.927614	2575.487691
686.265401	2574.935685
686.603137	2574.245047
686.940824	2576.513566
687.278460	2576.203535
687.616046	2574.514749
687.953582	2574.068607
688.291068	2575.475088
688.628504	2576.526169
688.965889	2574.360993
689.303224	2575.785119
689.640510	2574.602969
689.977745	2574.822259
690.314930	2575.459965
690.652065	2576.367373
690.989150	2575.671693
691.326185	2576.813515
691.663170	2574.287897
692.000105	2577.708320
692.336990	2570.605334
692.673825	2573.405695
693.010610	2574.749162
693.347345	2571.268246
693.684030	2571.260684
694.020665	2569.647515
694.357251	2567.099211
694.693786	2572.730180
695.030272	2575.160016
695.366707	2573.856878
695.703093	2575.180181
696.039429	2572.888977
696.375716	2570.897721
696.711952	2574.928123
697.048139	2571.535427
697.384276	2575.507856
697.720363	2572.820921
698.056400	2572.828483
698.392388	2572.614234
698.728326	2577.226889
699.064214	2572.836044
699.400053	2575.308730
699.735842	2572.553740
700.071581	2574.234965
700.407270	2573.887125
700.742910	2575.190263
701.078501	2573.027608
701.414042	2576.195973
701.749533	2572.430232
702.084974	2573.476271
702.420366	2574.131621
702.755709	2573.965263
703.091002	2572.273956
703.426246	2572.251271
703.761440	2572.047104
704.096584	2572.213462
704.431679	2572.079871
704.766725	2575.336457
705.101721	2573.110787
705.436668	2572.100036
705.771565	2571.663976
706.106413	2573.327557
706.441212	2572.614234
706.775961	2575.699420
707.110661	2573.579615
707.445311	2573.657752
707.779913	2572.399985
708.114465	2573.438462
708.448967	2573.798905
708.783421	2574.255129
709.117825	2572.150447
709.452180	2575.268401
709.786485	2572.851168
710.120742	2572.039542
710.454949	2573.829152
710.789107	2571.810170
711.123216	2569.650035
711.457275	2569.324881
711.791286	2570.267577
712.125247	2569.947463
712.459159	2574.471899
712.793023	2572.037022
713.126837	2572.316806
713.460602	2570.761610
713.794318	2572.465520
714.127985	2574.156827
714.461602	2571.568194
714.795171	2574.396282
715.128691	2570.784295
715.462162	2572.188256
715.795584	2571.921075
716.128957	2572.178174
716.462281	2572.800756
716.795556	2573.143555
717.128782	2573.425859
717.461960	2572.001733
717.795088	2571.802608
718.128167	2574.192115
718.461198	2573.458627
718.794180	2571.424521
719.127113	2573.624985
719.459997	2574.290417
719.792833	2574.360993
720.125619	2573.347722
720.458357	2570.615416
720.791046	2573.236816
721.123686	2571.986610
721.456278	2571.527865
721.788821	2571.709347
722.121315	2574.814697
722.453761	2569.163564
722.786158	2573.962742
723.118506	2572.294120
723.450805	2573.587176
723.783056	2572.679769
724.115259	2572.699933
724.447412	2572.704974
724.779518	2572.513411
725.111574	2573.851837
725.443582	2573.609862
725.775542	2569.087947
726.107453	2572.672207
726.439315	2571.399316
726.771129	2573.377968
727.102895	2569.428224
727.434612	2572.833524
727.766281	2573.942578
728.097901	2566.824468
728.429473	2569.597103
728.760996	2571.311095
729.092471	2564.429920
729.423897	2570.559963
729.755276	2569.672720
730.086606	2574.350911
730.417887	2572.813359
730.749120	2573.118349
731.080305	2573.118349
731.411442	2572.316806
731.742530	2571.885787
732.073570	2572.767989
732.404562	2574.514749
732.735506	2571.318657
733.066401	2575.054152
733.397249	2570.474264
733.728048	2571.595921
734.058798	2573.932495
734.389501	2573.204049
734.720156	2572.089954
735.050762	2567.988975
735.381320	2573.632547
735.711831	2575.480130
736.042293	2571.583318
736.372707	2572.798236
736.703073	2573.403174
737.033391	2573.806467
737.363661	2571.477453
737.693883	2570.277659
738.024056	2571.853019
738.354182	2569.488718
738.684260	2573.919892
739.014290	2571.621126
739.344272	2570.633060
739.674207	2569.844120
740.004093	2572.402505
740.333931	2570.945612
740.663722	2571.192628
740.993464	2570.005437
741.323159	2569.851681
741.652806	2573.592217
741.982405	2571.704305
742.311956	2570.191959
742.641460	2571.366548
742.970915	2570.421332
743.300323	2572.037022
743.629683	2568.672051
743.958996	2572.541137
744.288260	2570.040725
744.617477	2573.065417
744.946647	2567.575600
745.275768	2567.784808
745.604842	2567.562997
745.933869	2567.810014
746.262847	2567.268090
746.591778	2572.500808
746.920662	2569.463512
747.249498	2571.805128
747.578286	2570.272618
747.907027	2572.377299
748.235720	2571.358986
748.564365	2571.588359
748.892963	2570.570046
749.221514	2570.126424
749.550017	2570.698595
749.878473	2573.042732
750.206881	2571.545509
750.535242	2569.904613
750.863555	2568.989644
751.191821	2573.602300
751.520039	2570.736404
751.848210	2572.044583
752.176334	2569.536609
752.504411	2572.644481
752.832440	2569.453430
753.160421	2572.836044
753.488356	2567.936043
753.816243	2570.381002
754.144082	2569.904613
754.471875	2571.790005
754.799620	2572.047104
755.127318	2570.741445
755.454969	2569.554253
755.782572	2571.512742
756.110129	2571.545509
756.437638	2570.330591
756.765100	2571.449727
757.092515	2569.287072
757.419882	2569.186249
757.747203	2573.214131
758.074477	2570.827145
758.401703	2569.450910
758.728882	2572.485684
759.056014	2573.892166
759.383099	2573.582135
759.710138	2570.007957
760.037129	2568.951835
760.364073	2570.617937
760.690970	2570.534758
761.017820	2569.375292
761.344623	2571.439645
761.671379	2571.923596
761.998088	2566.832030
762.324751	2568.820765
762.651366	2570.093657
762.977935	2571.724470
763.304456	2568.299006
763.630931	2575.611200
763.957359	2573.420818
764.283740	2572.843606
764.610074	2572.647001
764.936362	2574.073648
765.262602	2570.955694
765.588796	2570.975859
765.914943	2570.658266
766.241044	2569.501321
766.567097	2569.912175
766.893104	2570.925447
767.219064	2568.911506
767.544978	2570.933009
767.870845	2567.547874
768.196665	2569.672720
768.522438	2572.092474
768.848165	2569.755899
769.173846	2567.396639
769.499479	2569.796229
769.825066	2571.674058
770.150607	2569.776064
770.476101	2566.781619
770.801548	2569.670200
771.126949	2569.413101
771.452303	2568.379664
771.777611	2569.415622
772.102872	2568.747669
772.428087	2568.283883
772.753256	2571.182546
773.078378	2573.919893
773.403453	2570.224727
773.728482	2570.186918
774.053465	2571.416960
774.378401	2569.551733
774.703291	2567.820096
775.028135	2569.254305
775.352932	2572.273956
775.677683	2570.600293
776.002388	2568.457802
776.327046	2570.799418
776.651658	2571.232957
776.976224	2567.714232
777.300743	2570.151630
777.625216	2569.869325
777.949643	2569.347566
778.274024	2570.272618
778.598359	2567.263049
778.922647	2565.087791
779.246889	2566.259859
779.571086	2563.406566
779.895236	2567.023594
780.219339	2571.124573
780.543397	2567.036197
780.867409	2570.582649
781.191374	2567.779767
781.515294	2569.261866
781.839167	2568.152812
782.162995	2568.583831
782.486776	2570.570046
782.810511	2568.551064
783.134201	2567.157185
783.457844	2566.413614
783.781441	2571.802608
784.104993	2567.366392
784.428498	2569.579459
784.751958	2567.885631
785.075372	2568.225909
785.398739	2566.950497
785.722061	2570.963256
786.045337	2568.830848
786.368568	2567.782288
786.691752	2567.656259
787.014891	2567.676423
787.337983	2568.407391
787.661030	2568.175498
787.984031	2569.143399
788.306987	2570.668348
788.629897	2565.914540
788.952760	2569.284552
789.275579	2566.166598
789.598351	2570.154151
789.921078	2567.963769
790.243759	2566.895045
790.566395	2567.668862
790.888984	2571.144737
791.211529	2567.961249
791.534027	2566.915209
791.856480	2567.101732
792.178888	2569.327401
792.501249	2567.638615
792.823566	2570.607854
793.145836	2569.622309
793.468062	2571.074161
793.790241	2568.346897
794.112375	2568.694737
794.434464	2567.918399
794.756507	2568.987123
795.078505	2567.973852
795.400457	2566.862277
795.722364	2564.598799
796.044226	2566.335477
796.366042	2564.434962
796.687812	2563.310784
797.009538	2568.241033
797.331218	2570.451579
797.652852	2567.494942
797.974442	2570.882597
798.295986	2567.512586
798.617484	2572.342011
798.938938	2567.278172
799.260346	2568.745148
799.581709	2568.188101
799.903026	2572.170612
800.224299	2567.537792
800.545526	2569.639953
800.866708	2568.762792
801.187845	2567.404201
801.508936	2567.066444
801.829983	2568.210786
802.150984	2567.308419
802.471940	2570.315467
802.792851	2567.426886
803.113717	2567.988975
803.434538	2568.480487
803.755314	2567.547874
804.076045	2567.963769
804.396731	2568.798080
804.717372	2567.222720
805.037967	2570.701116
805.358518	2570.509552
805.679024	2568.626681
805.999485	2567.706670
806.319901	2566.393450
806.640272	2564.258521
806.960598	2569.715570
807.280879	2566.610219
807.601115	2568.805642
807.921306	2568.160374
808.241453	2567.174829
808.561554	2564.200548
808.881611	2569.035014
809.201623	2567.721794
809.521590	2570.234809
809.841513	2565.496124
810.161390	2570.464182
810.481223	2566.234653
810.801011	2567.636094
811.120755	2569.763461
811.440453	2568.296485
811.760107	2565.939746
812.079716	2567.772205
812.399281	2565.496124
812.718801	2566.882442
813.038276	2561.062430
813.357707	2567.527709
813.677093	2566.872359
813.996434	2571.076682
814.315731	2567.994016
814.634983	2567.227761
814.954191	2566.413614
815.273354	2567.565518
815.592473	2569.206414
815.911547	2567.068964
816.230577	2568.803121
816.549562	2569.521486
816.868502	2566.738769
817.187399	2569.405539
817.506250	2566.655590
817.825058	2570.355797
818.143821	2567.641135
818.462539	2569.657597
818.781213	2567.860426
819.099843	2569.934860
819.418429	2569.211455
819.736970	2567.691547
820.055466	2570.333112
820.373919	2569.889490
820.692327	2568.573749
821.010691	2574.832341
821.329011	2572.866291
821.647286	2578.290573
821.965517	2580.470872
822.283704	2581.882395
822.601847	2584.486151
822.919945	2582.255440
823.237999	2583.372056
823.556010	2580.861561
823.873976	2578.472054
824.191897	2578.588001
824.509775	2574.146744
824.827609	2575.623803
825.145398	2572.853688
825.463144	2573.672876
825.780845	2571.452248
826.098502	2571.895869
826.416116	2572.432752
826.733685	2574.076168
827.051210	2575.384348
827.368692	2573.783781
827.686129	2571.931157
828.003522	2572.180694
828.320872	2567.678944
828.638177	2567.018553
828.955439	2568.903944
829.272656	2566.267421
829.589830	2564.858418
829.906960	2569.612227
830.224046	2566.882442
830.541088	2569.284552
830.858086	2568.677093
831.175041	2570.917885
831.491952	2567.867987
831.808819	2570.423852
832.125642	2565.949828
832.442421	2566.582493
832.759157	2571.550550
833.075849	2569.708008
833.392497	2570.706157
833.709101	2569.438307
834.025662	2570.842268
834.342179	2569.980231
834.658653	2571.147258
834.975083	2571.984089
835.291469	2570.333112
835.607811	2572.019378
835.924110	2566.315312
836.240366	2569.526527
836.556578	2569.090467
836.872746	2569.856723
837.188871	2566.179201
837.504952	2569.617268
837.820990	2566.645508
838.136984	2564.613922
838.452935	2567.066444
838.768842	2565.254149
839.084706	2565.521330
839.400526	2566.380847
839.716303	2570.073492
840.032037	2569.579459
840.347727	2565.649880
840.663373	2567.832699
840.978977	2567.278172
841.294537	2567.918399
841.610054	2567.994016
841.925527	2569.156002
842.240957	2566.496793
842.556344	2567.348748
842.871687	2568.036866
843.186987	2568.689695
843.502244	2566.027966
843.817458	2568.893862
844.132629	2566.093501
844.447756	2566.453944
844.762840	2563.628377
845.077881	2561.407749
845.392879	2562.534447
845.707833	2563.971175
846.022745	2563.663665
846.337613	2566.073337
846.652438	2566.143913
846.967221	2566.330435
847.281960	2566.325394
847.596656	2566.156516
847.911309	2565.324725
848.225919	2567.116855
848.540485	2568.014181
848.855009	2566.196845
849.169490	2568.160374
849.483928	2566.648028
849.798323	2565.715415
850.112675	2568.104922
850.426984	2566.582493
850.741251	2564.394632
851.055474	2567.701629
851.369654	2567.341187
851.683792	2567.830179
851.997887	2566.781619
852.311938	2566.096022
852.625947	2564.853377
852.939914	2566.842112
853.253837	2569.697926
853.567718	2566.063254
853.881555	2563.915723
854.195350	2565.997719
854.509103	2567.144582
854.822812	2564.981927
855.136479	2564.964283
855.450103	2565.990157
855.763685	2567.157185
856.077224	2565.559139
856.390720	2565.357493
856.704173	2566.534602
857.017584	2564.616443
857.330953	2566.819427
857.644278	2564.833213
857.957561	2567.832699
858.270802	2565.869170
858.584000	2564.039231
858.897155	2567.245405
859.210268	2563.668706
859.523339	2566.791701
859.836367	2568.215827
860.149352	2568.041907
860.462295	2566.930333
860.775195	2562.058057
861.088054	2559.383725
861.400869	2562.385733
861.713642	2561.790876
862.026373	2561.748027
862.339062	2563.814900
862.651708	2567.729356
862.964312	2566.542164
863.276873	2569.372772
863.589392	2564.775239
863.901869	2565.155847
864.214303	2566.844633
864.526696	2565.833882
864.839045	2567.626012
865.151353	2564.835733
865.463619	2567.467216
865.775842	2568.172977
866.088023	2564.750034
866.400162	2567.182390
866.712258	2562.814231
867.024313	2564.608881
867.336325	2565.148285
867.648296	2566.327915
867.960224	2564.674416
868.272110	2567.033676
868.583954	2565.100394
868.895755	2565.634756
869.207515	2566.363203
869.519233	2567.278172
869.830909	2568.125086
870.142542	2566.716084
870.454134	2566.138872
870.765684	2568.528378
871.077191	2564.659293
871.388657	2566.622822
871.700081	2566.027966
872.011463	2566.136351
872.322803	2563.280537
872.634101	2564.785322
872.945357	2567.817576
873.256571	2568.616599
873.567744	2567.187432
873.878874	2568.543502
874.189963	2563.353634
874.501010	2567.101732
874.812015	2567.106773
875.122979	2568.210786
875.433900	2565.859087
875.744780	2568.293965
876.055618	2564.813048
876.366415	2567.242884
876.677169	2565.937225
876.987882	2563.850188
877.298554	2559.716442
877.609183	2562.882286
877.919771	2561.193500
878.230317	2561.117882
878.540822	2565.070147
878.851285	2565.160888
879.161707	2563.462019
879.472087	2568.051989
879.782425	2567.109294
880.092722	2567.270611
880.402977	2569.130796
880.713191	2569.652556
881.023363	2573.685479
881.333494	2572.853688
881.643583	2574.592887
881.953631	2574.590366
882.263637	2572.039542
882.573602	2575.946436
882.883526	2571.099367
883.193408	2573.511559
883.503248	2569.282031
883.813048	2573.443503
884.122806	2570.978379
884.432522	2572.485684
884.742197	2571.018708
885.051831	2567.857905
885.361424	2567.706670
885.670975	2568.230950
885.980485	2567.232802
886.289954	2567.779767
886.599382	2567.245405
886.908768	2569.271949
887.218113	2568.135168
887.527417	2566.867318
887.836680	2564.941598
888.145901	2567.447051
888.455082	2563.356155
888.764221	2566.020404
889.073319	2564.412276
889.382376	2564.462688
889.691392	2565.223902
890.000366	2564.979406
890.309300	2564.162739
890.618193	2567.021073
890.927044	2568.021743
891.235855	2563.272976
891.544625	2564.540826
891.853353	2564.868501
892.162041	2562.867163
892.470687	2566.925292
892.779293	2562.957903
893.087858	2562.647872
893.396381	2562.567214
893.704864	2563.358675
894.013306	2561.175856
894.321707	2566.532082
894.630068	2564.434962
894.938387	2568.046948
895.246665	2569.745817
895.554903	2570.524675
895.863100	2566.390929
896.171256	2565.047462
896.479371	2567.958728
896.787446	2567.931002
897.095480	2565.728017
897.403473	2566.569890
897.711425	2567.139541
898.019336	2566.529561
898.327207	2566.516958
898.635038	2566.353121
898.942827	2565.163408
899.250576	2566.688357
899.558284	2565.256670
899.865952	2565.581824
900.173579	2565.294478
900.481165	2565.440672
900.788711	2562.907492
901.096216	2567.618450
901.403681	2563.368757
901.711105	2568.044428
902.018489	2563.882955
902.325832	2568.437638
902.633135	2564.563511
902.940397	2566.098542
903.247619	2566.506876
903.554800	2566.383368
903.861941	2565.982596
904.169041	2567.366392
904.476101	2566.985785
904.783121	2566.320353
905.090100	2566.504355
905.397039	2568.523337
905.703938	2567.817576
906.010796	2568.488049
906.317614	2567.472257
906.624391	2568.079716
906.931129	2567.936043
907.237826	2567.401681
907.544483	2564.543346
907.851099	2566.758933
908.157675	2568.109963
908.464211	2564.198027
908.770707	2559.761812
909.077163	2562.536967
909.383578	2560.772563
909.689954	2563.212482
909.996289	2560.059240
910.302584	2564.228274
910.608839	2563.935887
910.915054	2565.632236
911.221229	2565.097873
911.527363	2567.505024
911.833458	2563.658624
912.139513	2563.139385
912.445527	2563.451937
912.751502	2564.613922
913.057436	2562.738613
913.363331	2563.356155
913.669186	2563.545198
913.975000	2564.616443
914.280775	2562.083263
914.586510	2562.975548
914.892205	2566.655590
915.197859	2564.215671
915.503475	2565.856567
915.809050	2568.752710
916.114585	2568.903944
916.420081	2567.452092
916.725536	2566.690878
917.030952	2568.021742
917.336328	2567.759602
917.641665	2569.644994
917.946961	2567.270611
918.252218	2564.797925
918.557435	2563.015877
918.862612	2567.215158
919.167750	2565.604509
919.472848	2563.540157
919.777906	2564.881104
920.082925	2563.920764
920.387904	2563.915723
920.692843	2565.561659
920.997743	2563.913202
921.302603	2565.039900
921.607423	2565.465877
921.912204	2566.174160
922.216946	2564.840774
922.521647	2565.549057
922.826310	2563.532595
923.130932	2563.434292
923.435516	2563.804817
923.740059	2563.774570
924.044564	2565.407904
924.349028	2564.162739
924.653454	2560.573438
924.957840	2562.093346
925.262186	2559.842470
925.566493	2561.818603
925.870761	2560.593602
926.174989	2564.203068
926.479178	2563.341031
926.783328	2563.310784
927.087438	2562.864642
927.391509	2564.077040
927.695541	2564.382029
927.999533	2561.521175
928.303486	2565.115517
928.607400	2562.683161
928.911275	2564.855898
929.215110	2563.953531
929.518906	2564.419838
929.822663	2562.645352
930.126381	2561.848850
930.430060	2564.157698
930.733699	2563.247770
931.037299	2564.233315
931.340861	2566.380847
931.644383	2563.787173
931.947866	2563.048644
932.251309	2564.031669
932.554714	2562.491597
932.858080	2567.903275
933.161407	2566.799263
933.464694	2564.445044
933.767943	2563.777091
934.071153	2565.256670
934.374323	2562.824313
934.677455	2566.847154
934.980548	2562.942780
935.283602	2560.780125
935.586617	2562.975547
935.889593	2562.728531
936.192530	2563.464539
936.495428	2562.758778
936.798287	2561.004456
937.101108	2563.204920
937.403890	2565.259190
937.706632	2565.836402
938.009336	2563.315825
938.312002	2564.324056
938.614628	2560.170145
938.917216	2563.552760
939.219765	2563.623336
939.522275	2562.846998
939.824747	2565.191135
940.127179	2558.448591
940.429573	2560.883469
940.731929	2559.449260
941.034246	2559.386246
941.336524	2562.287430
941.638763	2563.754406
941.940964	2562.461350
942.243126	2562.882286
942.545250	2563.101576
942.847335	2563.958572
943.149381	2562.776422
943.451389	2565.100394
943.753359	2562.915054
944.055290	2564.107287
944.357182	2562.209292
944.659036	2563.441854
944.960851	2564.734910
945.262628	2563.023438
945.564367	2562.216854
945.866067	2561.914385
946.167729	2563.477142
946.469352	2561.480845
946.770937	2566.176680
947.072484	2563.656103
947.373992	2563.114179
947.675462	2561.773232
947.976893	2566.585014
948.278286	2561.440516
948.579641	2563.270455
948.880958	2564.525702
949.182236	2562.814231
949.483476	2562.045455
949.784678	2565.181052
950.085841	2559.910526
950.386967	2564.944118
950.688054	2563.003274
950.989103	2565.349931
951.290114	2562.542008
951.591087	2560.838098
951.892021	2560.833057
952.192917	2562.811710
952.493776	2560.182748
952.794596	2566.496793
953.095378	2562.368088
953.396122	2563.867832
953.696828	2566.126269
953.997496	2563.996381
954.298126	2563.767009
954.598718	2563.572924
954.899272	2561.198541
955.199788	2561.974878
955.500266	2562.657955
955.800706	2557.914229
956.101108	2558.562017
956.401472	2559.086297
956.701798	2561.813562
957.002087	2556.409445
957.302337	2562.882286
957.602550	2562.846998
957.902724	2560.817934
958.202861	2561.044786
958.502960	2563.386402
958.803022	2562.733572
959.103045	2563.668706
959.403031	2562.456309
959.702979	2561.788356
960.002889	2562.846998
960.302762	2562.153839
960.602596	2563.840105
960.902393	2564.293809
961.202153	2563.646021
961.501875	2561.042265
961.801559	2561.034703
962.101205	2562.733572
962.400814	2562.884807
962.700385	2563.088973
962.999918	2565.188614
963.299414	2564.064437
963.598873	2563.890517
963.898293	2561.495969
964.197677	2565.211299
964.497022	2565.067626
964.796331	2562.728531
965.095601	2563.038562
965.394835	2561.652245
965.694030	2561.130485
965.993189	2562.980589
966.292309	2562.415979
966.591393	2560.205433
966.890439	2561.354817
967.189447	2561.853891
967.488419	2561.737944
967.787353	2563.567883
968.086249	2561.369940
968.385108	2561.740465
968.683930	2562.292471
968.982714	2561.276679
969.281462	2563.494786
969.580172	2560.235680
969.878844	2560.815413
970.177480	2562.917574
970.476078	2565.314643
970.774639	2559.981102
971.073162	2560.969168
971.371649	2558.352809
971.670098	2556.777449
971.968510	2559.134188
972.266885	2555.809547
972.565223	2565.405384
972.863524	2561.523695
973.161788	2562.834395
973.460014	2562.194169
973.758204	2560.949004
974.056356	2561.717780
974.354471	2560.366750
974.652550	2564.051834
974.950591	2564.155177
975.248595	2563.174673
975.546563	2560.918757
975.844493	2560.391956
976.142386	2562.242060
976.440243	2561.765671
976.738062	2565.894376
977.035845	2561.735424
977.333590	2560.792728
977.631299	2561.760629
977.928971	2561.259035
978.226606	2560.676781
978.524204	2563.623336
978.821765	2561.579148
979.119290	2560.036555
979.416777	2561.133006
979.714228	2564.291289
980.011642	2561.727862
980.309020	2564.863460
980.606360	2559.517316
980.903664	2560.132337
981.200931	2562.521844
981.498162	2559.839950
981.795356	2561.017059
982.092513	2564.588717
982.389633	2562.254662
982.686717	2561.238870
982.983764	2563.809858
983.280775	2560.122254
983.577749	2561.443037
983.874686	2561.304405
984.171587	2561.702656
984.468451	2563.928326
984.765279	2561.586710
985.062070	2561.775753
985.358824	2564.165260
985.655543	2562.443706
985.952224	2562.539488
986.248869	2559.146791
986.545478	2558.614949
986.842050	2556.243087
987.138586	2560.588561
987.435086	2557.601677
987.731549	2556.991698
988.027975	2562.146278
988.324366	2560.248283
988.620719	2560.523026
988.917037	2561.143088
989.213318	2561.153170
989.509563	2560.843139
989.805772	2560.926318
990.101944	2565.022256
990.398080	2561.904302
990.694180	2560.575958
990.990244	2560.013870
991.286271	2562.645352
991.582262	2560.162584
991.878217	2561.687533
992.174136	2561.218705
992.470019	2564.170301
992.765865	2561.987481
993.061676	2561.130485
993.357450	2559.252655
993.653188	2559.918088
993.948890	2561.153170
994.244556	2562.209292
994.540186	2564.676937
994.835780	2560.709549
995.131337	2562.849519
995.426859	2560.901113
995.722345	2558.403221
996.017795	2561.276679
996.313208	2561.107800
996.608586	2563.262893
996.903928	2560.817934
997.199234	2562.204251
997.494504	2563.661144
997.789738	2560.704508
998.084936	2560.497820
998.380099	2562.413459
998.675225	2560.155022
998.970316	2562.050496
999.265371	2558.720814
999.560390	2562.521844
999.855373	2563.061247
1000.150320	2561.790876
1000.445232	2561.417831
1000.740108	2559.986143
1001.034948	2562.272307
1001.329752	2561.531257
1001.624521	2560.951524
1001.919254	2556.535473
1002.213951	2559.103941
1002.508613	2560.734755
1002.803239	2557.463046
1003.097829	2556.313663
1003.392384	2562.317677
1003.686903	2563.620815
1003.981386	2561.193500
1004.275834	2561.604354
1004.570246	2563.348593
1004.864623	2560.772563
1005.158964	2561.475804
1005.453270	2560.563355
1005.747540	2561.029662
1006.041775	2559.487069
1006.335974	2560.248283
1006.630138	2561.712738
1006.924266	2560.583520
1007.218359	2562.478994
1007.512416	2560.520506
1007.806438	2558.680484
1008.100425	2559.744168
1008.394376	2560.180228
1008.688292	2562.728531
1008.982172	2562.146278
1009.276017	2559.358520
1009.569827	2559.144271
1009.863602	2560.462532
1010.157341	2561.443037
1010.451045	2562.756257
1010.744714	2559.280382
1011.038347	2562.791545
1011.331945	2560.298695
1011.625508	2559.194682
1011.919036	2558.393139
1012.212528	2557.851215
1012.505986	2559.613098
1012.799408	2558.554456
1013.092795	2561.730383
1013.386147	2559.592933
1013.679464	2564.099725
1013.972745	2560.212995
1014.265992	2560.449929
1014.559204	2562.284909
1014.852380	2559.875238
1015.145521	2561.616957
1015.438628	2560.989333
1015.731699	2563.290620
1016.024736	2559.761812
1016.317737	2564.545867
1016.610703	2560.969168
1016.903635	2554.561862
1017.196531	2557.435319
1017.489393	2555.822150
1017.782219	2556.038920
1018.075011	2558.022614
1018.367768	2559.345917
1018.660490	2561.301884
1018.953177	2561.301884
1019.245829	2561.301884
