Dividing Wavelength (nm)	Counts (n)	Blue Motor Position (mm): 8.000000	Red Motor Position (mm): 0.000000	
326.493990	2158.536377
326.888308	2158.536377
327.282561	2158.536377
327.676750	2119.369133
328.070874	2114.421240
328.464933	2114.685901
328.858929	2118.176900
329.252859	2121.151180
329.646726	2132.216513
330.040528	2145.089099
330.434265	2160.399084
330.827938	2175.104129
331.221547	2192.342355
331.615091	2209.993955
332.008571	2229.377192
332.401986	2245.614748
332.795338	2262.961359
333.188625	2283.375511
333.581847	2303.779581
333.975006	2318.827426
334.368100	2338.898780
334.761129	2358.564321
335.154095	2371.210055
335.546996	2393.446585
335.939833	2410.800757
336.332606	2425.377253
336.725315	2437.511311
337.117960	2450.086469
337.510540	2460.357820
337.903056	2472.075982
338.295508	2481.626448
338.687896	2492.384270
339.080220	2498.615136
339.472480	2505.501352
339.864676	2511.364214
340.256807	2516.160872
340.648875	2521.640607
341.040879	2522.157325
341.432818	2526.953983
341.824694	2528.922553
342.216506	2530.664272
342.608253	2532.877338
342.999937	2529.242667
343.391557	2534.417411
343.783113	2528.884745
344.174605	2530.475229
344.566033	2529.348531
344.957397	2528.869621
345.348697	2524.075484
345.739934	2525.734023
346.131106	2523.173117
346.522215	2522.802593
346.913260	2518.925945
347.304241	2520.551717
347.695159	2514.938393
348.086012	2515.878568
348.476802	2512.894205
348.867528	2508.838596
349.258191	2503.812566
349.648789	2504.667042
350.039324	2500.064468
350.429796	2505.748369
350.820203	2500.223264
351.210548	2502.580004
351.600828	2501.912051
351.991045	2499.890548
352.381198	2499.167143
352.771288	2497.682523
353.161314	2499.446927
353.551276	2498.174035
353.941175	2495.197234
354.331010	2497.221257
354.720782	2494.282265
355.110490	2497.798469
355.500135	2496.397029
355.889717	2501.072699
356.279235	2495.411483
356.668689	2494.451143
357.058080	2495.739158
357.447408	2497.281751
357.836672	2495.913078
358.225873	2496.812924
358.615010	2494.375526
359.004084	2497.120434
359.393095	2499.073881
359.782043	2497.669920
360.170927	2499.903151
360.559748	2498.910044
360.948505	2497.165805
361.337199	2503.371465
361.725830	2500.523213
362.114398	2499.444406
362.502903	2502.075888
362.891344	2503.459685
363.279722	2501.143275
363.668037	2501.511279
364.056289	2501.463388
364.444478	2507.021260
364.832603	2501.518841
365.220665	2504.435148
365.608665	2507.631240
365.996601	2507.444717
366.384474	2505.186280
366.772284	2506.522186
367.160031	2507.991682
367.547715	2506.539830
367.935336	2507.895901
368.322893	2507.457320
368.710388	2503.492453
369.097820	2509.090654
369.485189	2503.195025
369.872495	2510.020747
370.259738	2507.510252
370.646918	2512.969822
371.034035	2511.180212
371.421090	2509.660304
371.808081	2510.015706
372.195010	2511.074348
372.581875	2513.166427
372.968678	2512.652229
373.355418	2511.117198
373.742096	2511.828001
374.128710	2512.354801
374.515262	2515.538290
374.901751	2512.521159
375.288177	2512.511077
375.674540	2513.637775
376.060841	2512.281704
376.447079	2512.397651
376.833254	2514.330933
377.219367	2515.689524
377.605417	2515.712210
377.991404	2514.988804
378.377329	2514.966119
378.763191	2516.975019
379.148991	2512.158196
379.534727	2518.671367
379.920402	2516.027282
380.306013	2515.087107
380.691563	2516.881757
381.077049	2515.215656
381.462474	2514.698938
381.847835	2515.523166
382.233134	2515.387055
382.618371	2517.542148
383.003545	2515.329082
383.388657	2515.160203
383.773706	2515.813033
384.158693	2516.664988
384.543618	2521.012983
384.928480	2517.373270
385.313280	2518.991480
385.698017	2518.071470
386.082692	2516.118022
386.467305	2518.991480
386.851856	2518.905781
387.236344	2520.009793
387.620770	2515.865965
388.005133	2514.845131
388.389435	2515.581140
388.773674	2517.683301
389.157851	2519.563651
389.541965	2519.634227
389.926018	2519.372087
390.310008	2518.441994
390.693936	2520.430730
391.077802	2520.823940
391.461606	2522.212777
391.845348	2521.227232
392.229027	2521.444002
392.612645	2520.133302
392.996200	2522.457273
393.379694	2521.980884
393.763125	2521.451563
394.146494	2521.375946
394.529801	2522.321162
394.913047	2521.806965
395.296230	2525.711338
395.679351	2524.700587
396.062410	2523.490710
396.445408	2524.093128
396.828343	2525.534898
397.211217	2523.180679
397.594028	2523.319311
397.976778	2524.327542
398.359466	2526.021369
398.742092	2522.318642
399.124656	2524.690505
399.507158	2523.798220
399.889598	2526.233098
400.271977	2524.604805
400.654294	2525.461801
401.036549	2526.230577
401.418742	2526.202851
401.800874	2525.207223
402.182944	2526.669158
402.564952	2528.806607
402.946898	2525.005577
403.328783	2526.956503
403.710606	2523.586492
404.092367	2527.987419
404.474067	2526.843077
404.855705	2527.332069
405.237282	2526.482635
405.618797	2526.054137
406.000250	2530.697039
406.381642	2524.415762
406.762972	2528.514220
407.144240	2523.140350
407.525447	2528.325177
407.906593	2525.008097
408.287677	2530.843233
408.668700	2528.632687
409.049661	2530.860877
409.430560	2527.289219
409.811399	2529.121679
410.192176	2529.426669
410.572891	2530.341638
410.953545	2528.872142
411.334138	2527.417769
411.714669	2530.986906
412.095139	2530.066895
412.475547	2530.757533
412.855894	2531.382636
413.236180	2531.259128
413.616405	2529.804755
413.996568	2530.661751
414.376670	2529.784591
414.756711	2532.796680
415.136691	2529.963552
415.516609	2532.837009
415.896466	2533.192411
416.276262	2529.204858
416.655997	2530.845753
417.035670	2530.044210
417.415283	2533.527647
417.794834	2533.411701
418.174324	2532.912627
418.553753	2532.441279
418.933121	2533.197452
419.312428	2532.204344
419.691674	2531.579241
420.070859	2532.907585
420.449983	2533.562935
420.829045	2531.856505
421.208047	2535.103008
421.586988	2535.208872
421.965867	2535.312216
422.344686	2534.218285
422.723444	2533.404139
423.102141	2533.227699
423.480777	2534.462781
423.859352	2535.692823
424.237866	2533.076464
424.616319	2534.704757
424.994712	2534.122503
425.373044	2535.440765
425.751314	2531.866587
426.129524	2533.890610
426.507673	2532.413552
426.885762	2529.235105
427.263789	2535.748276
427.641756	2536.670807
428.019662	2535.624767
428.397508	2535.471012
428.775292	2536.418749
429.153016	2534.984541
429.530679	2534.735004
429.908282	2536.181815
430.285824	2537.447144
430.663305	2535.410518
431.040726	2535.866743
431.418086	2538.062165
431.795385	2537.537885
432.172624	2535.458409
432.549802	2537.127031
432.926920	2535.372710
433.303977	2537.346321
433.680974	2534.203162
434.057910	2537.510159
434.434786	2536.915303
434.811601	2537.971424
435.188355	2535.836496
435.565050	2536.721218
435.941683	2534.644263
436.318257	2537.159799
436.694770	2535.443286
437.071222	2535.302133
437.447614	2537.348842
437.823946	2539.728267
438.200218	2537.343801
438.576429	2538.596528
438.952580	2538.800694
439.328670	2539.166178
439.704700	2537.782381
440.080670	2538.175591
440.456580	2540.045859
440.832429	2539.473688
441.208218	2539.312371
441.583947	2541.197763
441.959616	2539.264480
442.335224	2538.190715
442.710773	2539.428318
443.086261	2538.697351
443.461689	2538.215920
443.837057	2538.636857
444.212365	2538.725077
444.587612	2535.687782
444.962800	2537.860519
445.337927	2534.719880
445.712995	2537.104346
446.088002	2540.822197
446.462949	2539.642567
446.837837	2541.469985
447.212664	2541.170037
447.587431	2540.890253
447.962139	2543.183978
448.336786	2540.267670
448.711374	2540.839841
449.085901	2541.480068
449.460369	2540.693648
449.834776	2541.394368
450.209124	2539.191384
450.583412	2542.745397
450.957640	2539.939995
451.331808	2543.930068
451.705917	2542.137938
452.079965	2539.456044
452.453954	2541.414532
452.827883	2540.612989
453.201752	2541.064172
453.575562	2543.199101
453.949311	2541.699358
454.323001	2539.604758
454.696632	2539.503935
455.070202	2543.080634
455.443713	2545.500388
455.817164	2543.854451
456.190556	2538.493184
456.563888	2543.383103
456.937160	2540.459234
457.310373	2543.423432
457.683526	2544.015768
458.056619	2543.196580
458.429653	2542.712630
458.802628	2543.937630
459.175542	2542.236241
459.548398	2542.500901
459.921194	2544.146838
460.293930	2543.756148
460.666607	2543.292362
461.039224	2544.156920
461.411782	2545.061807
461.784280	2541.749769
462.156719	2546.440563
462.529099	2544.348484
462.901419	2544.517363
463.273680	2541.648946
463.645882	2538.798174
464.018024	2541.850592
464.390106	2539.919830
464.762130	2544.033412
465.134094	2544.696324
465.505999	2544.537527
465.877845	2543.708258
466.249631	2545.056766
466.621358	2543.463762
466.993026	2546.470810
467.364634	2548.623383
467.736184	2545.218083
468.107674	2541.717002
468.479105	2546.380069
468.850477	2544.789585
469.221790	2546.700182
469.593043	2547.486602
469.964238	2545.696993
470.335373	2547.990718
470.706449	2547.015254
471.077467	2546.765717
471.448425	2546.586756
471.819324	2543.584749
472.190164	2546.932075
472.560945	2546.317055
472.931667	2546.591798
473.302330	2541.923689
473.672934	2546.765717
474.043479	2545.099616
474.413965	2546.485933
474.784393	2546.064997
475.154761	2546.140614
475.525070	2544.918134
475.895321	2546.927034
476.265513	2546.967363
476.635645	2546.584236
477.005719	2548.509957
477.375734	2546.843855
477.745691	2547.398382
478.115588	2546.967363
478.485427	2545.959133
478.855207	2545.467620
479.224928	2548.222611
479.594591	2547.186654
479.964194	2549.722354
480.333739	2546.392672
480.703226	2546.430481
481.072653	2546.682538
481.442022	2549.389638
481.811333	2546.140614
482.180584	2540.600386
482.549777	2543.524255
482.918912	2545.046684
483.287988	2546.788402
483.657005	2547.098433
484.025964	2548.404092
484.394864	2546.982487
484.763706	2547.927703
485.132489	2549.997097
485.501213	2550.780996
485.869879	2548.527601
486.238487	2551.388455
486.607036	2547.468958
486.975527	2547.642878
487.343959	2545.691952
487.712333	2549.470296
488.080648	2547.063145
488.448905	2549.392158
488.817104	2549.795451
489.185244	2547.970553
489.553326	2549.298897
489.921350	2549.561037
490.289315	2550.654967
490.657222	2552.767211
491.025070	2551.005328
491.392861	2548.240255
491.760593	2548.146993
492.128267	2550.753270
492.495883	2550.866696
492.863440	2549.102292
493.230939	2549.119936
493.598380	2549.268650
493.965763	2550.546583
494.333088	2549.840821
494.700354	2552.910884
495.067563	2551.012889
495.434713	2548.913249
495.801805	2552.038764
496.168839	2547.673125
496.535815	2551.872406
496.902733	2552.479865
497.269593	2550.733105
497.636395	2550.826367
498.003139	2551.401058
498.369825	2549.233362
498.736453	2550.536500
499.103023	2550.841490
499.469535	2553.218394
499.835989	2551.113713
500.202385	2550.037426
500.568723	2547.289997
500.935003	2548.139432
501.301226	2545.339071
501.667390	2551.514484
502.033497	2551.239741
502.399546	2549.261088
502.765537	2551.491799
503.131470	2549.283774
503.497345	2547.597508
503.863163	2554.362736
504.228923	2555.161759
504.594625	2553.294012
504.960269	2551.527087
505.325856	2550.773435
505.691385	2550.705379
506.056856	2551.378373
506.422270	2552.560524
506.787625	2553.462890
507.152924	2550.904505
507.518164	2551.360729
507.883347	2551.350647
508.248472	2553.619166
508.613540	2550.581871
508.978550	2550.899463
509.343503	2551.287632
509.708398	2551.912735
510.073236	2549.044319
510.438016	2551.348126
510.802738	2552.303425
511.167403	2551.574978
511.532010	2550.753270
511.896561	2550.075235
512.261053	2548.903167
512.625488	2552.880637
512.989866	2551.587581
513.354186	2550.745708
513.718449	2552.303425
514.082655	2551.607746
514.446803	2552.318548
514.810894	2555.663354
515.174927	2552.134546
515.538904	2551.786707
515.902822	2548.641027
516.266684	2553.034392
516.630488	2553.241079
516.994235	2552.424412
517.357925	2554.214022
517.721558	2554.105637
518.085133	2551.832077
518.448651	2551.761501
518.812112	2550.564227
519.175516	2552.240410
519.538863	2545.162630
519.902152	2555.965823
520.265385	2550.173537
520.628560	2554.196378
520.991678	2551.569937
521.354739	2552.883157
521.717743	2552.081614
522.080690	2553.052036
522.443580	2555.481872
522.806413	2553.483055
523.169189	2554.037582
523.531908	2553.800648
523.894569	2552.855431
524.257174	2554.269475
524.619722	2553.462890
524.982213	2552.898281
525.344647	2555.209650
525.707025	2554.718137
526.069345	2554.944989
526.431608	2553.846018
526.793815	2553.624207
527.155964	2553.677139
527.518057	2554.841646
527.880093	2554.516491
528.242072	2553.087324
528.603995	2553.878785
528.965860	2552.794937
529.327669	2555.277706
529.689421	2556.250648
530.051117	2553.919115
530.412755	2555.000442
530.774337	2554.458518
531.135862	2555.529763
531.497331	2555.998591
531.858743	2554.440874
532.220098	2553.873744
532.581396	2556.414486
532.942638	2555.010524
533.303824	2559.305588
533.664953	2556.459856
534.026025	2558.183931
534.387040	2555.126471
534.747999	2558.809034
535.108902	2559.456822
535.469748	2558.433468
535.830537	2562.146278
536.191270	2556.515309
536.551947	2555.859959
536.912567	2554.889537
537.273131	2557.173179
537.633638	2556.114537
537.994089	2562.610064
538.354483	2561.259035
538.714821	2561.876576
539.075103	2562.844478
539.435328	2563.835064
539.795497	2562.925136
540.155609	2562.340362
540.515665	2563.620815
540.875665	2564.066957
541.235609	2565.808676
541.595496	2562.700805
541.955328	2565.728018
542.315102	2568.815724
542.674821	2566.985785
543.034483	2565.823799
543.394090	2565.725497
543.753640	2568.830848
544.113134	2568.258677
544.472571	2567.215158
544.831953	2572.165571
545.191278	2568.520817
545.550548	2569.413101
545.909761	2568.087277
546.268918	2573.536765
546.628019	2568.286403
546.987064	2571.333781
547.346053	2571.053997
547.704986	2572.767989
548.063863	2574.431570
548.422684	2571.490056
548.781449	2574.242526
549.140158	2575.313772
549.498811	2575.583473
549.857408	2573.803946
550.215949	2575.270922
550.574434	2574.678586
550.932864	2574.103895
551.291237	2576.458113
551.649555	2577.617579
552.007817	2576.962229
552.366022	2576.853844
552.724173	2577.443659
553.082267	2578.963567
553.440305	2579.220666
553.798288	2576.851323
554.156215	2578.585480
554.514086	2577.539441
554.871902	2575.243195
555.229661	2573.254460
555.587365	2575.419636
555.945014	2580.362487
556.302606	2579.157651
556.660143	2579.243351
557.017625	2580.672518
557.375050	2580.133115
557.732421	2580.531366
558.089735	2583.104875
558.446994	2579.636561
558.804197	2581.446335
559.161345	2582.147056
559.518437	2579.346695
559.875474	2579.639082
560.232455	2577.988104
560.589381	2582.066397
560.946251	2578.696386
561.303065	2581.305183
561.659825	2580.826273
562.016528	2582.507498
562.373177	2582.212591
562.729770	2579.543300
563.086307	2583.664443
563.442789	2581.244689
563.799216	2581.073290
564.155587	2583.515729
564.511904	2582.903229
564.868164	2582.585636
565.224370	2582.651171
565.580520	2581.209401
565.936615	2582.923393
566.292654	2579.056828
566.648638	2582.928434
567.004567	2580.249061
567.360441	2580.291911
567.716260	2578.950964
568.072023	2580.924576
568.427732	2581.658064
568.783385	2581.252251
569.138982	2581.408527
569.494525	2580.415419
569.850013	2584.382807
570.205445	2579.941551
570.560823	2580.559092
570.916145	2578.930799
571.271412	2579.855851
571.626625	2583.170410
571.981782	2579.308886
572.336884	2576.538772
572.691931	2577.809143
573.046923	2574.963411
573.401860	2574.068607
573.756743	2577.753690
574.111570	2578.303176
574.466342	2580.596901
574.821059	2576.324523
575.175722	2577.068093
575.530330	2580.516242
575.884882	2580.128073
576.239380	2577.506673
576.593823	2580.014648
576.948211	2576.427867
577.302544	2577.267219
577.656823	2575.712023
578.011047	2577.698237
578.365216	2577.715881
578.719330	2581.058166
579.073389	2576.982393
579.427394	2576.937023
579.781344	2575.767475
580.135239	2573.564491
580.489080	2577.579770
580.842866	2576.810994
581.196597	2576.190932
581.550273	2573.398133
581.903895	2576.838721
582.257463	2574.169430
582.610975	2574.111456
582.964434	2574.925603
583.317837	2574.673545
583.671186	2575.008782
584.024481	2576.125397
584.377721	2574.056004
584.730906	2574.915520
585.084037	2574.035839
585.437113	2572.831003
585.790135	2577.879719
586.143103	2573.393092
586.496016	2575.054152
586.848874	2573.932495
587.201679	2573.173802
587.554428	2575.008782
587.907124	2573.675397
588.259765	2574.590366
588.612352	2573.297310
588.964884	2573.675397
589.317362	2572.120201
589.669786	2570.915365
590.022155	2569.425704
590.374470	2568.853533
590.726731	2567.452092
591.078937	2567.167267
591.431090	2570.383523
591.783188	2572.294120
592.135232	2569.987793
592.487222	2569.937381
592.839157	2572.190777
593.191038	2571.240519
593.542866	2571.905952
593.894639	2571.258163
594.246358	2570.499470
594.598022	2570.449058
594.949633	2570.002916
595.301190	2571.033832
595.652692	2570.292782
596.004141	2569.854202
596.355535	2566.297668
596.706876	2566.456464
597.058162	2569.702967
597.409395	2567.683985
597.760573	2571.996692
598.111698	2567.358831
598.462768	2570.645663
598.813785	2567.978893
599.164748	2570.769171
599.515657	2571.656414
599.866511	2569.357648
600.217312	2564.644169
600.568060	2569.327401
600.918753	2569.987792
601.269392	2568.152812
601.619978	2568.140210
601.970510	2569.274469
602.320988	2568.256156
602.671412	2567.903275
603.021783	2568.402350
603.372100	2570.474264
603.722363	2568.394788
604.072572	2570.733883
604.422728	2571.472412
604.772830	2569.758420
605.122878	2569.551733
605.472872	2569.617268
605.822813	2568.059551
606.172701	2570.229768
606.522534	2570.822103
606.872314	2572.427711
607.222041	2570.113821
607.571714	2565.239026
607.921333	2565.937225
608.270899	2570.338153
608.620411	2568.034345
608.969870	2572.747824
609.319276	2577.468865
609.668627	2581.582446
610.017926	2583.084710
610.367171	2585.774166
610.716362	2586.212746
611.065500	2583.556058
611.414585	2582.414237
611.763616	2581.108578
612.112594	2579.462641
612.461518	2579.208063
612.810389	2580.130594
613.159207	2577.945254
613.507971	2577.915007
613.856682	2578.940882
614.205340	2578.671180
614.553945	2577.277301
614.902496	2576.125397
615.250994	2579.692014
615.599439	2578.648495
615.947830	2575.926272
616.296169	2577.983062
616.644454	2578.056159
616.992686	2577.005079
617.340864	2579.480285
617.688990	2577.131107
618.037063	2581.360636
618.385082	2580.246541
618.733048	2583.714854
619.080961	2578.416602
619.428821	2582.520101
619.776628	2580.354925
620.124382	2583.737540
620.472083	2580.990111
620.819731	2586.172417
621.167326	2581.814339
621.514868	2584.685277
621.862357	2581.000193
622.209793	2582.918352
622.557176	2581.577405
622.904506	2584.067735
623.251783	2583.369535
623.599007	2581.406006
623.946179	2581.080852
624.293297	2585.096131
624.640363	2581.368197
624.987376	2579.901222
625.334336	2578.109091
625.681243	2581.655543
626.028097	2575.097002
626.374899	2585.285174
626.721647	2581.479103
627.068343	2584.055132
627.414987	2580.720409
627.761577	2583.251068
628.108115	2584.400451
628.454600	2583.752663
628.801032	2583.780389
629.147412	2583.919021
629.493739	2585.421285
629.840014	2587.094948
630.186236	2586.457242
630.532405	2588.876996
630.878521	2585.479258
631.224585	2586.399269
631.570597	2588.352716
631.916556	2588.796337
632.262462	2586.326172
632.608316	2587.876327
632.954117	2587.770463
633.299866	2589.529825
633.645562	2589.862542
633.991206	2591.195927
634.336797	2587.548652
634.682336	2589.106368
635.027823	2588.650144
635.373257	2591.689960
635.718639	2587.536049
636.063968	2588.544280
636.409245	2586.545462
636.754470	2587.485638
637.099642	2591.485793
637.444762	2586.860534
637.789829	2591.745412
638.134845	2589.890268
638.479808	2589.799527
638.824719	2590.142326
639.169577	2590.109558
639.514383	2590.366657
639.859137	2589.819692
640.203839	2592.708273
640.548489	2592.244487
640.893086	2591.987388
641.237632	2591.339600
641.582125	2594.810434
641.926566	2594.132399
642.270955	2593.850094
642.615292	2592.640217
642.959576	2594.931422
643.303809	2592.920001
643.647990	2597.106680
643.992118	2598.929057
644.336195	2596.784046
644.680219	2599.644901
645.024192	2601.762185
645.368112	2601.245467
645.711981	2604.237392
646.055797	2606.190839
646.399562	2607.365428
646.743274	2609.323916
647.086935	2614.022271
647.430544	2611.826849
647.774101	2614.823815
648.117606	2620.061574
648.461059	2620.008642
648.804460	2623.489558
649.147810	2621.596605
649.491108	2617.571244
649.834354	2620.769856
650.177548	2620.918570
650.520690	2619.693569
650.863781	2624.039044
651.206820	2622.095679
651.549807	2623.955865
651.892742	2622.526698
652.235626	2624.780094
652.578458	2624.429733
652.921238	2625.216153
653.263967	2630.080867
653.606644	2626.655403
653.949269	2627.696401
654.291843	2629.249077
654.634365	2632.634211
654.976836	2632.329222
655.319255	2631.023563
655.661622	2635.600930
656.003938	2633.488687
656.346203	2637.108235
656.688416	2637.604789
657.030577	2639.374234
657.372687	2641.788947
657.714746	2642.066210
658.056753	2641.549492
658.398708	2645.589977
658.740612	2646.320944
659.082465	2650.207674
659.424266	2648.239103
659.766016	2650.278250
660.107715	2656.073056
660.449362	2653.413847
660.790958	2663.692760
661.132503	2663.470949
661.473996	2666.059582
661.815438	2670.954542
662.156829	2671.756086
662.498168	2670.682320
662.839456	2674.503515
663.180693	2673.270952
663.521879	2681.540965
663.863013	2683.542303
664.204097	2685.168076
664.545129	2689.291739
664.886110	2689.085052
665.227040	2697.390353
665.567918	2700.367154
665.908746	2706.353525
666.249522	2704.881508
666.590248	2707.596169
666.930922	2717.975905
667.271545	2720.453632
667.612118	2724.957903
667.952639	2723.213664
668.293109	2727.642317
668.633528	2729.948645
668.973896	2731.798749
669.314213	2742.299472
669.654480	2737.268401
669.994695	2737.301168
670.334859	2739.559605
670.674973	2746.503794
671.015035	2751.522263
671.355047	2753.226173
671.695008	2751.527304
672.034918	2756.787748
672.374777	2765.352669
672.714585	2767.041455
673.054342	2774.635953
673.394049	2775.147631
673.733705	2783.780607
674.073310	2787.274126
674.412864	2801.018832
674.752368	2792.627832
675.091820	2790.727317
675.431223	2804.948412
675.770574	2793.353758
676.109875	2800.234933
676.449125	2800.678554
676.788324	2801.104532
677.127473	2797.855508
677.466571	2804.552681
677.805619	2810.768424
678.144616	2808.789771
678.483562	2816.795123
678.822458	2810.619710
679.161303	2812.820173
679.500098	2826.002791
679.838842	2825.367605
680.177535	2825.493634
680.516179	2830.035714
680.854771	2840.493587
681.193314	2856.405989
681.531805	2854.059332
681.870247	2890.874879
682.208638	2904.123031
682.546978	2932.741662
682.885268	2942.705502
683.223508	2928.552463
683.561697	2923.123140
683.899836	2930.775612
684.237925	2930.057247
684.575963	2932.056065
684.913951	2957.087914
685.251889	2942.581994
685.589776	2965.317598
685.927614	2969.237095
686.265401	2960.888944
686.603137	2983.745536
686.940824	2993.888337
687.278460	3017.400279
687.616046	3033.993237
687.953582	3053.971329
688.291068	3047.017057
688.628504	3063.458781
688.965889	3084.099785
689.303224	3103.661983
689.640510	3098.371292
689.977745	3075.310533
690.314930	3074.234247
690.652065	3073.425142
690.989150	3051.833880
691.326185	3047.692572
691.663170	3037.065820
692.000105	3023.668953
692.336990	3034.671272
692.673825	3015.545134
693.010610	3012.896008
693.347345	3002.652383
693.684030	2987.092862
694.020665	2989.805003
694.357251	2990.442708
694.693786	3009.573887
695.030272	2979.808394
695.366707	2984.416009
695.703093	2984.600011
696.039429	2993.956393
696.375716	3002.463340
696.711952	2983.861482
697.048139	3000.527537
697.384276	3010.524145
697.720363	3008.643794
698.056400	3006.763444
698.392388	3019.484796
698.728326	3020.069570
699.064214	3014.562109
699.400053	3041.136552
699.735842	3022.383459
700.071581	3020.629138
700.407270	3014.398272
700.742910	3014.627644
701.078501	3019.625948
701.414042	3009.873836
701.749533	3008.732015
702.084974	3001.581138
702.420366	3005.440141
702.755709	3010.665297
703.091002	3001.266066
703.426246	3010.070441
703.761440	3009.266377
704.096584	3014.310051
704.431679	3008.840399
704.766725	3014.020185
705.101721	3015.058663
705.436668	3017.639733
705.771565	3015.832480
706.106413	3030.875283
706.441212	3048.899928
706.775961	3035.591282
707.110661	3042.391799
707.445311	3075.363466
707.779913	3062.969789
708.114465	3084.341761
708.448967	3097.174018
708.783421	3100.609564
709.117825	3138.140954
709.452180	3150.219559
709.786485	3152.130156
710.120742	3199.421221
710.454949	3205.576469
710.789107	3221.556927
711.123216	3248.290166
711.457275	3285.942544
711.791286	3318.183243
712.125247	3307.339722
712.459159	3335.300481
712.793023	3365.189483
713.126837	3324.154490
713.460602	3341.087726
713.794318	3300.327477
714.127985	3337.790811
714.461602	3317.590908
714.795171	3293.942855
715.128691	3279.688993
715.462162	3244.206831
715.795584	3262.768360
716.128957	3245.300762
716.462281	3201.304092
716.795556	3244.171543
717.128782	3207.252653
717.461960	3166.883093
717.795088	3195.809234
718.128167	3191.846887
718.461198	3164.876714
718.794180	3162.119203
719.127113	3185.215249
719.459997	3167.258659
719.792833	3123.619911
720.125619	3144.981800
720.458357	3117.578088
720.791046	3124.124026
721.123686	3154.580157
721.456278	3125.127216
721.788821	3122.440281
722.121315	3105.549895
722.453761	3132.157105
722.786158	3142.453662
723.118506	3139.005512
723.450805	3144.386944
723.783056	3146.862151
724.115259	3132.094090
724.447412	3149.745691
724.779518	3147.983807
725.111574	3154.403717
725.443582	3178.139990
725.775542	3173.280317
726.107453	3210.967983
726.439315	3202.244267
726.771129	3206.514124
727.102895	3235.493197
727.434612	3262.700304
727.766281	3273.851337
728.097901	3286.761732
728.429473	3281.171092
728.760996	3288.508491
729.092471	3296.017290
729.423897	3300.201448
729.755276	3315.614776
730.086606	3308.252170
730.417887	3311.264260
730.749120	3335.368537
731.080305	3406.965524
731.411442	3430.434616
731.742530	3410.562388
732.073570	3467.121613
732.404562	3487.714727
732.735506	3432.932508
733.066401	3485.015189
733.397249	3477.677789
733.728048	3435.780760
734.058798	3383.579612
734.389501	3369.582848
734.720156	3337.604289
735.050762	3282.065897
735.381320	3266.924791
735.711831	3274.607510
736.042293	3263.010335
736.372707	3275.963580
736.703073	3250.974580
737.033391	3254.306783
737.363661	3252.628079
737.693883	3264.557969
738.024056	3301.297899
738.354182	3311.662511
738.684260	3308.834424
739.014290	3337.571521
739.344272	3365.197044
739.674207	3361.252341
740.004093	3381.048953
740.333931	3388.928276
740.663722	3393.427506
740.993464	3428.181220
741.323159	3454.538893
741.652806	3359.155221
741.982405	3358.275540
742.311956	3429.401180
742.641460	3391.597567
742.970915	3330.753361
743.300323	3352.548789
743.629683	3338.514217
743.958996	3310.092192
744.288260	3299.019297
744.617477	3308.685710
744.946647	3317.454797
745.275768	3267.013011
745.604842	3272.850668
745.933869	3273.775719
746.262847	3253.840476
746.591778	3267.496962
746.920662	3265.089811
747.249498	3258.654778
747.578286	3274.065586
747.907027	3302.628763
748.235720	3321.563337
748.564365	3289.897329
748.892963	3297.406128
749.221514	3378.460320
749.550017	3337.821058
749.878473	3283.668984
750.206881	3321.780107
750.535242	3310.586225
750.863555	3285.566978
751.191821	3313.260557
751.520039	3324.739264
751.848210	3290.093934
752.176334	3287.696866
752.504411	3332.106910
752.832440	3308.199238
753.160421	3258.735437
753.488356	3297.741365
753.816243	3336.432220
754.144082	3282.456586
754.471875	3262.186107
754.799620	3292.518729
755.127318	3300.733289
755.454969	3283.449693
755.782572	3272.643980
756.110129	3302.439720
756.437638	3321.447391
756.765100	3281.637399
757.092515	3279.361318
757.419882	3304.534319
757.747203	3303.314360
758.074477	3333.551201
758.401703	3340.984382
758.728882	3299.780511
759.056014	3304.274700
759.383099	3383.682955
759.710138	3377.636091
760.037129	3352.450487
760.364073	3354.595498
760.690970	3404.598703
761.017820	3411.941143
761.344623	3366.888351
761.671379	3401.574010
761.998088	3447.060342
762.324751	3508.620392
762.651366	3664.404648
762.977935	3979.050786
763.304456	4368.474880
763.630931	4585.299948
763.957359	4513.345038
764.283740	4352.965770
764.610074	4207.210889
764.936362	3930.622942
765.262602	3758.465018
765.588796	3600.434927
765.914943	3496.342662
766.241044	3490.865448
766.567097	3450.160651
766.893104	3360.493648
767.219064	3299.059626
767.544978	3296.264307
767.870845	3291.588636
768.196665	3247.178592
768.522438	3222.625652
768.848165	3224.468193
769.173846	3221.919890
769.499479	3205.740307
769.825066	3185.802543
770.150607	3170.106911
770.476101	3162.532577
770.801548	3179.644774
771.126949	3165.090963
771.452303	3144.119763
771.777611	3128.593009
772.102872	3135.486787
772.428087	3128.315746
772.753256	3129.848256
773.078378	3117.671349
773.403453	3092.586568
773.728482	3094.832402
774.053465	3080.815473
774.378401	3078.294897
774.703291	3095.354161
775.028135	3069.369534
775.352932	3042.802653
775.677683	3037.287631
776.002388	3060.991136
776.327046	3075.116449
776.651658	3036.355017
776.976224	3002.894358
777.300743	3014.126049
777.625216	3039.624205
777.949643	3044.163764
778.274024	3016.218128
778.598359	2994.523523
778.922647	3008.868126
779.246889	3015.877850
779.571086	3017.004548
779.895236	3013.616893
780.219339	2999.209275
780.543397	2990.188130
780.867409	3016.223169
781.191374	3029.476363
781.515294	3009.281500
781.839167	3002.649862
782.162995	3010.816532
782.486776	3010.589680
782.810511	3020.646782
783.134201	3027.883358
783.457844	3011.580267
783.781441	2983.269147
784.104993	2983.468272
784.428498	2998.984944
784.751958	3011.250071
785.075372	2998.838750
785.398739	2975.460399
785.722061	2983.251503
786.045337	3010.488857
786.368568	3033.330325
786.691752	2987.576812
787.014891	2997.490242
787.337983	3043.004299
787.661030	3097.998246
787.984031	3144.505411
788.306987	3206.577138
788.629897	3225.670509
788.952760	3211.575442
789.275579	3204.593444
789.598351	3212.180381
789.921078	3168.758402
790.243759	3075.071079
790.566395	3077.727767
790.888984	3090.028182
791.211529	3045.928168
791.534027	3027.417051
791.856480	3037.953063
792.178888	3002.733042
792.501249	2974.570636
792.823566	2985.885505
793.145836	3013.269053
793.468062	2988.368274
793.790241	2963.865745
794.112375	2975.810759
794.434464	3004.804956
794.756507	3025.982843
795.078505	3010.884587
795.400457	3004.757065
795.722364	3057.444684
796.044226	3096.521188
796.366042	3117.678911
796.687812	3125.485138
797.009538	3126.097638
797.331218	3107.498301
797.652852	3103.661983
797.974442	3104.965121
798.295986	3117.570526
798.617484	3082.942840
798.938938	3044.161244
799.260346	3069.435069
799.581709	3081.979980
799.903026	3046.749876
800.224299	3030.993750
800.545526	3032.979965
800.866708	3016.732326
801.187845	2984.229486
801.508936	3010.579598
801.829983	3022.136443
802.150984	2975.699854
802.471940	2969.040490
802.792851	2982.891060
803.113717	2985.071359
803.434538	2991.733244
803.755314	2963.245683
804.076045	2938.851540
804.396731	2954.320321
804.717372	2971.422435
805.037967	2969.148875
805.358518	2962.620580
805.679024	2967.223154
805.999485	2968.445634
806.319901	2971.883701
806.640272	2988.123778
806.960598	2991.771053
807.280879	2974.313537
807.601115	2976.675317
807.921306	2991.030003
808.241453	3018.842049
808.561554	3009.873836
808.881611	2968.422948
809.201623	2987.246617
809.521590	3002.370078
809.841513	2989.459683
810.161390	3009.563805
810.481223	3006.970131
810.801011	2970.721715
811.120755	2964.982361
811.440453	2994.609222
811.760107	3002.672548
812.079716	2986.636637
812.399281	2961.070426
812.718801	2975.515852
813.038276	2964.095118
813.357707	2971.545943
813.677093	2984.257213
813.996434	2955.547842
814.315731	2957.700414
814.634983	2960.987247
814.954191	2969.537043
815.273354	2990.059581
815.592473	2995.118379
815.911547	2983.604383
816.230577	2998.440499
816.549562	3029.700694
816.868502	3060.524829
817.187399	3072.593352
817.506250	3064.535067
817.825058	3047.574105
818.143821	3099.082094
818.462539	3162.714059
818.781213	3182.873633
819.099843	3196.633462
819.418429	3298.573155
819.736970	3401.407652
820.055466	3500.126047
820.373919	3690.769883
820.692327	3891.659864
821.010691	4047.988565
821.329011	4580.142847
821.647286	5553.985386
821.965517	6915.379229
822.283704	8002.100763
822.601847	8697.152371
822.919945	8445.462683
823.237999	7954.096376
823.556010	7287.209695
823.873976	6656.573952
824.191897	5790.291993
824.509775	5206.075194
824.827609	4718.404053
825.145398	4465.199499
825.463144	4438.461219
825.780845	4487.186491
826.098502	4492.651102
826.416116	4778.807159
826.733685	5285.685096
827.051210	5788.273011
827.368692	5936.684580
827.686129	5481.629705
828.003522	4827.308100
828.320872	4410.603802
828.638177	4118.073207
828.955439	3866.834702
829.272656	3615.024026
829.589830	3463.013073
829.906960	3387.078173
830.224046	3291.649130
830.541088	3234.845409
830.858086	3217.430743
831.175041	3181.804908
831.491952	3171.294103
831.808819	3179.680062
832.125642	3216.513253
832.442421	3287.520425
832.759157	3413.597162
833.075849	3653.533400
833.392497	4012.660159
833.709101	4300.502482
834.025662	4489.374352
834.342179	4412.128752
834.658653	4154.596366
834.975083	3873.758727
835.291469	3596.593567
835.607811	3373.157026
835.924110	3317.636278
836.240366	3214.879919
836.556578	3096.133019
836.872746	3038.535316
837.188871	3030.741692
837.504952	3001.654235
837.820990	2952.631534
838.136984	2918.628951
838.452935	2938.571756
838.768842	2941.041921
839.084706	2951.479630
839.400526	3020.026720
839.716303	3153.516474
840.032037	3375.433107
840.347727	3537.508724
840.663373	3453.215590
840.978977	3285.529169
841.294537	3134.082826
841.610054	3005.329236
841.925527	2945.354628
842.240957	2910.588311
842.556344	2886.836915
842.871687	2856.537059
843.186987	2828.770384
843.502244	2803.872125
843.817458	2785.895371
844.132629	2762.668254
844.447756	2774.119235
844.762840	2768.639501
845.077881	2748.661408
845.392879	2738.654718
845.707833	2738.863926
846.022745	2736.300499
846.337613	2740.431725
846.652438	2732.617936
846.967221	2732.640621
847.281960	2721.378684
847.596656	2720.425906
847.911309	2718.623693
848.225919	2716.967674
848.540485	2713.708568
848.855009	2718.938765
849.169490	2712.448280
849.483928	2706.207331
849.798323	2700.694829
850.112675	2703.797660
850.426984	2708.397712
850.741251	2707.946529
851.055474	2703.447299
851.369654	2698.237267
851.683792	2700.999819
851.997887	2704.717670
852.311938	2705.249512
852.625947	2703.406970
852.939914	2706.121632
853.253837	2708.291848
853.567718	2697.859180
853.881555	2694.980682
854.195350	2709.128680
854.509103	2705.509131
854.822812	2702.141641
855.136479	2697.445806
855.450103	2699.928574
855.763685	2696.535877
856.077224	2688.767459
856.390720	2699.452185
856.704173	2709.584904
857.017584	2703.964018
857.330953	2700.125179
857.644278	2708.105326
857.957561	2711.674462
858.270802	2712.264277
858.584000	2716.874413
858.897155	2708.359904
859.210268	2709.347970
859.523339	2706.356045
859.836367	2706.683720
860.149352	2702.444110
860.462295	2700.185673
860.775195	2708.985007
861.088054	2708.843855
861.400869	2700.084850
861.713642	2694.292564
862.026373	2705.065510
862.339062	2705.894780
862.651708	2711.566078
862.964312	2711.739997
863.276873	2707.989379
863.589392	2710.212528
863.901869	2717.053374
864.214303	2725.618294
864.526696	2740.071282
864.839045	2738.735376
865.151353	2735.632546
865.463619	2736.476939
865.775842	2732.691033
866.088023	2749.195771
866.400162	2759.126844
866.712258	2741.649163
867.024313	2732.590210
867.336325	2737.906107
867.648296	2750.370359
867.960224	2743.756366
868.272110	2740.850140
868.583954	2744.310892
868.895755	2756.555855
869.207515	2745.687127
869.519233	2745.354411
869.830909	2754.425968
870.142542	2759.227667
870.454134	2760.477873
870.765684	2763.303440
871.077191	2762.350662
871.388657	2765.007350
871.700081	2774.101591
872.011463	2779.528393
872.322803	2781.330606
872.634101	2776.581839
872.945357	2783.768004
873.256571	2803.572177
873.567744	2795.445837
873.878874	2789.709003
874.189963	2805.439924
874.501010	2811.607776
874.812015	2807.312713
875.122979	2810.286993
875.433900	2806.793474
875.744780	2808.668783
876.055618	2813.157931
876.366415	2816.043991
876.677169	2825.967502
876.987882	2827.951197
877.298554	2817.838642
877.609183	2835.230623
877.919771	2848.687983
878.230317	2868.066178
878.540822	2908.448341
878.851285	2934.044800
879.161707	2956.198150
879.472087	3015.250227
879.782425	3146.758807
880.092722	3413.965167
880.402977	3702.026780
880.713191	3932.999846
881.023363	4323.049043
881.333494	4788.808808
881.643583	5003.693032
881.953631	4985.149148
882.263637	4864.426116
882.573602	4718.595617
882.883526	4488.091378
883.193408	4192.924259
883.503248	3944.160961
883.813048	3808.301864
884.122806	3662.998167
884.432522	3479.653922
884.742197	3340.366841
885.051831	3218.950651
885.361424	3129.235756
885.670975	3088.397369
885.980485	3039.273845
886.289954	2992.091166
886.599382	2964.508493
886.908768	2936.598144
887.218113	2907.056983
887.527417	2875.355687
887.836680	2845.965760
888.145901	2844.405523
888.455082	2843.430059
888.764221	2808.825059
889.073319	2790.656740
889.382376	2791.458284
889.691392	2790.334107
890.000366	2791.927111
890.309300	2781.282715
890.618193	2791.866617
890.927044	2803.239460
891.235855	2804.086374
891.544625	2789.582975
891.853353	2795.589509
892.162041	2806.488484
892.470687	2831.013697
892.779293	2864.378574
893.087858	2892.246073
893.396381	2932.184614
893.704864	3000.189779
894.013306	3129.417238
894.321707	3305.408960
894.630068	3429.711211
894.938387	3436.267231
895.246665	3422.898091
895.554903	3374.298848
895.863100	3256.177051
896.171256	3159.031496
896.479371	3079.847572
896.787446	3002.717918
897.095480	2932.628236
897.403473	2888.480331
897.711425	2858.677029
898.019336	2856.214426
898.327207	2840.609534
898.635038	2817.064825
898.942827	2800.988585
899.250576	2795.836526
899.558284	2773.035387
899.865952	2760.452667
900.173579	2749.052098
900.481165	2746.781058
900.788711	2742.312075
901.096216	2723.929507
901.403681	2711.273691
901.711105	2721.618138
902.018489	2718.018755
902.325832	2720.272150
902.633135	2723.558983
902.940397	2745.142683
903.247619	2791.450722
903.554800	2903.709657
903.861941	3089.057760
904.169041	3325.447546
904.476101	3512.277749
904.783121	3523.852238
905.090100	3401.352200
905.397039	3248.385948
905.703938	3090.867534
906.010796	2974.147179
906.317614	2901.904923
906.624391	2842.076510
906.931129	2796.249901
907.237826	2755.464445
907.544483	2722.129816
907.851099	2703.326312
908.157675	2689.019517
908.464211	2675.138700
908.770707	2666.369613
909.077163	2659.611946
909.383578	2648.506284
909.689954	2637.297279
909.996289	2638.416415
910.302584	2640.808442
910.608839	2643.482774
910.915054	2639.177629
911.221229	2633.085395
911.527363	2633.034983
911.833458	2635.197638
912.139513	2640.251395
912.445527	2642.305665
912.751502	2650.333702
913.057436	2655.818478
913.363331	2666.417504
913.669186	2674.679955
913.975000	2698.907740
914.280775	2737.727146
914.586510	2782.721964
914.892205	2830.912874
915.197859	2903.102198
915.503475	3007.814525
915.809050	3128.023359
916.114585	3223.742267
916.420081	3250.803181
916.725536	3230.026066
917.030952	3163.762619
917.336328	3086.048191
917.641665	3004.179853
917.946961	2939.007816
918.252218	2897.935015
918.557435	2848.914835
918.862612	2813.404947
919.167750	2777.166613
919.472848	2752.149887
919.777906	2735.274624
920.082925	2718.139742
920.387904	2698.854808
920.692843	2686.710669
920.997743	2679.380831
921.302603	2669.905982
921.607423	2663.481032
921.912204	2656.945176
922.216946	2648.849083
922.521647	2642.441776
922.826310	2635.487504
923.130932	2632.656897
923.435516	2628.336628
923.740059	2622.115844
924.044564	2615.577467
924.349028	2610.125459
924.653454	2607.773761
924.957840	2602.392329
925.262186	2598.661876
925.566493	2596.781525
925.870761	2594.911257
926.174989	2590.033941
926.479178	2588.342634
926.783328	2582.431881
927.087438	2581.363156
927.391509	2581.456417
927.695541	2578.179667
927.999533	2577.267219
928.303486	2575.056673
928.607400	2574.176991
928.911275	2577.400809
929.215110	2573.148596
929.518906	2573.693041
929.822663	2571.331260
930.126381	2572.006775
930.430060	2571.515262
930.733699	2570.232288
931.037299	2573.355283
931.340861	2578.550192
931.644383	2572.609192
931.947866	2574.088771
932.251309	2572.241188
932.554714	2573.241857
932.858080	2570.859912
933.161407	2567.348748
933.464694	2568.989644
933.767943	2565.155847
934.071153	2569.188770
934.374323	2568.929150
934.677455	2568.667010
934.980548	2564.099725
935.283602	2564.954200
935.586617	2567.053841
935.889593	2567.265569
936.192530	2567.212637
936.495428	2566.597617
936.798287	2568.278841
937.101108	2574.310582
937.403890	2573.569532
937.706632	2578.154462
938.009336	2581.794175
938.312002	2588.030082
938.614628	2595.324632
938.917216	2599.710436
939.219765	2602.720004
939.522275	2602.210848
939.824747	2595.929570
940.127179	2597.572986
940.429573	2597.058789
940.731929	2593.920670
941.034246	2590.628797
941.336524	2589.471852
941.638763	2587.641913
941.940964	2586.300966
942.243126	2580.531366
942.545250	2583.913980
942.847335	2583.152766
943.149381	2578.608166
943.451389	2577.451221
943.753359	2572.021898
944.055290	2572.284038
944.357182	2571.512742
944.659036	2571.545509
944.960851	2572.427711
945.262628	2568.916547
945.564367	2570.005437
945.866067	2572.505849
946.167729	2569.506362
946.469352	2569.486198
946.770937	2572.773030
947.072484	2567.615930
947.373992	2568.278841
947.675462	2569.135837
947.976893	2565.029818
948.278286	2561.382543
948.579641	2563.590568
948.880958	2558.292316
949.182236	2564.487894
949.483476	2560.359189
949.784678	2565.561659
950.085841	2565.725497
950.386967	2563.512430
950.688054	2566.902606
950.989103	2566.794222
951.290114	2565.788511
951.591087	2566.837071
951.892021	2569.098029
952.192917	2571.434604
952.493776	2570.461661
952.794596	2573.811508
953.095378	2572.954512
953.396122	2572.858730
953.696828	2571.784964
953.997496	2570.179356
954.298126	2570.809501
954.598718	2567.903275
954.899272	2563.608212
955.199788	2563.199879
955.500266	2564.331618
955.800706	2560.084446
956.101108	2557.326935
956.401472	2556.454815
956.701798	2556.215360
957.002087	2552.777293
957.302337	2555.623025
957.602550	2550.707900
957.902724	2550.004659
958.202861	2552.462221
958.502960	2551.232180
958.803022	2548.867878
959.103045	2550.768393
959.403031	2547.058104
959.702979	2546.470810
960.002889	2546.773279
960.302762	2546.261602
960.602596	2545.971736
960.902393	2545.800336
961.202153	2546.185985
961.501875	2546.143135
961.801559	2542.926879
962.101205	2545.754966
962.400814	2545.535676
962.700385	2543.741025
962.999918	2540.638195
963.299414	2539.614841
963.598873	2542.236241
963.898293	2537.227854
964.197677	2543.400747
964.497022	2543.660367
964.796331	2544.471992
965.095601	2542.868905
965.394835	2544.872764
965.694030	2542.435366
965.993189	2543.453679
966.292309	2540.461754
966.591393	2543.607434
966.890439	2544.255223
967.189447	2544.623227
967.488419	2542.889070
967.787353	2546.896787
968.086249	2541.860675
968.385108	2543.998124
968.683930	2544.151879
968.982714	2544.217414
969.281462	2544.751776
969.580172	2543.983000
969.878844	2542.321940
970.177480	2543.773792
970.476078	2543.310006
970.774639	2545.782692
971.073162	2543.204142
971.371649	2542.596683
971.670098	2543.859492
971.968510	2543.809081
972.266885	2544.905532
972.565223	2546.216232
972.863524	2543.126004
973.161788	2545.664225
973.460014	2542.566436
973.758204	2544.736653
974.056356	2545.956612
974.354471	2545.273536
974.652550	2544.114070
974.950591	2542.541230
975.248595	2547.408464
975.546563	2544.706406
975.844493	2542.871426
976.142386	2544.792106
976.440243	2544.315717
976.738062	2543.831766
977.035845	2545.089534
977.333590	2545.467620
977.631299	2541.170037
977.928971	2540.371014
978.226606	2539.120807
978.524204	2541.810263
978.821765	2535.750796
979.119290	2543.012578
979.416777	2541.737166
979.714228	2543.839327
980.011642	2544.754297
980.309020	2542.750438
980.606360	2539.793802
980.903664	2542.959646
981.200931	2543.788916
981.498162	2543.516694
981.795356	2544.661036
982.092513	2547.040460
982.389633	2548.396531
982.686717	2550.818805
982.983764	2549.566078
983.280775	2556.008673
983.577749	2556.585885
983.874686	2556.003632
984.171587	2555.386090
984.468451	2551.201933
984.765279	2551.494320
985.062070	2548.630944
985.358824	2548.588094
985.655543	2546.332178
985.952224	2544.434184
986.248869	2545.991900
986.545478	2544.872764
986.842050	2543.766231
987.138586	2543.294883
987.435086	2543.453679
987.731549	2542.878988
988.027975	2544.419060
988.324366	2541.722043
988.620719	2542.011909
988.917037	2540.187012
989.213318	2542.629451
989.509563	2538.649460
989.805772	2542.011909
990.101944	2538.503266
990.398080	2542.647095
990.694180	2539.781199
990.990244	2542.485778
991.286271	2542.125335
991.582262	2538.997299
991.878217	2540.209697
992.174136	2543.282280
992.470019	2541.883360
992.765865	2536.960673
993.061676	2538.228523
993.357450	2538.667104
993.653188	2537.434542
993.948890	2540.754141
994.244556	2541.301107
994.540186	2542.062321
994.835780	2541.676672
995.131337	2542.510983
995.426859	2541.540561
995.722345	2543.559543
996.017795	2542.758000
996.313208	2548.681356
996.608586	2543.355377
996.903928	2544.230017
997.199234	2545.230686
997.494504	2545.707075
997.789738	2544.822352
998.084936	2544.913093
998.380099	2541.701878
998.675225	2544.217414
998.970316	2541.893442
999.265371	2541.374203
999.560390	2541.066693
999.855373	2542.284132
1000.150320	2542.077444
1000.445232	2542.697506
1000.740108	2542.780685
1001.034948	2539.319933
1001.329752	2541.139790
1001.624521	2540.227341
1001.919254	2539.171219
1002.213951	2540.865047
1002.508613	2539.955118
1002.803239	2541.414533
1003.097829	2538.228523
1003.392384	2540.776827
1003.686903	2541.233051
1003.981386	2541.318751
1004.275834	2538.299099
1004.570246	2542.979811
1004.864623	2541.711961
1005.158964	2540.247505
1005.453270	2541.432177
1005.747540	2540.081147
1006.041775	2540.948226
1006.335974	2541.323792
1006.630138	2539.629964
1006.924266	2543.778834
1007.218359	2540.063503
1007.512416	2538.548637
1007.806438	2536.522093
1008.100425	2537.411856
1008.394376	2536.595189
1008.688292	2538.223482
1008.982172	2542.591642
1009.276017	2542.077444
1009.569827	2539.077958
1009.863602	2537.842875
1010.157341	2539.536703
1010.451045	2538.851106
1010.744714	2539.816487
1011.038347	2541.006199
1011.331945	2542.203473
1011.625508	2540.048380
1011.919036	2539.990407
1012.212528	2539.997968
1012.505986	2537.863040
1012.799408	2540.441590
1013.092795	2538.646939
1013.386147	2539.317412
1013.679464	2541.361600
1013.972745	2542.306817
1014.265992	2540.043339
1014.559204	2540.933102
1014.852380	2542.150541
1015.145521	2540.471837
1015.438628	2542.573998
1015.731699	2540.038297
1016.024736	2541.359080
1016.317737	2542.258926
1016.610703	2539.617361
1016.903635	2536.295241
1017.196531	2539.685417
1017.489393	2538.984696
1017.782219	2539.561908
1018.075011	2539.138452
1018.367768	2537.573173
1018.660490	2540.270191
1018.953177	2540.270191
1019.245829	2540.270191
