Dividing Wavelength (nm)	Counts (n)	Blue Motor Position (mm): 0.000000	Red Motor Position (mm): 24.500000	
326.493990	2077.666187
326.888308	2077.666187
327.282561	2077.666187
327.676750	2056.226160
328.070874	2059.220605
328.464933	2063.155226
328.858929	2074.888512
329.252859	2086.014338
329.646726	2100.563108
330.040528	2116.145315
330.434265	2137.456793
330.827938	2156.174597
331.221547	2176.649243
331.615091	2196.226564
332.008571	2217.038968
332.401986	2238.073182
332.795338	2256.549011
333.188625	2276.025509
333.581847	2299.045938
333.975006	2311.341312
334.368100	2331.725218
334.761129	2350.256499
335.154095	2363.454240
335.546996	2384.468290
335.939833	2405.174829
336.332606	2423.403642
336.725315	2432.747420
337.117960	2440.450303
337.510540	2448.488423
337.903056	2459.009311
338.295508	2462.263376
338.687896	2472.544809
339.080220	2477.895994
339.472480	2487.796820
339.864676	2485.883702
340.256807	2488.162304
340.648875	2492.212871
341.040879	2494.133551
341.432818	2493.566421
341.824694	2491.635659
342.216506	2492.280927
342.608253	2495.250166
342.999937	2494.383088
343.391557	2491.497027
343.783113	2493.266472
344.174605	2489.112561
344.566033	2487.869917
344.957397	2484.930924
345.348697	2483.307673
345.739934	2481.117291
346.131106	2483.847076
346.522215	2479.216776
346.913260	2479.683083
347.304241	2476.290387
347.695159	2475.637557
348.086012	2474.052114
348.476802	2471.672690
348.867528	2473.732001
349.258191	2471.148410
349.648789	2471.992803
350.039324	2469.499952
350.429796	2471.130766
350.820203	2467.163378
351.210548	2467.090281
351.600828	2467.836372
351.991045	2469.129427
352.381198	2466.069447
352.771288	2468.262349
353.161314	2466.835702
353.551276	2466.492904
353.941175	2463.816051
354.331010	2466.659262
354.720782	2467.675055
355.110490	2468.428707
355.500135	2467.652369
355.889717	2467.246557
356.279235	2468.910137
356.668689	2469.358800
357.058080	2469.842751
357.447408	2470.024232
357.836672	2466.515589
358.225873	2469.588173
358.615010	2465.585496
359.004084	2475.914821
359.393095	2475.282156
359.782043	2475.493884
360.170927	2476.302989
360.559748	2476.239975
360.948505	2475.693010
361.337199	2478.057311
361.725830	2476.809625
362.114398	2481.195429
362.502903	2480.635861
362.891344	2483.292549
363.279722	2479.468834
363.668037	2480.172075
364.056289	2481.432363
364.444478	2486.579382
364.832603	2480.739205
365.220665	2485.432519
365.608665	2483.791623
365.996601	2485.702221
366.384474	2488.515185
366.772284	2488.552993
367.160031	2491.491986
367.547715	2489.243631
367.935336	2490.372850
368.322893	2490.115751
368.710388	2490.435864
369.097820	2495.945845
369.485189	2496.296206
369.872495	2496.107162
370.259738	2496.928870
370.646918	2497.243942
371.034035	2500.621516
371.421090	2502.963132
371.808081	2506.237361
372.195010	2509.360356
372.581875	2516.397807
372.968678	2518.815040
373.355418	2525.731503
373.742096	2535.304654
374.128710	2546.085162
374.515262	2552.862993
374.901751	2564.462688
375.288177	2583.372056
375.674540	2599.644901
376.060841	2617.601491
376.447079	2640.591673
376.833254	2661.018428
377.219367	2684.588343
377.605417	2715.903991
377.991404	2742.604462
378.377329	2778.668877
378.763191	2809.031746
379.148991	2853.585464
379.534727	2898.776888
379.920402	2943.131480
380.306013	2988.945486
380.691563	3047.984959
381.077049	3099.946652
381.462474	3154.592760
381.847835	3221.486351
382.233134	3288.669808
382.618371	3346.310361
383.003545	3427.359512
383.388657	3500.960358
383.773706	3590.171137
384.158693	3658.173782
384.543618	3747.674428
384.928480	3818.792506
385.313280	3919.978546
385.698017	4019.075027
386.082692	4133.592399
386.467305	4191.966440
386.851856	4312.039163
387.236344	4459.956699
387.620770	4520.972304
388.005133	4630.902226
388.389435	4770.645531
388.773674	4853.315413
389.157851	4977.020287
389.541965	5102.882775
389.926018	5129.948730
390.310008	5301.065656
390.693936	5416.465229
391.077802	5528.882960
391.461606	5656.903062
391.845348	5764.299804
392.229027	5882.729110
392.612645	6097.578046
392.996200	6213.741354
393.379694	6383.270317
393.763125	6593.090702
394.146494	6683.450864
394.529801	6817.651420
394.913047	7046.481996
395.296230	7045.246914
395.679351	7101.070131
396.062410	7345.475352
396.445408	7250.636124
396.828343	7399.357724
397.211217	7535.809156
397.594028	7421.916888
397.976778	7623.474822
398.359466	7785.926004
398.742092	7766.467150
399.124656	7904.496463
399.507158	8097.486956
399.889598	8118.730378
400.271977	8322.884506
400.654294	8352.639917
401.036549	8556.549549
401.418742	8579.431346
401.800874	8873.222230
402.182944	8957.492679
402.564952	9308.072161
402.946898	9152.718923
403.328783	9205.267911
403.710606	9396.647755
404.092367	9648.511363
404.474067	9994.654630
404.855705	9812.396754
405.237282	9760.190564
405.618797	10182.939205
406.000250	10425.128839
406.381642	10784.089240
406.762972	10724.656557
407.144240	10544.145440
407.525447	10796.061980
407.906593	10742.383774
408.287677	11008.128199
408.668700	11148.993161
409.049661	11139.477983
409.430560	11295.405913
409.811399	11274.825402
410.192176	11426.922055
410.572891	11509.826350
410.953545	11979.069553
411.334138	11472.199178
411.714669	12045.824513
412.095139	11402.094372
412.475547	11870.077287
412.855894	11747.786456
413.236180	12051.639483
413.616405	11754.546643
413.996568	12035.343954
414.376670	12013.866118
414.756711	11896.422357
415.136691	12169.219356
415.516609	12338.067763
415.896466	12421.604723
416.276262	12715.919888
416.655997	13171.940144
417.035670	13214.865569
417.415283	13825.225791
417.794834	13910.194439
418.174324	13665.448941
418.553753	13574.004931
418.933121	14061.275300
419.312428	13885.626376
419.691674	13795.982058
420.070859	14262.591258
420.449983	13915.343978
420.829045	14468.661024
421.208047	14229.463315
421.586988	14675.759186
421.965867	14923.582309
422.344686	14926.453246
422.723444	15492.161448
423.102141	14200.343090
423.480777	15379.705909
423.859352	14887.379263
424.237866	15977.745552
424.616319	15704.058789
424.994712	16343.723238
425.373044	16135.664737
425.751314	16817.102708
426.129524	15952.164216
426.507673	17033.090945
426.885762	16761.322341
427.263789	16923.947443
427.641756	17112.892410
428.019662	17179.203748
428.397508	17221.294862
428.775292	17506.747678
429.153016	17488.007188
429.530679	17558.331284
429.908282	17589.268846
430.285824	17325.334195
430.663305	18031.078089
431.040726	17647.065674
431.418086	17490.474833
431.795385	18108.074153
432.172624	18554.783398
432.549802	18107.433926
432.926920	18328.047421
433.303977	18207.952013
433.680974	18448.283982
434.057910	18754.899561
434.434786	18799.876736
434.811601	18715.858345
435.188355	19760.072871
435.565050	19422.658362
435.941683	19378.775117
436.318257	20264.818400
436.694770	20065.284489
437.071222	20647.820063
437.447614	19716.257682
437.823946	19738.773996
438.200218	19908.386138
438.576429	19681.123360
438.952580	19971.224120
439.328670	19926.461195
439.704700	20340.735656
440.080670	19902.074613
440.456580	20495.811631
440.832429	20646.436266
441.208218	19646.689759
441.583947	20072.624409
441.959616	20169.185191
442.335224	20398.466950
442.710773	20514.055566
443.086261	21029.218640
443.461689	20349.124136
443.837057	20478.031481
444.212365	21094.551993
444.587612	21052.181095
444.962800	20626.914398
445.337927	21007.390443
445.712995	19714.044616
446.088002	21519.067559
446.462949	21663.922594
446.837837	21771.692381
447.212664	21739.197103
447.587431	24508.877603
447.962139	27246.995438
448.336786	29378.554080
448.711374	27691.337861
449.085901	24087.343880
449.460369	24006.871941
449.834776	23897.410847
450.209124	26172.360069
450.583412	25582.474493
450.957640	25919.281543
451.331808	24569.905811
451.705917	23169.329600
452.079965	23092.562909
452.453954	23328.322551
452.827883	23116.253811
453.201752	22799.447539
453.575562	22814.134941
453.949311	23681.972096
454.323001	23588.572118
454.696632	23248.836158
455.070202	24461.029491
455.443713	24455.113697
455.817164	24761.542754
456.190556	25055.028648
456.563888	24372.958013
456.937160	24558.480036
457.310373	22957.850675
457.683526	23135.574033
458.056619	22939.563890
458.429653	22721.634809
458.802628	22994.925841
459.175542	22889.182598
459.548398	23747.265121
459.921194	24756.612505
460.293930	25074.066566
460.666607	26387.231690
461.039224	27457.166182
461.411782	27435.867307
461.784280	26228.009367
462.156719	25543.274481
462.529099	24854.025242
462.901419	23635.164982
463.273680	22618.207976
463.645882	22437.553187
464.018024	22167.972444
464.390106	22502.601715
464.762130	24136.480006
465.134094	26656.094069
465.505999	29971.829832
465.877845	32670.092305
466.249631	32972.125476
466.621358	31258.246594
466.993026	29376.895540
467.364634	27573.039624
467.736184	25968.876415
468.107674	24828.877446
468.479105	23987.113138
468.850477	23220.285583
469.221790	22047.070451
469.593043	20756.043554
469.964238	19939.565674
470.335373	19582.762887
470.706449	20197.690395
471.077467	21265.575658
471.448425	23286.296972
471.819324	24374.845925
472.190164	22975.562769
472.560945	20849.221721
472.931667	19011.201905
473.302330	18157.916041
473.672934	17455.093495
474.043479	17366.545627
474.413965	16731.710603
474.784393	16286.732994
475.154761	16359.161772
475.525070	16092.310814
475.895321	15618.139883
476.265513	15567.874538
476.635645	15649.957126
477.005719	15319.842207
477.375734	15203.084043
477.745691	15174.566236
478.115588	15348.949829
478.485427	15778.524193
478.855207	16663.095458
479.224928	17271.219929
479.594591	17466.463817
479.964194	16723.438070
480.333739	16403.781025
480.703226	16081.190028
481.072653	15960.356091
481.442022	15792.798220
481.811333	15529.450863
482.180584	14830.817517
482.549777	14365.980282
482.918912	13929.436524
483.287988	13553.217733
483.657005	13050.080332
484.025964	12585.043972
484.394864	12294.398768
484.763706	11924.327664
485.132489	11472.166411
485.501213	11192.886488
485.869879	10977.888838
486.238487	10662.438636
486.607036	10473.206323
486.975527	10145.858998
487.343959	9963.777563
487.712333	9761.871789
488.080648	9532.075832
488.448905	9401.073888
488.817104	9163.033124
489.185244	9120.548800
489.553326	9194.999080
489.921350	9440.533520
490.289315	9696.072129
490.657222	9579.629037
491.025070	9412.834900
491.392861	9050.393582
491.760593	8639.501735
492.128267	8203.603244
492.495883	7814.607649
492.863440	7471.456307
493.230939	7154.831516
493.598380	6882.944445
493.965763	6693.717174
494.333088	6481.550132
494.700354	6299.198994
495.067563	6145.733668
495.434713	6004.631772
495.801805	5895.314351
496.168839	5744.765333
496.535815	5611.126865
496.902733	5504.662737
497.269593	5373.791862
497.636395	5262.190798
498.003139	5195.090520
498.369825	5069.061674
498.736453	4992.219366
499.103023	4881.341708
499.469535	4791.578922
499.835989	4711.979103
500.202385	4621.896204
500.568723	4547.466088
500.935003	4487.393178
501.301226	4411.594389
501.667390	4375.804718
502.033497	4324.694979
502.399546	4241.067278
502.765537	4150.039163
503.131470	4110.839151
503.497345	4070.449426
503.863163	3974.780929
504.228923	3944.304633
504.594625	3915.673400
504.960269	3846.407946
505.325856	3830.021676
505.691385	3768.668313
506.056856	3734.844691
506.422270	3711.315106
506.787625	3666.489166
507.152924	3637.442037
507.518164	3606.055813
507.883347	3557.317938
508.248472	3532.701984
508.613540	3519.844521
508.978550	3498.462467
509.343503	3472.281234
509.708398	3450.992442
510.073236	3438.964248
510.438016	3419.298707
510.802738	3385.157493
511.167403	3380.890156
511.532010	3361.895088
511.896561	3351.401927
512.261053	3353.662884
512.625488	3323.494099
512.989866	3303.866367
513.354186	3286.333233
513.718449	3271.330760
514.082655	3271.640791
514.446803	3253.553131
514.810894	3246.568612
515.174927	3234.129565
515.538904	3221.917370
515.902822	3220.142883
516.266684	3203.113866
516.630488	3194.899306
516.994235	3183.594518
517.357925	3183.022347
517.721558	3172.866943
518.085133	3169.557425
518.448651	3163.465191
518.812112	3150.985814
519.175516	3144.616317
519.538863	3138.945018
519.902152	3133.072074
520.265385	3129.321456
520.628560	3123.193933
520.991678	3113.509877
521.354739	3106.681634
521.717743	3107.399998
522.080690	3098.300716
522.443580	3099.641662
522.806413	3092.783173
523.169189	3085.952409
523.531908	3082.103488
523.894569	3076.263312
524.257174	3072.152251
524.619722	3070.337435
524.982213	3068.429358
525.344647	3060.068605
525.707025	3056.600291
526.069345	3055.617266
526.431608	3052.254816
526.793815	3050.752553
527.155964	3040.544216
527.518057	3040.345090
527.880093	3030.774460
528.242072	3031.008873
528.603995	3024.069725
528.965860	3020.999663
529.327669	3019.429343
529.689421	3015.139321
530.051117	3008.787467
530.412755	3008.709329
530.774337	3007.917868
531.135862	3000.341014
531.497331	2997.969151
531.858743	2995.776249
532.220098	2996.449243
532.581396	2987.836432
532.942638	2980.945175
533.303824	2982.850731
533.664953	2982.679332
534.026025	2975.593990
534.387040	2978.293528
534.747999	2975.944350
535.108902	2977.083651
535.469748	2968.783391
535.830537	2969.829430
536.191270	2969.136272
536.551947	2962.497072
536.912567	2964.193420
537.273131	2964.243832
537.633638	2954.713531
537.994089	2953.670012
538.354483	2948.714558
538.714821	2951.961061
539.075103	2952.545834
539.435328	2950.685649
539.795497	2949.339661
540.155609	2947.789506
540.515665	2948.162551
540.875665	2937.989503
541.235609	2944.429577
541.595496	2942.213990
541.955328	2945.215997
542.315102	2939.310285
542.674821	2933.356682
543.034483	2935.466405
543.394090	2929.280909
543.753640	2930.100097
544.113134	2936.252825
544.472571	2926.283943
544.831953	2936.870367
545.191278	2926.538522
545.550548	2923.849066
545.909761	2928.136568
546.268918	2927.632452
546.628019	2930.009356
546.987064	2923.748243
547.346053	2916.907397
547.704986	2920.773962
548.063863	2918.412182
548.422684	2919.259096
548.781449	2914.883374
549.140158	2914.969074
549.498811	2915.500915
549.857408	2911.112591
550.215949	2912.750966
550.574434	2908.786098
550.932864	2908.236613
551.291237	2912.362797
551.649555	2909.350708
552.007817	2910.938671
552.366022	2908.395409
552.724173	2906.688978
553.082267	2910.913465
553.440305	2910.772313
553.798288	2905.587486
554.156215	2907.646798
554.514086	2906.890625
554.871902	2903.596231
555.229661	2904.750655
555.587365	2902.030952
555.945014	2899.724624
556.302606	2897.390570
556.660143	2900.395098
557.017625	2900.604306
557.375050	2896.624315
557.732421	2899.580952
558.089735	2901.541960
558.446994	2897.977865
558.804197	2900.626991
559.161345	2898.658420
559.518437	2892.992163
559.875474	2895.069119
560.232455	2898.668503
560.589381	2897.085580
560.946251	2892.246073
561.303065	2898.681106
561.659825	2895.726989
562.016528	2891.686505
562.373177	2891.177348
562.729770	2895.603481
563.086307	2891.159704
563.442789	2892.099879
563.799216	2889.115516
564.155587	2889.080228
564.511904	2889.430588
564.868164	2887.363715
565.224370	2891.076525
565.580520	2888.911349
565.936615	2886.998232
566.292654	2886.219373
566.648638	2888.664333
567.004567	2888.319014
567.360441	2886.534445
567.716260	2882.176368
568.072023	2885.954713
568.427732	2883.439177
568.783385	2879.643188
569.138982	2881.198384
569.494525	2882.645195
569.850013	2877.142776
570.205445	2885.528735
570.560823	2881.369783
570.916145	2879.272663
571.271412	2878.115718
571.626625	2879.582694
571.981782	2875.602703
572.336884	2875.290152
572.691931	2874.811242
573.046923	2874.622199
573.401860	2872.550285
573.756743	2869.533154
574.111570	2871.337887
574.466342	2869.959132
574.821059	2868.890407
575.175722	2867.153729
575.530330	2862.997298
575.884882	2861.298429
576.239380	2861.479911
576.593823	2862.238604
576.948211	2860.746423
577.302544	2857.247862
577.656823	2858.823223
578.011047	2859.841536
578.365216	2854.351719
578.719330	2853.537573
579.073389	2850.427181
579.427394	2850.391893
579.781344	2851.977336
580.135239	2847.155472
580.489080	2846.948785
580.842866	2845.169257
581.196597	2847.054649
581.550273	2843.820749
581.903895	2842.784792
582.257463	2846.502643
582.610975	2841.726149
582.964434	2844.173630
583.317837	2842.182374
583.671186	2838.577949
584.024481	2837.879749
584.377721	2834.229954
584.730906	2837.300016
585.084037	2839.084585
585.437113	2833.851867
585.790135	2832.697443
586.143103	2829.002277
586.496016	2830.917916
586.848874	2827.328614
587.201679	2827.903306
587.554428	2822.847028
587.907124	2826.181752
588.259765	2823.721668
588.612352	2828.094869
588.964884	2819.708910
589.317362	2825.377687
589.669786	2822.148828
590.022155	2822.252172
590.374470	2822.015238
590.726731	2819.509784
591.078937	2813.483085
591.431090	2816.732109
591.783188	2811.907724
592.135232	2812.593321
592.487222	2811.217086
592.839157	2813.009217
593.191038	2812.580718
593.542866	2811.380924
593.894639	2803.158802
594.246358	2805.366827
594.598022	2803.239460
594.949633	2803.133596
595.301190	2798.863739
595.652692	2800.217289
596.004141	2801.099491
596.355535	2794.034313
596.706876	2791.947276
597.058162	2794.908954
597.409395	2796.159160
597.760573	2794.253604
598.111698	2790.681946
598.462768	2792.393418
598.813785	2793.472225
599.164748	2786.860752
599.515657	2786.361677
599.866511	2785.355967
600.217312	2787.959723
600.568060	2780.163579
600.918753	2786.086934
601.269392	2783.894032
601.619978	2779.208280
601.970510	2782.142232
602.320988	2783.780607
602.671412	2786.996863
603.021783	2782.752211
603.372100	2779.881274
603.722363	2779.503187
604.072572	2784.677932
604.422728	2777.365738
604.772830	2774.555295
605.122878	2773.892383
605.472872	2775.324071
605.822813	2769.985489
606.172701	2775.452620
606.522534	2775.286262
606.872314	2777.786675
607.222041	2776.629730
607.571714	2778.678959
607.921333	2773.315171
608.270899	2773.111004
608.620411	2777.842127
608.969870	2770.968514
609.319276	2774.325922
609.668627	2771.931374
610.017926	2774.492281
610.367171	2777.670728
610.716362	2776.889349
611.065500	2773.791560
611.414585	2774.068824
611.763616	2777.393465
612.112594	2773.768875
612.461518	2775.429935
612.810389	2777.133845
613.159207	2775.366921
613.507971	2770.721497
613.856682	2774.966149
614.205340	2772.743000
614.553945	2775.429935
614.902496	2771.069337
615.250994	2775.145110
615.599439	2774.993875
615.947830	2773.733587
616.296169	2772.861467
616.644454	2773.358021
616.992686	2772.906838
617.340864	2777.643002
617.688990	2774.555295
618.037063	2777.103598
618.385082	2773.665531
618.733048	2776.037394
619.080961	2771.805346
619.428821	2774.893052
619.776628	2773.645367
620.124382	2771.137393
620.472083	2767.863163
620.819731	2772.327105
621.167326	2770.023298
621.514868	2770.391302
621.862357	2766.018101
622.209793	2764.901485
622.557176	2760.188007
622.904506	2757.972419
623.251783	2751.857500
623.599007	2750.637541
623.946179	2748.195102
624.293297	2747.955647
624.640363	2745.931623
624.987376	2747.995976
625.334336	2742.924575
625.681243	2742.228896
626.028097	2737.885942
626.374899	2738.979872
626.721647	2737.800242
627.068343	2735.589696
627.414987	2733.542988
627.761577	2732.756568
628.108115	2732.801938
628.454600	2730.286402
628.801032	2728.504355
629.147412	2730.578789
629.493739	2729.429406
629.840014	2728.479149
630.186236	2727.728017
630.532405	2728.000239
630.878521	2725.270454
631.224585	2725.154508
631.570597	2723.904302
631.916556	2723.659806
632.262462	2721.257696
632.608316	2719.614280
632.954117	2722.142418
633.299866	2722.245762
633.645562	2720.168807
633.991206	2713.791747
634.336797	2710.580532
634.682336	2709.461396
635.027823	2709.496684
635.373257	2707.545757
635.718639	2705.783874
636.063968	2704.841178
636.409245	2700.473019
636.754470	2700.611650
637.099642	2699.805066
637.444762	2696.130065
637.789829	2697.292051
638.134845	2695.119313
638.479808	2691.439271
638.824719	2692.316432
639.169577	2688.454908
639.514383	2690.557069
639.859137	2688.069260
640.203839	2689.929445
640.548489	2687.978519
640.893086	2685.014320
641.237632	2682.145904
641.582125	2681.800585
641.926566	2677.961746
642.270955	2683.194464
642.615292	2682.508867
642.959576	2680.341171
643.303809	2682.148424
643.647990	2680.273115
643.992118	2679.448887
644.336195	2679.423681
644.680219	2678.637261
645.024192	2681.760256
645.368112	2681.926614
645.711981	2681.417457
646.055797	2684.079186
646.399562	2684.293435
646.743274	2687.842408
647.086935	2688.880885
647.430544	2688.575896
647.774101	2688.580937
648.117606	2687.174455
648.461059	2690.589837
648.804460	2687.726461
649.147810	2683.509536
649.491108	2682.725637
649.834354	2678.526355
650.177548	2675.635254
650.520690	2675.521828
650.863781	2673.674245
651.206820	2675.826817
651.549807	2670.168122
651.892742	2668.572597
652.235626	2667.231650
652.578458	2666.460354
652.921238	2665.714263
653.263967	2665.401711
653.606644	2663.125630
653.949269	2662.286278
654.291843	2658.893582
654.634365	2662.936587
654.976836	2661.237718
655.319255	2661.217554
655.661622	2660.713438
656.003938	2658.727224
656.346203	2657.320742
656.688416	2656.889723
657.030577	2655.342089
657.372687	2651.793117
657.714746	2653.940648
658.056753	2653.774290
658.398708	2650.076604
658.740612	2650.739515
659.082465	2650.689104
659.424266	2649.766573
659.766016	2649.358239
660.107715	2651.588950
660.449362	2647.321613
660.790958	2648.818836
661.132503	2651.548621
661.473996	2654.449805
661.815438	2650.371511
662.156829	2652.834115
662.498168	2652.408137
662.839456	2647.442601
663.180693	2649.333033
663.521879	2651.465442
663.863013	2647.896305
664.204097	2652.138436
664.545129	2649.426295
664.886110	2650.318579
665.227040	2649.474186
665.567918	2653.189516
665.908746	2651.800678
666.249522	2651.818322
666.590248	2652.428302
666.930922	2651.467962
667.271545	2652.786224
667.612118	2652.052736
667.952639	2650.845380
668.293109	2648.571819
668.633528	2650.134577
668.973896	2646.646098
669.314213	2651.304125
669.654480	2646.867909
669.994695	2644.125522
670.334859	2647.296407
670.674973	2645.952940
671.015035	2648.420585
671.355047	2647.503095
671.695008	2645.892446
672.034918	2645.620224
672.374777	2643.215593
672.714585	2643.714667
673.054342	2647.268681
673.394049	2642.159472
673.733705	2645.022847
674.073310	2644.095275
674.412864	2644.942188
674.752368	2641.231899
675.091820	2642.585449
675.431223	2638.950777
675.770574	2638.807104
676.109875	2632.679582
676.449125	2635.953811
676.788324	2633.120683
677.127473	2632.692185
677.466571	2628.447533
677.805619	2632.939201
678.144616	2632.578759
678.483562	2632.147740
678.822458	2631.295785
679.161303	2630.842081
679.500098	2632.200672
679.838842	2631.126906
680.177535	2628.502986
680.516179	2631.315950
680.854771	2630.753861
681.193314	2635.633698
681.531805	2639.601086
681.870247	2642.729122
682.208638	2642.749287
682.546978	2644.677528
682.885268	2643.225676
683.223508	2642.673669
683.561697	2641.564615
683.899836	2639.948926
684.237925	2638.126548
684.575963	2638.613020
684.913951	2637.093112
685.251889	2635.721918
685.589776	2638.229892
685.927614	2635.797535
686.265401	2635.656383
686.603137	2635.885756
686.940824	2638.290386
687.278460	2641.849441
687.616046	2639.810294
687.953582	2642.973618
688.291068	2642.235089
688.628504	2642.066210
688.965889	2643.578556
689.303224	2642.817342
689.640510	2640.881539
689.977745	2635.943729
690.314930	2634.242339
690.652065	2632.848460
690.989150	2629.246556
691.326185	2624.545680
691.663170	2619.817078
692.000105	2620.500154
692.336990	2620.500154
692.673825	2617.488065
693.010610	2616.656274
693.347345	2607.622527
693.684030	2604.940633
694.020665	2605.848040
694.357251	2600.809407
694.693786	2604.595314
695.030272	2605.008688
695.366707	2602.873760
695.703093	2601.338728
696.039429	2602.190683
696.375716	2599.047524
696.711952	2599.387802
697.048139	2597.938470
697.384276	2598.001484
697.720363	2598.195569
698.056400	2598.016608
698.392388	2597.154571
698.728326	2598.586258
699.064214	2597.177256
699.400053	2594.772625
699.735842	2591.417737
700.071581	2592.337748
700.407270	2592.204158
700.742910	2592.859507
701.078501	2590.573344
701.414042	2589.358426
701.749533	2589.865062
702.084974	2586.381625
702.420366	2588.584609
702.755709	2586.008579
703.091002	2583.873651
703.426246	2584.952458
703.761440	2583.919021
704.096584	2584.498754
704.431679	2581.511870
704.766725	2583.109916
705.101721	2582.071438
705.436668	2585.781727
705.771565	2582.522622
706.106413	2582.651171
706.441212	2581.350553
706.775961	2582.343661
707.110661	2585.965730
707.445311	2583.954309
707.779913	2583.669484
708.114465	2585.209557
708.448967	2586.046388
708.783421	2591.029569
709.117825	2589.519743
709.452180	2590.248190
709.786485	2590.711976
710.120742	2595.034765
710.454949	2596.196751
710.789107	2596.191710
711.123216	2597.683892
711.457275	2597.756988
711.791286	2600.905189
712.125247	2601.878132
712.459159	2598.959304
712.793023	2607.647732
713.126837	2603.173708
713.460602	2603.277052
713.794318	2601.784870
714.127985	2598.258583
714.461602	2596.287492
714.795171	2595.269179
715.128691	2590.664085
715.462162	2588.995463
715.795584	2586.858014
716.128957	2585.728795
716.462281	2586.505133
716.795556	2584.813826
717.128782	2583.939186
717.461960	2576.286714
717.795088	2581.287539
718.128167	2576.674883
718.461198	2575.210428
718.794180	2576.319482
719.127113	2574.018195
719.459997	2574.885273
719.792833	2571.444686
720.125619	2570.421332
720.458357	2570.786815
720.791046	2569.488718
721.123686	2570.675910
721.456278	2569.687844
721.788821	2571.958884
722.121315	2569.776064
722.453761	2567.547874
722.786158	2565.344890
723.118506	2568.848492
723.450805	2571.109449
723.783056	2569.314798
724.115259	2568.782957
724.447412	2568.125086
724.779518	2568.523337
725.111574	2568.057031
725.443582	2572.752865
725.775542	2570.275138
726.107453	2571.202711
726.439315	2569.778585
726.771129	2577.226889
727.102895	2574.870150
727.434612	2575.472568
727.766281	2574.643298
728.097901	2574.073648
728.429473	2572.543658
728.760996	2574.628175
729.092471	2574.683627
729.423897	2579.233269
729.755276	2575.023905
730.086606	2576.982393
730.417887	2579.865933
730.749120	2583.014134
731.080305	2585.489341
731.411442	2583.702252
731.742530	2584.786100
732.073570	2583.172930
732.404562	2588.330031
732.735506	2583.626634
733.066401	2585.166707
733.397249	2582.804926
733.728048	2579.649164
734.058798	2575.742270
734.389501	2574.933164
734.720156	2572.135324
735.050762	2567.149623
735.381320	2568.901424
735.711831	2564.470250
736.042293	2564.918912
736.372707	2565.115517
736.703073	2563.789694
737.033391	2565.874211
737.363661	2563.835064
737.693883	2565.879252
738.024056	2568.407391
738.354182	2567.754561
738.684260	2571.139696
739.014290	2567.220199
739.344272	2570.370920
739.674207	2571.462330
740.004093	2572.989800
740.333931	2572.578946
740.663722	2572.001733
740.993464	2573.599779
741.323159	2572.442834
741.652806	2570.365879
741.982405	2572.084912
742.311956	2567.275652
742.641460	2568.273800
742.970915	2567.497463
743.300323	2567.991496
743.629683	2564.994530
743.958996	2564.984447
744.288260	2559.603016
744.617477	2560.568397
744.946647	2556.502706
745.275768	2558.362892
745.604842	2552.525236
745.933869	2557.248797
746.262847	2553.200750
746.591778	2559.610577
746.920662	2555.199568
747.249498	2560.580999
747.578286	2556.540515
747.907027	2557.392470
748.235720	2558.556976
748.564365	2560.144940
748.892963	2560.434806
749.221514	2561.397666
749.550017	2562.680640
749.878473	2560.543191
750.206881	2558.803993
750.535242	2558.501523
750.863555	2558.065464
751.191821	2558.524209
751.520039	2555.829712
751.848210	2555.991029
752.176334	2557.284085
752.504411	2557.210988
752.832440	2554.234187
753.160421	2557.659651
753.488356	2553.288970
753.816243	2556.709393
754.144082	2552.893240
754.471875	2554.352654
754.799620	2555.310473
755.127318	2553.525905
755.454969	2553.987170
755.782572	2553.919115
756.110129	2554.602191
756.437638	2553.407437
756.765100	2548.535162
757.092515	2554.904660
757.419882	2555.111347
757.747203	2553.838456
758.074477	2553.306614
758.401703	2557.495813
758.728882	2551.988353
759.056014	2554.718137
759.383099	2557.105124
759.710138	2558.743499
760.037129	2556.568241
760.364073	2559.870197
760.690970	2557.019424
761.017820	2559.207285
761.344623	2560.056719
761.671379	2560.165104
761.998088	2562.980589
762.324751	2569.932340
762.651366	2582.399113
762.977935	2601.154726
763.304456	2607.756117
763.630931	2617.009155
763.957359	2611.751232
764.283740	2603.801332
764.610074	2591.747933
764.936362	2585.330544
765.262602	2575.162537
765.588796	2567.560477
765.914943	2563.865311
766.241044	2561.359858
766.567097	2555.328117
766.893104	2552.210163
767.219064	2551.408620
767.544978	2548.154555
767.870845	2546.664894
768.196665	2547.060625
768.522438	2543.115922
768.848165	2545.606252
769.173846	2542.634492
769.499479	2540.439069
769.825066	2543.738504
770.150607	2539.932433
770.476101	2538.810777
770.801548	2541.621220
771.126949	2539.128369
771.452303	2537.346321
771.777611	2538.770447
772.102872	2538.226003
772.428087	2538.034439
772.753256	2536.814480
773.078378	2537.182484
773.403453	2533.981351
773.728482	2533.751979
774.053465	2534.455220
774.378401	2534.344314
774.703291	2535.725590
775.028135	2535.801208
775.352932	2532.572349
775.677683	2532.501773
776.002388	2531.264169
776.327046	2531.158305
776.651658	2535.337422
776.976224	2529.870290
777.300743	2533.477236
777.625216	2532.600075
777.949643	2532.564787
778.274024	2531.669982
778.598359	2530.192924
778.922647	2526.270906
779.246889	2529.020856
779.571086	2524.950124
779.895236	2531.319622
780.219339	2530.734848
780.543397	2530.684437
780.867409	2530.833151
781.191374	2531.904396
781.515294	2530.064375
781.839167	2533.746938
782.162995	2531.264169
782.486776	2532.547143
782.810511	2530.218130
783.134201	2532.292565
783.457844	2527.808458
783.781441	2527.566483
784.104993	2527.445495
784.428498	2530.734848
784.751958	2529.106555
785.075372	2529.663603
785.398739	2530.712163
785.722061	2530.535723
786.045337	2527.556401
786.368568	2531.347348
786.691752	2529.116638
787.014891	2532.733666
787.337983	2534.671989
787.661030	2537.805066
787.984031	2537.900848
788.306987	2542.556354
788.629897	2541.285983
788.952760	2540.877650
789.275579	2540.701209
789.598351	2537.578214
789.921078	2537.530323
790.243759	2534.293903
790.566395	2533.527647
790.888984	2532.968079
791.211529	2533.535209
791.534027	2529.961031
791.856480	2531.770805
792.178888	2531.934643
792.501249	2529.971113
792.823566	2530.959179
793.145836	2530.039169
793.468062	2528.819210
793.790241	2529.925743
794.112375	2527.710156
794.434464	2529.724097
794.756507	2529.819879
795.078505	2528.189065
795.400457	2528.607481
795.722364	2529.325846
796.044226	2531.372554
796.366042	2532.504293
796.687812	2530.686957
797.009538	2534.581248
797.331218	2536.517052
797.652852	2533.973789
797.974442	2531.465815
798.295986	2534.896321
798.617484	2532.910106
798.938938	2530.515558
799.260346	2531.060002
799.581709	2532.927750
799.903026	2532.317770
800.224299	2528.047913
800.545526	2528.418438
800.866708	2526.762419
801.187845	2528.501617
801.508936	2526.623787
801.829983	2526.873324
802.150984	2526.293592
802.471940	2528.171421
802.792851	2531.188552
803.113717	2526.558252
803.434538	2525.260155
803.755314	2527.034641
804.076045	2525.101359
804.396731	2526.066740
804.717372	2525.416431
805.037967	2525.744106
805.358518	2526.528005
805.679024	2527.125382
805.999485	2523.699918
806.319901	2527.533715
806.640272	2526.764939
806.960598	2527.727800
807.280879	2528.030269
807.601115	2529.209899
807.921306	2525.421472
808.241453	2527.306863
808.561554	2527.347193
808.881611	2529.469518
809.201623	2528.294930
809.521590	2528.466329
809.841513	2528.214271
810.161390	2529.880373
810.481223	2526.578417
810.801011	2527.644621
811.120755	2526.091945
811.440453	2526.379291
811.760107	2524.075484
812.079716	2522.157325
812.399281	2521.466687
812.718801	2519.901408
813.038276	2522.721934
813.357707	2523.457943
813.677093	2523.377284
813.996434	2525.048427
814.315731	2524.798889
814.634983	2523.914167
814.954191	2524.940042
815.273354	2524.718231
815.592473	2526.119672
815.911547	2526.081863
816.230577	2526.722090
816.549562	2531.123017
816.868502	2526.318797
817.187399	2529.870290
817.506250	2528.438602
817.825058	2530.462626
818.143821	2529.184693
818.462539	2533.091587
818.781213	2535.105528
819.099843	2540.360931
819.418429	2541.112063
819.736970	2549.296377
820.055466	2554.282078
820.373919	2563.633418
820.692327	2574.156827
821.010691	2601.580704
821.329011	2652.151038
821.647286	2726.258521
821.965517	2806.488484
822.283704	2854.019003
822.601847	2863.161136
822.919945	2828.024293
823.237999	2790.634055
823.556010	2750.738364
823.873976	2713.688403
824.191897	2680.484844
824.509775	2655.384939
824.827609	2633.402987
825.145398	2621.263889
825.463144	2615.219545
825.780845	2615.738784
826.098502	2626.451236
826.416116	2646.978815
826.733685	2665.086639
827.051210	2665.366423
827.368692	2656.151194
827.686129	2636.788122
828.003522	2615.423712
828.320872	2593.955958
828.638177	2583.470358
828.955439	2567.157185
829.272656	2562.660475
829.589830	2549.750080
829.906960	2547.829401
830.224046	2544.010727
830.541088	2538.336908
830.858086	2540.371014
831.175041	2534.888759
831.491952	2534.077133
831.808819	2536.007895
832.125642	2536.937988
832.442421	2545.644061
832.759157	2552.608415
833.075849	2570.948132
833.392497	2586.439598
833.709101	2596.244642
834.025662	2593.408993
834.342179	2584.365163
834.658653	2574.852506
834.975083	2562.937739
835.291469	2558.408262
835.607811	2548.951057
835.924110	2543.380583
836.240366	2540.166847
836.556578	2533.255425
836.872746	2533.799870
837.188871	2525.514733
837.504952	2527.276617
837.820990	2525.469363
838.136984	2524.083046
838.452935	2523.369722
838.768842	2522.545494
839.084706	2524.632531
839.400526	2536.262473
839.716303	2543.221786
840.032037	2549.082127
840.347727	2545.013916
840.663373	2540.055942
840.978977	2536.549819
841.294537	2530.147554
841.610054	2525.499610
841.925527	2523.846111
842.240957	2522.416944
842.556344	2520.753363
842.871687	2517.484175
843.186987	2517.242200
843.502244	2514.615759
843.817458	2515.896212
844.132629	2514.973681
844.447756	2517.169103
844.762840	2512.891684
845.077881	2513.090810
845.392879	2511.039060
845.707833	2511.759945
846.022745	2506.965808
846.337613	2512.690038
846.652438	2512.881602
846.967221	2517.002745
847.281960	2511.729698
847.596656	2511.134842
847.911309	2513.110974
848.225919	2508.886487
848.540485	2509.075531
848.855009	2509.718278
849.169490	2513.632734
849.483928	2510.522342
849.798323	2511.875892
850.112675	2510.411436
850.426984	2510.179543
850.741251	2513.242044
851.055474	2510.640809
851.369654	2510.114008
851.683792	2509.531755
851.997887	2508.818432
852.311938	2509.204080
852.625947	2512.649709
852.939914	2509.057887
853.253837	2510.839934
853.567718	2509.236848
853.881555	2509.420850
854.195350	2509.211642
854.509103	2510.219873
854.822812	2509.662825
855.136479	2511.003772
855.450103	2511.308762
855.763685	2508.508401
856.077224	2509.050325
856.390720	2508.745335
856.704173	2510.086282
857.017584	2511.931344
857.330953	2511.764986
857.644278	2511.684328
857.957561	2512.125429
858.270802	2509.032681
858.584000	2511.124760
858.897155	2509.766169
859.210268	2512.029647
859.523339	2510.809688
859.836367	2511.787671
860.149352	2509.156189
860.462295	2510.585356
860.775195	2508.347084
861.088054	2506.431445
861.400869	2507.848010
861.713642	2504.828358
862.026373	2510.471930
862.339062	2508.316837
862.651708	2511.714575
862.964312	2510.098885
863.276873	2513.395799
863.589392	2512.420336
863.901869	2511.838083
864.214303	2510.781961
864.526696	2514.250275
864.839045	2509.806498
865.151353	2514.310769
865.463619	2512.082579
865.775842	2513.247085
866.088023	2511.268433
866.400162	2515.175327
866.712258	2511.215500
867.024313	2515.177847
867.336325	2511.999400
867.648296	2514.666170
867.960224	2513.718433
868.272110	2511.770027
868.583954	2513.675583
868.895755	2514.928310
869.207515	2513.756242
869.519233	2514.835049
869.830909	2512.279184
870.142542	2512.190964
870.454134	2512.223731
870.765684	2513.121057
871.077191	2514.066273
871.388657	2516.397807
871.700081	2515.596263
872.011463	2514.462003
872.322803	2517.108609
872.634101	2519.677077
872.945357	2516.818743
873.256571	2519.021727
873.567744	2515.571057
873.878874	2515.896212
874.189963	2517.416120
874.501010	2518.668846
874.812015	2517.489216
875.122979	2518.331089
875.433900	2516.521315
875.744780	2515.903773
876.055618	2518.147087
876.366415	2516.806140
876.677169	2519.021727
876.987882	2516.077693
877.298554	2514.885460
877.609183	2518.217663
877.919771	2514.512415
878.230317	2519.578775
878.540822	2527.039682
878.851285	2525.812161
879.161707	2530.588655
879.472087	2536.479243
879.782425	2544.807229
880.092722	2564.019066
880.402977	2591.291709
880.713191	2625.059878
881.023363	2653.660864
881.333494	2668.239881
881.643583	2678.380162
881.953631	2674.541323
882.263637	2662.253511
882.573602	2651.195740
882.883526	2641.768782
883.193408	2630.204375
883.503248	2614.349946
883.813048	2602.261259
884.122806	2593.824888
884.432522	2580.181006
884.742197	2569.634912
885.051831	2563.875393
885.361424	2553.828374
885.670975	2547.746222
885.980485	2543.105840
886.289954	2534.573687
886.599382	2534.803059
886.908768	2531.533871
887.218113	2529.842564
887.527417	2532.773995
887.836680	2524.796369
888.145901	2523.157994
888.455082	2520.334948
888.764221	2520.965092
889.073319	2516.118023
889.382376	2519.828312
889.691392	2518.978877
890.000366	2521.300329
890.309300	2517.648013
890.618193	2519.674557
890.927044	2518.568023
891.235855	2519.684639
891.544625	2519.331758
891.853353	2518.101717
892.162041	2521.804444
892.470687	2521.383508
892.779293	2523.944414
893.087858	2522.147243
893.396381	2528.983047
893.704864	2536.423790
894.013306	2543.244471
894.321707	2555.938097
894.630068	2563.731721
894.938387	2564.329097
895.246665	2560.495300
895.554903	2558.264589
895.863100	2551.038095
896.171256	2546.879143
896.479371	2545.208001
896.787446	2540.761703
897.095480	2535.939839
897.403473	2533.709129
897.711425	2530.079498
898.019336	2526.933818
898.327207	2527.226205
898.635038	2526.850639
898.942827	2523.578930
899.250576	2520.748322
899.558284	2519.457787
899.865952	2521.559948
900.173579	2516.516274
900.481165	2515.780265
900.788711	2520.012314
901.096216	2517.335461
901.403681	2516.690193
901.711105	2520.282016
902.018489	2515.671880
902.325832	2517.857221
902.633135	2517.116171
902.940397	2523.662109
903.247619	2528.925074
903.554800	2543.002496
903.861941	2560.820454
904.169041	2570.534758
904.476101	2572.641960
904.783121	2569.312278
905.090100	2563.537636
905.397039	2556.502706
905.703938	2550.256716
906.010796	2545.495347
906.317614	2539.382947
906.624391	2534.694674
906.931129	2532.007739
907.237826	2528.534384
907.544483	2524.776204
907.851099	2521.572551
908.157675	2516.385204
908.464211	2518.210101
908.770707	2509.829183
909.077163	2509.640140
909.383578	2509.415808
909.689954	2509.935047
909.996289	2507.502691
910.302584	2511.442352
910.608839	2513.297497
910.915054	2509.763648
911.221229	2508.773061
911.527363	2511.676766
911.833458	2511.250788
912.139513	2510.880264
912.445527	2510.000582
912.751502	2513.050480
913.057436	2512.853875
913.363331	2510.262722
913.669186	2515.644154
913.975000	2517.506860
914.280775	2521.885102
914.586510	2529.252749
914.892205	2533.361289
915.197859	2545.059287
915.503475	2553.820812
915.809050	2563.774570
916.114585	2569.876887
916.420081	2568.931671
916.725536	2574.224882
917.030952	2566.703481
917.336328	2561.047306
917.641665	2560.288612
917.946961	2554.874413
918.252218	2549.359391
918.557435	2545.076931
918.862612	2539.057793
919.167750	2539.806404
919.472848	2533.094108
919.777906	2533.338604
920.082925	2528.063037
920.387904	2525.983561
920.692843	2522.477438
920.997743	2519.631707
921.302603	2520.826460
921.607423	2518.570544
921.912204	2516.826305
922.216946	2514.101561
922.521647	2513.347908
922.826310	2511.709533
923.130932	2512.221211
923.435516	2513.408402
923.740059	2508.747856
924.044564	2510.071158
924.349028	2506.963287
924.653454	2504.956908
924.957840	2507.154851
925.262186	2503.923471
925.566493	2506.675941
925.870761	2502.801815
926.174989	2505.841630
926.479178	2507.704337
926.783328	2505.551764
927.087438	2505.975221
927.391509	2504.805673
927.695541	2502.244767
927.999533	2506.098729
928.303486	2507.444717
928.607400	2505.329953
928.911275	2501.954901
929.215110	2503.225272
929.518906	2503.951198
929.822663	2502.474140
930.126381	2499.318377
930.430060	2504.614109
930.733699	2501.473471
931.037299	2503.862978
931.340861	2503.966321
931.644383	2503.293327
931.947866	2502.312823
932.251309	2505.629902
932.554714	2504.755262
932.858080	2504.684686
933.161407	2503.941115
933.464694	2503.439521
933.767943	2503.016064
934.071153	2505.972700
934.374323	2501.612102
934.677455	2501.281907
934.980548	2500.964314
935.283602	2502.605210
935.586617	2503.638646
935.889593	2505.004799
936.192530	2502.723677
936.495428	2506.123935
936.798287	2502.564880
937.101108	2504.377175
937.403890	2505.219048
937.706632	2506.045797
938.009336	2505.677793
938.312002	2508.074862
938.614628	2505.672752
938.917216	2510.545027
939.219765	2504.994717
939.522275	2508.253822
939.824747	2511.432270
940.127179	2505.529079
940.429573	2504.475478
940.731929	2504.253667
941.034246	2505.385406
941.336524	2506.013030
941.638763	2508.752897
941.940964	2509.693072
942.243126	2505.471106
942.545250	2505.919768
942.847335	2506.287772
943.149381	2505.246774
943.451389	2507.716940
943.753359	2506.199552
944.055290	2505.360200
944.357182	2505.425735
944.659036	2506.290293
944.960851	2503.132010
945.262628	2501.526403
945.564367	2503.494973
945.866067	2505.972700
946.167729	2504.132679
946.469352	2505.624861
946.770937	2505.176198
947.072484	2504.558657
947.373992	2502.635457
947.675462	2504.069665
947.976893	2503.174860
948.278286	2505.274501
948.579641	2504.493122
948.880958	2505.773575
949.182236	2503.386588
949.483476	2505.118225
949.784678	2505.455982
950.085841	2505.834069
950.386967	2501.745693
950.688054	2507.175016
950.989103	2503.565549
951.290114	2505.791219
951.591087	2504.152844
951.892021	2507.200221
952.192917	2503.994048
952.493776	2504.553616
952.794596	2504.152844
953.095378	2507.185098
953.396122	2508.281549
953.696828	2505.385406
953.997496	2503.966321
954.298126	2505.531599
954.598718	2504.099912
954.899272	2504.220899
955.199788	2503.628564
955.500266	2503.071516
955.800706	2499.477174
956.101108	2499.903151
956.401472	2500.724859
956.701798	2499.053717
957.002087	2499.081443
957.302337	2500.835765
957.602550	2501.501197
957.902724	2501.065137
958.202861	2497.874087
958.502960	2499.358707
958.803022	2501.539006
959.103045	2500.752586
959.403031	2501.866681
959.702979	2502.791732
960.002889	2499.618326
960.302762	2500.510610
960.602596	2499.572956
960.902393	2501.150837
961.202153	2501.012205
961.501875	2501.377689
961.801559	2497.778305
962.101205	2498.652945
962.400814	2499.101608
962.700385	2500.997082
962.999918	2496.029024
963.299414	2501.672596
963.598873	2496.923829
963.898293	2498.652945
964.197677	2497.455671
964.497022	2499.043634
964.796331	2499.688902
965.095601	2499.520023
965.394835	2498.905003
965.694030	2499.162102
965.993189	2498.988182
966.292309	2496.850732
966.591393	2495.754282
966.890439	2500.054386
967.189447	2499.698984
967.488419	2499.393995
967.787353	2498.181597
968.086249	2501.360045
968.385108	2497.997595
968.683930	2496.933912
968.982714	2498.968017
969.281462	2499.759478
969.580172	2498.232009
969.878844	2500.029180
970.177480	2498.733603
970.476078	2498.297544
970.774639	2501.211331
971.073162	2499.819972
971.371649	2495.045999
971.670098	2495.812255
971.968510	2498.841988
972.266885	2493.543736
972.565223	2500.792915
972.863524	2497.919457
973.161788	2499.676299
973.460014	2497.909375
973.758204	2500.024139
974.056356	2497.004488
974.354471	2501.160919
974.652550	2498.413490
974.950591	2501.365086
975.248595	2497.884169
975.546563	2500.132524
975.844493	2499.552791
976.142386	2504.175529
976.440243	2496.482728
976.738062	2500.687051
977.035845	2497.740496
977.333590	2499.381392
977.631299	2498.262256
977.928971	2500.810559
978.226606	2500.155209
978.524204	2499.283089
978.821765	2498.940291
979.119290	2499.983810
979.416777	2497.911895
979.714228	2499.386433
980.011642	2498.012718
980.309020	2499.215034
980.606360	2500.901300
980.903664	2495.981133
981.200931	2498.983141
981.498162	2499.716628
981.795356	2501.899448
982.092513	2500.629077
982.389633	2503.510097
982.686717	2502.403563
982.983764	2503.759634
983.280775	2504.636795
983.577749	2505.929851
983.874686	2507.832886
984.171587	2503.321053
984.468451	2509.390603
984.765279	2505.062772
985.062070	2502.940446
985.358824	2502.237205
985.655543	2504.082268
985.952224	2501.929695
986.248869	2500.303923
986.545478	2499.096567
986.842050	2498.574807
987.138586	2495.464415
987.435086	2494.705722
987.731549	2493.289157
988.027975	2501.168481
988.324366	2497.241422
988.620719	2497.541371
988.917037	2497.818634
989.213318	2497.730414
989.509563	2498.768892
989.805772	2498.887359
990.101944	2497.652276
990.398080	2499.091525
990.694180	2496.364261
990.990244	2498.005157
991.286271	2497.737976
991.582262	2496.911226
991.878217	2498.889879
992.174136	2494.773777
992.470019	2495.892913
992.765865	2496.714621
993.061676	2496.404590
993.357450	2496.094559
993.653188	2497.690085
993.948890	2499.111690
994.244556	2499.633449
994.540186	2498.640342
994.835780	2497.750578
995.131337	2500.243429
995.426859	2500.596310
995.722345	2497.957266
996.017795	2501.891886
996.313208	2501.234016
996.608586	2500.944149
996.903928	2502.479181
997.199234	2501.266783
997.494504	2502.121259
997.789738	2501.473471
998.084936	2500.112359
998.380099	2502.829541
998.675225	2498.647904
998.970316	2499.777122
999.265371	2498.393326
999.560390	2497.722852
999.855373	2500.145127
1000.150320	2496.911226
1000.445232	2498.370640
1000.740108	2495.749240
1001.034948	2499.053717
1001.329752	2498.219406
1001.624521	2497.927019
1001.919254	2493.092552
1002.213951	2495.285454
1002.508613	2495.870228
1002.803239	2493.568941
1003.097829	2492.464929
1003.392384	2496.906185
1003.686903	2497.294354
1003.981386	2494.748571
1004.275834	2495.076246
1004.570246	2498.773933
1004.864623	2497.853922
1005.158964	2494.597337
1005.453270	2496.840650
1005.747540	2496.757471
1006.041775	2493.745382
1006.335974	2498.758809
1006.630138	2494.872080
1006.924266	2497.969869
1007.218359	2497.932060
1007.512416	2494.897285
1007.806438	2496.026504
1008.100425	2496.374343
1008.394376	2496.326452
1008.688292	2497.599344
1008.982172	2495.310660
1009.276017	2496.397029
1009.569827	2496.306288
1009.863602	2495.666061
1010.157341	2494.342758
1010.451045	2496.702018
1010.744714	2497.937101
1011.038347	2495.514827
1011.331945	2495.512306
1011.625508	2496.878459
1011.919036	2497.717811
1012.212528	2497.042296
1012.505986	2495.477018
1012.799408	2494.975423
1013.092795	2493.899137
1013.386147	2498.683192
1013.679464	2496.182780
1013.972745	2497.760661
1014.265992	2494.970382
1014.559204	2496.081957
1014.852380	2496.139930
1015.145521	2496.752430
1015.438628	2495.139261
1015.731699	2495.567759
1016.024736	2496.966679
1016.317737	2496.921309
1016.610703	2497.037255
1016.903635	2492.984168
1017.196531	2489.294043
1017.489393	2495.782008
1017.782219	2492.774960
1018.075011	2494.514158
1018.367768	2494.438540
1018.660490	2496.518016
1018.953177	2496.518016
1019.245829	2496.518016
