Dividing Wavelength (nm)	Counts (n)	Blue Motor Position (mm): 0.000000	Red Motor Position (mm): 27.500000	
326.493990	2127.384567
326.888308	2127.384567
327.282561	2127.384567
327.676750	2093.339135
328.070874	2095.272417
328.464933	2097.929105
328.858929	2104.389344
329.252859	2112.540890
329.646726	2123.492796
330.040528	2135.405043
330.434265	2152.406334
330.827938	2171.915600
331.221547	2189.176510
331.615091	2208.360621
332.008571	2226.881821
332.401986	2248.674729
332.795338	2268.181473
333.188625	2285.689401
333.581847	2305.304530
333.975006	2321.151398
334.368100	2337.809890
334.761129	2359.852336
335.154095	2375.177443
335.546996	2391.367109
335.939833	2413.492733
336.332606	2423.159146
336.725315	2435.822524
337.117960	2448.017075
337.510540	2454.694083
337.903056	2463.503500
338.295508	2472.585138
338.687896	2479.967908
339.080220	2490.304794
339.472480	2495.817296
339.864676	2501.125631
340.256807	2504.901455
340.648875	2509.756086
341.040879	2509.962774
341.432818	2513.204236
341.824694	2516.440656
342.216506	2515.760101
342.608253	2514.550224
342.999937	2510.146776
343.391557	2518.094155
343.783113	2511.976715
344.174605	2514.245234
344.566033	2511.097033
344.957397	2510.010665
345.348697	2508.944461
345.739934	2504.442710
346.131106	2505.249295
346.522215	2506.849861
346.913260	2501.609582
347.304241	2501.997751
347.695159	2496.402070
348.086012	2498.786536
348.476802	2493.445433
348.867528	2494.350320
349.258191	2491.313025
349.648789	2492.825371
350.039324	2487.738847
350.429796	2486.281953
350.820203	2483.862200
351.210548	2483.695842
351.600828	2485.069556
351.991045	2486.503764
352.381198	2483.441263
352.771288	2483.126191
353.161314	2484.356233
353.551276	2481.780203
353.941175	2483.259782
354.331010	2486.034937
354.720782	2481.530666
355.110490	2482.281798
355.500135	2482.773310
355.889717	2485.460245
356.279235	2482.387662
356.668689	2486.634834
357.058080	2484.625934
357.447408	2483.126191
357.836672	2480.023361
358.225873	2485.309011
358.615010	2481.505460
359.004084	2488.424444
359.393095	2487.451501
359.782043	2489.730103
360.170927	2488.749598
360.559748	2489.916625
360.948505	2490.876965
361.337199	2491.376039
361.725830	2489.478045
362.114398	2492.727069
362.502903	2491.305463
362.891344	2492.951400
363.279722	2495.464415
363.668037	2494.660351
364.056289	2495.930722
364.444478	2496.820486
364.832603	2492.462408
365.220665	2496.898623
365.608665	2497.894251
365.996601	2497.692605
366.384474	2497.294354
366.772284	2501.211331
367.160031	2501.120590
367.547715	2504.039418
367.935336	2502.262411
368.322893	2510.083761
368.710388	2511.389420
369.097820	2518.298322
369.485189	2522.364012
369.872495	2530.654190
370.259738	2534.152750
370.646918	2540.902855
371.034035	2549.482899
371.421090	2557.059753
371.808081	2568.583831
372.195010	2578.703947
372.581875	2593.678695
372.968678	2604.411312
373.355418	2614.150821
373.742096	2635.258132
374.128710	2647.724905
374.515262	2663.551608
374.901751	2678.932168
375.288177	2692.661751
375.674540	2716.808878
376.060841	2730.319170
376.447079	2753.551327
376.833254	2773.325253
377.219367	2785.413940
377.605417	2821.705207
377.991404	2830.638132
378.377329	2854.132429
378.763191	2870.876622
379.148991	2906.872981
379.534727	2932.222423
379.920402	2961.879531
380.306013	2976.488795
380.691563	3025.022503
381.077049	3041.766696
381.462474	3062.536250
381.847835	3102.626026
382.233134	3123.317442
382.618371	3124.981022
383.003545	3191.259592
383.388657	3201.215871
383.773706	3231.253587
384.158693	3245.935947
384.543618	3273.924433
384.928480	3309.827531
385.313280	3357.388297
385.698017	3355.119778
386.082692	3406.784043
386.467305	3412.004158
386.851856	3442.954322
387.236344	3466.766212
387.620770	3500.378105
388.005133	3525.548586
388.389435	3552.002041
388.773674	3562.469997
389.157851	3606.766616
389.541965	3624.453504
389.926018	3586.443204
390.310008	3659.151766
390.693936	3677.909900
391.077802	3720.931107
391.461606	3704.900237
391.845348	3770.130247
392.229027	3770.369702
392.612645	3785.417547
392.996200	3860.772714
393.379694	3899.854259
393.763125	3965.651399
394.146494	3930.958179
394.529801	3991.550327
394.913047	4044.936147
395.296230	4008.773429
395.679351	4061.685380
396.062410	4085.081375
396.445408	4066.613108
396.828343	4098.815999
397.211217	4124.152838
397.594028	4045.289027
397.976778	4111.691106
398.359466	4135.129951
398.742092	4163.879651
399.124656	4089.978856
399.507158	4167.617667
399.889598	4195.076832
400.271977	4255.406840
400.654294	4226.639496
401.036549	4232.381370
401.418742	4209.502093
401.800874	4304.850477
402.182944	4326.547603
402.564952	4389.960278
402.946898	4377.891755
403.328783	4369.473028
403.710606	4288.726347
404.092367	4481.038804
404.474067	4444.747537
404.855705	4454.345894
405.237282	4381.365110
405.618797	4491.892408
406.000250	4522.383827
406.381642	4605.371302
406.762972	4569.596754
407.144240	4576.341817
407.525447	4578.093618
407.906593	4637.838853
408.287677	4680.234957
408.668700	4608.796766
409.049661	4659.735105
409.430560	4707.016087
409.811399	4629.009272
410.192176	4783.437459
410.572891	4729.734047
410.953545	4830.040405
411.334138	4714.532447
411.714669	4779.850678
412.095139	4672.033000
412.475547	4816.404084
412.855894	4796.320127
413.236180	4807.629956
413.616405	4759.030712
413.996568	4844.599258
414.376670	4789.723777
414.756711	4746.107714
415.136691	4772.606540
415.516609	4849.940360
415.896466	4888.290938
416.276262	4922.525414
416.655997	4902.582609
417.035670	5082.675310
417.415283	5176.758364
417.794834	5123.180981
418.174324	5071.862035
418.553753	4983.137727
418.933121	5166.156818
419.312428	5234.315738
419.691674	5175.790463
420.070859	5292.467968
420.449983	5213.170618
420.829045	5324.103729
421.208047	5230.580243
421.586988	5301.368125
421.965867	5310.779960
422.344686	5445.998829
422.723444	5301.932735
423.102141	5121.850116
423.480777	5418.171660
423.859352	5190.457700
424.237866	5442.260814
424.616319	5438.195123
424.994712	5547.590682
425.373044	5428.679945
425.751314	5568.955092
426.129524	5366.845152
426.507673	5560.175923
426.885762	5647.876876
427.263789	5574.795269
427.641756	5461.240758
428.019662	5581.041258
428.397508	5586.329429
428.775292	5539.202202
429.153016	5632.720647
429.530679	5561.952929
429.908282	5643.670033
430.285824	5514.059447
430.663305	5792.104288
431.040726	5526.753073
431.418086	5524.935737
431.795385	5628.261747
432.172624	5642.497965
432.549802	5638.404548
432.926920	5651.536754
433.303977	5655.592362
433.680974	5694.810018
434.057910	5712.945569
434.434786	5722.627105
434.811601	5686.817269
435.188355	5923.741418
435.565050	5797.258868
435.941683	5781.187669
436.318257	5997.637171
436.694770	5973.243028
437.071222	6011.833060
437.447614	5944.047185
437.823946	5852.867836
438.200218	6003.197564
438.576429	5874.988419
438.952580	5970.971988
439.328670	6015.808010
439.704700	5923.726294
440.080670	5910.722638
440.456580	6179.138874
440.832429	6065.866668
441.208218	5906.064612
441.583947	6062.852058
441.959616	6068.767852
442.335224	5994.211707
442.710773	6130.942923
443.086261	6148.763402
443.461689	5951.460202
443.837057	6096.204332
444.212365	6248.752168
444.587612	6146.262989
444.962800	6294.871164
445.337927	6273.521877
445.712995	5885.292537
446.088002	6457.271935
446.462949	6285.527385
446.837837	6214.416869
447.212664	6380.840481
447.587431	6522.837182
447.962139	7051.954169
448.336786	7970.006258
448.711374	7702.870474
449.085901	6786.865094
449.460369	6700.167330
449.834776	6632.638554
450.209124	7012.166862
450.583412	7150.470918
450.957640	7287.456712
451.331808	7049.511730
451.705917	6604.392969
452.079965	6518.494228
452.453954	6723.706998
452.827883	6588.145330
453.201752	6671.770510
453.575562	6463.210414
453.949311	6652.326780
454.323001	6530.048552
454.696632	6591.043993
455.070202	6710.302570
455.443713	6845.264341
455.817164	6922.000784
456.190556	6984.503530
456.563888	7034.937754
456.937160	7061.587814
457.310373	6724.122893
457.683526	6728.501135
458.056619	6607.788186
458.429653	6583.013435
458.802628	6501.205591
459.175542	6580.008908
459.548398	6874.218208
459.921194	6990.608368
460.293930	6961.268852
460.666607	7389.777012
461.039224	7629.700647
461.411782	7701.436266
461.784280	7690.663320
462.156719	7563.175060
462.529099	7428.966942
462.901419	7034.587394
463.273680	6919.026504
463.645882	6894.193780
464.018024	6739.271560
464.390106	6839.537590
464.762130	7108.894002
465.134094	7427.063906
465.505999	8159.258735
465.877845	9039.595431
466.249631	9493.455553
466.621358	9153.341506
466.993026	8605.622661
467.364634	8366.064509
467.736184	8012.457814
468.107674	7698.666152
468.479105	7644.393089
468.850477	7413.001607
469.221790	7187.142792
469.593043	6893.732514
469.964238	6725.005095
470.335373	6671.999883
470.706449	6653.007336
471.077467	6573.704945
471.448425	7330.135120
471.819324	7940.334026
472.190164	7879.807412
472.560945	7035.807353
472.931667	6473.625438
473.302330	6318.650286
473.672934	6040.902874
474.043479	6172.741650
474.413965	6076.775725
474.784393	5926.987921
475.154761	5949.932732
475.525070	5915.978041
475.895321	5768.693169
476.265513	5784.020798
476.635645	5807.157173
477.005719	5718.228699
477.375734	5704.849476
477.745691	5742.990846
478.115588	5721.225665
478.485427	5744.719962
478.855207	5906.246093
479.224928	6157.834958
479.594591	6342.207598
479.964194	6163.029867
480.333739	6044.177103
480.703226	5897.227469
481.072653	5844.663358
481.442022	5843.224108
481.811333	5832.834290
482.180584	5664.747097
482.549777	5464.756963
482.918912	5331.322662
483.287988	5251.334673
483.657005	5175.606460
484.025964	4998.165407
484.394864	4948.721770
484.763706	4852.914641
485.132489	4722.278180
485.501213	4637.710304
485.869879	4584.674845
486.238487	4469.287874
486.607036	4436.553142
486.975527	4315.628464
487.343959	4295.068118
487.712333	4235.012852
488.080648	4165.170186
488.448905	4104.472173
488.817104	4034.427861
489.185244	4024.945451
489.553326	3990.942868
489.921350	4035.103376
490.289315	4139.213285
490.657222	4140.851660
491.025070	4055.998959
491.392861	3978.450889
491.760593	3865.491234
492.128267	3751.205756
492.495883	3653.276301
492.863440	3565.862694
493.230939	3484.032164
493.598380	3432.776232
493.965763	3375.032335
494.333088	3331.849812
494.700354	3282.416257
495.067563	3259.640324
495.434713	3205.768033
495.801805	3188.373532
496.168839	3151.452121
496.535815	3116.118674
496.902733	3089.408120
497.269593	3056.002914
497.636395	3035.316539
498.003139	3007.386027
498.369825	2977.814618
498.736453	2964.687453
499.103023	2938.589400
499.469535	2921.625917
499.835989	2900.274110
500.202385	2879.885163
500.568723	2857.542770
500.935003	2852.625124
501.301226	2827.520178
501.667390	2824.976916
502.033497	2808.575522
502.399546	2792.204375
502.765537	2777.295162
503.131470	2767.774943
503.497345	2759.247831
503.863163	2743.496746
504.228923	2739.020202
504.594625	2732.197000
504.960269	2717.028168
505.325856	2715.866182
505.691385	2702.771785
506.056856	2702.136599
506.422270	2694.476566
506.787625	2685.042047
507.152924	2683.819567
507.518164	2678.012158
507.883347	2672.565191
508.248472	2665.323573
508.613540	2665.278203
508.978550	2658.512975
509.343503	2656.438540
509.708398	2658.003818
510.073236	2654.550628
510.438016	2649.602735
510.802738	2647.172899
511.167403	2644.128042
511.532010	2640.200983
511.896561	2641.738535
512.261053	2643.656694
512.625488	2634.663276
512.989866	2632.820734
513.354186	2633.130765
513.718449	2627.666154
514.082655	2629.168418
514.446803	2630.635394
514.810894	2629.964920
515.174927	2625.561472
515.538904	2624.076853
515.902822	2626.032820
516.266684	2621.218518
516.630488	2619.640637
516.994235	2620.787500
517.357925	2618.216511
517.721558	2619.418827
518.085133	2620.200205
518.448651	2618.939917
518.812112	2614.677621
519.175516	2615.332971
519.538863	2612.497322
519.902152	2613.918928
520.265385	2615.640482
520.628560	2614.425564
520.991678	2612.900615
521.354739	2613.419853
521.717743	2612.406582
522.080690	2613.639144
522.443580	2610.869030
522.806413	2614.533948
523.169189	2610.110336
523.531908	2611.327775
523.894569	2610.732918
524.257174	2610.276694
524.619722	2608.852568
524.982213	2608.930706
525.344647	2610.095212
525.707025	2609.361725
526.069345	2611.078237
526.431608	2609.142434
526.793815	2607.665376
527.155964	2606.153030
527.518057	2602.999788
527.880093	2605.543051
528.242072	2610.057404
528.603995	2607.917434
528.965860	2603.539192
529.327669	2604.161774
529.689421	2604.015581
530.051117	2604.902824
530.412755	2605.454830
530.774337	2603.604727
531.135862	2606.291662
531.497331	2604.416353
531.858743	2599.289499
532.220098	2600.262442
532.581396	2600.292689
532.942638	2599.236567
533.303824	2600.590117
533.664953	2602.888883
534.026025	2603.614809
534.387040	2603.972731
534.747999	2601.192535
535.108902	2604.870057
535.469748	2600.038111
535.830537	2599.904520
536.191270	2598.818151
536.551947	2603.450972
536.912567	2602.110025
537.273131	2599.801176
537.633638	2600.917792
537.994089	2601.691609
538.354483	2600.426279
538.714821	2601.157247
539.075103	2604.005499
539.435328	2600.872422
539.795497	2602.304109
540.155609	2600.786722
540.515665	2603.917278
540.875665	2600.108687
541.235609	2601.507607
541.595496	2600.474170
541.955328	2600.138934
542.315102	2603.513986
542.674821	2597.900661
543.034483	2602.117587
543.394090	2602.725046
543.753640	2601.913420
544.113134	2601.842844
544.472571	2600.937957
544.831953	2601.540374
545.191278	2598.971907
545.550548	2600.789242
545.909761	2600.222113
546.268918	2600.791763
546.628019	2603.839141
546.987064	2599.269335
547.346053	2596.494179
547.704986	2596.852101
548.063863	2600.431321
548.422684	2600.484253
548.781449	2599.493666
549.140158	2600.615323
549.498811	2602.097422
549.857408	2598.306474
550.215949	2597.842688
550.574434	2597.028542
550.932864	2596.025352
551.291237	2598.223295
551.649555	2602.208327
552.007817	2601.293358
552.366022	2601.878132
552.724173	2599.239088
553.082267	2601.520210
553.440305	2600.476691
553.798288	2599.539036
554.156215	2599.319746
554.514086	2602.374685
554.871902	2598.795466
555.229661	2601.101794
555.587365	2600.711105
555.945014	2601.747062
556.302606	2599.407966
556.660143	2600.302771
557.017625	2599.675147
557.375050	2600.746393
557.732421	2600.950559
558.089735	2602.450303
558.446994	2598.550970
558.804197	2601.873091
559.161345	2602.578852
559.518437	2597.275558
559.875474	2600.716146
560.232455	2601.603389
560.589381	2601.633636
560.946251	2604.305447
561.303065	2604.134048
561.659825	2598.379571
562.016528	2597.603233
562.373177	2602.951897
562.729770	2600.844695
563.086307	2600.370827
563.442789	2601.552977
563.799216	2597.366299
564.155587	2597.116762
564.511904	2598.074581
564.868164	2599.607092
565.224370	2599.312184
565.580520	2600.164139
565.936615	2597.537698
566.292654	2595.329673
566.648638	2598.961824
567.004567	2599.100456
567.360441	2596.531988
567.716260	2595.329673
568.072023	2598.515682
568.427732	2595.133068
568.783385	2595.836309
569.138982	2592.378077
569.494525	2595.753130
569.850013	2592.269692
570.205445	2595.622060
570.560823	2595.826227
570.916145	2597.787235
571.271412	2596.630291
571.626625	2599.420569
571.981782	2597.220106
572.336884	2597.227667
572.691931	2595.128027
573.046923	2595.143150
573.401860	2599.246649
573.756743	2595.798500
574.111570	2596.405959
574.466342	2596.489138
574.821059	2598.210692
575.175722	2595.390167
575.530330	2595.853953
575.884882	2597.520054
576.239380	2595.546443
576.593823	2595.178438
576.948211	2597.159612
577.302544	2594.762543
577.656823	2596.544591
578.011047	2597.446957
578.365216	2593.746751
578.719330	2594.875969
579.073389	2596.274889
579.427394	2593.250197
579.781344	2592.360433
580.135239	2594.139961
580.489080	2594.109714
580.842866	2591.788262
581.196597	2596.030393
581.550273	2595.317070
581.903895	2590.303642
582.257463	2595.559045
582.610975	2589.824733
582.964434	2591.417737
583.317837	2591.606781
583.671186	2591.556369
584.024481	2592.549477
584.377721	2592.015114
584.730906	2591.200968
585.084037	2592.083170
585.437113	2590.981678
585.790135	2590.921184
586.143103	2591.251379
586.496016	2589.000504
586.848874	2585.968250
587.201679	2589.129054
587.554428	2587.634352
587.907124	2589.965885
588.259765	2584.728126
588.612352	2591.014445
588.964884	2590.291040
589.317362	2590.792634
589.669786	2587.611666
590.022155	2591.931935
590.374470	2592.229363
590.726731	2588.360278
591.078937	2587.508323
591.431090	2588.544280
591.783188	2587.762901
592.135232	2585.239803
592.487222	2586.094279
592.839157	2588.367839
593.191038	2587.528487
593.542866	2586.905905
593.894639	2584.770976
594.246358	2587.014290
594.598022	2587.480596
594.949633	2587.669640
595.301190	2584.846593
595.652692	2587.155442
596.004141	2586.258117
596.355535	2588.438416
596.706876	2586.442119
597.058162	2584.181161
597.409395	2585.496902
597.760573	2585.438929
598.111698	2584.695359
598.462768	2588.110741
598.813785	2583.190574
599.164748	2586.938672
599.515657	2584.586974
599.866511	2585.567478
600.217312	2583.354412
600.568060	2586.686615
600.918753	2585.910277
601.269392	2585.915318
601.619978	2584.092941
601.970510	2583.440112
602.320988	2584.246696
602.671412	2585.532190
603.021783	2584.221490
603.372100	2584.768456
603.722363	2584.271902
604.072572	2587.651996
604.422728	2584.506316
604.772830	2584.186202
605.122878	2582.066397
605.472872	2578.731674
605.822813	2578.988773
606.172701	2581.547158
606.522534	2584.443301
606.872314	2585.622931
607.222041	2581.776531
607.571714	2583.987077
607.921333	2585.204515
608.270899	2583.850966
608.620411	2583.853486
608.969870	2583.717375
609.319276	2588.574527
609.668627	2588.824064
610.017926	2590.054105
610.367171	2595.546442
610.716362	2593.633325
611.065500	2590.278437
611.414585	2589.181986
611.763616	2588.609815
612.112594	2589.590319
612.461518	2588.355237
612.810389	2587.362129
613.159207	2585.585122
613.507971	2585.194433
613.856682	2585.779207
614.205340	2585.869948
614.553945	2586.641244
614.902496	2586.361460
615.250994	2586.774835
615.599439	2587.604105
615.947830	2587.036975
616.296169	2586.900864
616.644454	2586.742067
616.992686	2585.612849
617.340864	2585.476738
617.688990	2581.675708
618.037063	2584.917170
618.385082	2587.286512
618.733048	2585.837180
619.080961	2583.603949
619.428821	2586.492530
619.776628	2588.831626
620.124382	2586.908425
620.472083	2585.161666
620.819731	2586.109403
621.167326	2581.892477
621.514868	2584.634865
621.862357	2582.812488
622.209793	2584.801223
622.557176	2584.435739
622.904506	2580.760738
623.251783	2578.666139
623.599007	2578.887950
623.946179	2576.715212
624.293297	2579.840728
624.640363	2581.395924
624.987376	2582.631006
625.334336	2581.151428
625.681243	2579.790316
626.028097	2579.366859
626.374899	2581.264854
626.721647	2577.756211
627.068343	2581.133784
627.414987	2581.065728
627.761577	2579.263516
628.108115	2579.084555
628.454600	2578.817373
628.801032	2578.620768
629.147412	2581.073290
629.493739	2578.348546
629.840014	2577.360480
630.186236	2579.439956
630.532405	2578.101530
630.878521	2578.136818
631.224585	2576.223700
631.570597	2577.499112
631.916556	2577.965418
632.262462	2577.373083
632.608316	2576.959708
632.954117	2575.974163
633.299866	2577.731005
633.645562	2576.203535
633.991206	2577.791499
634.336797	2575.633885
634.682336	2574.056004
635.027823	2573.319995
635.373257	2575.328895
635.718639	2573.234296
636.063968	2573.806467
636.409245	2571.666497
636.754470	2571.676579
637.099642	2574.013154
637.444762	2573.372927
637.789829	2571.986610
638.134845	2572.909141
638.479808	2571.966445
638.824719	2569.859243
639.169577	2571.066599
639.514383	2569.420663
639.859137	2569.627350
640.203839	2573.120870
640.548489	2572.062227
640.893086	2568.714901
641.237632	2564.666855
641.582125	2566.085939
641.926566	2566.022925
642.270955	2567.908317
642.615292	2567.333625
642.959576	2570.386044
643.303809	2569.133317
643.647990	2572.750345
643.992118	2568.853533
644.336195	2571.482495
644.680219	2567.202555
645.024192	2571.540468
645.368112	2572.140365
645.711981	2571.326219
646.055797	2572.757907
646.399562	2570.257494
646.743274	2570.824624
647.086935	2573.030129
647.430544	2570.761610
647.774101	2571.611044
648.117606	2572.319326
648.461059	2573.892166
648.804460	2573.045252
649.147810	2573.733370
649.491108	2570.287741
649.834354	2569.733214
650.177548	2570.002916
650.520690	2568.853533
650.863781	2570.459140
651.206820	2572.231106
651.549807	2568.654407
651.892742	2568.281362
652.235626	2567.230281
652.578458	2568.563667
652.921238	2568.147771
653.263967	2569.506362
653.606644	2568.299006
653.949269	2566.579973
654.291843	2567.628533
654.634365	2568.982082
654.976836	2567.792370
655.319255	2569.723132
655.661622	2567.651218
656.003938	2565.342369
656.346203	2568.248594
656.688416	2567.381516
657.030577	2564.293809
657.372687	2565.675085
657.714746	2563.512430
658.056753	2565.566701
658.398708	2562.176525
658.740612	2565.690209
659.082465	2564.003943
659.424266	2562.231977
659.766016	2562.105948
660.107715	2566.280024
660.449362	2566.746331
660.790958	2567.406722
661.132503	2565.314643
661.473996	2568.412432
661.815438	2564.447564
662.156829	2567.885631
662.498168	2567.910837
662.839456	2567.668862
663.180693	2568.498132
663.521879	2566.118707
663.863013	2566.670713
664.204097	2566.479149
664.545129	2566.128789
664.886110	2568.959397
665.227040	2569.236661
665.567918	2568.823286
665.908746	2566.133830
666.249522	2567.394119
666.590248	2565.352452
666.930922	2566.068295
667.271545	2568.533420
667.612118	2568.399829
667.952639	2568.399829
668.293109	2568.727504
668.633528	2564.830692
668.973896	2566.297668
669.314213	2566.048131
669.654480	2567.207596
669.994695	2564.286247
670.334859	2571.008626
670.674973	2565.818758
671.015035	2565.198696
671.355047	2564.339180
671.695008	2566.171639
672.034918	2565.488563
672.374777	2566.819427
672.714585	2565.871690
673.054342	2568.122566
673.394049	2566.075857
673.733705	2565.884293
674.073310	2566.458985
674.412864	2566.103583
674.752368	2566.169118
675.091820	2563.353634
675.431223	2563.434292
675.770574	2565.697771
676.109875	2558.073025
676.449125	2563.577965
676.788324	2560.933880
677.127473	2563.822461
677.466571	2560.517985
677.805619	2563.094015
678.144616	2562.562173
678.483562	2564.102245
678.822458	2563.779612
679.161303	2563.643500
679.500098	2563.701474
679.838842	2561.329611
680.177535	2564.639128
680.516179	2562.748696
680.854771	2562.184086
681.193314	2563.162070
681.531805	2564.863460
681.870247	2565.294478
682.208638	2564.845816
682.546978	2566.330435
682.885268	2566.403532
683.223508	2566.000240
683.561697	2566.958059
683.899836	2566.751372
684.237925	2563.467060
684.575963	2563.540157
684.913951	2565.342369
685.251889	2565.002091
685.589776	2562.710887
685.927614	2566.900086
686.265401	2565.150805
686.603137	2563.348593
686.940824	2564.871021
687.278460	2566.910168
687.616046	2568.712381
687.953582	2565.458316
688.291068	2568.319171
688.628504	2565.357493
688.965889	2565.617112
689.303224	2566.597617
689.640510	2565.261711
689.977745	2564.329097
690.314930	2567.016032
690.652065	2564.656772
690.989150	2563.202399
691.326185	2559.877758
691.663170	2560.621329
692.000105	2561.551422
692.336990	2558.357851
692.673825	2559.451781
693.010610	2562.032852
693.347345	2558.738458
693.684030	2554.839125
694.020665	2556.139743
694.357251	2552.106820
694.693786	2555.184444
695.030272	2557.498334
695.366707	2557.601678
695.703093	2558.191492
696.039429	2556.139743
696.375716	2556.467418
696.711952	2558.337686
697.048139	2557.069836
697.384276	2555.928014
697.720363	2560.059240
698.056400	2555.244938
698.392388	2556.588406
698.728326	2557.347099
699.064214	2557.117727
699.400053	2555.605381
699.735842	2556.195196
700.071581	2557.377346
700.407270	2554.183775
700.742910	2556.543035
701.078501	2554.715617
701.414042	2555.033210
701.749533	2555.675957
702.084974	2555.086142
702.420366	2554.319886
702.755709	2554.277037
703.091002	2553.825853
703.426246	2552.721841
703.761440	2554.841646
704.096584	2551.131357
704.431679	2553.624207
704.766725	2554.695452
705.101721	2552.973898
705.436668	2552.784855
705.771565	2551.333003
706.106413	2555.844835
706.441212	2550.266799
706.775961	2553.288970
707.110661	2553.357026
707.445311	2556.623694
707.779913	2555.643189
708.114465	2556.212840
708.448967	2553.379711
708.783421	2557.263920
709.117825	2553.515822
709.452180	2554.526574
709.786485	2552.847869
710.120742	2556.714434
710.454949	2559.383725
710.789107	2558.446071
711.123216	2554.297201
711.457275	2555.146636
711.791286	2551.988353
712.125247	2554.876934
712.459159	2555.822150
712.793023	2559.950855
713.126837	2554.135884
713.460602	2555.630586
713.794318	2556.754764
714.127985	2557.906667
714.461602	2556.159908
714.795171	2558.864487
715.128691	2556.071687
715.462162	2553.614125
715.795584	2555.464228
716.128957	2553.467931
716.462281	2551.806871
716.795556	2553.165462
717.128782	2554.917263
717.461960	2551.627910
717.795088	2552.782334
718.128167	2550.039947
718.461198	2553.820812
718.794180	2553.195709
719.127113	2550.047508
719.459997	2549.518187
719.792833	2551.408620
720.125619	2553.296532
720.458357	2551.085986
720.791046	2551.806871
721.123686	2550.037426
721.456278	2552.310987
721.788821	2549.003990
722.121315	2550.901984
722.453761	2548.792261
722.786158	2550.738147
723.118506	2550.155893
723.450805	2549.702189
723.783056	2550.972560
724.115259	2550.546583
724.447412	2550.014741
724.779518	2551.345606
725.111574	2549.427447
725.443582	2550.397869
725.775542	2547.889895
726.107453	2552.714279
726.439315	2549.334185
726.771129	2555.938097
727.102895	2550.503733
727.434612	2553.115051
727.766281	2550.980122
728.097901	2548.489792
728.429473	2548.764535
728.760996	2550.546583
729.092471	2546.997610
729.423897	2553.004145
729.755276	2550.612118
730.086606	2553.717468
730.417887	2552.225287
730.749120	2551.743857
731.080305	2552.600853
731.411442	2553.039433
731.742530	2551.665719
732.073570	2554.655123
732.404562	2553.626728
732.735506	2554.342572
733.066401	2553.694783
733.397249	2551.433826
733.728048	2551.690925
734.058798	2551.315359
734.389501	2551.133877
734.720156	2551.408620
735.050762	2551.627910
735.381320	2548.517518
735.711831	2546.967363
736.042293	2549.845862
736.372707	2549.059442
736.703073	2549.195553
737.033391	2548.605738
737.363661	2549.316541
737.693883	2550.579350
738.024056	2551.527087
738.354182	2550.715461
738.684260	2551.007848
739.014290	2548.038609
739.344272	2551.940462
739.674207	2550.619679
740.004093	2551.327962
740.333931	2553.619166
740.663722	2552.331151
740.993464	2550.486089
741.323159	2552.825184
741.652806	2548.477189
741.982405	2550.415513
742.311956	2548.530121
742.641460	2549.553475
742.970915	2551.222097
743.300323	2549.061963
743.629683	2549.853424
743.958996	2547.375697
744.288260	2548.338557
744.617477	2546.886705
744.946647	2544.887887
745.275768	2545.613814
745.604842	2542.634492
745.933869	2543.337733
746.262847	2541.603576
746.591778	2548.081458
746.920662	2546.649771
747.249498	2547.141283
747.578286	2547.426108
747.907027	2547.978115
748.235720	2548.459545
748.564365	2549.742519
748.892963	2547.020296
749.221514	2548.923331
749.550017	2546.483413
749.878473	2548.769576
750.206881	2546.019627
750.535242	2545.820501
750.863555	2547.090872
751.191821	2547.602549
751.520039	2548.008362
751.848210	2545.805378
752.176334	2545.659184
752.504411	2548.381407
752.832440	2545.386962
753.160421	2547.383259
753.488356	2544.731612
753.816243	2545.578526
754.144082	2545.893598
754.471875	2545.593649
754.799620	2549.180430
755.127318	2543.012578
755.454969	2547.902497
755.782572	2546.969884
756.110129	2544.754297
756.437638	2545.611293
756.765100	2547.882333
757.092515	2548.010882
757.419882	2543.710778
757.747203	2544.424101
758.074477	2547.894936
758.401703	2544.219935
758.728882	2544.598021
759.056014	2547.335368
759.383099	2546.697662
759.710138	2545.691952
760.037129	2546.745553
760.364073	2547.542055
760.690970	2546.755635
761.017820	2548.076417
761.344623	2547.791592
761.671379	2548.046170
761.998088	2543.521735
762.324751	2547.655481
762.651366	2548.842673
762.977935	2558.388098
763.304456	2561.291802
763.630931	2563.116700
763.957359	2560.558314
764.283740	2560.240722
764.610074	2558.340207
764.936362	2554.539177
765.262602	2549.467776
765.588796	2550.213867
765.914943	2547.408464
766.241044	2546.710265
766.567097	2544.051056
766.893104	2544.134235
767.219064	2544.824873
767.544978	2543.491488
767.870845	2543.781354
768.196665	2544.209852
768.522438	2544.797147
768.848165	2543.040305
769.173846	2543.804039
769.499479	2545.787733
769.825066	2541.533000
770.150607	2542.682383
770.476101	2541.008720
770.801548	2544.913093
771.126949	2544.434184
771.452303	2542.437887
771.777611	2540.456713
772.102872	2540.010571
772.428087	2537.978986
772.753256	2541.588452
773.078378	2539.927392
773.403453	2542.798329
773.728482	2541.469985
774.053465	2540.708771
774.378401	2537.106867
774.703291	2540.595345
775.028135	2540.489481
775.352932	2539.582073
775.677683	2541.109543
776.002388	2541.659028
776.327046	2538.289017
776.651658	2539.801363
776.976224	2541.109543
777.300743	2538.601569
777.625216	2537.878163
777.949643	2538.959491
778.274024	2539.231713
778.598359	2535.884387
778.922647	2534.288862
779.246889	2537.961342
779.571086	2533.031094
779.895236	2538.954449
780.219339	2541.293545
780.543397	2540.146682
780.867409	2538.203318
781.191374	2539.007382
781.515294	2540.731456
781.839167	2538.772968
782.162995	2537.648791
782.486776	2540.121477
782.810511	2540.570139
783.134201	2540.449152
783.457844	2536.333049
783.781441	2537.270704
784.104993	2540.005530
784.428498	2537.711805
784.751958	2538.152906
785.075372	2539.312371
785.398739	2537.031249
785.722061	2537.739531
786.045337	2538.767927
786.368568	2538.765406
786.691752	2536.814480
787.014891	2539.992927
787.337983	2537.802546
787.661030	2541.590973
787.984031	2542.652136
788.306987	2538.813297
788.629897	2542.682383
788.952760	2541.054090
789.275579	2541.848072
789.598351	2540.035777
789.921078	2540.779347
790.243759	2539.287166
790.566395	2538.541075
790.888984	2540.612989
791.211529	2535.624767
791.534027	2541.641384
791.856480	2535.039993
792.178888	2538.813297
792.501249	2538.059645
792.823566	2541.472506
793.145836	2537.026208
793.468062	2540.005530
793.790241	2538.117618
794.112375	2538.311702
794.434464	2534.314067
794.756507	2542.337064
795.078505	2539.181301
795.400457	2537.931095
795.722364	2534.457740
796.044226	2541.396888
796.366042	2537.636188
796.687812	2537.787422
797.009538	2540.305479
797.331218	2541.795140
797.652852	2539.216589
797.974442	2543.141128
798.295986	2536.469161
798.617484	2538.473019
798.938938	2540.244985
799.260346	2539.776157
799.581709	2540.426466
799.903026	2540.116435
800.224299	2538.752803
800.545526	2540.055942
800.866708	2540.310520
801.187845	2537.001002
801.508936	2536.194418
801.829983	2536.275076
802.150984	2538.122659
802.471940	2538.016795
802.792851	2539.849254
803.113717	2537.527803
803.434538	2538.712474
803.755314	2536.701054
804.076045	2533.706608
804.396731	2538.009233
804.717372	2537.618544
805.037967	2539.009902
805.358518	2536.575025
805.679024	2535.884387
805.999485	2537.235416
806.319901	2538.125180
806.640272	2538.470499
806.960598	2538.515869
807.280879	2535.176105
807.601115	2537.542926
807.921306	2538.208359
808.241453	2539.871939
808.561554	2537.585776
808.881611	2540.814635
809.201623	2541.142310
809.521590	2536.544778
809.841513	2534.576207
810.161390	2537.545447
810.481223	2539.889583
810.801011	2535.798687
811.120755	2536.809438
811.440453	2537.164840
811.760107	2537.822710
812.079716	2534.374561
812.399281	2532.411032
812.718801	2534.702236
813.038276	2532.665610
813.357707	2537.265663
813.677093	2535.881866
813.996434	2539.486291
814.315731	2537.837834
814.634983	2537.560570
814.954191	2539.471168
815.273354	2539.629964
815.592473	2533.772143
815.911547	2540.156765
816.230577	2539.541744
816.549562	2536.055786
816.868502	2537.749614
817.187399	2536.055786
817.506250	2538.541075
817.825058	2538.001671
818.143821	2542.551313
818.462539	2539.393030
818.781213	2542.821014
819.099843	2542.082485
819.418429	2544.477033
819.736970	2545.344112
820.055466	2547.526932
820.373919	2547.910059
820.692327	2552.255534
821.010691	2555.209650
821.329011	2570.844789
821.647286	2596.264807
821.965517	2620.966461
822.283704	2637.569501
822.601847	2641.859523
822.919945	2631.194962
823.237999	2613.810543
823.556010	2599.269335
823.873976	2585.227201
824.191897	2572.634398
824.509775	2567.323543
824.827609	2562.554611
825.145398	2559.083777
825.463144	2557.412634
825.780845	2558.501523
826.098502	2560.699467
826.416116	2568.712381
826.733685	2575.225551
827.051210	2580.556572
827.368692	2578.424163
827.686129	2568.362020
828.003522	2561.248952
828.320872	2552.011038
828.638177	2549.921480
828.955439	2544.290511
829.272656	2542.142979
829.589830	2538.344470
829.906960	2540.645757
830.224046	2539.531662
830.541088	2539.614841
830.858086	2539.025026
831.175041	2542.274049
831.491952	2538.251208
831.808819	2541.253216
832.125642	2539.229192
832.442421	2543.352856
832.759157	2544.794626
833.075849	2551.511964
833.392497	2556.059084
833.709101	2558.735937
834.025662	2560.013870
834.342179	2556.785011
834.658653	2554.496327
834.975083	2550.274360
835.291469	2549.651778
835.607811	2543.705737
835.924110	2541.623740
836.240366	2539.332536
836.556578	2538.858667
836.872746	2537.031249
837.188871	2536.612833
837.504952	2537.827752
837.820990	2536.630477
838.136984	2533.472195
838.452935	2536.075951
838.768842	2538.110056
839.084706	2534.112421
839.400526	2539.506456
839.716303	2538.621733
840.032037	2547.181612
840.347727	2545.971736
840.663373	2543.551982
840.978977	2539.539223
841.294537	2539.319933
841.610054	2537.878163
841.925527	2535.150899
842.240957	2534.777853
842.556344	2535.304654
842.871687	2537.782381
843.186987	2533.976310
843.502244	2534.402287
843.817458	2536.012936
844.132629	2534.447658
844.447756	2534.397246
844.762840	2528.241998
845.077881	2530.407173
845.392879	2528.872142
845.707833	2531.029756
846.022745	2527.200999
846.337613	2534.271217
846.652438	2533.126876
846.967221	2530.329035
847.281960	2533.772143
847.596656	2537.046373
847.911309	2530.860877
848.225919	2533.434386
848.540485	2532.809283
848.855009	2533.535209
849.169490	2532.000178
849.483928	2533.726773
849.798323	2531.828778
850.112675	2532.524458
850.426984	2529.862728
850.741251	2533.199972
851.055474	2534.140147
851.369654	2532.489170
851.683792	2535.319778
851.997887	2533.867925
852.311938	2530.235774
852.625947	2534.374561
852.939914	2531.627132
853.253837	2531.138140
853.567718	2532.227030
853.881555	2532.279962
854.195350	2531.904396
854.509103	2533.847761
854.822812	2532.017822
855.136479	2531.924560
855.450103	2533.545291
855.763685	2530.797863
856.077224	2532.718542
856.390720	2529.686288
856.704173	2532.461443
857.017584	2532.811803
857.330953	2533.409180
857.644278	2534.167874
857.957561	2535.234078
858.270802	2532.897503
858.584000	2530.354241
858.897155	2534.056968
859.210268	2531.657379
859.523339	2531.533871
859.836367	2531.604447
860.149352	2533.628470
860.462295	2531.133099
860.775195	2529.608150
861.088054	2528.778880
861.400869	2532.138809
861.713642	2528.985568
862.026373	2531.974972
862.339062	2531.596885
862.651708	2532.731145
862.964312	2532.189221
863.276873	2533.560415
863.589392	2530.976823
863.901869	2535.193749
864.214303	2536.106198
864.526696	2532.219468
864.839045	2533.847761
865.151353	2536.791794
865.463619	2535.531506
865.775842	2532.411032
866.088023	2532.801721
866.400162	2533.295754
866.712258	2534.135106
867.024313	2531.980013
867.336325	2534.477905
867.648296	2534.087215
867.960224	2531.339787
868.272110	2533.212575
868.583954	2533.383974
868.895755	2535.014788
869.207515	2531.604447
869.519233	2534.500590
869.830909	2534.104859
870.142542	2533.651156
870.454134	2531.985054
870.765684	2534.193080
871.077191	2533.749458
871.388657	2536.343132
871.700081	2534.646783
872.011463	2532.020342
872.322803	2536.270035
872.634101	2533.023532
872.945357	2533.121834
873.256571	2534.835827
873.567744	2534.571166
873.878874	2534.314067
874.189963	2534.044366
874.501010	2535.934798
874.812015	2535.372710
875.122979	2535.211393
875.433900	2533.888090
875.744780	2534.107380
876.055618	2536.577545
876.366415	2534.039324
876.677169	2533.893131
876.987882	2533.517565
877.298554	2532.600075
877.609183	2535.526465
877.919771	2532.753830
878.230317	2533.792308
878.540822	2537.162319
878.851285	2536.905220
879.161707	2538.475540
879.472087	2539.239275
879.782425	2542.110212
880.092722	2550.599515
880.402977	2557.740309
880.713191	2567.532751
881.023363	2582.835173
881.333494	2591.664754
881.643583	2594.303798
881.953631	2590.964034
882.263637	2591.692480
882.573602	2585.219639
882.883526	2577.940213
883.193408	2570.958215
883.503248	2562.844478
883.813048	2560.512944
884.122806	2555.812068
884.432522	2552.341233
884.742197	2547.166489
885.051831	2543.909904
885.361424	2543.259595
885.670975	2543.632640
885.980485	2542.006868
886.289954	2536.779192
886.599382	2537.673996
886.908768	2539.546785
887.218113	2537.968904
887.527417	2535.957483
887.836680	2534.982020
888.145901	2536.937988
888.455082	2534.735004
888.764221	2534.881197
889.073319	2535.415559
889.382376	2535.745755
889.691392	2533.157122
890.000366	2536.501928
890.309300	2534.871115
890.618193	2535.604603
890.927044	2534.815662
891.235855	2536.620395
891.544625	2536.418749
891.853353	2536.073430
892.162041	2534.256094
892.470687	2535.710467
892.779293	2538.672145
893.087858	2535.728111
893.396381	2536.144006
893.704864	2539.561908
894.013306	2539.960160
894.321707	2548.381407
894.630068	2554.768549
894.938387	2553.906512
895.246665	2554.067829
895.554903	2551.932900
895.863100	2549.573640
896.171256	2544.721529
896.479371	2546.317055
896.787446	2541.737166
897.095480	2541.359080
897.403473	2538.803215
897.711425	2539.947557
898.019336	2537.787422
898.327207	2537.220292
898.635038	2537.149716
898.942827	2535.493697
899.250576	2536.494366
899.558284	2536.423790
899.865952	2537.752134
900.173579	2535.770961
900.481165	2535.208872
900.788711	2533.308357
901.096216	2532.118645
901.403681	2535.047555
901.711105	2533.933460
902.018489	2533.013450
902.325832	2534.866074
902.633135	2535.400436
902.940397	2535.932278
903.247619	2537.989068
903.554800	2542.019471
903.861941	2549.377035
904.169041	2558.105793
904.476101	2561.561504
904.783121	2563.197358
905.090100	2559.151832
905.397039	2552.658826
905.703938	2548.323434
906.010796	2545.838145
906.317614	2539.869419
906.624391	2537.530323
906.931129	2537.588297
907.237826	2537.253060
907.544483	2536.292720
907.851099	2533.197452
908.157675	2532.917668
908.464211	2533.749458
908.770707	2529.401463
909.077163	2529.262831
909.383578	2527.533715
909.689954	2529.414066
909.996289	2528.564631
910.302584	2529.474560
910.608839	2531.289375
910.915054	2533.414221
911.221229	2529.744261
911.527363	2531.559077
911.833458	2530.066895
912.139513	2529.409025
912.445527	2532.259797
912.751502	2534.409849
913.057436	2532.685775
913.363331	2534.470343
913.669186	2532.889941
913.975000	2534.288862
914.280775	2534.528316
914.586510	2537.237937
914.892205	2539.067875
915.197859	2547.695810
915.503475	2546.942158
915.809050	2554.640000
916.114585	2559.151832
916.420081	2559.532439
916.725536	2560.021431
917.030952	2555.199568
917.336328	2552.421892
917.641665	2549.931562
917.946961	2546.707744
918.252218	2545.175233
918.557435	2542.747918
918.862612	2540.149203
919.167750	2539.471168
919.472848	2537.532844
919.777906	2536.592669
920.082925	2533.817514
920.387904	2536.141486
920.692843	2534.999664
920.997743	2534.477905
921.302603	2535.980169
921.607423	2533.225178
921.912204	2535.886907
922.216946	2535.493697
922.521647	2533.608306
922.826310	2532.290044
923.130932	2531.337266
923.435516	2530.273583
923.740059	2534.354397
924.044564	2529.613191
924.349028	2529.441792
924.653454	2527.798376
924.957840	2530.586134
925.262186	2526.530526
925.566493	2529.580424
925.870761	2524.753519
926.174989	2530.979344
926.479178	2529.114117
926.783328	2531.115455
927.087438	2530.533202
927.391509	2531.289375
927.695541	2530.008922
927.999533	2527.453057
928.303486	2529.867770
928.607400	2531.765764
928.911275	2526.533046
929.215110	2529.262831
929.518906	2527.586648
929.822663	2529.497245
930.126381	2529.502286
930.430060	2530.495393
930.733699	2528.657893
931.037299	2531.823737
931.340861	2529.149405
931.644383	2530.260980
931.947866	2531.100332
932.251309	2527.868952
932.554714	2529.817358
932.858080	2528.736031
933.161407	2529.154446
933.464694	2528.864580
933.767943	2531.826258
934.071153	2528.867101
934.374323	2530.283665
934.677455	2527.911802
934.980548	2529.328366
935.283602	2530.218130
935.586617	2529.587986
935.889593	2528.632687
936.192530	2528.884745
936.495428	2528.829292
936.798287	2529.436751
937.101108	2532.499252
937.403890	2529.976154
937.706632	2533.172246
938.009336	2530.387008
938.312002	2532.141330
938.614628	2532.567308
938.917216	2529.424148
939.219765	2532.524458
939.522275	2531.415404
939.824747	2533.976310
940.127179	2530.049251
940.429573	2526.464991
940.731929	2528.400794
941.034246	2523.770494
941.336524	2528.403314
941.638763	2530.283665
941.940964	2531.959848
942.243126	2529.991278
942.545250	2528.047913
942.847335	2530.671834
943.149381	2528.710825
943.451389	2529.290558
943.753359	2529.227543
944.055290	2529.688809
944.357182	2527.579086
944.659036	2528.446164
944.960851	2529.461957
945.262628	2531.017153
945.564367	2530.946577
945.866067	2530.462626
946.167729	2529.547656
946.469352	2528.597399
946.770937	2530.543284
947.072484	2530.507996
947.373992	2530.518078
947.675462	2527.747964
947.976893	2528.378109
948.278286	2526.054137
948.579641	2531.826258
948.880958	2528.536905
949.182236	2527.344672
949.483476	2528.660413
949.784678	2529.424148
950.085841	2531.669982
950.386967	2530.908768
950.688054	2527.826102
950.989103	2529.335928
951.290114	2529.318284
951.591087	2531.042358
951.892021	2528.879703
952.192917	2527.266534
952.493776	2530.717204
952.794596	2531.438089
953.095378	2526.938859
953.396122	2531.450692
953.696828	2530.263500
953.997496	2528.889786
954.298126	2528.655372
954.598718	2530.026566
954.899272	2527.984899
955.199788	2528.521782
955.500266	2527.586648
955.800706	2526.641431
956.101108	2524.105731
956.401472	2522.905936
956.701798	2525.023221
957.002087	2523.773015
957.302337	2527.594209
957.602550	2531.400280
957.902724	2526.528005
958.202861	2530.881042
958.502960	2527.707635
958.803022	2528.557070
959.103045	2524.798889
959.403031	2528.151257
959.702979	2528.864580
960.002889	2527.879034
960.302762	2528.128572
960.602596	2525.865093
960.902393	2529.295599
961.202153	2528.315094
961.501875	2524.945083
961.801559	2529.764426
962.101205	2526.787625
962.400814	2528.796524
962.700385	2524.927439
962.999918	2529.411545
963.299414	2523.939373
963.598873	2527.463139
963.898293	2525.487007
964.197677	2527.463139
964.497022	2526.134795
964.796331	2528.874662
965.095601	2526.512882
965.394835	2528.635207
965.694030	2525.071112
965.993189	2528.194107
966.292309	2523.853673
966.591393	2526.409538
966.890439	2526.139836
967.189447	2526.792666
967.488419	2523.460463
967.787353	2525.885258
968.086249	2524.582120
968.385108	2528.173942
968.683930	2525.320649
968.982714	2528.052954
969.281462	2522.817716
969.580172	2527.949611
969.878844	2526.160001
970.177480	2525.532377
970.476078	2526.764939
970.774639	2526.636390
971.073162	2524.975330
971.371649	2522.074146
971.670098	2524.163704
971.968510	2525.986081
972.266885	2520.876872
972.565223	2524.198992
972.863524	2525.282840
973.161788	2525.328211
973.460014	2526.296112
973.758204	2528.063037
974.056356	2526.938859
974.354471	2528.620084
974.652550	2522.006090
974.950591	2528.844415
975.248595	2526.928777
975.546563	2528.438603
975.844493	2527.027079
976.142386	2525.852491
976.440243	2526.815351
976.738062	2523.856194
977.035845	2525.764270
977.333590	2527.652183
977.631299	2524.940042
977.928971	2530.681916
978.226606	2526.694363
978.524204	2527.939528
978.821765	2525.111441
979.119290	2529.262831
979.416777	2524.935001
979.714228	2526.409538
980.011642	2525.295443
980.309020	2526.487676
980.606360	2525.247552
980.903664	2525.532377
981.200931	2527.148067
981.498162	2527.770650
981.795356	2526.190248
982.092513	2529.403983
982.389633	2528.630166
982.686717	2529.310722
982.983764	2524.009949
983.280775	2529.212420
983.577749	2526.684281
983.874686	2530.255938
984.171587	2529.872811
984.468451	2526.890968
984.765279	2526.570855
985.062070	2526.117151
985.358824	2530.492873
985.655543	2525.166894
985.952224	2526.182686
986.248869	2527.047244
986.545478	2521.711183
986.842050	2524.816533
987.138586	2521.073477
987.435086	2522.386697
987.731549	2521.469207
988.027975	2527.284178
988.324366	2524.889630
988.620719	2527.591689
988.917037	2524.778725
989.213318	2525.996163
989.509563	2526.061698
989.805772	2525.000536
990.101944	2524.045237
990.398080	2524.922398
990.694180	2524.861904
990.990244	2526.192768
991.286271	2524.690505
991.582262	2525.355937
991.878217	2524.350227
992.174136	2525.766791
992.470019	2524.534229
992.765865	2526.512882
993.061676	2523.392407
993.357450	2526.505320
993.653188	2524.604805
993.948890	2525.698735
994.244556	2526.233098
994.540186	2527.604292
994.835780	2525.671009
995.131337	2525.751667
995.426859	2526.802748
995.722345	2525.660927
996.017795	2528.362985
996.313208	2527.513551
996.608586	2526.399456
996.903928	2524.967768
997.199234	2525.197141
997.494504	2526.621267
997.789738	2524.312418
998.084936	2525.940711
998.380099	2527.390043
998.675225	2526.346524
998.970316	2525.986081
999.265371	2525.965917
999.560390	2524.050278
999.855373	2526.102028
1000.150320	2524.244362
1000.445232	2528.297450
1000.740108	2523.440298
1001.034948	2526.051616
1001.329752	2522.626152
1001.624521	2526.245701
1001.919254	2520.914680
1002.213951	2521.166738
1002.508613	2520.143384
1002.803239	2526.071781
1003.097829	2517.595081
1003.392384	2523.483148
1003.686903	2523.236132
1003.981386	2525.310567
1004.275834	2523.470545
1004.570246	2527.652183
1004.864623	2526.497758
1005.158964	2529.194776
1005.453270	2524.241842
1005.747540	2525.378622
1006.041775	2525.590351
1006.335974	2523.712521
1006.630138	2526.820392
1006.924266	2526.033972
1007.218359	2527.200999
1007.512416	2523.967099
1007.806438	2523.601615
1008.100425	2526.033972
1008.394376	2524.382994
1008.688292	2525.807120
1008.982172	2524.985412
1009.276017	2524.640093
1009.569827	2526.659075
1009.863602	2526.754857
1010.157341	2526.331400
1010.451045	2524.496420
1010.744714	2523.896523
1011.038347	2526.550690
1011.331945	2524.430885
1011.625508	2526.064219
1011.919036	2524.682943
1012.212528	2525.648324
1012.505986	2524.075484
1012.799408	2525.189579
1013.092795	2523.394928
1013.386147	2522.285874
1013.679464	2523.304187
1013.972745	2524.650175
1014.265992	2521.653209
1014.559204	2527.168232
1014.852380	2522.505164
1015.145521	2524.370391
1015.438628	2524.750998
1015.731699	2524.166225
1016.024736	2523.919208
1016.317737	2525.456760
1016.610703	2524.118334
1016.903635	2522.981553
1017.196531	2521.675895
1017.489393	2524.597243
1017.782219	2518.595750
1018.075011	2522.321162
1018.367768	2523.861235
1018.660490	2527.395084
1018.953177	2527.395084
1019.245829	2527.395084
