Dividing Wavelength (nm)	Counts (n)	Blue Motor Position (mm): 0.000000	Red Motor Position (mm): 23.900000	
326.493990	2126.714094
326.888308	2126.714094
327.282561	2126.714094
327.676750	2098.365165
328.070874	2094.188569
328.464933	2095.814341
328.858929	2104.608634
329.252859	2112.661877
329.646726	2126.343569
330.040528	2137.063583
330.434265	2155.685605
330.827938	2173.488440
331.221547	2190.998888
331.615091	2210.671990
332.008571	2227.990874
332.401986	2246.849831
332.795338	2268.128541
333.188625	2287.035389
333.581847	2307.159675
333.975006	2323.750112
334.368100	2339.133193
334.761129	2358.902078
335.154095	2376.851106
335.546996	2396.433468
335.939833	2410.001734
336.332606	2425.478076
336.725315	2436.465271
337.117960	2446.620676
337.510540	2454.510081
337.903056	2464.209261
338.295508	2474.248719
338.687896	2485.077118
339.080220	2492.525422
339.472480	2496.586072
339.864676	2502.015395
340.256807	2505.012361
340.648875	2508.284069
341.040879	2514.739267
341.432818	2513.179030
341.824694	2513.315141
342.216506	2515.603825
342.608253	2516.652385
342.999937	2514.958557
343.391557	2514.835049
343.783113	2513.950326
344.174605	2514.182219
344.566033	2510.935716
344.957397	2509.617455
345.348697	2508.916734
345.739934	2505.806342
346.131106	2506.229799
346.522215	2505.753410
346.913260	2502.617812
347.304241	2501.876763
347.695159	2499.651093
348.086012	2498.269817
348.476802	2494.302429
348.867528	2494.594816
349.258191	2491.411327
349.648789	2492.255721
350.039324	2489.684732
350.429796	2491.766729
350.820203	2488.613487
351.210548	2486.619711
351.600828	2484.532673
351.991045	2485.301449
352.381198	2483.065697
352.771288	2485.918990
353.161314	2482.916983
353.551276	2483.390852
353.941175	2481.308855
354.331010	2483.451346
354.720782	2484.013434
355.110490	2482.664926
355.500135	2482.654843
355.889717	2481.374390
356.279235	2483.632827
356.668689	2483.849597
357.058080	2485.084679
357.447408	2483.131232
357.836672	2479.877168
358.225873	2480.887919
358.615010	2482.223825
359.004084	2485.926552
359.393095	2489.122644
359.782043	2489.558703
360.170927	2488.671460
360.559748	2490.531646
360.948505	2488.777325
361.337199	2488.565596
361.725830	2491.862511
362.114398	2490.574496
362.502903	2492.696822
362.891344	2494.196565
363.279722	2492.273365
363.668037	2492.860659
364.056289	2494.675475
364.444478	2495.595485
364.832603	2494.468787
365.220665	2497.286792
365.608665	2497.543891
365.996601	2497.395177
366.384474	2497.402739
366.772284	2500.692092
367.160031	2502.937926
367.547715	2503.684017
367.935336	2506.696106
368.322893	2509.572084
368.710388	2510.895387
369.097820	2518.794875
369.485189	2520.919722
369.872495	2527.790814
370.259738	2536.229706
370.646918	2543.491488
371.034035	2546.894267
371.421090	2560.422203
371.808081	2570.716239
372.195010	2579.182857
372.581875	2593.653489
372.968678	2605.868205
373.355418	2614.649895
373.742096	2631.946094
374.128710	2649.093579
374.515262	2660.899961
374.901751	2681.097344
375.288177	2690.254600
375.674540	2714.658826
376.060841	2732.078533
376.447079	2750.146028
376.833254	2768.838627
377.219367	2783.581481
377.605417	2824.281237
377.991404	2832.815910
378.377329	2854.757532
378.763191	2869.170191
379.148991	2909.116294
379.534727	2932.855088
379.920402	2958.638069
380.306013	2975.200780
380.691563	3025.251876
381.077049	3046.999413
381.462474	3066.675037
381.847835	3102.545367
382.233134	3126.024541
382.618371	3122.251237
383.003545	3191.456197
383.388657	3200.931046
383.773706	3231.283833
384.158693	3248.559868
384.543618	3272.979217
384.928480	3314.238541
385.313280	3355.631455
385.698017	3352.536186
386.082692	3412.210845
386.467305	3413.405598
386.851856	3447.735856
387.236344	3467.232519
387.620770	3496.521622
388.005133	3521.997093
388.389435	3552.483471
388.773674	3562.452353
389.157851	3605.647480
389.541965	3620.229017
389.926018	3585.709716
390.310008	3657.294101
390.693936	3674.431503
391.077802	3716.472206
391.461606	3706.205896
391.845348	3767.118158
392.229027	3766.606481
392.612645	3777.429838
392.996200	3858.786500
393.379694	3897.162283
393.763125	3967.602326
394.146494	3929.647479
394.529801	3988.901201
394.913047	4038.985064
395.296230	4002.235053
395.679351	4058.701017
396.062410	4085.030964
396.445408	4063.785021
396.828343	4097.409517
397.211217	4121.135708
397.594028	4041.389695
397.976778	4105.069550
398.359466	4134.030979
398.742092	4160.711286
399.124656	4085.764452
399.507158	4164.562727
399.889598	4190.990976
400.271977	4249.596910
400.654294	4223.881985
401.036549	4231.864652
401.418742	4200.591854
401.800874	4299.000218
402.182944	4323.328827
402.564952	4391.013879
402.946898	4376.361765
403.328783	4368.734499
403.710606	4284.874905
404.092367	4479.216427
404.474067	4444.397177
404.855705	4452.122746
405.237282	4378.274883
405.618797	4490.508612
406.000250	4522.134290
406.381642	4603.674954
406.762972	4564.275816
407.144240	4571.648503
407.525447	4574.547167
407.906593	4632.903564
408.287677	4676.358310
408.668700	4603.964820
409.049661	4658.263088
409.430560	4700.598698
409.811399	4621.094661
410.192176	4784.039877
410.572891	4725.076021
410.953545	4829.392617
411.334138	4707.636149
411.714669	4772.440182
412.095139	4672.007794
412.475547	4808.711283
412.855894	4792.256957
413.236180	4799.498575
413.616405	4755.353191
413.996568	4839.815203
414.376670	4787.336791
414.756711	4738.639245
415.136691	4772.011683
415.516609	4846.550184
415.896466	4886.541658
416.276262	4919.578859
416.655997	4898.630345
417.035670	5083.174384
417.415283	5171.591181
417.794834	5115.825938
418.174324	5069.757353
418.553753	4975.649093
418.933121	5161.715561
419.312428	5224.422474
419.691674	5165.327548
420.070859	5295.089368
420.449983	5200.459349
420.829045	5316.547040
421.208047	5224.737546
421.586988	5297.168844
421.965867	5309.698632
422.344686	5439.087407
422.723444	5296.480727
423.102141	5114.122028
423.480777	5411.940794
423.859352	5178.686605
424.237866	5439.929280
424.616319	5425.751035
424.994712	5539.204723
425.373044	5413.455661
425.751314	5554.066044
426.129524	5359.323751
426.507673	5552.450354
426.885762	5626.822497
427.263789	5560.725408
427.641756	5439.820895
428.019662	5558.038473
428.397508	5559.848248
428.775292	5504.745916
429.153016	5602.445998
429.530679	5520.141599
429.908282	5598.080358
430.285824	5465.036747
430.663305	5728.590790
431.040726	5459.446107
431.418086	5456.454182
431.795385	5545.687647
432.172624	5548.775353
432.549802	5537.326893
432.926920	5542.247059
433.303977	5532.555441
433.680974	5559.427311
434.057910	5567.281429
434.434786	5553.806425
434.811601	5512.592472
435.188355	5721.560901
435.565050	5587.385551
435.941683	5548.404828
436.318257	5728.714299
436.694770	5693.630388
437.071222	5705.421647
437.447614	5622.837465
437.823946	5525.475140
438.200218	5637.202233
438.576429	5497.274926
438.952580	5556.029574
439.328670	5567.170524
439.704700	5459.420901
440.080670	5424.084933
440.456580	5621.436024
440.832429	5489.677907
441.208218	5329.414585
441.583947	5427.177681
441.959616	5396.298093
442.335224	5301.665553
442.710773	5376.846801
443.086261	5357.831569
443.461689	5161.803781
443.837057	5231.724585
444.212365	5312.589734
444.587612	5188.637843
444.962800	5257.633595
445.337927	5199.496488
445.712995	4880.348600
446.088002	5235.840687
446.462949	5077.538374
446.837837	4973.186489
447.212664	5053.454262
447.587431	5082.657666
447.962139	5360.894070
448.336786	5859.496953
448.711374	5650.742772
449.085901	5050.263211
449.460369	4933.623514
449.834776	4843.134802
450.209124	4996.491744
450.583412	5005.505327
450.957640	5039.888517
451.331808	4847.676882
451.705917	4562.823963
452.079965	4467.674705
452.453954	4509.546529
452.827883	4401.870003
453.201752	4389.022623
453.575562	4244.676744
453.949311	4270.968882
454.323001	4179.958411
454.696632	4155.218949
455.070202	4148.667969
455.443713	4156.091068
455.817164	4133.279847
456.190556	4097.906071
456.563888	4064.553797
456.937160	4027.092982
457.310373	3869.851832
457.683526	3819.450376
458.056619	3738.877614
458.429653	3685.761497
458.802628	3624.256899
459.175542	3605.808797
459.548398	3642.641987
459.921194	3641.848006
460.293930	3603.661265
460.666607	3666.143847
461.039224	3688.839121
461.411782	3663.310718
461.784280	3606.842233
462.156719	3530.403217
462.529099	3454.407823
462.901419	3336.278465
463.273680	3279.479785
463.645882	3243.662387
464.018024	3183.297090
464.390106	3168.085408
464.762130	3182.490505
465.134094	3214.753890
465.505999	3321.724654
465.877845	3424.639810
466.249631	3434.691871
466.621358	3325.243379
466.993026	3210.705843
467.364634	3140.883342
467.736184	3071.375913
468.107674	3015.933303
468.479105	2989.343737
468.850477	2950.380659
469.221790	2906.147054
469.593043	2862.591485
469.964238	2833.186435
470.335373	2814.816470
470.706449	2800.050931
471.077467	2782.076697
471.448425	2818.675473
471.819324	2842.257991
472.190164	2823.416679
472.560945	2766.504572
472.931667	2730.044427
473.302330	2713.476675
473.672934	2690.645289
474.043479	2690.582275
474.413965	2680.625996
474.784393	2663.453305
475.154761	2663.007163
475.525070	2656.763694
475.895321	2648.143321
476.265513	2645.736170
476.635645	2646.436891
477.005719	2641.184008
477.375734	2640.032105
477.745691	2637.362814
478.115588	2637.030097
478.485427	2634.123872
478.855207	2637.304840
479.224928	2644.944709
479.594591	2647.747591
479.964194	2646.073928
480.333739	2639.696868
480.703226	2635.454737
481.072653	2633.193779
481.442022	2636.031949
481.811333	2636.422638
482.180584	2632.319139
482.549777	2625.264044
482.918912	2616.555451
483.287988	2620.724485
483.657005	2618.473610
484.025964	2614.418002
484.394864	2617.190637
484.763706	2614.959926
485.132489	2606.924327
485.501213	2609.167640
485.869879	2608.540017
486.238487	2605.933740
486.607036	2604.532299
486.975527	2605.613627
487.343959	2603.604727
487.712333	2603.607247
488.080648	2604.378544
488.448905	2601.154726
488.817104	2600.486773
489.185244	2601.169850
489.553326	2601.895776
489.921350	2607.677979
490.289315	2612.832559
490.657222	2616.550410
491.025070	2615.411109
491.392861	2614.125615
491.760593	2612.638475
492.128267	2607.279728
492.495883	2605.152361
492.863440	2602.752772
493.230939	2597.930908
493.598380	2597.189859
493.965763	2593.923191
494.333088	2593.086359
494.700354	2589.360947
495.067563	2595.112903
495.434713	2588.652665
495.801805	2595.581731
496.168839	2593.628283
496.535815	2593.401432
496.902733	2591.495875
497.269593	2593.540063
497.636395	2593.068715
498.003139	2591.841194
498.369825	2592.557038
498.736453	2594.223140
499.103023	2592.872110
499.469535	2591.871441
499.835989	2590.381780
500.202385	2592.272213
500.568723	2591.042172
500.935003	2589.343303
501.301226	2588.241811
501.667390	2590.711976
502.033497	2594.301277
502.399546	2590.638879
502.765537	2586.721903
503.131470	2589.580237
503.497345	2589.350864
503.863163	2587.024372
504.228923	2588.488827
504.594625	2588.541759
504.960269	2589.466811
505.325856	2591.453026
505.691385	2588.002356
506.056856	2588.065370
506.422270	2587.730133
506.787625	2589.383632
507.152924	2587.596543
507.518164	2588.864393
507.883347	2583.893815
508.248472	2587.039495
508.613540	2587.747777
508.978550	2586.066553
509.343503	2587.954465
509.708398	2587.344485
510.073236	2586.043868
510.438016	2588.861872
510.802738	2586.028744
511.167403	2589.834815
511.532010	2587.586461
511.896561	2591.763057
512.261053	2587.858683
512.625488	2585.847262
512.989866	2585.217118
513.354186	2585.391038
513.718449	2584.670153
514.082655	2586.968919
514.446803	2588.781214
514.810894	2590.785073
515.174927	2590.427151
515.538904	2591.163159
515.902822	2589.736513
516.266684	2589.945721
516.630488	2589.013107
516.994235	2590.885896
517.357925	2591.760536
517.721558	2591.077460
518.085133	2592.027717
518.448651	2589.912953
518.812112	2590.412027
519.175516	2588.400607
519.538863	2589.267685
519.902152	2591.231215
520.265385	2587.962027
520.628560	2592.090732
520.991678	2589.597881
521.354739	2589.733992
521.717743	2591.357244
522.080690	2592.491503
522.443580	2591.437902
522.806413	2591.132912
523.169189	2592.176431
523.531908	2590.535536
523.894569	2590.270875
524.257174	2590.827922
524.619722	2592.244487
524.982213	2592.110896
525.344647	2592.488983
525.707025	2590.207861
526.069345	2590.515371
526.431608	2590.495206
526.793815	2591.954620
527.155964	2591.387491
527.518057	2593.598037
527.880093	2592.400762
528.242072	2593.507296
528.603995	2592.675505
528.965860	2591.329517
529.327669	2591.296750
529.689421	2589.860021
530.051117	2589.882706
530.412755	2590.885896
530.774337	2590.969075
531.135862	2588.483786
531.497331	2587.573858
531.858743	2587.331882
532.220098	2585.948086
532.581396	2584.735688
532.942638	2587.271388
533.303824	2586.830287
533.664953	2593.219950
534.026025	2589.733992
534.387040	2590.490165
534.747999	2589.683581
535.108902	2592.675505
535.469748	2589.824733
535.830537	2588.932449
536.191270	2592.723396
536.551947	2592.786411
536.912567	2592.068046
537.273131	2590.172572
537.633638	2590.011256
537.994089	2591.072418
538.354483	2589.053436
538.714821	2591.521081
539.075103	2590.782552
539.435328	2591.924373
539.795497	2588.287181
540.155609	2591.057295
540.515665	2591.238777
540.875665	2588.083014
541.235609	2588.067891
541.595496	2589.625607
541.955328	2591.669795
542.315102	2593.033427
542.674821	2590.404466
543.034483	2590.101996
543.394090	2589.706266
543.753640	2590.709455
544.113134	2590.974116
544.472571	2590.107037
544.831953	2592.821699
545.191278	2589.605443
545.550548	2589.688622
545.909761	2589.436564
546.268918	2587.467993
546.628019	2591.332038
546.987064	2589.502099
547.346053	2592.864549
547.704986	2588.660226
548.063863	2589.199630
548.422684	2590.729620
548.781449	2591.095104
549.140158	2590.800196
549.498811	2591.606781
549.857408	2589.063519
550.215949	2589.116451
550.574434	2584.213929
550.932864	2588.728282
551.291237	2587.049578
551.649555	2592.728437
552.007817	2588.965216
552.366022	2592.481421
552.724173	2590.699373
553.082267	2592.158787
553.440305	2591.102665
553.798288	2589.587799
554.156215	2592.902357
554.514086	2592.872110
554.871902	2590.553180
555.229661	2591.422779
555.587365	2591.581575
555.945014	2591.233735
556.302606	2593.892944
556.660143	2589.716348
557.017625	2591.528643
557.375050	2590.749785
557.732421	2594.197934
558.089735	2591.581575
558.446994	2592.738520
558.804197	2591.442943
559.161345	2593.865218
559.518437	2593.456884
559.875474	2591.153077
560.232455	2592.168869
560.589381	2595.405290
560.946251	2594.220619
561.303065	2593.353541
561.659825	2592.017635
562.016528	2591.815989
562.373177	2589.595360
562.729770	2592.521750
563.086307	2594.145002
563.442789	2590.613673
563.799216	2594.429827
564.155587	2590.820361
564.511904	2592.675505
564.868164	2594.664241
565.224370	2590.495206
565.580520	2590.921184
565.936615	2592.330186
566.292654	2590.666606
566.648638	2592.970413
567.004567	2591.349682
567.360441	2592.602409
567.716260	2591.115268
568.072023	2591.649631
568.427732	2585.670822
568.783385	2587.924218
569.138982	2585.955647
569.494525	2588.158632
569.850013	2582.910790
570.205445	2587.127716
570.560823	2589.852459
570.916145	2585.643096
571.271412	2589.560072
571.626625	2590.545618
571.981782	2586.784917
572.336884	2588.692994
572.691931	2589.335741
573.046923	2588.997984
573.401860	2587.619228
573.756743	2587.387335
574.111570	2589.292891
574.466342	2589.683581
574.821059	2588.090576
575.175722	2586.646285
575.530330	2587.200812
575.884882	2590.343972
576.239380	2587.951944
576.593823	2589.176945
576.948211	2588.715679
577.302544	2586.185020
577.656823	2590.202819
578.011047	2586.159814
578.365216	2588.743405
578.719330	2586.222828
579.073389	2588.529156
579.427394	2587.052098
579.781344	2587.702407
580.135239	2588.456060
580.489080	2586.933631
580.842866	2585.002869
581.196597	2592.993098
581.550273	2585.277612
581.903895	2583.684607
582.257463	2585.207036
582.610975	2583.961871
582.964434	2588.148549
583.317837	2585.005390
583.671186	2584.770976
584.024481	2585.572520
584.377721	2583.581264
584.730906	2584.181161
585.084037	2586.507654
585.437113	2584.672674
585.790135	2587.140318
586.143103	2584.445822
586.496016	2582.726788
586.848874	2580.072621
587.201679	2581.975656
587.554428	2578.648495
587.907124	2581.138825
588.259765	2578.093968
588.612352	2581.718557
588.964884	2581.942889
589.317362	2585.902715
589.669786	2584.118147
590.022155	2583.281315
590.374470	2582.109247
590.726731	2586.195102
591.078937	2583.087231
591.431090	2583.608990
591.783188	2580.027250
592.135232	2580.927096
592.487222	2580.062538
592.839157	2582.646130
593.191038	2580.780903
593.542866	2582.305852
593.894639	2580.672518
594.246358	2581.378280
594.598022	2581.973136
594.949633	2578.439287
595.301190	2583.082190
595.652692	2579.843248
596.004141	2579.795357
596.355535	2581.887436
596.706876	2580.911973
597.058162	2577.415933
597.409395	2578.020871
597.760573	2579.989442
598.111698	2580.796026
598.462768	2579.976839
598.813785	2578.915676
599.164748	2579.424832
599.515657	2579.228227
599.866511	2579.762590
600.217312	2577.110943
600.568060	2577.781416
600.918753	2581.353074
601.269392	2580.541448
601.619978	2578.598083
601.970510	2579.601273
602.320988	2577.859554
602.671412	2577.436097
603.021783	2577.844431
603.372100	2577.226889
603.722363	2577.567167
604.072572	2578.293093
604.422728	2582.124370
604.772830	2575.011302
605.122878	2570.948132
605.472872	2575.591035
605.822813	2573.284707
606.172701	2575.303689
606.522534	2577.128587
606.872314	2580.183526
607.222041	2577.559606
607.571714	2577.587332
607.921333	2576.937023
608.270899	2578.474575
608.620411	2577.312589
608.969870	2578.396437
609.319276	2577.083217
609.668627	2581.385841
610.017926	2584.060173
610.367171	2584.576892
610.716362	2585.857345
611.065500	2582.338619
611.414585	2581.519432
611.763616	2582.320975
612.112594	2578.744277
612.461518	2580.062538
612.810389	2580.763259
613.159207	2579.008937
613.507971	2576.727815
613.856682	2578.943402
614.205340	2582.441963
614.553945	2579.268557
614.902496	2580.060018
615.250994	2580.072621
615.599439	2580.002045
615.947830	2578.673701
616.296169	2577.211766
616.644454	2579.873495
616.992686	2577.889801
617.340864	2578.772003
617.688990	2578.537589
618.037063	2580.508681
618.385082	2578.091447
618.733048	2580.301993
619.080961	2579.031622
619.428821	2578.572877
619.776628	2577.960377
620.124382	2577.607497
620.472083	2575.858216
620.819731	2581.204360
621.167326	2578.865264
621.514868	2577.627661
621.862357	2578.398958
622.209793	2576.937023
622.557176	2579.510532
622.904506	2574.849985
623.251783	2571.117011
623.599007	2571.406877
623.946179	2570.391085
624.293297	2570.622978
624.640363	2575.931313
624.987376	2573.894687
625.334336	2574.330747
625.681243	2573.829152
626.028097	2571.840417
626.374899	2573.478792
626.721647	2573.584656
627.068343	2572.573904
627.414987	2573.682958
627.761577	2574.408884
628.108115	2573.385530
628.454600	2572.614234
628.801032	2570.330591
629.147412	2572.188256
629.493739	2570.784295
629.840014	2572.669686
630.186236	2570.633060
630.532405	2571.558112
630.878521	2569.438307
631.224585	2571.021229
631.570597	2570.224727
631.916556	2572.601631
632.262462	2570.053328
632.608316	2571.981569
632.954117	2567.900755
633.299866	2570.968297
633.645562	2569.655076
633.991206	2569.667679
634.336797	2569.347566
634.682336	2571.626167
635.027823	2570.038204
635.373257	2567.315981
635.718639	2566.617781
636.063968	2568.180539
636.409245	2566.395970
636.754470	2564.941598
637.099642	2562.151319
637.444762	2563.003274
637.789829	2565.344890
638.134845	2564.301371
638.479808	2567.273131
638.824719	2567.661300
639.169577	2565.667524
639.514383	2563.767009
639.859137	2565.488563
640.203839	2564.402194
640.548489	2564.765157
640.893086	2562.390774
641.237632	2560.621329
641.582125	2563.091494
641.926566	2558.715772
642.270955	2563.325908
642.615292	2563.197358
642.959576	2567.999057
643.303809	2562.400856
643.647990	2564.412276
643.992118	2564.513099
644.336195	2563.696433
644.680219	2562.040413
645.024192	2562.705846
645.368112	2563.482183
645.711981	2563.106618
646.055797	2564.853377
646.399562	2566.716084
646.743274	2563.764488
647.086935	2564.371947
647.430544	2566.920250
647.774101	2564.863460
648.117606	2566.743810
648.461059	2565.975034
648.804460	2568.165415
649.147810	2563.855229
649.491108	2563.971175
649.834354	2565.309602
650.177548	2565.932184
650.520690	2565.052503
650.863781	2565.773388
651.206820	2565.538974
651.549807	2562.864642
651.892742	2566.219530
652.235626	2564.291289
652.578458	2564.881104
652.921238	2562.405897
653.263967	2561.140567
653.606644	2561.974878
653.949269	2566.373285
654.291843	2562.990671
654.634365	2562.103428
654.976836	2560.349106
655.319255	2562.887327
655.661622	2562.426062
656.003938	2563.106617
656.346203	2559.565207
656.688416	2557.861297
657.030577	2559.613098
657.372687	2560.268448
657.714746	2562.489076
658.056753	2562.083263
658.398708	2557.508416
658.740612	2558.390618
659.082465	2558.435988
659.424266	2557.883982
659.766016	2555.731409
660.107715	2561.233829
660.449362	2559.794579
660.790958	2561.203582
661.132503	2558.882131
661.473996	2559.681153
661.815438	2562.116031
662.156829	2561.806000
662.498168	2559.842470
662.839456	2559.834909
663.180693	2557.573951
663.521879	2559.797100
663.863013	2558.672923
664.204097	2556.684188
664.545129	2560.155022
664.886110	2559.350958
665.227040	2562.746175
665.567918	2562.191648
665.908746	2561.574107
666.249522	2561.435475
666.590248	2561.367419
666.930922	2560.278530
667.271545	2556.674105
667.612118	2559.449260
667.952639	2562.529405
668.293109	2561.226267
668.633528	2556.971533
668.973896	2562.743654
669.314213	2559.025803
669.654480	2562.327759
669.994695	2560.114693
670.334859	2559.950855
670.674973	2560.283571
671.015035	2559.141750
671.355047	2558.372974
671.695008	2561.090156
672.034918	2559.318190
672.374777	2562.547049
672.714585	2560.444888
673.054342	2559.459343
673.394049	2560.291133
673.733705	2561.450598
674.073310	2562.022769
674.412864	2560.165104
674.752368	2558.458674
675.091820	2558.282233
675.431223	2558.287274
675.770574	2560.069322
676.109875	2554.975236
676.449125	2555.751574
676.788324	2552.389124
677.127473	2556.381718
677.466571	2552.429454
677.805619	2559.371122
678.144616	2558.438509
678.483562	2559.035886
678.822458	2557.452963
679.161303	2558.214178
679.500098	2555.300391
679.838842	2559.948335
680.177535	2554.433312
680.516179	2557.599157
680.854771	2559.739127
681.193314	2555.721327
681.531805	2562.037893
681.870247	2558.914898
682.208638	2560.298695
682.546978	2563.885476
682.885268	2558.156204
683.223508	2558.922460
683.561697	2560.134857
683.899836	2557.679815
684.237925	2559.668551
684.575963	2559.323232
684.913951	2558.511606
685.251889	2557.931873
685.589776	2557.820968
685.927614	2557.974723
686.265401	2557.435319
686.603137	2559.235011
686.940824	2561.163253
687.278460	2561.616957
687.616046	2559.156873
687.953582	2562.282389
688.291068	2560.641493
688.628504	2558.630073
688.965889	2560.414641
689.303224	2558.282233
689.640510	2562.156360
689.977745	2559.461863
690.314930	2556.129661
690.652065	2558.602347
690.989150	2558.052861
691.326185	2555.872562
691.663170	2556.132181
692.000105	2557.372305
692.336990	2554.750905
692.673825	2557.712583
693.010610	2556.323745
693.347345	2549.651778
693.684030	2548.739329
694.020665	2550.266799
694.357251	2548.890564
694.693786	2552.328631
695.030272	2551.985832
695.366707	2554.811399
695.703093	2551.920297
696.039429	2553.094886
696.375716	2550.589432
696.711952	2551.988353
697.048139	2551.799309
697.384276	2554.075390
697.720363	2551.544731
698.056400	2552.477345
698.392388	2550.725544
698.728326	2552.421892
699.064214	2548.545245
699.400053	2550.405430
699.735842	2549.687066
700.071581	2550.957437
700.407270	2551.101110
700.742910	2552.933569
701.078501	2549.956768
701.414042	2552.066491
701.749533	2548.948537
702.084974	2552.089176
702.420366	2549.911397
702.755709	2550.649926
703.091002	2549.664381
703.426246	2550.284443
703.761440	2549.324103
704.096584	2551.204453
704.431679	2549.326623
704.766725	2550.231511
705.101721	2547.668084
705.436668	2549.208156
705.771565	2549.717313
706.106413	2550.904505
706.441212	2548.409133
706.775961	2552.585729
707.110661	2550.302087
707.445311	2553.614125
707.779913	2551.136398
708.114465	2554.125802
708.448967	2553.286450
708.783421	2551.557334
709.117825	2550.675132
709.452180	2551.101110
709.786485	2553.780483
710.120742	2550.276881
710.454949	2552.920966
710.789107	2551.600184
711.123216	2547.809236
711.457275	2553.079763
711.791286	2548.474668
712.125247	2550.254196
712.459159	2554.491286
712.793023	2558.035217
713.126837	2553.692263
713.460602	2551.569937
713.794318	2555.514640
714.127985	2552.144628
714.461602	2551.632951
714.795171	2552.147149
715.128691	2552.772252
715.462162	2549.671942
715.795584	2549.603887
716.128957	2550.221428
716.462281	2552.726882
716.795556	2550.619679
717.128782	2553.278888
717.461960	2548.520039
717.795088	2548.666232
718.128167	2549.011551
718.461198	2547.887374
718.794180	2548.426778
719.127113	2546.170861
719.459997	2545.611293
719.792833	2546.357384
720.125619	2550.710420
720.458357	2545.147507
720.791046	2548.880481
721.123686	2545.641540
721.456278	2550.602035
721.788821	2549.359391
722.121315	2547.794113
722.453761	2550.372663
722.786158	2546.957281
723.118506	2546.929555
723.450805	2546.332178
723.783056	2547.693290
724.115259	2544.655994
724.447412	2544.691282
724.779518	2546.773279
725.111574	2549.203115
725.443582	2547.630275
725.775542	2547.927703
726.107453	2546.289328
726.439315	2547.453835
726.771129	2551.219577
727.102895	2548.270502
727.434612	2546.808567
727.766281	2547.784030
728.097901	2546.042312
728.429473	2543.632640
728.760996	2547.471479
729.092471	2541.901004
729.423897	2548.121788
729.755276	2548.608259
730.086606	2548.693959
730.417887	2550.866696
730.749120	2549.324103
731.080305	2547.970553
731.411442	2553.173024
731.742530	2550.034906
732.073570	2551.955585
732.404562	2548.883002
732.735506	2548.706562
733.066401	2548.066335
733.397249	2550.944834
733.728048	2549.301418
734.058798	2547.264792
734.389501	2546.357384
734.720156	2547.279915
735.050762	2548.018444
735.381320	2546.831252
735.711831	2547.335368
736.042293	2546.080120
736.372707	2546.455686
736.703073	2547.443752
737.033391	2542.942002
737.363661	2544.897970
737.693883	2547.388300
738.024056	2548.716644
738.354182	2544.666077
738.684260	2549.435008
739.014290	2546.604400
739.344272	2545.003834
739.674207	2549.896274
740.004093	2550.715461
740.333931	2547.721016
740.663722	2549.492982
740.993464	2549.755122
741.323159	2545.626417
741.652806	2547.350491
741.982405	2546.654812
742.311956	2546.788402
742.641460	2547.300080
742.970915	2548.010882
743.300323	2544.202291
743.629683	2545.765048
743.958996	2544.383772
744.288260	2546.369987
744.617477	2544.109029
744.946647	2540.983514
745.275768	2541.172557
745.604842	2540.862526
745.933869	2541.447300
746.262847	2540.418905
746.591778	2544.053577
746.920662	2541.449821
747.249498	2542.200953
747.578286	2543.912424
747.907027	2546.301931
748.235720	2545.724719
748.564365	2545.356715
748.892963	2542.233720
749.221514	2545.732281
749.550017	2543.637681
749.878473	2544.315717
750.206881	2545.691952
750.535242	2545.661705
750.863555	2543.743546
751.191821	2544.585418
751.520039	2545.576005
751.848210	2543.662887
752.176334	2544.696324
752.504411	2545.742363
752.832440	2545.328988
753.160421	2543.060469
753.488356	2544.177085
753.816243	2544.976108
754.144082	2544.025850
754.471875	2543.909904
754.799620	2544.013247
755.127318	2542.689944
755.454969	2543.801519
755.782572	2542.563916
756.110129	2543.443597
756.437638	2545.593649
756.765100	2543.972918
757.092515	2543.741025
757.419882	2542.722712
757.747203	2541.706919
758.074477	2543.370500
758.401703	2543.269677
758.728882	2546.059956
759.056014	2546.851417
759.383099	2544.290511
759.710138	2541.966539
760.037129	2544.197249
760.364073	2544.696324
760.690970	2543.914945
761.017820	2543.488967
761.344623	2545.386962
761.671379	2544.673638
761.998088	2542.848741
762.324751	2543.347815
762.651366	2547.635316
762.977935	2554.405586
763.304456	2553.961964
763.630931	2560.041596
763.957359	2556.961451
764.283740	2554.024979
764.610074	2550.009700
764.936362	2548.169679
765.262602	2545.235727
765.588796	2549.576161
765.914943	2544.519883
766.241044	2542.780685
766.567097	2544.913093
766.893104	2544.648433
767.219064	2540.431508
767.544978	2541.727084
767.870845	2541.228010
768.196665	2539.917310
768.522438	2541.084337
768.848165	2539.146013
769.173846	2542.253885
769.499479	2541.122146
769.825066	2540.098791
770.150607	2539.690458
770.476101	2538.253729
770.801548	2540.938143
771.126949	2540.938143
771.452303	2538.954449
771.777611	2540.217258
772.102872	2541.432177
772.428087	2540.764224
772.753256	2541.341436
773.078378	2541.805222
773.403453	2538.825900
773.728482	2539.718184
774.053465	2539.831610
774.378401	2542.894111
774.703291	2539.677855
775.028135	2536.121321
775.352932	2538.115097
775.677683	2539.614841
776.002388	2540.650798
776.327046	2538.717515
776.651658	2536.706095
776.976224	2539.365303
777.300743	2541.228010
777.625216	2542.329502
777.949643	2535.198790
778.274024	2540.925541
778.598359	2534.530837
778.922647	2534.172915
779.246889	2537.091743
779.571086	2534.959335
779.895236	2538.195756
780.219339	2539.798843
780.543397	2541.802701
780.867409	2540.015612
781.191374	2540.048380
781.515294	2537.852957
781.839167	2538.039480
782.162995	2539.425797
782.486776	2539.067875
782.810511	2537.553009
783.134201	2538.152906
783.457844	2538.662063
783.781441	2537.313554
784.104993	2537.046373
784.428498	2538.508307
784.751958	2538.440252
785.075372	2536.927906
785.398739	2539.319933
785.722061	2536.491846
786.045337	2538.989738
786.368568	2538.984696
786.691752	2537.812628
787.014891	2541.422094
787.337983	2537.888245
787.661030	2540.179450
787.984031	2541.336395
788.306987	2539.584594
788.629897	2541.132228
788.952760	2539.259439
789.275579	2540.144162
789.598351	2539.728267
789.921078	2541.086857
790.243759	2540.053421
790.566395	2538.203317
790.888984	2538.934285
791.211529	2537.749614
791.534027	2539.569470
791.856480	2537.900848
792.178888	2539.433359
792.501249	2537.822710
792.823566	2541.646426
793.145836	2539.330015
793.468062	2537.759696
793.790241	2540.907897
794.112375	2538.168029
794.434464	2538.571322
794.756507	2538.808256
795.078505	2538.568801
795.400457	2536.605272
795.722364	2532.196783
796.044226	2537.308513
796.366042	2535.937319
796.687812	2538.374717
797.009538	2539.614841
797.331218	2539.582073
797.652852	2540.718853
797.974442	2539.324974
798.295986	2537.212731
798.617484	2539.067875
798.938938	2537.484953
799.260346	2540.146682
799.581709	2540.905376
799.903026	2539.113246
800.224299	2534.608975
800.545526	2540.073586
800.866708	2536.287679
801.187845	2536.640560
801.508936	2537.938657
801.829983	2539.246836
802.150984	2539.393030
802.471940	2541.412012
802.792851	2539.710623
803.113717	2536.068389
803.434538	2537.991589
803.755314	2538.934285
804.076045	2538.596528
804.396731	2537.691640
804.717372	2537.802546
805.037967	2536.176774
805.358518	2536.275076
805.679024	2538.042001
805.999485	2536.486805
806.319901	2538.059645
806.640272	2536.207021
806.960598	2537.192566
807.280879	2535.723070
807.601115	2537.379089
807.921306	2535.753317
808.241453	2538.553678
808.561554	2536.746424
808.881611	2539.546785
809.201623	2537.948739
809.521590	2535.231557
809.841513	2534.742565
810.161390	2539.090561
810.481223	2538.616692
810.801011	2537.706764
811.120755	2540.184491
811.440453	2537.905889
811.760107	2537.658873
812.079716	2536.688451
812.399281	2533.220137
812.718801	2535.007226
813.038276	2529.835002
813.357707	2537.691640
813.677093	2533.890610
813.996434	2536.431352
814.315731	2532.809283
814.634983	2539.382948
814.954191	2537.890766
815.273354	2534.931609
815.592473	2537.421939
815.911547	2535.929757
816.230577	2538.578883
816.549562	2534.926568
816.868502	2535.155940
817.187399	2536.418749
817.506250	2536.353214
817.825058	2536.885056
818.143821	2536.955632
818.462539	2539.516538
818.781213	2539.246836
819.099843	2538.137783
819.418429	2538.898997
819.736970	2540.731456
820.055466	2542.604245
820.373919	2546.100285
820.692327	2545.492826
821.010691	2551.804351
821.329011	2562.400856
821.647286	2583.321644
821.965517	2603.269490
822.283704	2618.556789
822.601847	2620.280864
822.919945	2611.978083
823.237999	2596.907554
823.556010	2585.713672
823.873976	2574.716395
824.191897	2570.209603
824.509775	2558.990515
824.827609	2559.035886
825.145398	2552.908363
825.463144	2555.902809
825.780845	2552.253013
826.098502	2556.180072
826.416116	2560.596123
826.733685	2568.218347
827.051210	2570.484346
827.368692	2571.172464
827.686129	2560.969168
828.003522	2557.190823
828.320872	2547.816798
828.638177	2548.968702
828.955439	2540.585263
829.272656	2541.152393
829.589830	2538.964532
829.906960	2540.209697
830.224046	2540.068544
830.541088	2541.255736
830.858086	2537.114428
831.175041	2539.264480
831.491952	2539.813966
831.808819	2537.956301
832.125642	2540.116435
832.442421	2541.459903
832.759157	2541.671631
833.075849	2545.061807
833.392497	2549.941644
833.709101	2551.464073
834.025662	2555.524722
834.342179	2554.271995
834.658653	2547.829401
834.975083	2543.952753
835.291469	2546.705223
835.607811	2541.308668
835.924110	2539.551826
836.240366	2539.511497
836.556578	2533.424304
836.872746	2537.038811
837.188871	2538.563760
837.504952	2534.598893
837.820990	2538.997299
838.136984	2534.997144
838.452935	2533.552853
838.768842	2538.457896
839.084706	2536.491846
839.400526	2538.057124
839.716303	2542.198432
840.032037	2543.393185
840.347727	2541.757331
840.663373	2543.088196
840.978977	2537.386651
841.294537	2537.283307
841.610054	2538.301620
841.925527	2538.309182
842.240957	2536.154088
842.556344	2533.368851
842.871687	2532.322812
843.186987	2536.799356
843.502244	2534.974458
843.817458	2533.681403
844.132629	2536.133924
844.447756	2533.850281
844.762840	2531.982534
845.077881	2531.715353
845.392879	2529.628315
845.707833	2533.850281
846.022745	2528.957841
846.337613	2533.157123
846.652438	2532.383305
846.967221	2530.911288
847.281960	2533.159643
847.596656	2534.926567
847.911309	2533.762061
848.225919	2531.927081
848.540485	2535.218954
848.855009	2533.648635
849.169490	2532.917668
849.483928	2534.603934
849.798323	2534.256094
850.112675	2533.235260
850.426984	2533.081505
850.741251	2532.678213
851.055474	2531.385157
851.369654	2532.267359
851.683792	2530.538243
851.997887	2533.812473
852.311938	2534.603934
852.625947	2533.772143
852.939914	2534.233409
853.253837	2535.564273
853.567718	2533.043697
853.881555	2531.433048
854.195350	2531.639735
854.509103	2532.012781
854.822812	2534.477905
855.136479	2534.427493
855.450103	2531.213758
855.763685	2535.566794
856.077224	2532.925229
856.390720	2532.741227
856.704173	2533.353728
857.017584	2533.658717
857.330953	2534.218285
857.644278	2531.980013
857.957561	2536.028060
858.270802	2534.498069
858.584000	2533.888090
858.897155	2534.195600
859.210268	2531.644776
859.523339	2532.537061
859.836367	2530.565969
860.149352	2532.763913
860.462295	2535.223996
860.775195	2528.887265
861.088054	2527.788294
861.400869	2530.384488
861.713642	2529.046062
862.026373	2533.048738
862.339062	2529.930784
862.651708	2533.179808
862.964312	2534.092257
863.276873	2533.739376
863.589392	2532.373223
863.901869	2533.878008
864.214303	2534.041845
864.526696	2531.932122
864.839045	2532.126207
865.151353	2534.185518
865.463619	2533.358769
865.775842	2533.242822
866.088023	2534.062010
866.400162	2533.961187
866.712258	2535.569315
867.024313	2531.319622
867.336325	2537.621064
867.648296	2535.362627
867.960224	2533.557894
868.272110	2533.729293
868.583954	2532.032945
868.895755	2534.407329
869.207515	2533.210055
869.519233	2532.852133
869.830909	2534.450178
870.142542	2537.492515
870.454134	2534.717360
870.765684	2533.862884
871.077191	2532.761392
871.388657	2535.763399
871.700081	2532.300126
872.011463	2536.201979
872.322803	2535.387833
872.634101	2535.934798
872.945357	2535.949922
873.256571	2532.688295
873.567744	2535.869263
873.878874	2535.599562
874.189963	2536.038142
874.501010	2533.683923
874.812015	2535.060158
875.122979	2533.835158
875.433900	2535.879346
875.744780	2536.554860
876.055618	2535.034952
876.366415	2536.151568
876.677169	2536.998482
876.987882	2534.518234
877.298554	2531.455733
877.609183	2532.688295
877.919771	2530.656710
878.230317	2534.266176
878.540822	2535.322298
878.851285	2537.300951
879.161707	2536.811959
879.472087	2537.384130
879.782425	2540.736497
880.092722	2544.913093
880.402977	2550.032385
880.713191	2559.663509
881.023363	2574.207238
881.333494	2581.829463
881.643583	2583.727457
881.953631	2582.653692
882.263637	2579.838207
882.573602	2575.734708
882.883526	2570.615416
883.193408	2564.434962
883.503248	2561.682492
883.813048	2556.013714
884.122806	2551.486758
884.432522	2547.476520
884.742197	2543.741025
885.051831	2542.175747
885.361424	2541.550644
885.670975	2541.326312
885.980485	2538.256250
886.289954	2541.049049
886.599382	2538.324305
886.908768	2539.798843
887.218113	2537.177443
887.527417	2535.768440
887.836680	2538.558719
888.145901	2536.232226
888.455082	2536.272556
888.764221	2536.479243
889.073319	2535.181146
889.382376	2534.150230
889.691392	2535.730632
890.000366	2534.987061
890.309300	2535.939839
890.618193	2536.267514
890.927044	2536.096115
891.235855	2535.211393
891.544625	2534.805580
891.853353	2534.979500
892.162041	2536.580066
892.470687	2536.819521
892.779293	2535.516383
893.087858	2537.053934
893.396381	2533.716691
893.704864	2539.677855
894.013306	2540.504604
894.321707	2545.339071
894.630068	2549.624052
894.938387	2551.522046
895.246665	2551.479196
895.554903	2547.216901
895.863100	2544.943340
896.171256	2543.776313
896.479371	2542.216076
896.787446	2541.469985
897.095480	2538.704912
897.403473	2538.243647
897.711425	2537.127031
898.019336	2538.969573
898.327207	2537.137113
898.635038	2534.503111
898.942827	2536.529654
899.250576	2535.647452
899.558284	2537.472350
899.865952	2533.331042
900.173579	2537.376568
900.481165	2535.803728
900.788711	2535.954963
901.096216	2537.099305
901.403681	2535.009747
901.711105	2534.598893
902.018489	2536.391023
902.325832	2536.176774
902.633135	2535.060158
902.940397	2538.578883
903.247619	2537.520241
903.554800	2541.936292
903.861941	2546.407795
904.169041	2554.881975
904.476101	2558.700649
904.783121	2560.253324
905.090100	2553.437684
905.397039	2551.718651
905.703938	2546.241437
906.010796	2543.733463
906.317614	2542.062321
906.624391	2540.330684
906.931129	2535.377751
907.237826	2538.871270
907.544483	2536.766589
907.851099	2533.361289
908.157675	2535.410518
908.464211	2532.605116
908.770707	2526.744775
909.077163	2532.814324
909.383578	2532.577390
909.689954	2531.536392
909.996289	2528.978006
910.302584	2528.935156
910.608839	2532.842050
910.915054	2533.915816
911.221229	2531.891793
911.527363	2532.804242
911.833458	2535.239119
912.139513	2531.057482
912.445527	2532.975641
912.751502	2533.058820
913.057436	2534.074612
913.363331	2534.296423
913.669186	2533.782226
913.975000	2533.310878
914.280775	2533.915816
914.586510	2534.641742
914.892205	2539.014943
915.197859	2543.773793
915.503475	2542.957126
915.809050	2549.286294
916.114585	2553.704866
916.420081	2555.902809
916.725536	2555.174362
917.030952	2552.328631
917.336328	2547.032898
917.641665	2547.852086
917.946961	2545.578526
918.252218	2540.340767
918.557435	2541.258257
918.862612	2539.443441
919.167750	2536.063348
919.472848	2534.477905
919.777906	2536.529654
920.082925	2538.019315
920.387904	2532.779036
920.692843	2535.586959
920.997743	2532.249715
921.302603	2534.246012
921.607423	2533.293234
921.912204	2533.288192
922.216946	2533.116793
922.521647	2532.108563
922.826310	2532.287523
923.130932	2535.034952
923.435516	2534.298944
923.740059	2532.141330
924.044564	2530.933974
924.349028	2530.041689
924.653454	2529.797193
924.957840	2528.312574
925.262186	2527.831143
925.566493	2529.141843
925.870761	2524.935001
926.174989	2529.328366
926.479178	2527.725279
926.783328	2530.180321
927.087438	2531.727955
927.391509	2530.644107
927.695541	2531.100332
927.999533	2530.442461
928.303486	2528.340300
928.607400	2531.238963
928.911275	2532.348017
929.215110	2529.983716
929.518906	2530.066895
929.822663	2531.095291
930.126381	2529.043541
930.430060	2529.348531
930.733699	2530.177801
931.037299	2533.147040
931.340861	2529.676206
931.644383	2532.161495
931.947866	2527.400125
932.251309	2530.649148
932.554714	2530.820548
932.858080	2531.133099
933.161407	2529.943387
933.464694	2534.805580
933.767943	2531.828778
934.071153	2530.941535
934.374323	2528.811648
934.677455	2526.596061
934.980548	2529.282996
935.283602	2530.021525
935.586617	2531.475898
935.889593	2530.084539
936.192530	2530.056813
936.495428	2532.128727
936.798287	2530.742410
937.101108	2529.381298
937.403890	2530.039169
937.706632	2531.092770
938.009336	2529.424148
938.312002	2531.866587
938.614628	2529.504807
938.917216	2531.727955
939.219765	2530.583613
939.522275	2532.910106
939.824747	2532.847092
940.127179	2528.615043
940.429573	2525.305525
940.731929	2529.449354
941.034246	2524.020031
941.336524	2527.947090
941.638763	2529.227543
941.940964	2531.380116
942.243126	2529.414066
942.545250	2532.887421
942.847335	2528.794004
943.149381	2527.440454
943.451389	2530.036648
943.753359	2532.242153
944.055290	2531.135620
944.357182	2529.860208
944.659036	2530.253418
944.960851	2527.712676
945.262628	2529.363654
945.564367	2528.229395
945.866067	2529.850126
946.167729	2529.759385
946.469352	2532.181659
946.770937	2530.691998
947.072484	2529.164529
947.373992	2531.652338
947.675462	2529.260311
947.976893	2529.313243
948.278286	2528.350382
948.579641	2528.834333
948.880958	2528.582275
949.182236	2529.711494
949.483476	2529.983716
949.784678	2528.811648
950.085841	2530.228212
950.386967	2529.645959
950.688054	2528.794004
950.989103	2528.234436
951.290114	2528.247039
951.591087	2529.847605
951.892021	2529.900537
952.192917	2527.223684
952.493776	2527.498427
952.794596	2533.494880
953.095378	2529.867770
953.396122	2530.165198
953.696828	2530.830630
953.997496	2529.459436
954.298126	2527.342152
954.598718	2528.857018
954.899272	2528.642769
955.199788	2530.374406
955.500266	2527.785773
955.800706	2525.194620
956.101108	2523.747809
956.401472	2528.388191
956.701798	2524.814013
957.002087	2526.021369
957.302337	2528.146216
957.602550	2531.009591
957.902724	2528.524302
958.202861	2529.817358
958.502960	2528.463808
958.803022	2530.881042
959.103045	2527.372398
959.403031	2528.572193
959.702979	2527.924405
960.002889	2528.340300
960.302762	2525.807120
960.602596	2528.481452
960.902393	2525.986081
961.202153	2527.092614
961.501875	2528.531864
961.801559	2526.059178
962.101205	2526.175124
962.400814	2529.116638
962.700385	2527.289219
962.999918	2528.373068
963.299414	2530.465146
963.598873	2528.068078
963.898293	2528.486493
964.197677	2528.375588
964.497022	2528.781401
964.796331	2527.974816
965.095601	2528.360465
965.394835	2527.546318
965.694030	2528.536905
965.993189	2528.554549
966.292309	2528.403314
966.591393	2528.829292
966.890439	2523.775535
967.189447	2530.278624
967.488419	2528.567152
967.787353	2529.812317
968.086249	2526.081863
968.385108	2530.344159
968.683930	2528.355423
968.982714	2531.848943
969.281462	2528.400794
969.580172	2526.525485
969.878844	2528.186545
970.177480	2526.911133
970.476078	2527.697553
970.774639	2528.519261
971.073162	2527.697553
971.371649	2526.638911
971.670098	2523.848632
971.968510	2524.418282
972.266885	2523.064732
972.565223	2529.184693
972.863524	2530.069416
973.161788	2526.434744
973.460014	2527.402645
973.758204	2529.832482
974.056356	2527.700073
974.354471	2528.489014
974.652550	2527.289219
974.950591	2528.121010
975.248595	2528.456247
975.546563	2526.933818
975.844493	2527.178314
976.142386	2528.804086
976.440243	2528.352903
976.738062	2528.741072
977.035845	2529.280475
977.333590	2526.500279
977.631299	2527.962213
977.928971	2527.090094
978.226606	2528.045392
978.524204	2529.522451
978.821765	2525.718900
979.119290	2527.027079
979.416777	2529.701412
979.714228	2526.371729
980.011642	2526.311236
980.309020	2529.494724
980.606360	2527.221164
980.903664	2525.141688
981.200931	2527.470701
981.498162	2525.282840
981.795356	2527.284178
982.092513	2528.247039
982.389633	2528.153777
982.686717	2530.392050
982.983764	2525.852491
983.280775	2529.343490
983.577749	2529.219981
983.874686	2529.940866
984.171587	2529.053623
984.468451	2528.131092
984.765279	2524.753519
985.062070	2527.929446
985.358824	2530.482790
985.655543	2528.451205
985.952224	2528.851977
986.248869	2525.267717
986.545478	2522.558097
986.842050	2526.162522
987.138586	2522.459794
987.435086	2525.315608
987.731549	2522.641276
988.027975	2526.119672
988.324366	2524.423323
988.620719	2528.199148
988.917037	2527.611853
989.213318	2526.149919
989.509563	2526.570855
989.805772	2527.377440
990.101944	2526.885927
990.398080	2525.416431
990.694180	2526.336441
990.990244	2526.868283
991.286271	2527.518592
991.582262	2527.926925
991.878217	2525.912984
992.174136	2527.455577
992.470019	2526.838036
992.765865	2529.179652
993.061676	2528.642769
993.357450	2526.573376
993.653188	2529.096473
993.948890	2525.255114
994.244556	2527.722759
994.540186	2526.908612
994.835780	2524.695546
995.131337	2526.880886
995.426859	2527.740403
995.722345	2526.472552
996.017795	2529.035979
996.313208	2529.119158
996.608586	2527.347193
996.903928	2526.520443
997.199234	2529.648479
997.494504	2525.877696
997.789738	2525.658406
998.084936	2528.988088
998.380099	2525.650844
998.675225	2527.516071
998.970316	2526.419620
999.265371	2526.172604
999.560390	2528.035310
999.855373	2528.670496
1000.150320	2527.647141
1000.445232	2527.921884
1000.740108	2526.046575
1001.034948	2526.706966
1001.329752	2526.636390
1001.624521	2525.487007
1001.919254	2523.420134
1002.213951	2525.045906
1002.508613	2524.319980
1002.803239	2526.709487
1003.097829	2520.276974
1003.392384	2527.705115
1003.686903	2525.305525
1003.981386	2527.097656
1004.275834	2527.034641
1004.570246	2529.146885
1004.864623	2523.364681
1005.158964	2526.810310
1005.453270	2526.139836
1005.747540	2527.117820
1006.041775	2527.997502
1006.335974	2528.196627
1006.630138	2524.592202
1006.924266	2525.847449
1007.218359	2527.823582
1007.512416	2526.069260
1007.806438	2526.883407
1008.100425	2527.367357
1008.394376	2526.606143
1008.688292	2525.464322
1008.982172	2525.434075
1009.276017	2524.647655
1009.569827	2526.238139
1009.863602	2528.857018
1010.157341	2524.783766
1010.451045	2524.146060
1010.744714	2525.476925
1011.038347	2529.535053
1011.331945	2528.247039
1011.625508	2526.775022
1011.919036	2524.118334
1012.212528	2526.618746
1012.505986	2524.546832
1012.799408	2525.809641
1013.092795	2526.172604
1013.386147	2525.923067
1013.679464	2524.382994
1013.972745	2526.979188
1014.265992	2524.950124
1014.559204	2526.911133
1014.852380	2522.832839
1015.145521	2525.040865
1015.438628	2525.303005
1015.731699	2528.610002
1016.024736	2525.121523
1016.317737	2525.043385
1016.610703	2527.110258
1016.903635	2522.079187
1017.196531	2521.698580
1017.489393	2523.553724
1017.782219	2518.431912
1018.075011	2523.478107
1018.367768	2523.785618
1018.660490	2526.313756
1018.953177	2526.313756
1019.245829	2526.313756
