Dividing Wavelength (nm)	Counts (n)	Blue Motor Position (mm): 0.000000	Red Motor Position (mm): 7.900000	
326.493990	2175.257885
326.888308	2175.257885
327.282561	2175.257885
327.676750	1996.296923
328.070874	2076.955385
328.464933	2049.229038
328.858929	2104.681731
329.252859	2124.846346
329.646726	2137.449231
330.040528	2137.449231
330.434265	2102.161154
330.827938	2145.010962
331.221547	2124.846346
331.615091	2157.613846
332.008571	2117.284615
332.401986	2205.504808
332.795338	2220.628269
333.188625	2240.792885
333.581847	2233.231154
333.975006	2273.560385
334.368100	2331.533654
334.761129	2354.218846
335.154095	2258.436923
335.546996	2341.615962
335.939833	2392.027500
336.332606	2349.177692
336.725315	2351.698269
337.117960	2379.424615
337.510540	2359.260000
337.903056	2460.083077
338.295508	2475.206538
338.687896	2359.260000
339.080220	2394.548077
339.472480	2439.918462
339.864676	2460.083077
340.256807	2472.685962
340.648875	2429.836154
341.040879	2528.138654
341.432818	2475.206538
341.824694	2495.371154
342.216506	2444.959615
342.608253	2550.823846
342.999937	2518.056346
343.391557	2457.562500
343.783113	2482.768269
344.174605	2467.644808
344.566033	2439.918462
344.957397	2437.397885
345.348697	2376.904038
345.739934	2384.465769
346.131106	2487.809423
346.522215	2364.301154
346.913260	2492.850577
347.304241	2417.233269
347.695159	2422.274423
348.086012	2482.768269
348.476802	2477.727115
348.867528	2480.247692
349.258191	2538.220962
349.648789	2470.165385
350.039324	2450.000769
350.429796	2432.356731
350.820203	2515.535769
351.210548	2472.685962
351.600828	2485.288846
351.991045	2444.959615
352.381198	2424.795000
352.771288	2487.809423
353.161314	2429.836154
353.551276	2452.521346
353.941175	2467.644808
354.331010	2392.027500
354.720782	2447.480192
355.110490	2444.959615
355.500135	2419.753846
355.889717	2467.644808
356.279235	2399.589231
356.668689	2487.809423
357.058080	2457.562500
357.447408	2525.618077
357.836672	2523.097500
358.225873	2460.083077
358.615010	2497.891731
359.004084	2392.027500
359.393095	2422.274423
359.782043	2434.877308
360.170927	2520.576923
360.559748	2376.904038
360.948505	2409.671538
361.337199	2424.795000
361.725830	2452.521346
362.114398	2389.506923
362.502903	2467.644808
362.891344	2394.548077
363.279722	2482.768269
363.668037	2384.465769
364.056289	2434.877308
364.444478	2477.727115
364.832603	2412.192115
365.220665	2510.494615
365.608665	2457.562500
365.996601	2432.356731
366.384474	2533.179808
366.772284	2419.753846
367.160031	2414.712692
367.547715	2407.150962
367.935336	2545.782692
368.322893	2434.877308
368.710388	2515.535769
369.097820	2412.192115
369.485189	2432.356731
369.872495	2452.521346
370.259738	2492.850577
370.646918	2417.233269
371.034035	2545.782692
371.421090	2439.918462
371.808081	2455.041923
372.195010	2465.124231
372.581875	2497.891731
372.968678	2502.932885
373.355418	2429.836154
373.742096	2442.439038
374.128710	2497.891731
374.515262	2427.315577
374.901751	2404.630385
375.288177	2540.741538
375.674540	2460.083077
376.060841	2422.274423
376.447079	2452.521346
376.833254	2457.562500
377.219367	2465.124231
377.605417	2460.083077
377.991404	2409.671538
378.377329	2490.330000
378.763191	2518.056346
379.148991	2442.439038
379.534727	2450.000769
379.920402	2394.548077
380.306013	2384.465769
380.691563	2487.809423
381.077049	2429.836154
381.462474	2439.918462
381.847835	2392.027500
382.233134	2432.356731
382.618371	2462.603654
383.003545	2349.177692
383.388657	2530.659231
383.773706	2450.000769
384.158693	2560.906154
384.543618	2480.247692
384.928480	2545.782692
385.313280	2601.235385
385.698017	2470.165385
386.082692	2434.877308
386.467305	2490.330000
386.851856	2442.439038
387.236344	2510.494615
387.620770	2475.206538
388.005133	2497.891731
388.389435	2434.877308
388.773674	2470.165385
389.157851	2460.083077
389.541965	2492.850577
389.926018	2432.356731
390.310008	2442.439038
390.693936	2394.548077
391.077802	2525.618077
391.461606	2455.041923
391.845348	2475.206538
392.229027	2465.124231
392.612645	2497.891731
392.996200	2437.397885
393.379694	2482.768269
393.763125	2507.974038
394.146494	2467.644808
394.529801	2346.657115
394.913047	2386.986346
395.296230	2414.712692
395.679351	2513.015192
396.062410	2432.356731
396.445408	2472.685962
396.828343	2472.685962
397.211217	2402.109808
397.594028	2520.576923
397.976778	2510.494615
398.359466	2414.712692
398.742092	2475.206538
399.124656	2429.836154
399.507158	2530.659231
399.889598	2470.165385
400.271977	2518.056346
400.654294	2407.150962
401.036549	2424.795000
401.418742	2434.877308
401.800874	2470.165385
402.182944	2437.397885
402.564952	2548.303269
402.946898	2513.015192
403.328783	2507.974038
403.710606	2384.465769
404.092367	2543.262115
404.474067	2462.603654
404.855705	2369.342308
405.237282	2568.467885
405.618797	2477.727115
406.000250	2424.795000
406.381642	2495.371154
406.762972	2500.412308
407.144240	2492.850577
407.525447	2437.397885
407.906593	2402.109808
408.287677	2462.603654
408.668700	2470.165385
409.049661	2419.753846
409.430560	2472.685962
409.811399	2444.959615
410.192176	2510.494615
410.572891	2434.877308
410.953545	2525.618077
411.334138	2465.124231
411.714669	2467.644808
412.095139	2444.959615
412.475547	2558.385577
412.855894	2422.274423
413.236180	2513.015192
413.616405	2492.850577
413.996568	2523.097500
414.376670	2452.521346
414.756711	2424.795000
415.136691	2550.823846
415.516609	2399.589231
415.896466	2485.288846
416.276262	2434.877308
416.655997	2507.974038
417.035670	2520.576923
417.415283	2535.700385
417.794834	2467.644808
418.174324	2462.603654
418.553753	2467.644808
418.933121	2419.753846
419.312428	2467.644808
419.691674	2432.356731
420.070859	2475.206538
420.449983	2457.562500
420.829045	2485.288846
421.208047	2533.179808
421.586988	2530.659231
421.965867	2351.698269
422.344686	2538.220962
422.723444	2457.562500
423.102141	2419.753846
423.480777	2384.465769
423.859352	2485.288846
424.237866	2447.480192
424.616319	2523.097500
424.994712	2570.988462
425.373044	2492.850577
425.751314	2538.220962
426.129524	2477.727115
426.507673	2515.535769
426.885762	2505.453462
427.263789	2429.836154
427.641756	2472.685962
428.019662	2513.015192
428.397508	2442.439038
428.775292	2477.727115
429.153016	2439.918462
429.530679	2530.659231
429.908282	2470.165385
430.285824	2480.247692
430.663305	2412.192115
431.040726	2439.918462
431.418086	2374.383462
431.795385	2515.535769
432.172624	2424.795000
432.549802	2389.506923
432.926920	2540.741538
433.303977	2482.768269
433.680974	2492.850577
434.057910	2513.015192
434.434786	2389.506923
434.811601	2480.247692
435.188355	2576.029615
435.565050	2490.330000
435.941683	2470.165385
436.318257	2470.165385
436.694770	2455.041923
437.071222	2533.179808
437.447614	2495.371154
437.823946	2525.618077
438.200218	2429.836154
438.576429	2467.644808
438.952580	2515.535769
439.328670	2437.397885
439.704700	2472.685962
440.080670	2530.659231
440.456580	2553.344423
440.832429	2472.685962
441.208218	2513.015192
441.583947	2490.330000
441.959616	2535.700385
442.335224	2586.111923
442.710773	2465.124231
443.086261	2525.618077
443.461689	2409.671538
443.837057	2397.068654
444.212365	2538.220962
444.587612	2502.932885
444.962800	2502.932885
445.337927	2465.124231
445.712995	2422.274423
446.088002	2437.397885
446.462949	2434.877308
446.837837	2485.288846
447.212664	2477.727115
447.587431	2480.247692
447.962139	2392.027500
448.336786	2412.192115
448.711374	2523.097500
449.085901	2487.809423
449.460369	2495.371154
449.834776	2485.288846
450.209124	2490.330000
450.583412	2520.576923
450.957640	2543.262115
451.331808	2507.974038
451.705917	2472.685962
452.079965	2354.218846
452.453954	2495.371154
452.827883	2455.041923
453.201752	2523.097500
453.575562	2505.453462
453.949311	2588.632500
454.323001	2502.932885
454.696632	2477.727115
455.070202	2460.083077
455.443713	2457.562500
455.817164	2513.015192
456.190556	2540.741538
456.563888	2472.685962
456.937160	2515.535769
457.310373	2543.262115
457.683526	2450.000769
458.056619	2490.330000
458.429653	2409.671538
458.802628	2533.179808
459.175542	2500.412308
459.548398	2450.000769
459.921194	2455.041923
460.293930	2470.165385
460.666607	2495.371154
461.039224	2540.741538
461.411782	2500.412308
461.784280	2417.233269
462.156719	2455.041923
462.529099	2528.138654
462.901419	2465.124231
463.273680	2470.165385
463.645882	2442.439038
464.018024	2452.521346
464.390106	2437.397885
464.762130	2533.179808
465.134094	2470.165385
465.505999	2495.371154
465.877845	2505.453462
466.249631	2502.932885
466.621358	2535.700385
466.993026	2485.288846
467.364634	2497.891731
467.736184	2467.644808
468.107674	2450.000769
468.479105	2467.644808
468.850477	2502.932885
469.221790	2482.768269
469.593043	2467.644808
469.964238	2455.041923
470.335373	2482.768269
470.706449	2439.918462
471.077467	2475.206538
471.448425	2563.426731
471.819324	2482.768269
472.190164	2490.330000
472.560945	2480.247692
472.931667	2497.891731
473.302330	2545.782692
473.672934	2535.700385
474.043479	2490.330000
474.413965	2414.712692
474.784393	2507.974038
475.154761	2528.138654
475.525070	2523.097500
475.895321	2465.124231
476.265513	2513.015192
476.635645	2538.220962
477.005719	2462.603654
477.375734	2495.371154
477.745691	2518.056346
478.115588	2490.330000
478.485427	2538.220962
478.855207	2510.494615
479.224928	2507.974038
479.594591	2487.809423
479.964194	2444.959615
480.333739	2533.179808
480.703226	2475.206538
481.072653	2523.097500
481.442022	2502.932885
481.811333	2422.274423
482.180584	2490.330000
482.549777	2477.727115
482.918912	2545.782692
483.287988	2460.083077
483.657005	2490.330000
484.025964	2465.124231
484.394864	2523.097500
484.763706	2553.344423
485.132489	2409.671538
485.501213	2560.906154
485.869879	2487.809423
486.238487	2555.865000
486.607036	2485.288846
486.975527	2520.576923
487.343959	2480.247692
487.712333	2447.480192
488.080648	2502.932885
488.448905	2412.192115
488.817104	2515.535769
489.185244	2470.165385
489.553326	2497.891731
489.921350	2500.412308
490.289315	2535.700385
490.657222	2553.344423
491.025070	2540.741538
491.392861	2578.550192
491.760593	2500.412308
492.128267	2548.303269
492.495883	2495.371154
492.863440	2495.371154
493.230939	2482.768269
493.598380	2545.782692
493.965763	2492.850577
494.333088	2492.850577
494.700354	2482.768269
495.067563	2500.412308
495.434713	2392.027500
495.801805	2505.453462
496.168839	2475.206538
496.535815	2525.618077
496.902733	2515.535769
497.269593	2455.041923
497.636395	2523.097500
498.003139	2472.685962
498.369825	2472.685962
498.736453	2381.945192
499.103023	2528.138654
499.469535	2414.712692
499.835989	2455.041923
500.202385	2480.247692
500.568723	2485.288846
500.935003	2573.509038
501.301226	2472.685962
501.667390	2457.562500
502.033497	2480.247692
502.399546	2507.974038
502.765537	2379.424615
503.131470	2515.535769
503.497345	2518.056346
503.863163	2490.330000
504.228923	2513.015192
504.594625	2480.247692
504.960269	2407.150962
505.325856	2477.727115
505.691385	2490.330000
506.056856	2470.165385
506.422270	2560.906154
506.787625	2397.068654
507.152924	2432.356731
507.518164	2419.753846
507.883347	2510.494615
508.248472	2490.330000
508.613540	2497.891731
508.978550	2399.589231
509.343503	2475.206538
509.708398	2485.288846
510.073236	2545.782692
510.438016	2482.768269
510.802738	2470.165385
511.167403	2442.439038
511.532010	2528.138654
511.896561	2447.480192
512.261053	2490.330000
512.625488	2409.671538
512.989866	2500.412308
513.354186	2502.932885
513.718449	2518.056346
514.082655	2510.494615
514.446803	2540.741538
514.810894	2500.412308
515.174927	2475.206538
515.538904	2578.550192
515.902822	2560.906154
516.266684	2465.124231
516.630488	2480.247692
516.994235	2507.974038
517.357925	2502.932885
517.721558	2616.358846
518.085133	2442.439038
518.448651	2520.576923
518.812112	2432.356731
519.175516	2460.083077
519.538863	2533.179808
519.902152	2530.659231
520.265385	2535.700385
520.628560	2399.589231
520.991678	2490.330000
521.354739	2505.453462
521.717743	2470.165385
522.080690	2518.056346
522.443580	2505.453462
522.806413	2460.083077
523.169189	2502.932885
523.531908	2470.165385
523.894569	2487.809423
524.257174	2507.974038
524.619722	2500.412308
524.982213	2500.412308
525.344647	2480.247692
525.707025	2573.509038
526.069345	2462.603654
526.431608	2515.535769
526.793815	2379.424615
527.155964	2565.947308
527.518057	2535.700385
527.880093	2495.371154
528.242072	2392.027500
528.603995	2424.795000
528.965860	2528.138654
529.327669	2447.480192
529.689421	2518.056346
530.051117	2550.823846
530.412755	2487.809423
530.774337	2528.138654
531.135862	2452.521346
531.497331	2533.179808
531.858743	2510.494615
532.220098	2492.850577
532.581396	2497.891731
532.942638	2520.576923
533.303824	2510.494615
533.664953	2465.124231
534.026025	2505.453462
534.387040	2523.097500
534.747999	2414.712692
535.108902	2460.083077
535.469748	2497.891731
535.830537	2543.262115
536.191270	2480.247692
536.551947	2427.315577
536.912567	2515.535769
537.273131	2482.768269
537.633638	2485.288846
537.994089	2450.000769
538.354483	2528.138654
538.714821	2437.397885
539.075103	2485.288846
539.435328	2513.015192
539.795497	2490.330000
540.155609	2528.138654
540.515665	2462.603654
540.875665	2507.974038
541.235609	2475.206538
541.595496	2444.959615
541.955328	2563.426731
542.315102	2576.029615
542.674821	2427.315577
543.034483	2583.591346
543.394090	2573.509038
543.753640	2480.247692
544.113134	2538.220962
544.472571	2397.068654
544.831953	2470.165385
545.191278	2545.782692
545.550548	2475.206538
545.909761	2492.850577
546.268918	2513.015192
546.628019	2565.947308
546.987064	2482.768269
547.346053	2432.356731
547.704986	2570.988462
548.063863	2565.947308
548.422684	2528.138654
548.781449	2530.659231
549.140158	2515.535769
549.498811	2439.918462
549.857408	2482.768269
550.215949	2457.562500
550.574434	2465.124231
550.932864	2477.727115
551.291237	2570.988462
551.649555	2429.836154
552.007817	2482.768269
552.366022	2462.603654
552.724173	2518.056346
553.082267	2495.371154
553.440305	2495.371154
553.798288	2444.959615
554.156215	2480.247692
554.514086	2507.974038
554.871902	2598.714808
555.229661	2528.138654
555.587365	2492.850577
555.945014	2560.906154
556.302606	2462.603654
556.660143	2507.974038
557.017625	2467.644808
557.375050	2490.330000
557.732421	2475.206538
558.089735	2515.535769
558.446994	2422.274423
558.804197	2472.685962
559.161345	2399.589231
559.518437	2523.097500
559.875474	2442.439038
560.232455	2465.124231
560.589381	2460.083077
560.946251	2510.494615
561.303065	2591.153077
561.659825	2495.371154
562.016528	2462.603654
562.373177	2576.029615
562.729770	2555.865000
563.086307	2520.576923
563.442789	2553.344423
563.799216	2480.247692
564.155587	2492.850577
564.511904	2432.356731
564.868164	2520.576923
565.224370	2535.700385
565.580520	2525.618077
565.936615	2495.371154
566.292654	2384.465769
566.648638	2480.247692
567.004567	2583.591346
567.360441	2548.303269
567.716260	2548.303269
568.072023	2462.603654
568.427732	2505.453462
568.783385	2444.959615
569.138982	2502.932885
569.494525	2502.932885
569.850013	2455.041923
570.205445	2523.097500
570.560823	2457.562500
570.916145	2475.206538
571.271412	2480.247692
571.626625	2472.685962
571.981782	2576.029615
572.336884	2437.397885
572.691931	2457.562500
573.046923	2460.083077
573.401860	2520.576923
573.756743	2573.509038
574.111570	2457.562500
574.466342	2492.850577
574.821059	2591.153077
575.175722	2444.959615
575.530330	2470.165385
575.884882	2427.315577
576.239380	2596.194231
576.593823	2616.358846
576.948211	2386.986346
577.302544	2560.906154
577.656823	2497.891731
578.011047	2538.220962
578.365216	2573.509038
578.719330	2417.233269
579.073389	2545.782692
579.427394	2523.097500
579.781344	2558.385577
580.135239	2439.918462
580.489080	2533.179808
580.842866	2462.603654
581.196597	2510.494615
581.550273	2533.179808
581.903895	2369.342308
582.257463	2525.618077
582.610975	2475.206538
582.964434	2475.206538
583.317837	2545.782692
583.671186	2470.165385
584.024481	2467.644808
584.377721	2513.015192
584.730906	2578.550192
585.084037	2523.097500
585.437113	2475.206538
585.790135	2578.550192
586.143103	2505.453462
586.496016	2487.809423
586.848874	2455.041923
587.201679	2518.056346
587.554428	2457.562500
587.907124	2442.439038
588.259765	2457.562500
588.612352	2432.356731
588.964884	2376.904038
589.317362	2386.986346
589.669786	2475.206538
590.022155	2533.179808
590.374470	2510.494615
590.726731	2381.945192
591.078937	2528.138654
591.431090	2523.097500
591.783188	2495.371154
592.135232	2581.070769
592.487222	2510.494615
592.839157	2573.509038
593.191038	2480.247692
593.542866	2447.480192
593.894639	2490.330000
594.246358	2525.618077
594.598022	2475.206538
594.949633	2495.371154
595.301190	2437.397885
595.652692	2510.494615
596.004141	2447.480192
596.355535	2462.603654
596.706876	2452.521346
597.058162	2528.138654
597.409395	2409.671538
597.760573	2462.603654
598.111698	2560.906154
598.462768	2470.165385
598.813785	2583.591346
599.164748	2525.618077
599.515657	2550.823846
599.866511	2439.918462
600.217312	2475.206538
600.568060	2520.576923
600.918753	2538.220962
601.269392	2581.070769
601.619978	2505.453462
601.970510	2482.768269
602.320988	2525.618077
602.671412	2452.521346
603.021783	2424.795000
603.372100	2442.439038
603.722363	2414.712692
604.072572	2523.097500
604.422728	2505.453462
604.772830	2528.138654
605.122878	2465.124231
605.472872	2548.303269
605.822813	2550.823846
606.172701	2518.056346
606.522534	2518.056346
606.872314	2573.509038
607.222041	2417.233269
607.571714	2505.453462
607.921333	2407.150962
608.270899	2467.644808
608.620411	2460.083077
608.969870	2482.768269
609.319276	2502.932885
609.668627	2422.274423
610.017926	2523.097500
610.367171	2399.589231
610.716362	2570.988462
611.065500	2520.576923
611.414585	2500.412308
611.763616	2520.576923
612.112594	2470.165385
612.461518	2545.782692
612.810389	2500.412308
613.159207	2495.371154
613.507971	2570.988462
613.856682	2485.288846
614.205340	2477.727115
614.553945	2444.959615
614.902496	2487.809423
615.250994	2495.371154
615.599439	2533.179808
615.947830	2528.138654
616.296169	2502.932885
616.644454	2432.356731
616.992686	2472.685962
617.340864	2505.453462
617.688990	2538.220962
618.037063	2485.288846
618.385082	2555.865000
618.733048	2525.618077
619.080961	2497.891731
619.428821	2568.467885
619.776628	2518.056346
620.124382	2543.262115
620.472083	2447.480192
620.819731	2513.015192
621.167326	2452.521346
621.514868	2462.603654
621.862357	2495.371154
622.209793	2523.097500
622.557176	2465.124231
622.904506	2485.288846
623.251783	2409.671538
623.599007	2528.138654
623.946179	2550.823846
624.293297	2477.727115
624.640363	2513.015192
624.987376	2510.494615
625.334336	2482.768269
625.681243	2480.247692
626.028097	2538.220962
626.374899	2505.453462
626.721647	2505.453462
627.068343	2424.795000
627.414987	2616.358846
627.761577	2543.262115
628.108115	2497.891731
628.454600	2482.768269
628.801032	2518.056346
629.147412	2502.932885
629.493739	2470.165385
629.840014	2618.879423
630.186236	2480.247692
630.532405	2628.961731
630.878521	2535.700385
631.224585	2555.865000
631.570597	2462.603654
631.916556	2520.576923
632.262462	2462.603654
632.608316	2507.974038
632.954117	2422.274423
633.299866	2434.877308
633.645562	2510.494615
633.991206	2470.165385
634.336797	2513.015192
634.682336	2485.288846
635.027823	2518.056346
635.373257	2480.247692
635.718639	2525.618077
636.063968	2450.000769
636.409245	2523.097500
636.754470	2553.344423
637.099642	2475.206538
637.444762	2497.891731
637.789829	2505.453462
638.134845	2540.741538
638.479808	2505.453462
638.824719	2513.015192
639.169577	2442.439038
639.514383	2482.768269
639.859137	2560.906154
640.203839	2492.850577
640.548489	2525.618077
640.893086	2490.330000
641.237632	2540.741538
641.582125	2475.206538
641.926566	2550.823846
642.270955	2482.768269
642.615292	2530.659231
642.959576	2535.700385
643.303809	2528.138654
643.647990	2470.165385
643.992118	2485.288846
644.336195	2530.659231
644.680219	2543.262115
645.024192	2583.591346
645.368112	2470.165385
645.711981	2492.850577
646.055797	2505.453462
646.399562	2409.671538
646.743274	2525.618077
647.086935	2460.083077
647.430544	2444.959615
647.774101	2417.233269
648.117606	2510.494615
648.461059	2467.644808
648.804460	2475.206538
649.147810	2528.138654
649.491108	2528.138654
649.834354	2455.041923
650.177548	2533.179808
650.520690	2502.932885
650.863781	2432.356731
651.206820	2497.891731
651.549807	2437.397885
651.892742	2419.753846
652.235626	2505.453462
652.578458	2570.988462
652.921238	2447.480192
653.263967	2548.303269
653.606644	2570.988462
653.949269	2467.644808
654.291843	2550.823846
654.634365	2462.603654
654.976836	2392.027500
655.319255	2555.865000
655.661622	2528.138654
656.003938	2495.371154
656.346203	2606.276538
656.688416	2500.412308
657.030577	2457.562500
657.372687	2447.480192
657.714746	2533.179808
658.056753	2472.685962
658.398708	2550.823846
658.740612	2492.850577
659.082465	2432.356731
659.424266	2555.865000
659.766016	2465.124231
660.107715	2520.576923
660.449362	2460.083077
660.790958	2475.206538
661.132503	2548.303269
661.473996	2538.220962
661.815438	2429.836154
662.156829	2555.865000
662.498168	2472.685962
662.839456	2613.838269
663.180693	2472.685962
663.521879	2520.576923
663.863013	2447.480192
664.204097	2550.823846
664.545129	2515.535769
664.886110	2495.371154
665.227040	2505.453462
665.567918	2492.850577
665.908746	2510.494615
666.249522	2497.891731
666.590248	2447.480192
666.930922	2472.685962
667.271545	2540.741538
667.612118	2535.700385
667.952639	2452.521346
668.293109	2447.480192
668.633528	2500.412308
668.973896	2510.494615
669.314213	2543.262115
669.654480	2515.535769
669.994695	2533.179808
670.334859	2525.618077
670.674973	2470.165385
671.015035	2576.029615
671.355047	2502.932885
671.695008	2505.453462
672.034918	2462.603654
672.374777	2465.124231
672.714585	2432.356731
673.054342	2520.576923
673.394049	2513.015192
673.733705	2545.782692
674.073310	2472.685962
674.412864	2475.206538
674.752368	2510.494615
675.091820	2475.206538
675.431223	2467.644808
675.770574	2550.823846
676.109875	2442.439038
676.449125	2596.194231
676.788324	2583.591346
677.127473	2523.097500
677.466571	2424.795000
677.805619	2470.165385
678.144616	2472.685962
678.483562	2510.494615
678.822458	2480.247692
679.161303	2553.344423
679.500098	2429.836154
679.838842	2520.576923
680.177535	2601.235385
680.516179	2485.288846
680.854771	2439.918462
681.193314	2530.659231
681.531805	2475.206538
681.870247	2470.165385
682.208638	2533.179808
682.546978	2429.836154
682.885268	2535.700385
683.223508	2497.891731
683.561697	2470.165385
683.899836	2455.041923
684.237925	2505.453462
684.575963	2477.727115
684.913951	2487.809423
685.251889	2455.041923
685.589776	2487.809423
685.927614	2452.521346
686.265401	2447.480192
686.603137	2437.397885
686.940824	2528.138654
687.278460	2467.644808
687.616046	2434.877308
687.953582	2462.603654
688.291068	2548.303269
688.628504	2427.315577
688.965889	2548.303269
689.303224	2457.562500
689.640510	2525.618077
689.977745	2502.932885
690.314930	2593.673654
690.652065	2563.426731
690.989150	2528.138654
691.326185	2507.974038
691.663170	2495.371154
692.000105	2500.412308
692.336990	2475.206538
692.673825	2477.727115
693.010610	2518.056346
693.347345	2452.521346
693.684030	2495.371154
694.020665	2507.974038
694.357251	2543.262115
694.693786	2467.644808
695.030272	2565.947308
695.366707	2502.932885
695.703093	2477.727115
696.039429	2505.453462
696.375716	2533.179808
696.711952	2477.727115
697.048139	2495.371154
697.384276	2513.015192
697.720363	2492.850577
698.056400	2439.918462
698.392388	2462.603654
698.728326	2502.932885
699.064214	2490.330000
699.400053	2450.000769
699.735842	2475.206538
700.071581	2515.535769
700.407270	2460.083077
700.742910	2520.576923
701.078501	2505.453462
701.414042	2467.644808
701.749533	2457.562500
702.084974	2485.288846
702.420366	2444.959615
702.755709	2507.974038
703.091002	2568.467885
703.426246	2467.644808
703.761440	2568.467885
704.096584	2538.220962
704.431679	2447.480192
704.766725	2457.562500
705.101721	2513.015192
705.436668	2462.603654
705.771565	2507.974038
706.106413	2477.727115
706.441212	2518.056346
706.775961	2495.371154
707.110661	2470.165385
707.445311	2563.426731
707.779913	2528.138654
708.114465	2422.274423
708.448967	2437.397885
708.783421	2480.247692
709.117825	2490.330000
709.452180	2507.974038
709.786485	2444.959615
710.120742	2518.056346
710.454949	2475.206538
710.789107	2485.288846
711.123216	2548.303269
711.457275	2477.727115
711.791286	2507.974038
712.125247	2558.385577
712.459159	2462.603654
712.793023	2583.591346
713.126837	2497.891731
713.460602	2583.591346
713.794318	2381.945192
714.127985	2515.535769
714.461602	2550.823846
714.795171	2432.356731
715.128691	2455.041923
715.462162	2434.877308
715.795584	2563.426731
716.128957	2601.235385
716.462281	2485.288846
716.795556	2518.056346
717.128782	2472.685962
717.461960	2429.836154
717.795088	2495.371154
718.128167	2417.233269
718.461198	2467.644808
718.794180	2414.712692
719.127113	2475.206538
719.459997	2467.644808
719.792833	2472.685962
720.125619	2492.850577
720.458357	2487.809423
720.791046	2457.562500
721.123686	2497.891731
721.456278	2444.959615
721.788821	2535.700385
722.121315	2588.632500
722.453761	2507.974038
722.786158	2442.439038
723.118506	2528.138654
723.450805	2513.015192
723.783056	2467.644808
724.115259	2533.179808
724.447412	2485.288846
724.779518	2492.850577
725.111574	2495.371154
725.443582	2452.521346
725.775542	2480.247692
726.107453	2528.138654
726.439315	2515.535769
726.771129	2497.891731
727.102895	2470.165385
727.434612	2570.988462
727.766281	2487.809423
728.097901	2523.097500
728.429473	2462.603654
728.760996	2515.535769
729.092471	2565.947308
729.423897	2538.220962
729.755276	2475.206538
730.086606	2500.412308
730.417887	2538.220962
730.749120	2573.509038
731.080305	2472.685962
731.411442	2513.015192
731.742530	2540.741538
732.073570	2523.097500
732.404562	2530.659231
732.735506	2439.918462
733.066401	2414.712692
733.397249	2586.111923
733.728048	2490.330000
734.058798	2500.412308
734.389501	2530.659231
734.720156	2472.685962
735.050762	2548.303269
735.381320	2485.288846
735.711831	2444.959615
736.042293	2525.618077
736.372707	2470.165385
736.703073	2533.179808
737.033391	2437.397885
737.363661	2563.426731
737.693883	2538.220962
738.024056	2510.494615
738.354182	2545.782692
738.684260	2452.521346
739.014290	2424.795000
739.344272	2447.480192
739.674207	2475.206538
740.004093	2487.809423
740.333931	2480.247692
740.663722	2432.356731
740.993464	2578.550192
741.323159	2553.344423
741.652806	2472.685962
741.982405	2535.700385
742.311956	2460.083077
742.641460	2583.591346
742.970915	2470.165385
743.300323	2555.865000
743.629683	2442.439038
743.958996	2500.412308
744.288260	2444.959615
744.617477	2465.124231
744.946647	2482.768269
745.275768	2419.753846
745.604842	2439.918462
745.933869	2412.192115
746.262847	2573.509038
746.591778	2545.782692
746.920662	2520.576923
747.249498	2475.206538
747.578286	2480.247692
747.907027	2419.753846
748.235720	2497.891731
748.564365	2525.618077
748.892963	2477.727115
749.221514	2444.959615
749.550017	2505.453462
749.878473	2487.809423
750.206881	2482.768269
750.535242	2482.768269
750.863555	2518.056346
751.191821	2518.056346
751.520039	2467.644808
751.848210	2510.494615
752.176334	2455.041923
752.504411	2533.179808
752.832440	2392.027500
753.160421	2467.644808
753.488356	2525.618077
753.816243	2492.850577
754.144082	2555.865000
754.471875	2470.165385
754.799620	2462.603654
755.127318	2497.891731
755.454969	2515.535769
755.782572	2543.262115
756.110129	2550.823846
756.437638	2465.124231
756.765100	2497.891731
757.092515	2477.727115
757.419882	2500.412308
757.747203	2530.659231
758.074477	2507.974038
758.401703	2482.768269
758.728882	2422.274423
759.056014	2570.988462
759.383099	2465.124231
759.710138	2513.015192
760.037129	2465.124231
760.364073	2495.371154
760.690970	2560.906154
761.017820	2507.974038
761.344623	2434.877308
761.671379	2513.015192
761.998088	2507.974038
762.324751	2434.877308
762.651366	2502.932885
762.977935	2407.150962
763.304456	2450.000769
763.630931	2417.233269
763.957359	2422.274423
764.283740	2530.659231
764.610074	2422.274423
764.936362	2550.823846
765.262602	2528.138654
765.588796	2465.124231
765.914943	2485.288846
766.241044	2439.918462
766.567097	2520.576923
766.893104	2518.056346
767.219064	2482.768269
767.544978	2447.480192
767.870845	2515.535769
768.196665	2414.712692
768.522438	2487.809423
768.848165	2495.371154
769.173846	2528.138654
769.499479	2457.562500
769.825066	2477.727115
770.150607	2548.303269
770.476101	2492.850577
770.801548	2513.015192
771.126949	2563.426731
771.452303	2467.644808
771.777611	2523.097500
772.102872	2565.947308
772.428087	2490.330000
772.753256	2500.412308
773.078378	2482.768269
773.403453	2540.741538
773.728482	2502.932885
774.053465	2555.865000
774.378401	2545.782692
774.703291	2460.083077
775.028135	2475.206538
775.352932	2520.576923
775.677683	2497.891731
776.002388	2548.303269
776.327046	2555.865000
776.651658	2457.562500
776.976224	2424.795000
777.300743	2497.891731
777.625216	2462.603654
777.949643	2533.179808
778.274024	2583.591346
778.598359	2513.015192
778.922647	2407.150962
779.246889	2510.494615
779.571086	2540.741538
779.895236	2475.206538
780.219339	2460.083077
780.543397	2507.974038
780.867409	2485.288846
781.191374	2520.576923
781.515294	2482.768269
781.839167	2495.371154
782.162995	2507.974038
782.486776	2472.685962
782.810511	2480.247692
783.134201	2495.371154
783.457844	2482.768269
783.781441	2507.974038
784.104993	2495.371154
784.428498	2535.700385
784.751958	2492.850577
785.075372	2570.988462
785.398739	2452.521346
785.722061	2548.303269
786.045337	2533.179808
786.368568	2525.618077
786.691752	2525.618077
787.014891	2565.947308
787.337983	2467.644808
787.661030	2409.671538
787.984031	2477.727115
788.306987	2558.385577
788.629897	2502.932885
788.952760	2528.138654
789.275579	2439.918462
789.598351	2507.974038
789.921078	2482.768269
790.243759	2424.795000
790.566395	2528.138654
790.888984	2389.506923
791.211529	2528.138654
791.534027	2480.247692
791.856480	2492.850577
792.178888	2472.685962
792.501249	2520.576923
792.823566	2442.439038
793.145836	2434.877308
793.468062	2530.659231
793.790241	2495.371154
794.112375	2560.906154
794.434464	2495.371154
794.756507	2452.521346
795.078505	2555.865000
795.400457	2467.644808
795.722364	2565.947308
796.044226	2437.397885
796.366042	2510.494615
796.687812	2452.521346
797.009538	2482.768269
797.331218	2422.274423
797.652852	2568.467885
797.974442	2495.371154
798.295986	2455.041923
798.617484	2510.494615
798.938938	2576.029615
799.260346	2553.344423
799.581709	2437.397885
799.903026	2568.467885
800.224299	2560.906154
800.545526	2376.904038
800.866708	2550.823846
801.187845	2523.097500
801.508936	2573.509038
801.829983	2450.000769
802.150984	2502.932885
802.471940	2525.618077
802.792851	2450.000769
803.113717	2465.124231
803.434538	2530.659231
803.755314	2460.083077
804.076045	2482.768269
804.396731	2434.877308
804.717372	2472.685962
805.037967	2581.070769
805.358518	2530.659231
805.679024	2520.576923
805.999485	2528.138654
806.319901	2470.165385
806.640272	2510.494615
806.960598	2414.712692
807.280879	2505.453462
807.601115	2467.644808
807.921306	2520.576923
808.241453	2465.124231
808.561554	2472.685962
808.881611	2487.809423
809.201623	2437.397885
809.521590	2470.165385
809.841513	2518.056346
810.161390	2510.494615
810.481223	2523.097500
810.801011	2507.974038
811.120755	2510.494615
811.440453	2482.768269
811.760107	2475.206538
812.079716	2535.700385
812.399281	2462.603654
812.718801	2465.124231
813.038276	2450.000769
813.357707	2507.974038
813.677093	2588.632500
813.996434	2455.041923
814.315731	2502.932885
814.634983	2450.000769
814.954191	2472.685962
815.273354	2518.056346
815.592473	2553.344423
815.911547	2550.823846
816.230577	2485.288846
816.549562	2505.453462
816.868502	2497.891731
817.187399	2429.836154
817.506250	2475.206538
817.825058	2518.056346
818.143821	2487.809423
818.462539	2487.809423
818.781213	2444.959615
819.099843	2502.932885
819.418429	2447.480192
819.736970	2487.809423
820.055466	2462.603654
820.373919	2543.262115
820.692327	2495.371154
821.010691	2543.262115
821.329011	2462.603654
821.647286	2450.000769
821.965517	2530.659231
822.283704	2492.850577
822.601847	2525.618077
822.919945	2495.371154
823.237999	2465.124231
823.556010	2560.906154
823.873976	2419.753846
824.191897	2422.274423
824.509775	2538.220962
824.827609	2528.138654
825.145398	2419.753846
825.463144	2455.041923
825.780845	2414.712692
826.098502	2482.768269
826.416116	2497.891731
826.733685	2434.877308
827.051210	2608.797115
827.368692	2412.192115
827.686129	2525.618077
828.003522	2518.056346
828.320872	2558.385577
828.638177	2472.685962
828.955439	2465.124231
829.272656	2497.891731
829.589830	2543.262115
829.906960	2563.426731
830.224046	2520.576923
830.541088	2543.262115
830.858086	2553.344423
831.175041	2601.235385
831.491952	2510.494615
831.808819	2520.576923
832.125642	2545.782692
832.442421	2485.288846
832.759157	2586.111923
833.075849	2465.124231
833.392497	2535.700385
833.709101	2487.809423
834.025662	2472.685962
834.342179	2613.838269
834.658653	2538.220962
834.975083	2467.644808
835.291469	2533.179808
835.607811	2490.330000
835.924110	2555.865000
836.240366	2487.809423
836.556578	2528.138654
836.872746	2601.235385
837.188871	2520.576923
837.504952	2538.220962
837.820990	2477.727115
838.136984	2487.809423
838.452935	2444.959615
838.768842	2444.959615
839.084706	2492.850577
839.400526	2502.932885
839.716303	2502.932885
840.032037	2578.550192
840.347727	2457.562500
840.663373	2485.288846
840.978977	2470.165385
841.294537	2581.070769
841.610054	2457.562500
841.925527	2533.179808
842.240957	2507.974038
842.556344	2460.083077
842.871687	2495.371154
843.186987	2513.015192
843.502244	2470.165385
843.817458	2442.439038
844.132629	2429.836154
844.447756	2497.891731
844.762840	2530.659231
845.077881	2581.070769
845.392879	2485.288846
845.707833	2565.947308
846.022745	2502.932885
846.337613	2510.494615
846.652438	2450.000769
846.967221	2543.262115
847.281960	2492.850577
847.596656	2480.247692
847.911309	2550.823846
848.225919	2611.317692
848.540485	2444.959615
848.855009	2515.535769
849.169490	2480.247692
849.483928	2429.836154
849.798323	2570.988462
850.112675	2492.850577
850.426984	2507.974038
850.741251	2601.235385
851.055474	2455.041923
851.369654	2530.659231
851.683792	2525.618077
851.997887	2497.891731
852.311938	2505.453462
852.625947	2482.768269
852.939914	2525.618077
853.253837	2502.932885
853.567718	2513.015192
853.881555	2528.138654
854.195350	2455.041923
854.509103	2487.809423
854.822812	2394.548077
855.136479	2495.371154
855.450103	2513.015192
855.763685	2462.603654
856.077224	2467.644808
856.390720	2523.097500
856.704173	2462.603654
857.017584	2565.947308
857.330953	2490.330000
857.644278	2518.056346
857.957561	2470.165385
858.270802	2439.918462
858.584000	2452.521346
858.897155	2475.206538
859.210268	2412.192115
859.523339	2530.659231
859.836367	2576.029615
860.149352	2560.906154
860.462295	2477.727115
860.775195	2515.535769
861.088054	2560.906154
861.400869	2462.603654
861.713642	2465.124231
862.026373	2447.480192
862.339062	2472.685962
862.651708	2470.165385
862.964312	2505.453462
863.276873	2528.138654
863.589392	2487.809423
863.901869	2525.618077
864.214303	2515.535769
864.526696	2472.685962
864.839045	2523.097500
865.151353	2548.303269
865.463619	2543.262115
865.775842	2492.850577
866.088023	2455.041923
866.400162	2505.453462
866.712258	2487.809423
867.024313	2505.453462
867.336325	2460.083077
867.648296	2497.891731
867.960224	2447.480192
868.272110	2502.932885
868.583954	2507.974038
868.895755	2550.823846
869.207515	2427.315577
869.519233	2472.685962
869.830909	2404.630385
870.142542	2482.768269
870.454134	2490.330000
870.765684	2427.315577
871.077191	2475.206538
871.388657	2412.192115
871.700081	2399.589231
872.011463	2455.041923
872.322803	2528.138654
872.634101	2427.315577
872.945357	2505.453462
873.256571	2530.659231
873.567744	2583.591346
873.878874	2467.644808
874.189963	2452.521346
874.501010	2548.303269
874.812015	2545.782692
875.122979	2495.371154
875.433900	2497.891731
875.744780	2530.659231
876.055618	2482.768269
876.366415	2432.356731
876.677169	2613.838269
876.987882	2452.521346
877.298554	2515.535769
877.609183	2444.959615
877.919771	2540.741538
878.230317	2475.206538
878.540822	2540.741538
878.851285	2528.138654
879.161707	2583.591346
879.472087	2480.247692
879.782425	2477.727115
880.092722	2560.906154
880.402977	2442.439038
880.713191	2424.795000
881.023363	2414.712692
881.333494	2513.015192
881.643583	2545.782692
881.953631	2480.247692
882.263637	2437.397885
882.573602	2502.932885
882.883526	2470.165385
883.193408	2513.015192
883.503248	2414.712692
883.813048	2507.974038
884.122806	2540.741538
884.432522	2439.918462
884.742197	2535.700385
885.051831	2507.974038
885.361424	2523.097500
885.670975	2439.918462
885.980485	2470.165385
886.289954	2507.974038
886.599382	2518.056346
886.908768	2475.206538
887.218113	2515.535769
887.527417	2495.371154
887.836680	2502.932885
888.145901	2467.644808
888.455082	2497.891731
888.764221	2523.097500
889.073319	2432.356731
889.382376	2530.659231
889.691392	2528.138654
890.000366	2452.521346
890.309300	2500.412308
890.618193	2591.153077
890.927044	2515.535769
891.235855	2452.521346
891.544625	2465.124231
891.853353	2500.412308
892.162041	2525.618077
892.470687	2523.097500
892.779293	2490.330000
893.087858	2462.603654
893.396381	2429.836154
893.704864	2452.521346
894.013306	2485.288846
894.321707	2636.523462
894.630068	2520.576923
894.938387	2455.041923
895.246665	2475.206538
895.554903	2447.480192
895.863100	2553.344423
896.171256	2520.576923
896.479371	2523.097500
896.787446	2477.727115
897.095480	2507.974038
897.403473	2439.918462
897.711425	2429.836154
898.019336	2555.865000
898.327207	2442.439038
898.635038	2523.097500
898.942827	2520.576923
899.250576	2409.671538
899.558284	2507.974038
899.865952	2500.412308
900.173579	2515.535769
900.481165	2596.194231
900.788711	2450.000769
901.096216	2472.685962
901.403681	2424.795000
901.711105	2528.138654
902.018489	2447.480192
902.325832	2470.165385
902.633135	2520.576923
902.940397	2492.850577
903.247619	2533.179808
903.554800	2472.685962
903.861941	2500.412308
904.169041	2545.782692
904.476101	2510.494615
904.783121	2505.453462
905.090100	2535.700385
905.397039	2495.371154
905.703938	2613.838269
906.010796	2545.782692
906.317614	2442.439038
906.624391	2538.220962
906.931129	2472.685962
907.237826	2515.535769
907.544483	2427.315577
907.851099	2490.330000
908.157675	2588.632500
908.464211	2490.330000
908.770707	2452.521346
909.077163	2482.768269
909.383578	2520.576923
909.689954	2351.698269
909.996289	2525.618077
910.302584	2515.535769
910.608839	2525.618077
910.915054	2399.589231
911.221229	2505.453462
911.527363	2472.685962
911.833458	2487.809423
912.139513	2482.768269
912.445527	2480.247692
912.751502	2467.644808
913.057436	2530.659231
913.363331	2452.521346
913.669186	2470.165385
913.975000	2560.906154
914.280775	2437.397885
914.586510	2535.700385
914.892205	2455.041923
915.197859	2540.741538
915.503475	2444.959615
915.809050	2603.755962
916.114585	2487.809423
916.420081	2507.974038
916.725536	2520.576923
917.030952	2442.439038
917.336328	2480.247692
917.641665	2452.521346
917.946961	2548.303269
918.252218	2540.741538
918.557435	2570.988462
918.862612	2520.576923
919.167750	2495.371154
919.472848	2457.562500
919.777906	2515.535769
920.082925	2444.959615
920.387904	2460.083077
920.692843	2457.562500
920.997743	2513.015192
921.302603	2432.356731
921.607423	2513.015192
921.912204	2439.918462
922.216946	2467.644808
922.521647	2429.836154
922.826310	2480.247692
923.130932	2525.618077
923.435516	2505.453462
923.740059	2492.850577
924.044564	2470.165385
924.349028	2495.371154
924.653454	2422.274423
924.957840	2457.562500
925.262186	2414.712692
925.566493	2500.412308
925.870761	2402.109808
926.174989	2611.317692
926.479178	2492.850577
926.783328	2437.397885
927.087438	2500.412308
927.391509	2495.371154
927.695541	2490.330000
927.999533	2515.535769
928.303486	2523.097500
928.607400	2535.700385
928.911275	2502.932885
929.215110	2505.453462
929.518906	2477.727115
929.822663	2475.206538
930.126381	2452.521346
930.430060	2485.288846
930.733699	2432.356731
931.037299	2497.891731
931.340861	2467.644808
931.644383	2581.070769
931.947866	2447.480192
932.251309	2505.453462
932.554714	2452.521346
932.858080	2482.768269
933.161407	2545.782692
933.464694	2513.015192
933.767943	2477.727115
934.071153	2490.330000
934.374323	2450.000769
934.677455	2543.262115
934.980548	2490.330000
935.283602	2533.179808
935.586617	2460.083077
935.889593	2520.576923
936.192530	2576.029615
936.495428	2480.247692
936.798287	2450.000769
937.101108	2455.041923
937.403890	2490.330000
937.706632	2462.603654
938.009336	2505.453462
938.312002	2505.453462
938.614628	2487.809423
938.917216	2465.124231
939.219765	2434.877308
939.522275	2543.262115
939.824747	2588.632500
940.127179	2457.562500
940.429573	2452.521346
940.731929	2502.932885
941.034246	2565.947308
941.336524	2462.603654
941.638763	2457.562500
941.940964	2545.782692
942.243126	2455.041923
942.545250	2477.727115
942.847335	2470.165385
943.149381	2487.809423
943.451389	2457.562500
943.753359	2507.974038
944.055290	2457.562500
944.357182	2404.630385
944.659036	2437.397885
944.960851	2523.097500
945.262628	2381.945192
945.564367	2477.727115
945.866067	2518.056346
946.167729	2472.685962
946.469352	2485.288846
946.770937	2404.630385
947.072484	2467.644808
947.373992	2492.850577
947.675462	2444.959615
947.976893	2497.891731
948.278286	2432.356731
948.579641	2528.138654
948.880958	2540.741538
949.182236	2518.056346
949.483476	2492.850577
949.784678	2505.453462
950.085841	2487.809423
950.386967	2450.000769
950.688054	2528.138654
950.989103	2586.111923
951.290114	2538.220962
951.591087	2492.850577
951.892021	2520.576923
952.192917	2497.891731
952.493776	2482.768269
952.794596	2497.891731
953.095378	2525.618077
953.396122	2545.782692
953.696828	2472.685962
953.997496	2399.589231
954.298126	2518.056346
954.598718	2568.467885
954.899272	2427.315577
955.199788	2525.618077
955.500266	2500.412308
955.800706	2452.521346
956.101108	2492.850577
956.401472	2563.426731
956.701798	2417.233269
957.002087	2434.877308
957.302337	2485.288846
957.602550	2515.535769
957.902724	2460.083077
958.202861	2422.274423
958.502960	2502.932885
958.803022	2457.562500
959.103045	2528.138654
959.403031	2470.165385
959.702979	2475.206538
960.002889	2419.753846
960.302762	2533.179808
960.602596	2482.768269
960.902393	2495.371154
961.202153	2492.850577
961.501875	2560.906154
961.801559	2515.535769
962.101205	2419.753846
962.400814	2482.768269
962.700385	2560.906154
962.999918	2434.877308
963.299414	2523.097500
963.598873	2419.753846
963.898293	2581.070769
964.197677	2465.124231
964.497022	2472.685962
964.796331	2570.988462
965.095601	2470.165385
965.394835	2550.823846
965.694030	2452.521346
965.993189	2545.782692
966.292309	2394.548077
966.591393	2540.741538
966.890439	2495.371154
967.189447	2530.659231
967.488419	2452.521346
967.787353	2457.562500
968.086249	2444.959615
968.385108	2467.644808
968.683930	2535.700385
968.982714	2505.453462
969.281462	2492.850577
969.580172	2442.439038
969.878844	2497.891731
970.177480	2528.138654
970.476078	2412.192115
970.774639	2500.412308
971.073162	2495.371154
971.371649	2457.562500
971.670098	2462.603654
971.968510	2515.535769
972.266885	2485.288846
972.565223	2533.179808
972.863524	2432.356731
973.161788	2475.206538
973.460014	2487.809423
973.758204	2543.262115
974.056356	2455.041923
974.354471	2485.288846
974.652550	2472.685962
974.950591	2553.344423
975.248595	2444.959615
975.546563	2548.303269
975.844493	2472.685962
976.142386	2530.659231
976.440243	2404.630385
976.738062	2492.850577
977.035845	2417.233269
977.333590	2470.165385
977.631299	2515.535769
977.928971	2513.015192
978.226606	2515.535769
978.524204	2457.562500
978.821765	2535.700385
979.119290	2457.562500
979.416777	2480.247692
979.714228	2507.974038
980.011642	2472.685962
980.309020	2467.644808
980.606360	2487.809423
980.903664	2515.535769
981.200931	2497.891731
981.498162	2510.494615
981.795356	2538.220962
982.092513	2523.097500
982.389633	2528.138654
982.686717	2432.356731
982.983764	2495.371154
983.280775	2518.056346
983.577749	2550.823846
983.874686	2533.179808
984.171587	2480.247692
984.468451	2422.274423
984.765279	2462.603654
985.062070	2535.700385
985.358824	2540.741538
985.655543	2465.124231
985.952224	2520.576923
986.248869	2495.371154
986.545478	2482.768269
986.842050	2439.918462
987.138586	2427.315577
987.435086	2439.918462
987.731549	2558.385577
988.027975	2470.165385
988.324366	2465.124231
988.620719	2422.274423
988.917037	2470.165385
989.213318	2492.850577
989.509563	2560.906154
989.805772	2447.480192
990.101944	2475.206538
990.398080	2439.918462
990.694180	2530.659231
990.990244	2434.877308
991.286271	2447.480192
991.582262	2462.603654
991.878217	2434.877308
992.174136	2500.412308
992.470019	2462.603654
992.765865	2462.603654
993.061676	2520.576923
993.357450	2538.220962
993.653188	2505.453462
993.948890	2545.782692
994.244556	2520.576923
994.540186	2520.576923
994.835780	2513.015192
995.131337	2472.685962
995.426859	2407.150962
995.722345	2520.576923
996.017795	2424.795000
996.313208	2450.000769
996.608586	2500.412308
996.903928	2518.056346
997.199234	2429.836154
997.494504	2518.056346
997.789738	2490.330000
998.084936	2444.959615
998.380099	2427.315577
998.675225	2530.659231
998.970316	2497.891731
999.265371	2520.576923
999.560390	2538.220962
999.855373	2462.603654
1000.150320	2460.083077
1000.445232	2492.850577
1000.740108	2520.576923
1001.034948	2523.097500
1001.329752	2510.494615
1001.624521	2475.206538
1001.919254	2510.494615
1002.213951	2434.877308
1002.508613	2470.165385
1002.803239	2480.247692
1003.097829	2447.480192
1003.392384	2505.453462
1003.686903	2477.727115
1003.981386	2490.330000
1004.275834	2470.165385
1004.570246	2543.262115
1004.864623	2487.809423
1005.158964	2477.727115
1005.453270	2525.618077
1005.747540	2560.906154
1006.041775	2460.083077
1006.335974	2472.685962
1006.630138	2507.974038
1006.924266	2482.768269
1007.218359	2535.700385
1007.512416	2545.782692
1007.806438	2515.535769
1008.100425	2502.932885
1008.394376	2565.947308
1008.688292	2543.262115
1008.982172	2462.603654
1009.276017	2507.974038
1009.569827	2505.453462
1009.863602	2523.097500
1010.157341	2520.576923
1010.451045	2550.823846
1010.744714	2543.262115
1011.038347	2472.685962
1011.331945	2450.000769
1011.625508	2570.988462
1011.919036	2500.412308
1012.212528	2480.247692
1012.505986	2450.000769
1012.799408	2520.576923
1013.092795	2500.412308
1013.386147	2424.795000
1013.679464	2510.494615
1013.972745	2495.371154
1014.265992	2581.070769
1014.559204	2409.671538
1014.852380	2497.891731
1015.145521	2460.083077
1015.438628	2497.891731
1015.731699	2485.288846
1016.024736	2429.836154
1016.317737	2507.974038
1016.610703	2500.412308
1016.903635	2533.179808
1017.196531	2437.397885
1017.489393	2475.206538
1017.782219	2487.809423
1018.075011	2455.041923
1018.367768	2434.877308
1018.660490	2477.727115
1018.953177	2477.727115
1019.245829	2477.727115
