Dividing Wavelength (nm)	Counts (n)	Blue Motor Position (mm): 21.000000	Red Motor Position (mm): 0.000000	
326.493990	2133.282717
326.888308	2133.282717
327.282561	2133.282717
327.676750	2101.604106
328.070874	2100.550505
328.464933	2101.906576
328.858929	2109.193563
329.252859	2121.909874
329.646726	2130.091667
330.040528	2144.343009
330.434265	2158.506130
330.827938	2178.479182
331.221547	2195.823272
331.615091	2214.039481
332.008571	2230.519013
332.401986	2254.988774
332.795338	2273.227668
333.188625	2292.797428
333.581847	2310.441466
333.975006	2329.194558
334.368100	2348.096365
334.761129	2365.720239
335.154095	2381.942672
335.546996	2402.124931
335.939833	2422.649989
336.332606	2438.264963
336.725315	2451.470266
337.117960	2461.837398
337.510540	2466.326546
337.903056	2479.662918
338.295508	2487.290184
338.687896	2494.804024
339.080220	2503.686537
339.472480	2510.361025
339.864676	2515.253465
340.256807	2517.038033
340.648875	2521.161697
341.040879	2522.212777
341.432818	2527.090094
341.824694	2527.563962
342.216506	2526.868283
342.608253	2529.000691
342.999937	2526.492717
343.391557	2525.136647
343.783113	2523.800741
344.174605	2523.261338
344.566033	2523.878879
344.957397	2522.041378
345.348697	2522.132119
345.739934	2521.007942
346.131106	2518.714217
346.522215	2514.550224
346.913260	2514.235152
347.304241	2515.792868
347.695159	2510.799605
348.086012	2510.613082
348.476802	2508.591580
348.867528	2505.914727
349.258191	2502.663183
349.648789	2503.913389
350.039324	2500.694612
350.429796	2501.128152
350.820203	2498.317708
351.210548	2497.543891
351.600828	2496.724704
351.991045	2495.151864
352.381198	2496.402070
352.771288	2495.925681
353.161314	2494.073057
353.551276	2492.427120
353.941175	2492.643890
354.331010	2496.487769
354.720782	2491.076091
355.110490	2493.546256
355.500135	2491.996101
355.889717	2493.180772
356.279235	2493.732779
356.668689	2496.240753
357.058080	2497.773264
357.447408	2494.156236
357.836672	2490.884527
358.225873	2495.799652
358.615010	2490.534167
359.004084	2496.553304
359.393095	2496.853253
359.782043	2500.034221
360.170927	2498.917606
360.559748	2498.970538
360.948505	2499.804849
361.337199	2501.609582
361.725830	2498.713439
362.114398	2500.682009
362.502903	2499.872904
362.891344	2505.362721
363.279722	2504.818276
363.668037	2504.546054
364.056289	2502.615292
364.444478	2501.680158
364.832603	2502.756444
365.220665	2505.856754
365.608665	2505.851713
365.996601	2508.755417
366.384474	2506.892711
366.772284	2504.891373
367.160031	2509.156189
367.547715	2506.252484
367.935336	2507.086795
368.322893	2509.030160
368.710388	2509.889677
369.097820	2508.735253
369.485189	2507.729543
369.872495	2506.728873
370.259738	2506.703668
370.646918	2508.992352
371.034035	2509.206601
371.421090	2509.365397
371.808081	2509.725839
372.195010	2511.331447
372.581875	2510.020747
372.968678	2512.987466
373.355418	2507.313647
373.742096	2511.013854
374.128710	2511.016375
374.515262	2511.790192
374.901751	2510.784482
375.288177	2511.333968
375.674540	2513.179030
376.060841	2512.440501
376.447079	2515.261026
376.833254	2513.615090
377.219367	2510.194667
377.605417	2511.064266
377.991404	2509.713237
378.377329	2509.456138
378.763191	2509.577125
379.148991	2512.831190
379.534727	2512.654750
379.920402	2514.633403
380.306013	2516.395286
380.691563	2514.000738
381.077049	2516.281860
381.462474	2515.792868
381.847835	2514.749349
382.233134	2515.848321
382.618371	2514.497292
383.003545	2516.675070
383.388657	2516.208763
383.773706	2516.644823
384.158693	2516.274298
384.543618	2517.227076
384.928480	2516.639782
385.313280	2519.183044
385.698017	2515.558454
386.082692	2518.144566
386.467305	2517.406037
386.851856	2519.490554
387.236344	2515.898732
387.620770	2520.776049
388.005133	2517.005266
388.389435	2520.017355
388.773674	2519.598939
389.157851	2516.866634
389.541965	2518.091634
389.926018	2520.776049
390.310008	2520.478621
390.693936	2520.224042
391.077802	2519.654392
391.461606	2520.642458
391.845348	2519.672036
392.229027	2522.285874
392.612645	2519.984587
392.996200	2521.217150
393.379694	2521.111285
393.763125	2522.295957
394.146494	2522.487520
394.529801	2523.795700
394.913047	2525.902902
395.296230	2520.672705
395.679351	2521.386028
396.062410	2522.943745
396.445408	2522.114475
396.828343	2523.919208
397.211217	2520.080369
397.594028	2520.276974
397.976778	2519.402334
398.359466	2519.304032
398.742092	2518.890657
399.124656	2525.068591
399.507158	2524.108251
399.889598	2527.440454
400.271977	2525.081194
400.654294	2525.547501
401.036549	2524.531708
401.418742	2526.326359
401.800874	2527.206040
402.182944	2528.317615
402.564952	2525.880217
402.946898	2526.775022
403.328783	2526.885927
403.710606	2527.125382
404.092367	2526.626308
404.474067	2526.470032
404.855705	2527.296781
405.237282	2528.448685
405.618797	2529.323325
406.000250	2527.153108
406.381642	2529.661082
406.762972	2529.061185
407.144240	2527.755526
407.525447	2532.751310
407.906593	2527.816020
408.287677	2529.716535
408.668700	2528.796524
409.049661	2529.270393
409.430560	2532.116124
409.811399	2530.770136
410.192176	2529.817358
410.572891	2531.228881
410.953545	2531.730476
411.334138	2529.870290
411.714669	2532.615198
412.095139	2531.748120
412.475547	2530.636546
412.855894	2531.730476
413.236180	2531.354910
413.616405	2533.847761
413.996568	2532.685775
414.376670	2530.903727
414.756711	2531.453212
415.136691	2533.991433
415.516609	2533.918337
415.896466	2531.823737
416.276262	2533.920857
416.655997	2528.229395
417.035670	2529.840043
417.415283	2530.656710
417.794834	2525.436595
418.174324	2530.107224
418.553753	2532.738707
418.933121	2532.342976
419.312428	2532.345497
419.691674	2532.799201
420.070859	2532.045548
420.449983	2534.084695
420.829045	2534.903882
421.208047	2534.205683
421.586988	2535.125693
421.965867	2536.769109
422.344686	2533.499921
422.723444	2534.639222
423.102141	2534.677030
423.480777	2532.509334
423.859352	2534.112421
424.237866	2533.217616
424.616319	2535.256763
424.994712	2533.187369
425.373044	2536.151568
425.751314	2536.721218
426.129524	2534.692154
426.507673	2539.012423
426.885762	2535.060158
427.263789	2535.493697
427.641756	2536.118800
428.019662	2534.853471
428.397508	2534.077133
428.775292	2537.202648
429.153016	2534.659386
429.530679	2539.171219
429.908282	2535.531506
430.285824	2539.289686
430.663305	2536.905220
431.040726	2536.292720
431.418086	2537.621064
431.795385	2541.348998
432.172624	2537.699202
432.549802	2538.067206
432.926920	2537.742052
433.303977	2540.123997
433.680974	2537.565612
434.057910	2541.454862
434.434786	2539.524100
434.811601	2540.093750
435.188355	2536.827082
435.565050	2539.773637
435.941683	2538.674665
436.318257	2539.632485
436.694770	2535.362627
437.071222	2538.538554
437.447614	2538.021836
437.823946	2535.546629
438.200218	2537.008564
438.576429	2541.011240
438.952580	2540.713812
439.328670	2540.983514
439.704700	2539.259439
440.080670	2540.870088
440.456580	2540.393699
440.832429	2541.782537
441.208218	2541.414533
441.583947	2542.828576
441.959616	2539.594676
442.335224	2540.723894
442.710773	2540.519728
443.086261	2543.380582
443.461689	2541.381765
443.837057	2544.000644
444.212365	2540.396219
444.587612	2543.471323
444.962800	2542.556354
445.337927	2544.411498
445.712995	2541.883360
446.088002	2542.952084
446.462949	2541.913607
446.837837	2545.172713
447.212664	2543.115922
447.587431	2544.812270
447.962139	2543.012578
448.336786	2546.886705
448.711374	2546.438042
449.085901	2544.565254
449.460369	2544.411498
449.834776	2545.364277
450.209124	2544.648433
450.583412	2544.577857
450.957640	2544.976108
451.331808	2543.554502
451.705917	2545.452497
452.079965	2544.550130
452.453954	2546.170861
452.827883	2549.273691
453.201752	2546.208670
453.575562	2546.082641
453.949311	2544.396375
454.323001	2547.529452
454.696632	2545.109698
455.070202	2547.146324
455.443713	2546.128011
455.817164	2544.184647
456.190556	2543.491488
456.563888	2545.359235
456.937160	2545.119781
457.310373	2546.473330
457.683526	2546.226314
458.056619	2546.352343
458.429653	2547.776469
458.802628	2547.980635
459.175542	2547.930224
459.548398	2547.209339
459.921194	2546.153217
460.293930	2548.638506
460.666607	2548.641027
461.039224	2550.042467
461.411782	2547.899977
461.784280	2552.686553
462.156719	2548.678835
462.529099	2550.964998
462.901419	2550.002138
463.273680	2549.182951
463.645882	2548.111705
464.018024	2551.048177
464.390106	2547.784030
464.762130	2549.762683
465.134094	2551.053219
465.505999	2551.043136
465.877845	2553.329300
466.249631	2555.086142
466.621358	2552.767211
466.993026	2555.985988
467.364634	2557.599157
467.736184	2556.522871
468.107674	2554.042623
468.479105	2556.991698
468.850477	2553.591440
469.221790	2553.654454
469.593043	2552.989022
469.964238	2552.449618
470.335373	2555.126471
470.706449	2555.824671
471.077467	2554.395504
471.448425	2559.509754
471.819324	2557.684857
472.190164	2563.429251
472.560945	2557.773077
472.931667	2557.762994
473.302330	2556.585885
473.672934	2556.482541
474.043479	2559.330793
474.413965	2557.881462
474.784393	2556.172510
475.154761	2557.226112
475.525070	2557.793241
475.895321	2558.204095
476.265513	2558.282233
476.635645	2564.966803
477.005719	2561.745506
477.375734	2568.039387
477.745691	2568.699778
478.115588	2570.910324
478.485427	2574.754203
478.855207	2580.538927
479.224928	2585.058322
479.594591	2590.797676
479.964194	2592.499065
480.333739	2593.567790
480.703226	2599.423090
481.072653	2605.033894
481.442022	2609.505397
481.811333	2615.481685
482.180584	2618.632407
482.549777	2622.075515
482.918912	2626.489045
483.287988	2636.394912
483.657005	2639.540592
484.025964	2641.050418
484.394864	2650.605925
484.763706	2654.827891
485.132489	2659.453150
485.501213	2670.321877
485.869879	2677.303876
486.238487	2683.728826
486.607036	2694.552183
486.975527	2701.314891
487.343959	2710.630944
487.712333	2725.830022
488.080648	2733.371589
488.448905	2746.763414
488.817104	2754.925042
489.185244	2774.880449
489.553326	2796.391053
489.921350	2827.822647
490.289315	2886.204250
490.657222	2906.958680
491.025070	2928.620518
491.392861	2942.705502
491.760593	2945.155503
492.128267	2947.524845
492.495883	2952.230762
492.863440	2958.378449
493.230939	2963.238122
493.598380	2981.227479
493.965763	2995.834223
494.333088	3008.295955
494.700354	3029.453678
495.067563	3053.835218
495.434713	3071.839699
495.801805	3105.247426
496.168839	3129.765077
496.535815	3153.677791
496.902733	3172.415759
497.269593	3205.044628
497.636395	3234.447157
498.003139	3271.988630
498.369825	3288.919345
498.736453	3337.304340
499.103023	3356.168338
499.469535	3399.310532
499.835989	3426.537804
500.202385	3463.575162
500.568723	3482.068634
500.935003	3536.066954
501.301226	3571.803693
501.667390	3626.036427
502.033497	3682.794778
502.399546	3700.453940
502.765537	3732.336717
503.131470	3784.961322
503.497345	3858.408413
503.863163	3844.373841
504.228923	3938.865228
504.594625	3987.749297
504.960269	3994.106192
505.325856	4080.072989
505.691385	4099.662913
506.056856	4171.685878
506.422270	4234.206268
506.787625	4256.450359
507.152924	4340.773739
507.518164	4379.819997
507.883347	4422.024537
508.248472	4461.758911
508.613540	4566.148604
508.978550	4606.424903
509.343503	4652.178415
509.708398	4740.920367
510.073236	4824.303572
510.438016	4888.422008
510.802738	4938.029483
511.167403	5008.519937
511.532010	5052.178850
511.896561	5162.512063
512.261053	5254.639150
512.625488	5281.102687
512.989866	5344.948900
513.354186	5403.632972
513.718449	5438.079177
514.082655	5558.885387
514.446803	5596.946099
514.810894	5704.214291
515.174927	5731.239917
515.538904	5795.244927
515.902822	5928.585966
516.266684	5945.322597
516.630488	6000.553479
516.994235	6078.734213
517.357925	6184.275810
517.721558	6288.642818
518.085133	6375.033072
518.448651	6431.448624
518.812112	6454.965607
519.175516	6541.645727
519.538863	6659.495301
519.902152	6683.788621
520.265385	6846.532191
520.628560	6859.911413
520.991678	6928.493791
521.354739	7019.466453
521.717743	7051.651700
522.080690	7113.330217
522.443580	7263.188597
522.806413	7306.923128
523.169189	7385.630663
523.531908	7482.105744
523.894569	7458.745037
524.257174	7541.107409
524.619722	7673.490629
524.982213	7700.929630
525.344647	7811.250241
525.707025	7843.246444
526.069345	7962.361348
526.431608	7992.255390
526.793815	8115.899770
527.155964	8053.891057
527.518057	8143.137125
527.880093	8178.284049
528.242072	8281.902446
528.603995	8292.773694
528.965860	8301.023543
529.327669	8394.637769
529.689421	8418.489989
530.051117	8462.330383
530.412755	8595.331145
530.774337	8574.370028
531.135862	8624.756360
531.497331	8686.109723
531.858743	8649.296697
532.220098	8818.684507
532.581396	8779.615565
532.942638	8808.960122
533.303824	8839.065893
533.664953	8905.611644
534.026025	8893.031444
534.387040	9015.808746
534.747999	9062.298267
535.108902	9156.648503
535.469748	9016.164148
535.830537	9144.532089
536.191270	9176.911420
536.551947	9240.369465
536.912567	9283.272205
537.273131	9264.037682
537.633638	9286.667422
537.994089	9331.629473
538.354483	9327.823402
538.714821	9481.555909
539.075103	9531.319659
539.435328	9539.887100
539.795497	9430.536912
540.155609	9605.964024
540.515665	9714.583246
540.875665	9532.126244
541.235609	9619.076065
541.595496	9653.696189
541.955328	9828.898971
542.315102	9750.816539
542.674821	9739.415969
543.034483	9777.827041
543.394090	9808.520106
543.753640	9778.132031
544.113134	10004.157205
544.472571	9898.169466
544.831953	10061.071832
545.191278	9906.689016
545.550548	9964.460639
545.909761	10112.113514
546.268918	10115.387744
546.628019	10224.959743
546.987064	10120.197005
547.346053	10061.016379
547.704986	10181.247898
548.063863	10192.119147
548.422684	10205.347134
548.781449	10150.998455
549.140158	10264.459704
549.498811	10169.428913
549.857408	10054.636799
550.215949	10296.607142
550.574434	10169.227267
550.932864	10282.965780
551.291237	10348.578918
551.649555	10318.238733
552.007817	10343.200007
552.366022	10325.702162
552.724173	10330.428243
553.082267	10330.864303
553.440305	10481.587242
553.798288	10302.560745
554.156215	10460.646288
554.514086	10457.830804
554.871902	10322.425412
555.229661	10367.795796
555.587365	10352.095123
555.945014	10257.528118
556.302606	10397.846114
556.660143	10294.114292
557.017625	10458.332399
557.375050	10365.333193
557.732421	10508.265028
558.089735	10433.323235
558.446994	10434.830540
558.804197	10481.320060
559.161345	10494.999231
559.518437	10348.964566
559.875474	10447.390574
560.232455	10487.021605
560.589381	10440.758937
560.946251	10443.370254
561.303065	10549.635257
561.659825	10499.024593
562.016528	10428.163614
562.373177	10310.936622
562.729770	10434.933883
563.086307	10358.504950
563.442789	10451.363004
563.799216	10335.149284
564.155587	10388.804805
564.511904	10348.911634
564.868164	10336.175159
565.224370	10354.492191
565.580520	10284.904104
565.936615	10297.761567
566.292654	10167.140229
566.648638	10299.929263
567.004567	10256.986194
567.360441	10245.787270
567.716260	10159.369291
568.072023	10259.612635
568.427732	10212.858453
568.783385	10121.006110
569.138982	10193.427326
569.494525	10211.023473
569.850013	10086.181819
570.205445	10169.645683
570.560823	10073.079860
570.916145	9993.170010
571.271412	10068.575589
571.626625	10010.662814
571.981782	9983.120470
572.336884	9965.962903
572.691931	9969.181679
573.046923	9911.122711
573.401860	9874.143327
573.756743	9813.770468
574.111570	9855.231438
574.466342	9837.688223
574.821059	9870.859015
575.175722	9761.115616
575.530330	9775.460219
575.884882	9768.858828
576.239380	9689.516108
576.593823	9668.363427
576.948211	9681.883801
577.302544	9571.850536
577.656823	9589.297970
578.011047	9585.610366
578.365216	9565.844001
578.719330	9491.174431
579.073389	9500.840843
579.427394	9449.226989
579.781344	9431.461963
580.135239	9378.890290
580.489080	9385.330364
580.842866	9288.930900
581.196597	9296.472466
581.550273	9334.202982
581.903895	9303.701481
582.257463	9372.228406
582.610975	9249.834231
582.964434	9271.521275
583.317837	9196.022435
583.671186	9176.616513
584.024481	9180.087347
584.377721	9095.882434
584.730906	9077.464578
585.084037	9110.554712
585.437113	9044.268580
585.790135	9062.010921
586.143103	8958.732802
586.496016	8931.727341
586.848874	8990.295467
587.201679	8980.190474
587.554428	8869.698464
587.907124	8911.721522
588.259765	8887.776042
588.612352	8890.561279
588.964884	8765.291127
589.317362	8779.073641
589.669786	8781.664794
590.022155	8832.255294
590.374470	8842.793826
590.726731	8782.100854
591.078937	8638.720356
591.431090	8748.972912
591.783188	8621.202347
592.135232	8618.888457
592.487222	8609.264894
592.839157	8666.035848
593.191038	8600.931867
593.542866	8543.981952
593.894639	8444.963608
594.246358	8499.846650
594.598022	8517.382304
594.949633	8416.314731
595.301190	8388.180051
595.652692	8419.823374
596.004141	8525.226339
596.355535	8310.163154
596.706876	8289.587685
597.058162	8217.847025
597.409395	8300.786608
597.760573	8362.419755
598.111698	8260.228005
598.462768	8256.026203
598.813785	8217.574802
599.164748	8194.965227
599.515657	8178.984770
599.866511	8091.646779
600.217312	8215.364256
600.568060	8076.631702
600.918753	8176.005448
601.269392	8148.027044
601.619978	8064.457316
601.970510	8128.381667
602.320988	8123.030482
602.671412	8175.965118
603.021783	8122.538970
603.372100	8090.575534
603.722363	8091.185514
604.072572	8065.079898
604.422728	8078.023061
604.772830	8009.123091
605.122878	8009.849017
605.472872	8013.254316
605.822813	8036.985548
606.172701	7980.282650
606.522534	8057.853404
606.872314	8059.211995
607.222041	8024.486007
607.571714	8084.866427
607.921333	8042.089716
608.270899	8045.759676
608.620411	8134.052965
608.969870	8037.114097
609.319276	8034.782564
609.668627	8052.502220
610.017926	8086.295594
610.367171	8129.604147
610.716362	8108.403575
611.065500	8095.956966
611.414585	8129.215978
611.763616	8117.507898
612.112594	8099.400074
612.461518	8113.517825
612.810389	8172.748862
613.159207	8116.207281
613.507971	8062.145947
613.856682	8178.520983
614.205340	8133.266545
614.553945	8206.060807
614.902496	8109.943647
615.250994	8164.761154
615.599439	8145.640057
615.947830	8159.838467
616.296169	8131.855022
616.644454	8147.311200
616.992686	8141.138307
617.340864	8203.353707
617.688990	8102.732277
618.037063	8193.873817
618.385082	8147.432188
618.733048	8231.652224
619.080961	8170.016557
619.428821	8190.841563
619.776628	8189.591357
620.124382	8140.813153
620.472083	8128.734548
620.819731	8157.731265
621.167326	8050.780666
621.514868	8055.123620
621.862357	7943.729243
622.209793	7956.347251
622.557176	7901.824652
622.904506	7869.752831
623.251783	7799.700957
623.599007	7755.358968
623.946179	7760.193434
624.293297	7720.786735
624.640363	7635.051831
624.987376	7616.870910
625.334336	7568.490957
625.681243	7518.306270
626.028097	7507.442583
626.374899	7482.133471
626.721647	7474.899415
627.068343	7408.096565
627.414987	7382.157308
627.761577	7332.494380
628.108115	7366.935543
628.454600	7268.501973
628.801032	7318.638769
629.147412	7278.004548
629.493739	7263.722960
629.840014	7204.844803
630.186236	7262.888649
630.532405	7138.901470
630.878521	7191.551281
631.224585	7155.065930
631.570597	7072.975780
631.916556	7108.808302
632.262462	7105.365194
632.608316	7061.590334
632.954117	7047.969137
633.299866	7033.006992
633.645562	7021.354365
633.991206	6941.867972
634.336797	6885.160032
634.682336	6840.669329
635.027823	6811.818805
635.373257	6800.201466
635.718639	6735.157979
636.063968	6749.910916
636.409245	6644.762529
636.754470	6639.481920
637.099642	6596.400219
637.444762	6545.494648
637.789829	6548.894906
638.134845	6492.403736
638.479808	6479.652137
638.824719	6484.877293
639.169577	6410.434574
639.514383	6436.149500
639.859137	6366.468151
640.203839	6371.839501
640.548489	6357.845257
640.893086	6332.931875
641.237632	6301.565816
641.582125	6328.775444
641.926566	6297.605990
642.270955	6310.314738
642.615292	6309.213246
642.959576	6321.465771
643.303809	6311.217105
643.647990	6314.597199
643.992118	6304.840045
644.336195	6255.477067
644.680219	6276.087824
645.024192	6265.405619
645.368112	6357.920875
645.711981	6382.264607
646.055797	6462.260157
646.399562	6418.886069
646.743274	6543.256375
647.086935	6597.622699
647.430544	6591.573314
647.774101	6614.190451
648.117606	6617.835205
648.461059	6610.563341
648.804460	6568.235293
649.147810	6482.512992
649.491108	6446.670388
649.834354	6428.365959
650.177548	6341.416137
650.520690	6259.020998
650.863781	6237.046608
651.206820	6254.972952
651.549807	6178.186096
651.892742	6117.903978
652.235626	6126.237006
652.578458	6111.393328
652.921238	6020.380337
653.263967	6063.494805
653.606644	6001.133211
653.949269	6004.213356
654.291843	5941.541732
654.634365	5989.261294
654.976836	5950.293175
655.319255	5946.373678
655.661622	5925.672179
656.003938	5920.734369
656.346203	5878.343307
656.688416	5911.435961
657.030577	5864.969125
657.372687	5838.319066
657.714746	5824.670142
658.056753	5862.446028
658.398708	5805.617101
658.740612	5798.166275
659.082465	5845.868193
659.424266	5835.589281
659.766016	5839.712945
660.107715	5810.396114
660.449362	5828.377910
660.790958	5818.081353
661.132503	5809.652544
661.473996	5843.458522
661.815438	5830.212890
662.156829	5829.449155
662.498168	5824.528989
662.839456	5798.962778
663.180693	5833.935782
663.521879	5835.274209
663.863013	5822.401622
664.204097	5844.063460
664.545129	5884.130551
664.886110	5881.985540
665.227040	5913.124748
665.567918	5875.295929
665.908746	5902.666874
666.249522	5910.473101
666.590248	5899.821143
666.930922	5921.437610
667.271545	5936.556031
667.612118	5936.228356
667.952639	5911.531743
668.293109	5929.964722
668.633528	5887.596344
668.973896	5893.645729
669.314213	5880.488318
669.654480	5865.569023
669.994695	5860.301017
670.334859	5850.521178
670.674973	5840.388459
671.015035	5849.843143
671.355047	5844.328121
671.695008	5833.930741
672.034918	5804.674405
672.374777	5816.465664
672.714585	5804.780269
673.054342	5804.437471
673.394049	5799.950844
673.733705	5831.531152
674.073310	5817.879707
674.412864	5778.999808
674.752368	5767.684938
675.091820	5767.125370
675.431223	5708.602615
675.770574	5707.269230
676.109875	5657.490357
676.449125	5667.199619
676.788324	5635.160566
677.127473	5574.928859
677.466571	5569.691101
677.805619	5555.228030
678.144616	5548.621598
678.483562	5520.348287
678.822458	5495.470192
679.161303	5492.558926
679.500098	5476.931349
679.838842	5460.653463
680.177535	5464.134380
680.516179	5478.403366
680.854771	5492.387527
681.193314	5575.468263
681.531805	5676.679509
681.870247	5827.896480
682.208638	5928.507828
682.546978	5941.009890
682.885268	5919.663124
683.223508	5836.176575
683.561697	5777.368995
683.899836	5749.289768
684.237925	5705.557758
684.575963	5667.867572
684.913951	5635.730216
685.251889	5691.790367
685.589776	5655.844420
685.927614	5632.793744
686.265401	5702.996852
686.603137	5686.875242
686.940824	5758.809987
687.278460	5785.276045
687.616046	5796.749711
687.953582	5861.878898
688.291068	5846.291650
688.628504	5906.346916
688.965889	5868.339137
689.303224	5811.240508
689.640510	5762.132108
689.977745	5690.295665
690.314930	5595.279997
690.652065	5538.718251
690.989150	5446.613850
691.326185	5369.864803
691.663170	5317.819931
692.000105	5238.305811
692.336990	5161.065252
692.673825	5140.041120
693.010610	5072.061160
693.347345	5001.089276
693.684030	4991.130477
694.020665	4946.302016
694.357251	4860.647771
694.693786	4869.152197
695.030272	4833.743133
695.366707	4804.983350
695.703093	4767.532618
696.039429	4789.018016
696.375716	4771.353813
696.711952	4746.911778
697.048139	4728.745981
697.384276	4712.531109
697.720363	4724.955033
698.056400	4735.695211
698.392388	4685.452551
698.728326	4663.435312
699.064214	4643.159791
699.400053	4637.072598
699.735842	4605.895582
700.071581	4578.801901
700.407270	4555.300041
700.742910	4535.359757
701.078501	4484.912931
701.414042	4480.312878
701.749533	4453.052838
702.084974	4388.110174
702.420366	4444.739976
702.755709	4384.770410
703.091002	4328.339733
703.426246	4379.310840
703.761440	4336.229139
704.096584	4296.880413
704.431679	4321.554340
704.766725	4304.724448
705.101721	4291.451090
705.436668	4323.114578
705.771565	4268.397894
706.106413	4298.291936
706.441212	4328.526256
706.775961	4337.590251
707.110661	4319.810101
707.445311	4347.443186
707.779913	4365.785424
708.114465	4377.697671
708.448967	4403.284047
708.783421	4462.121874
709.117825	4502.632587
709.452180	4509.738093
709.786485	4552.235020
710.120742	4637.180983
710.454949	4621.233292
710.789107	4687.955484
711.123216	4762.816619
711.457275	4754.748252
711.791286	4825.397503
712.125247	4842.182024
712.459159	4738.941714
712.793023	4822.718129
713.126837	4779.714567
713.460602	4773.750882
713.794318	4690.735681
714.127985	4703.898133
714.461602	4619.332778
714.795171	4588.007048
715.128691	4524.178478
715.462162	4466.265703
715.795584	4415.637395
716.128957	4400.302205
716.462281	4349.457127
716.795556	4321.892098
717.128782	4281.641005
717.461960	4214.923854
717.795088	4229.704517
718.128167	4186.963094
718.461198	4127.671563
718.794180	4126.275164
719.127113	4103.035445
719.459997	4081.587856
719.792833	4041.293913
720.125619	4029.820247
720.458357	3995.621059
720.791046	4001.602388
721.123686	3967.942604
721.456278	3933.584620
721.788821	3947.452834
722.121315	3923.721602
722.453761	3894.056932
722.786158	3908.388933
723.118506	3932.914146
723.450805	3883.619223
723.783056	3906.475815
724.115259	3921.014503
724.447412	3923.628341
724.779518	3920.480140
725.111574	3926.227056
725.443582	3955.687559
725.775542	3941.416052
726.107453	3990.315245
726.439315	3991.946058
726.771129	4001.438551
727.102895	4038.324673
727.434612	4089.089093
727.766281	4100.348510
728.097901	4099.756174
728.429473	4104.666258
728.760996	4112.200262
729.092471	4107.943008
729.423897	4089.036160
729.755276	4098.967233
730.086606	4095.529167
730.417887	4133.103407
730.749120	4194.973488
731.080305	4259.071759
731.411442	4285.794916
731.742530	4257.186368
732.073570	4264.458232
732.404562	4314.385820
732.735506	4305.652021
733.066401	4270.205147
733.397249	4206.847926
733.728048	4125.672746
734.058798	4044.968914
734.389501	3978.607165
734.720156	3913.987134
735.050762	3869.723283
735.381320	3865.677757
735.711831	3816.087927
736.042293	3788.845531
736.372707	3808.914365
736.703073	3779.597534
737.033391	3769.936163
737.363661	3792.523053
737.693883	3812.753203
738.024056	3821.665963
738.354182	3817.935509
738.684260	3880.675190
739.014290	3895.849063
739.344272	3894.969381
739.674207	3936.211061
740.004093	3944.571815
740.333931	3934.207202
740.663722	3933.824075
740.993464	3934.918005
741.323159	3910.808687
741.652806	3881.529665
741.982405	3853.793237
742.311956	3822.686797
742.641460	3812.143224
742.970915	3790.846869
743.300323	3750.928493
743.629683	3716.252916
743.958996	3704.373437
744.288260	3681.796629
744.617477	3649.813029
744.946647	3635.619660
745.275768	3611.661576
745.604842	3608.654528
745.933869	3558.910942
746.262847	3551.692010
746.591778	3591.645675
746.920662	3559.253741
747.249498	3529.473125
747.578286	3576.968356
747.907027	3593.140377
748.235720	3589.140222
748.564365	3616.203656
748.892963	3615.331536
749.221514	3598.100872
749.550017	3576.917944
749.878473	3570.422417
750.206881	3542.068447
750.535242	3543.273283
750.863555	3544.523489
751.191821	3537.112993
751.520039	3513.505270
751.848210	3493.935511
752.176334	3527.711241
752.504411	3536.709701
752.832440	3495.750326
753.160421	3478.857419
753.488356	3487.767659
753.816243	3498.878362
754.144082	3457.586271
754.471875	3444.824590
754.799620	3462.448464
755.127318	3454.969912
755.454969	3455.040488
755.782572	3459.466621
756.110129	3434.805297
756.437638	3426.137033
756.765100	3439.307047
757.092515	3449.044036
757.419882	3458.236580
757.747203	3429.018052
758.074477	3431.520985
758.401703	3447.786268
758.728882	3466.383084
759.056014	3478.209631
759.383099	3477.922285
759.710138	3472.916420
760.037129	3487.828153
760.364073	3522.717978
760.690970	3507.677696
761.017820	3480.762976
761.344623	3501.900534
761.671379	3544.831000
761.998088	3595.272785
762.324751	3722.725757
762.651366	3966.558807
762.977935	4434.483748
763.304456	4870.909040
763.630931	4964.873627
763.957359	4604.196713
764.283740	4267.671968
764.610074	4080.624995
764.936362	3883.251219
765.262602	3731.124320
765.588796	3619.881178
765.914943	3533.390101
766.241044	3445.782409
766.567097	3414.963315
766.893104	3368.836757
767.219064	3339.920699
767.544978	3313.192501
767.870845	3255.579674
768.196665	3239.725246
768.522438	3249.479878
768.848165	3241.063672
769.173846	3206.466233
769.499479	3192.686239
769.825066	3174.031449
770.150607	3158.620642
770.476101	3175.589166
770.801548	3168.047600
771.126949	3125.558234
771.452303	3108.660287
771.777611	3112.332767
772.102872	3116.617748
772.428087	3094.731579
772.753256	3082.899991
773.078378	3075.804567
773.403453	3043.962118
773.728482	3031.971734
774.053465	3053.744477
774.378401	3043.473126
774.703291	3009.614217
775.028135	3009.389885
775.352932	3004.237826
775.677683	2994.246259
776.002388	2992.355826
776.327046	2994.195847
776.651658	2977.456696
776.976224	2969.264821
777.300743	2972.652477
777.625216	2959.043882
777.949643	2955.678912
778.274024	2959.618573
778.598359	2947.913014
778.922647	2952.291256
779.246889	2951.214970
779.571086	2937.450099
779.895236	2931.499017
780.219339	2942.350101
780.543397	2956.601443
780.867409	2956.810651
781.191374	2951.071297
781.515294	2947.073662
781.839167	2945.505863
782.162995	2936.172167
782.486776	2947.340843
782.810511	2943.592745
783.134201	2932.303081
783.457844	2940.066458
783.781441	2930.163111
784.104993	2909.796850
784.428498	2913.708785
784.751958	2924.879982
785.075372	2917.950916
785.398739	2901.700757
785.722061	2917.698858
786.045337	2930.074891
786.368568	2914.855648
786.691752	2904.448186
787.014891	2953.256637
787.337983	2983.347284
787.661030	3010.052797
787.984031	3076.606110
788.306987	3121.467338
788.629897	3113.658591
788.952760	3098.542691
789.275579	3082.456369
789.598351	3024.354550
789.921078	2980.408292
790.243759	2975.195739
790.566395	2956.193109
790.888984	2932.514810
791.211529	2913.512180
791.534027	2906.404153
791.856480	2896.440313
792.178888	2878.108157
792.501249	2871.965511
792.823566	2870.122969
793.145836	2869.213041
793.468062	2864.804552
793.790241	2862.329345
794.112375	2867.219264
794.434464	2879.222252
794.756507	2886.496637
795.078505	2887.998901
795.400457	2904.715367
795.722364	2941.125100
796.044226	2966.298102
796.366042	2964.826085
796.687812	2954.010290
797.009538	2975.067189
797.331218	2962.484469
797.652852	2949.069959
797.974442	2929.981630
798.295986	2928.355858
798.617484	2925.076587
798.938938	2905.584966
799.260346	2892.004097
799.581709	2886.244579
799.903026	2877.604041
800.224299	2876.242930
800.545526	2863.478728
800.866708	2849.350895
801.187845	2837.678103
801.508936	2840.060048
801.829983	2847.944413
802.150984	2836.092660
802.471940	2821.705207
802.792851	2822.902481
803.113717	2819.517346
803.434538	2828.288954
803.755314	2818.972902
804.076045	2814.075421
804.396731	2815.688590
804.717372	2814.093065
805.037967	2805.923875
805.358518	2815.807057
805.679024	2826.436330
805.999485	2823.058757
806.319901	2827.371464
806.640272	2817.067345
806.960598	2823.507419
807.280879	2832.062257
807.601115	2843.175481
807.921306	2826.809375
808.241453	2821.745536
808.561554	2830.035714
808.881611	2833.269614
809.201623	2827.172338
809.521590	2824.916422
809.841513	2821.495999
810.161390	2828.198213
810.481223	2820.636482
810.801011	2812.179947
811.120755	2806.412867
811.440453	2808.751962
811.760107	2808.880512
812.079716	2807.085861
812.399281	2795.947431
812.718801	2791.284364
813.038276	2787.148097
813.357707	2792.305198
813.677093	2802.269038
813.996434	2793.530198
814.315731	2792.947945
814.634983	2785.570216
814.954191	2787.707665
815.273354	2800.111424
815.592473	2808.928402
815.911547	2810.904535
816.230577	2819.146821
816.549562	2825.372646
816.868502	2825.155877
817.187399	2834.507217
817.506250	2852.259640
817.825058	2847.057170
818.143821	2856.486648
818.462539	2871.726056
818.781213	2894.723800
819.099843	2932.517330
819.418429	2989.661330
819.736970	3050.036709
820.055466	3121.805095
820.373919	3225.257134
820.692327	3363.785521
821.010691	3526.791231
821.329011	3961.336172
821.647286	4842.660934
821.965517	6193.929620
822.283704	6913.715648
822.601847	6889.873511
822.919945	6270.799654
823.237999	5775.100476
823.556010	5206.528898
823.873976	4666.636445
824.191897	4269.857308
824.509775	3980.699244
824.827609	3715.746280
825.145398	3596.202878
825.463144	3588.527721
825.780845	3676.667255
826.098502	3778.410343
826.416116	4057.975091
826.733685	4362.165876
827.051210	4419.798867
827.368692	4307.189573
827.686129	4046.027556
828.003522	3730.005183
828.320872	3480.412615
828.638177	3288.810961
828.955439	3156.286588
829.272656	3074.602251
829.589830	3008.742097
829.906960	2962.809624
830.224046	2917.164496
830.541088	2883.492109
830.858086	2870.682537
831.175041	2852.491533
831.491952	2851.006914
831.808819	2864.602906
832.125642	2887.164590
832.442421	2933.265942
832.759157	3011.983559
833.075849	3184.012934
833.392497	3458.997794
833.709101	3660.308711
834.025662	3611.248202
834.342179	3456.537711
834.658653	3279.434414
834.975083	3135.736324
835.291469	3038.623536
835.607811	2958.562452
835.924110	2901.269738
836.240366	2851.747963
836.556578	2810.531489
836.872746	2786.490227
837.188871	2765.125817
837.504952	2749.392376
837.820990	2741.152610
838.136984	2730.752709
838.452935	2719.687377
838.768842	2718.880792
839.084706	2735.259501
839.400526	2815.718837
839.716303	2943.083589
840.032037	3021.924714
840.347727	3003.837054
840.663373	2948.144907
840.978977	2873.929040
841.294537	2800.456743
841.610054	2758.448808
841.925527	2738.853843
842.240957	2714.734443
842.556344	2693.566638
842.871687	2679.723629
843.186987	2669.689213
843.502244	2666.188131
843.817458	2660.557162
844.132629	2647.377066
844.447756	2642.381282
844.762840	2633.002216
845.077881	2637.251908
845.392879	2637.569501
845.707833	2631.200003
846.022745	2620.326234
846.337613	2626.680609
846.652438	2622.844291
846.967221	2627.812348
847.281960	2623.025772
847.596656	2623.154322
847.911309	2621.256327
848.225919	2620.301028
848.540485	2616.280708
848.855009	2619.411265
849.169490	2616.946141
849.483928	2615.166613
849.798323	2613.135028
850.112675	2612.439349
850.426984	2611.252157
850.741251	2612.008330
851.055474	2610.117898
851.369654	2615.307766
851.683792	2616.217694
851.997887	2611.536982
852.311938	2610.463217
852.625947	2613.346757
852.939914	2614.758280
853.253837	2617.336830
853.567718	2612.998917
853.881555	2612.225100
854.195350	2614.271808
854.509103	2614.228959
854.822812	2609.041611
855.136479	2610.659822
855.450103	2613.704679
855.763685	2613.747528
856.077224	2613.664349
856.390720	2609.588577
856.704173	2614.947323
857.017584	2619.973353
857.330953	2616.452107
857.644278	2620.847994
857.957561	2620.757253
858.270802	2612.666201
858.584000	2615.769031
858.897155	2618.599639
859.210268	2618.622324
859.523339	2614.118053
859.836367	2610.566560
860.149352	2610.317023
860.462295	2613.888681
860.775195	2607.105808
861.088054	2607.849378
861.400869	2606.629419
861.713642	2604.484408
862.026373	2605.427104
862.339062	2607.627568
862.651708	2614.405399
862.964312	2615.350615
863.276873	2615.645523
863.589392	2614.337343
863.901869	2619.270113
864.214303	2623.958386
864.526696	2627.214971
864.839045	2627.492234
865.151353	2632.193110
865.463619	2632.120014
865.775842	2631.008439
866.088023	2633.198821
866.400162	2634.126393
866.712258	2632.861063
867.024313	2632.422483
867.336325	2627.663634
867.648296	2629.382667
867.960224	2634.549850
868.272110	2632.349386
868.583954	2626.017697
868.895755	2630.038017
869.207515	2633.584469
869.519233	2637.072947
869.830909	2636.001702
870.142542	2628.379477
870.454134	2633.274438
870.765684	2637.584624
871.077191	2638.383647
871.388657	2642.353556
871.700081	2641.383134
872.011463	2638.088740
872.322803	2640.480767
872.634101	2646.371356
872.945357	2652.476193
873.256571	2657.761843
873.567744	2652.904691
873.878874	2655.009373
874.189963	2654.016265
874.501010	2656.829229
874.812015	2665.726866
875.122979	2664.706032
875.433900	2655.657161
875.744780	2655.558858
876.055618	2662.384581
876.366415	2666.326763
876.677169	2667.229130
876.987882	2660.179076
877.298554	2657.361071
877.609183	2667.803821
877.919771	2675.206756
878.230317	2681.596418
878.540822	2689.871472
878.851285	2703.275900
879.161707	2727.135681
879.472087	2766.607916
879.782425	2809.137610
880.092722	2918.424785
880.402977	3103.939246
880.713191	3352.208511
881.023363	3630.981798
881.333494	3816.957526
881.643583	3983.091271
881.953631	3983.723936
882.263637	3811.452586
882.573602	3595.905450
882.883526	3469.309474
883.193408	3361.882486
883.503248	3264.928494
883.813048	3155.598470
884.122806	3042.565719
884.432522	2962.055971
884.742197	2899.530540
885.051831	2862.112576
885.361424	2830.126454
885.670975	2795.828964
885.980485	2766.406270
886.289954	2748.351377
886.599382	2737.333936
886.908768	2725.562841
887.218113	2706.270346
887.527417	2695.547811
887.836680	2686.017510
888.145901	2680.812519
888.455082	2672.403874
888.764221	2662.649241
889.073319	2655.301760
889.382376	2653.562562
889.691392	2655.619352
890.000366	2655.170690
890.309300	2652.423261
890.618193	2655.694970
890.927044	2657.625732
891.235855	2658.039106
891.544625	2658.470125
891.853353	2658.074394
892.162041	2666.944304
892.470687	2685.019362
892.779293	2695.026052
893.087858	2704.001826
893.396381	2724.126112
893.704864	2765.914757
894.013306	2831.467401
894.321707	2922.114909
894.630068	2970.290696
894.938387	2990.447750
895.246665	2979.513487
895.554903	2939.544699
895.863100	2897.526681
896.171256	2843.505677
896.479371	2781.544855
896.787446	2747.595204
897.095480	2729.179869
897.403473	2723.236349
897.711425	2709.252188
898.019336	2689.843746
898.327207	2676.456962
898.635038	2674.548885
898.942827	2673.694409
899.250576	2665.038748
899.558284	2657.106493
899.865952	2649.827067
900.173579	2644.924544
900.481165	2646.857827
900.788711	2639.553195
901.096216	2630.658079
901.403681	2627.845115
901.711105	2630.032976
902.018489	2627.146915
902.325832	2632.399798
902.633135	2629.634725
902.940397	2646.875471
903.247619	2684.732016
903.554800	2751.938158
903.861941	2871.277393
904.169041	2989.255517
904.476101	3046.611245
904.783121	3040.521531
905.090100	2989.391628
905.397039	2916.539393
905.703938	2844.564319
906.010796	2786.235648
906.317614	2739.741087
906.624391	2701.778677
906.931129	2676.136848
907.237826	2654.575833
907.544483	2637.425828
907.851099	2626.002573
908.157675	2615.312807
908.464211	2607.105808
908.770707	2599.730600
909.077163	2596.116093
909.383578	2590.553180
909.689954	2591.170721
909.996289	2590.674167
910.302584	2589.907912
910.608839	2584.367684
910.915054	2587.939341
911.221229	2587.077304
911.527363	2590.626276
911.833458	2587.891450
912.139513	2589.202150
912.445527	2588.912284
912.751502	2595.611977
913.057436	2603.725715
913.363331	2607.002465
913.669186	2615.148969
913.975000	2629.848974
914.280775	2645.902528
914.586510	2663.579334
914.892205	2697.791125
915.197859	2761.319746
915.503475	2842.179853
915.809050	2902.787125
916.114585	2919.148190
916.420081	2927.892072
916.725536	2937.669389
917.030952	2916.499064
917.336328	2870.879142
917.641665	2824.051864
917.946961	2772.571601
918.252218	2745.344329
918.557435	2717.582695
918.862612	2695.250383
919.167750	2681.460307
919.472848	2668.088646
919.777906	2651.354536
920.082925	2637.947587
920.387904	2630.637914
920.692843	2626.909981
920.997743	2622.728344
921.302603	2614.342385
921.607423	2608.426591
921.912204	2605.303596
922.216946	2599.397884
922.521647	2597.562904
922.826310	2593.169538
923.130932	2589.113930
923.435516	2585.822057
923.740059	2581.910121
924.044564	2583.432550
924.349028	2580.475913
924.653454	2573.622464
924.957840	2570.086095
925.262186	2571.527865
925.566493	2571.840417
925.870761	2563.051165
926.174989	2567.449572
926.479178	2563.439334
926.783328	2562.415979
927.087438	2561.984961
927.391509	2561.758109
927.695541	2562.136195
927.999533	2561.967317
928.303486	2556.437171
928.607400	2557.142932
928.911275	2558.292316
929.215110	2557.034548
929.518906	2559.121585
929.822663	2557.195865
930.126381	2556.283416
930.430060	2557.223591
930.733699	2555.638148
931.037299	2559.325752
931.340861	2558.768705
931.644383	2559.108982
931.947866	2561.702656
932.251309	2561.826164
932.554714	2558.080587
932.858080	2558.249466
933.161407	2559.078736
933.464694	2557.175700
933.767943	2556.842984
934.071153	2557.541184
934.374323	2553.311656
934.677455	2556.825340
934.980548	2552.096738
935.283602	2558.383056
935.586617	2552.915925
935.889593	2553.528425
936.192530	2555.756615
936.495428	2556.331307
936.798287	2555.199568
937.101108	2556.527912
937.403890	2559.096380
937.706632	2563.217523
938.009336	2564.024107
938.312002	2570.164233
938.614628	2571.157340
938.917216	2575.311251
939.219765	2574.940726
939.522275	2575.943916
939.824747	2578.257805
940.127179	2568.803121
940.429573	2568.578790
940.731929	2567.101732
941.034246	2565.763306
941.336524	2570.139027
941.638763	2566.038048
941.940964	2568.392267
942.243126	2562.567214
942.545250	2563.613253
942.847335	2562.831875
943.149381	2558.715772
943.451389	2563.207441
943.753359	2558.965310
944.055290	2558.746019
944.357182	2559.638304
944.659036	2557.417675
944.960851	2557.233673
945.262628	2559.061092
945.564367	2558.506565
945.866067	2559.023283
946.167729	2559.068653
946.469352	2557.536142
946.770937	2559.940773
947.072484	2556.177552
947.373992	2555.940617
947.675462	2557.503375
947.976893	2554.914743
948.278286	2556.631255
948.579641	2554.637479
948.880958	2554.700493
949.182236	2555.744012
949.483476	2554.478683
949.784678	2556.122099
950.085841	2553.190668
950.386967	2553.747715
950.688054	2553.258723
950.989103	2556.217881
951.290114	2557.276523
951.591087	2557.463046
951.892021	2560.041596
952.192917	2559.419013
952.493776	2559.111503
952.794596	2562.370609
953.095378	2562.355486
953.396122	2564.349262
953.696828	2561.130485
953.997496	2560.313818
954.298126	2555.998591
954.598718	2557.112686
954.899272	2557.594116
955.199788	2557.168138
955.500266	2554.173693
955.800706	2551.635472
956.101108	2545.155069
956.401472	2547.577343
956.701798	2544.449307
957.002087	2547.622713
957.302337	2546.306972
957.602550	2547.836963
957.902724	2544.159441
958.202861	2542.551313
958.502960	2545.543237
958.803022	2546.448125
959.103045	2545.107178
959.403031	2543.912424
959.702979	2540.295396
960.002889	2543.378062
960.302762	2543.967877
960.602596	2542.813453
960.902393	2541.979142
961.202153	2541.064172
961.501875	2541.016281
961.801559	2540.625592
962.101205	2540.943185
962.400814	2542.001827
962.700385	2542.263967
962.999918	2540.945705
963.299414	2541.157434
963.598873	2542.523586
963.898293	2541.225489
964.197677	2541.774975
964.497022	2543.206663
964.796331	2542.198432
965.095601	2541.870757
965.394835	2541.447300
965.694030	2538.629295
965.993189	2541.076775
966.292309	2539.660211
966.591393	2539.163657
966.890439	2540.297917
967.189447	2540.280273
967.488419	2539.776157
967.787353	2542.168185
968.086249	2539.327495
968.385108	2538.631816
968.683930	2543.025181
968.982714	2539.297248
969.281462	2541.129707
969.580172	2540.083668
969.878844	2542.725232
970.177480	2540.174409
970.476078	2538.556198
970.774639	2543.400747
971.073162	2539.539223
971.371649	2537.883204
971.670098	2534.757689
971.968510	2538.286497
972.266885	2536.829603
972.565223	2542.221117
972.863524	2539.882022
973.161788	2543.352856
973.460014	2541.616179
973.758204	2542.208514
974.056356	2542.085006
974.354471	2543.297403
974.652550	2541.104502
974.950591	2540.484440
975.248595	2541.412012
975.546563	2540.802032
975.844493	2540.542413
976.142386	2541.807742
976.440243	2539.350180
976.738062	2542.266488
977.035845	2537.121990
977.333590	2539.682896
977.631299	2539.924872
977.928971	2541.207845
978.226606	2538.662063
978.524204	2541.585932
978.821765	2540.242464
979.119290	2539.539223
979.416777	2537.512679
979.714228	2541.825387
980.011642	2540.665921
980.309020	2542.216076
980.606360	2538.490663
980.903664	2540.628112
981.200931	2540.504604
981.498162	2539.408153
981.795356	2543.564585
982.092513	2547.204298
982.389633	2546.496016
982.686717	2553.120092
982.983764	2552.618497
983.280775	2555.229815
983.577749	2553.740154
983.874686	2552.931048
984.171587	2551.648075
984.468451	2549.389638
984.765279	2546.496016
985.062070	2546.122970
985.358824	2545.402085
985.655543	2542.384955
985.952224	2542.289173
986.248869	2539.713143
986.545478	2536.055786
986.842050	2539.082999
987.138586	2534.750127
987.435086	2535.097967
987.731549	2534.150230
988.027975	2541.044008
988.324366	2536.186856
988.620719	2535.791125
988.917037	2538.246167
989.213318	2538.319264
989.509563	2537.076620
989.805772	2535.324819
990.101944	2538.281455
990.398080	2537.132072
990.694180	2537.311033
990.990244	2535.680220
991.286271	2535.430683
991.582262	2538.533513
991.878217	2538.755324
992.174136	2536.217103
992.470019	2537.774819
992.765865	2537.195087
993.061676	2536.559901
993.357450	2536.814480
993.653188	2533.983872
993.948890	2538.725077
994.244556	2536.222144
994.540186	2537.356404
994.835780	2536.053265
995.131337	2540.522248
995.426859	2538.956970
995.722345	2539.415715
996.017795	2541.109543
996.313208	2540.870088
996.608586	2539.992927
996.903928	2541.170037
997.199234	2542.657177
997.494504	2540.469316
997.789738	2540.008051
998.084936	2539.761034
998.380099	2535.539068
998.675225	2537.439583
998.970316	2540.053421
999.265371	2535.234078
999.560390	2535.287010
999.855373	2538.556198
1000.150320	2538.745242
1000.445232	2539.801363
1000.740108	2536.373379
1001.034948	2539.138452
1001.329752	2534.843388
1001.624521	2536.658204
1001.919254	2530.344159
1002.213951	2532.877338
1002.508613	2531.468336
1002.803239	2536.333049
1003.097829	2531.856505
1003.392384	2537.505118
1003.686903	2534.185518
1003.981386	2535.077802
1004.275834	2536.373379
1004.570246	2535.954963
1004.864623	2533.124355
1005.158964	2535.844058
1005.453270	2535.685261
1005.747540	2536.116280
1006.041775	2535.589479
1006.335974	2535.856660
1006.630138	2532.688295
1006.924266	2534.855991
1007.218359	2535.776002
1007.512416	2536.098636
1007.806438	2535.108049
1008.100425	2538.485622
1008.394376	2534.432534
1008.688292	2538.452855
1008.982172	2534.351876
1009.276017	2533.845240
1009.569827	2537.946219
1009.863602	2538.415046
1010.157341	2535.539068
1010.451045	2534.803059
1010.744714	2533.585621
1011.038347	2535.811290
1011.331945	2534.830786
1011.625508	2534.813142
1011.919036	2532.476567
1012.212528	2534.881197
1012.505986	2534.619057
1012.799408	2534.324150
1013.092795	2536.224665
1013.386147	2534.548481
1013.679464	2534.939170
1013.972745	2533.394057
1014.265992	2535.443286
1014.559204	2536.287679
1014.852380	2534.246012
1015.145521	2534.800539
1015.438628	2534.792977
1015.731699	2533.343645
1016.024736	2532.587472
1016.317737	2535.821372
1016.610703	2536.254912
1016.903635	2532.335414
1017.196531	2528.859539
1017.489393	2532.887421
1017.782219	2529.512368
1018.075011	2533.757020
1018.367768	2534.740045
1018.660490	2534.747607
1018.953177	2534.747607
1019.245829	2534.747607
