Dividing Wavelength (nm)	Counts (n)	Blue Motor Position (mm): 26.200000	Red Motor Position (mm): 0.000000	
326.493990	2132.546709
326.888308	2132.546709
327.282561	2132.546709
327.676750	2099.391040
328.070874	2097.697212
328.464933	2102.776175
328.858929	2105.417739
329.252859	2118.431478
329.646726	2129.214506
330.040528	2140.620117
330.434265	2157.371871
330.827938	2176.492967
331.221547	2193.489218
331.615091	2213.492516
332.008571	2231.933057
332.401986	2251.820409
332.795338	2270.548295
333.188625	2287.421037
333.581847	2307.860395
333.975006	2327.967038
334.368100	2344.252485
334.761129	2362.866946
335.154095	2381.627600
335.546996	2400.181566
335.939833	2423.741399
336.332606	2440.462906
336.725315	2449.660491
337.117960	2462.482666
337.510540	2470.122535
337.903056	2482.773310
338.295508	2486.440750
338.687896	2497.095228
339.080220	2506.917917
339.472480	2510.708864
339.864676	2514.162055
340.256807	2521.633045
340.648875	2522.797551
341.040879	2524.720752
341.432818	2526.510361
341.824694	2526.596061
342.216506	2529.169570
342.608253	2529.625794
342.999937	2528.927594
343.391557	2526.654034
343.783113	2527.077491
344.174605	2525.388704
344.566033	2525.585309
344.957397	2523.228570
345.348697	2521.302849
345.739934	2518.994001
346.131106	2520.438291
346.522215	2518.250431
346.913260	2517.453928
347.304241	2513.269771
347.695159	2511.197856
348.086012	2510.958402
348.476802	2508.374810
348.867528	2508.140397
349.258191	2504.470437
349.648789	2504.553616
350.039324	2503.379027
350.429796	2501.458347
350.820203	2502.890035
351.210548	2498.526916
351.600828	2497.228819
351.991045	2498.042965
352.381198	2497.864004
352.771288	2496.691936
353.161314	2495.093890
353.551276	2495.862666
353.941175	2494.546925
354.331010	2494.294868
354.720782	2494.143633
355.110490	2495.293016
355.500135	2498.302585
355.889717	2495.673623
356.279235	2495.230002
356.668689	2500.470281
357.058080	2496.344097
357.447408	2493.301760
357.836672	2493.203458
358.225873	2497.745537
358.615010	2492.550628
359.004084	2499.351145
359.393095	2498.536998
359.782043	2500.016577
360.170927	2498.758809
360.559748	2501.337359
360.948505	2502.174191
361.337199	2501.196207
361.725830	2503.920951
362.114398	2503.507576
362.502903	2501.362565
362.891344	2504.654439
363.279722	2505.887001
363.668037	2504.687206
364.056289	2503.552947
364.444478	2503.621002
364.832603	2503.741990
365.220665	2508.770541
365.608665	2505.418173
365.996601	2505.904645
366.384474	2508.848679
366.772284	2507.182577
367.160031	2509.824142
367.547715	2509.574605
367.935336	2508.931858
368.322893	2505.927330
368.710388	2510.250119
369.097820	2509.378000
369.485189	2509.990500
369.872495	2511.011334
370.259738	2510.114008
370.646918	2512.160717
371.034035	2511.931344
371.421090	2511.923783
371.808081	2510.907990
372.195010	2510.829852
372.581875	2513.310100
372.968678	2512.100223
373.355418	2512.125429
373.742096	2514.824967
374.128710	2512.745491
374.515262	2512.843793
374.901751	2511.878412
375.288177	2514.008300
375.674540	2513.909997
376.060841	2511.815398
376.447079	2516.412930
376.833254	2512.611900
377.219367	2512.939575
377.605417	2512.725326
377.991404	2511.160048
378.377329	2512.112826
378.763191	2511.442352
379.148991	2514.782117
379.534727	2517.322858
379.920402	2517.370749
380.306013	2516.087776
380.691563	2518.270595
381.077049	2515.949144
381.462474	2518.058867
381.847835	2515.354288
382.233134	2517.539628
382.618371	2519.155318
383.003545	2517.988291
383.388657	2517.252282
383.773706	2517.892509
384.158693	2518.084072
384.543618	2518.099196
384.928480	2516.932169
385.313280	2520.609691
385.698017	2518.565503
386.082692	2520.745802
386.467305	2521.479290
386.851856	2522.109434
387.236344	2518.628517
387.620770	2521.703621
388.005133	2520.014834
388.389435	2521.564989
388.773674	2520.445853
389.157851	2520.501306
389.541965	2521.368384
389.926018	2521.423837
390.310008	2524.551873
390.693936	2522.651358
391.077802	2521.738909
391.461606	2522.565658
391.845348	2522.830319
392.229027	2522.096831
392.612645	2523.697397
392.996200	2525.567665
393.379694	2520.907119
393.763125	2526.454908
394.146494	2521.789321
394.529801	2523.694877
394.913047	2524.718231
395.296230	2523.712521
395.679351	2524.216636
396.062410	2522.021214
396.445408	2523.089938
396.828343	2525.000536
397.211217	2523.165556
397.594028	2525.444157
397.976778	2520.647499
398.359466	2526.777542
398.742092	2518.880575
399.124656	2527.848788
399.507158	2529.275434
399.889598	2529.046062
400.271977	2524.839219
400.654294	2527.483304
401.036549	2527.889117
401.418742	2527.523633
401.800874	2529.711494
402.182944	2528.531864
402.564952	2529.129241
402.946898	2526.016328
403.328783	2528.070598
403.710606	2530.187883
404.092367	2529.048582
404.474067	2532.519417
404.855705	2528.020187
405.237282	2529.502286
405.618797	2528.390712
406.000250	2528.410876
406.381642	2531.135620
406.762972	2530.051772
407.144240	2529.439272
407.525447	2532.431196
407.906593	2530.550846
408.287677	2532.138809
408.668700	2531.405322
409.049661	2531.841381
409.430560	2530.323994
409.811399	2532.723583
410.192176	2533.915816
410.572891	2534.664428
410.953545	2536.494366
411.334138	2533.184849
411.714669	2531.639735
412.095139	2536.753986
412.475547	2531.886752
412.855894	2532.461443
413.236180	2535.448327
413.616405	2532.342976
413.996568	2534.530837
414.376670	2536.368337
414.756711	2535.271887
415.136691	2535.526465
415.516609	2535.665097
415.896466	2532.615198
416.276262	2535.407998
416.655997	2531.972451
417.035670	2533.252904
417.415283	2534.460261
417.794834	2534.848430
418.174324	2534.130065
418.553753	2538.984696
418.933121	2535.493697
419.312428	2539.813966
419.691674	2537.525282
420.070859	2539.173740
420.449983	2537.149716
420.829045	2539.423277
421.208047	2537.338760
421.586988	2539.677855
421.965867	2538.959491
422.344686	2540.325643
422.723444	2538.631816
423.102141	2539.496373
423.480777	2540.451672
423.859352	2537.129552
424.237866	2538.523431
424.616319	2540.895294
424.994712	2539.549306
425.373044	2539.816487
425.751314	2541.351518
426.129524	2538.571322
426.507673	2539.340098
426.885762	2539.685417
427.263789	2541.114584
427.641756	2540.073586
428.019662	2544.313196
428.397508	2539.849254
428.775292	2542.558874
429.153016	2542.553833
429.530679	2545.727240
429.908282	2541.656508
430.285824	2541.679193
430.663305	2543.839328
431.040726	2540.739018
431.418086	2543.728422
431.795385	2544.305634
432.172624	2546.780841
432.549802	2543.211704
432.926920	2544.396375
433.303977	2546.508618
433.680974	2545.487785
434.057910	2547.504246
434.434786	2546.276725
434.811601	2547.065666
435.188355	2549.046839
435.565050	2545.855789
435.941683	2549.510626
436.318257	2548.903167
436.694770	2546.024668
437.071222	2544.527445
437.447614	2546.196067
437.823946	2549.160265
438.200218	2547.189174
438.576429	2552.832746
438.952580	2553.790565
439.328670	2551.827036
439.704700	2552.520194
440.080670	2551.708569
440.456580	2555.968344
440.832429	2556.487582
441.208218	2554.821481
441.583947	2556.711914
441.959616	2560.092007
442.335224	2562.300033
442.710773	2561.243911
443.086261	2563.013356
443.461689	2565.342369
443.837057	2568.132648
444.212365	2570.892680
444.587612	2573.945098
444.962800	2578.088927
445.337927	2582.620924
445.712995	2581.186716
446.088002	2590.669126
446.462949	2593.971082
446.837837	2598.646752
447.212664	2607.398195
447.587431	2617.084772
447.962139	2632.682102
448.336786	2659.501041
448.711374	2658.918787
449.085901	2651.767911
449.460369	2656.872079
449.834776	2665.779798
450.209124	2685.715041
450.583412	2705.907382
450.957640	2721.673591
451.331808	2720.486399
451.705917	2718.656461
452.079965	2727.791031
452.453954	2751.159300
452.827883	2760.487955
453.201752	2775.760131
453.575562	2781.857406
453.949311	2810.304637
454.323001	2818.577171
454.696632	2839.608865
455.070202	2873.883670
455.443713	2901.342835
455.817164	2926.596495
456.190556	2957.581947
456.563888	2989.225270
456.937160	3015.892974
457.310373	3008.429545
457.683526	3033.360572
458.056619	3048.536965
458.429653	3076.338929
458.802628	3093.534305
459.175542	3137.168012
459.548398	3214.826987
459.921194	3273.352262
460.293930	3313.915907
460.666607	3446.790640
461.039224	3543.608520
461.411782	3607.744600
461.784280	3650.967453
462.156719	3669.576872
462.529099	3687.803164
462.901419	3652.799912
463.273680	3669.672654
463.645882	3709.311247
464.018024	3742.106473
464.390106	3821.769307
464.762130	3963.768528
465.134094	4159.009896
465.505999	4517.415770
465.877845	4942.916881
466.249631	5191.503739
466.621358	5146.307274
466.993026	5036.372312
467.364634	5019.555023
467.736184	4982.366431
468.107674	4947.085915
468.479105	5047.057037
468.850477	5022.642729
469.221790	5019.582749
469.593043	4969.055264
469.964238	4995.919573
470.335373	5060.491712
470.706449	5159.268081
471.077467	5221.831321
471.448425	5864.192788
471.819324	6424.892604
472.190164	6510.844277
472.560945	6028.514238
472.931667	5746.875055
473.302330	5746.189458
473.672934	5642.157687
474.043479	5889.827055
474.413965	5927.297952
474.784393	5943.780004
475.154761	6096.088385
475.525070	6221.091357
475.895321	6188.956521
476.265513	6366.072421
476.635645	6527.676689
477.005719	6608.652744
477.375734	6744.005204
477.745691	6961.268852
478.115588	7123.498224
478.485427	7356.893565
478.855207	7780.224459
479.224928	8395.605671
479.594591	8876.030153
479.964194	8858.807051
480.333739	8908.071727
480.703226	8966.120613
481.072653	9107.154454
481.442022	9352.300724
481.811333	9561.785872
482.180584	9509.027677
482.549777	9384.158296
482.918912	9320.044902
483.287988	9412.310620
483.657005	9489.765428
484.025964	9318.512391
484.394864	9497.281788
484.763706	9547.156444
485.132489	9414.742977
485.501213	9445.375548
485.869879	9567.588241
486.238487	9506.938119
486.607036	9643.439962
486.975527	9531.259165
487.343959	9738.997554
487.712333	9832.533643
488.080648	9822.761366
488.448905	9908.899562
488.817104	9913.570191
489.185244	10180.826962
489.553326	10369.746723
489.921350	10884.322502
490.289315	11845.640293
490.657222	12192.396061
491.025070	12155.116728
491.392861	12097.193870
491.760593	11810.848770
492.128267	11558.453320
492.495883	11304.432099
492.863440	11026.634275
493.230939	10748.738148
493.598380	10714.148271
493.965763	10621.317944
494.333088	10550.683817
494.700354	10507.178659
495.067563	10585.089692
495.434713	10448.824783
495.801805	10590.753428
496.168839	10533.256548
496.535815	10494.416978
496.902733	10513.401963
497.269593	10468.381939
497.636395	10570.971940
498.003139	10575.627446
498.369825	10470.232042
498.736453	10631.990067
499.103023	10574.878835
499.469535	10612.712694
499.835989	10611.046593
500.202385	10591.512122
500.568723	10455.927768
500.935003	10681.864722
501.301226	10500.970478
501.667390	10761.986301
502.033497	10861.032371
502.399546	10729.962371
502.765537	10642.929370
503.131470	10723.429036
503.497345	10902.465614
503.863163	10517.850782
504.228923	10834.362147
504.594625	10900.456715
504.960269	10656.787502
505.325856	10876.969979
505.691385	10672.939359
506.056856	10832.156642
506.422270	10860.248472
506.787625	10753.769220
507.152924	10868.921777
507.518164	10854.050373
507.883347	10776.643456
508.248472	10704.408762
508.613540	10940.473394
508.978550	10832.920377
509.343503	10796.253544
509.708398	10923.499829
510.073236	11024.141424
510.438016	11032.139215
510.802738	10989.861578
511.167403	11037.208095
511.532010	10940.468353
511.896561	11179.406442
512.261053	11247.537636
512.625488	11113.392533
512.989866	11108.684095
513.354186	11087.735580
513.718449	10994.494398
514.082655	11180.812924
514.446803	11081.872718
514.810894	11207.210926
515.174927	11076.982799
515.538904	11102.049936
515.902822	11250.320353
516.266684	11128.584050
516.630488	11081.063613
516.994235	11133.174020
517.357925	11203.727489
517.721558	11286.760334
518.085133	11295.335337
518.448651	11311.386370
518.812112	11194.144255
519.175516	11208.708149
519.538863	11329.809267
519.902152	11242.950186
520.265385	11420.121538
520.628560	11321.198976
520.991678	11293.510439
521.354739	11360.252795
521.717743	11295.680656
522.080690	11282.233378
522.443580	11412.461505
522.806413	11365.674556
523.169189	11402.482541
523.531908	11458.071344
523.894569	11275.994950
524.257174	11287.723194
524.619722	11397.171685
524.982213	11348.403563
525.344647	11401.784341
525.707025	11354.576456
526.069345	11448.145312
526.431608	11355.718277
526.793815	11471.856380
527.155964	11258.953329
527.518057	11318.562453
527.880093	11260.533731
528.242072	11333.580050
528.603995	11240.996739
528.965860	11159.080510
529.327669	11205.113806
529.689421	11156.925417
530.051117	11129.194029
530.412755	11236.920966
530.774337	11127.850562
531.135862	11104.762077
531.497331	11127.114553
531.858743	10975.320370
532.220098	11146.628860
532.581396	11016.350321
532.942638	11004.180976
533.303824	10965.754780
533.664953	10976.928498
534.026025	10894.782896
534.387040	10990.088430
534.747999	10997.768628
535.108902	11046.456092
535.469748	10814.709208
535.830537	10911.509444
536.191270	10894.697196
536.551947	10909.603888
536.912567	10912.802500
537.273131	10845.369506
537.633638	10821.275311
537.994089	10817.890176
538.354483	10754.411967
538.714821	10905.737323
539.075103	10909.467777
539.435328	10877.403518
539.795497	10704.441530
540.155609	10856.548265
540.515665	10944.390370
540.875665	10683.561070
541.235609	10751.074723
541.595496	10748.990206
541.955328	10897.542928
542.315102	10785.452872
542.674821	10747.921482
543.034483	10740.057282
543.394090	10748.786039
543.753640	10672.253762
544.113134	10895.445808
544.472571	10747.689588
544.831953	10896.950592
545.191278	10692.816629
545.550548	10726.090765
545.909761	10860.931548
546.268918	10837.548156
546.628019	10921.374983
546.987064	10781.903900
547.346053	10706.163084
547.704986	10807.389453
548.063863	10794.393358
548.422684	10782.710484
548.781449	10701.240397
549.140158	10806.421551
549.498811	10680.743065
549.857408	10541.753413
550.215949	10764.932855
550.574434	10620.052614
550.932864	10714.528878
551.291237	10771.304874
551.649555	10723.421474
552.007817	10737.849256
552.366022	10701.358864
552.724173	10691.342091
553.082267	10668.946765
553.440305	10809.647890
553.798288	10612.238826
554.156215	10773.853177
554.514086	10742.829916
554.871902	10595.897926
555.229661	10633.061312
555.587365	10606.895203
555.945014	10498.240693
556.302606	10628.816660
556.660143	10523.199446
557.017625	10674.955821
557.375050	10576.033259
557.732421	10703.085459
558.089735	10621.166709
558.446994	10619.009095
558.804197	10655.280197
559.161345	10654.261884
559.518437	10505.557928
559.875474	10590.168654
560.232455	10627.357246
560.589381	10573.984030
560.946251	10566.021527
561.303065	10679.875987
561.659825	10615.487849
562.016528	10545.171315
562.373177	10422.764538
562.729770	10536.669409
563.086307	10453.520617
563.442789	10540.785511
563.799216	10425.680845
564.155587	10469.911929
564.511904	10428.541700
564.868164	10416.332026
565.224370	10433.592936
565.580520	10357.290032
565.936615	10358.749446
566.292654	10235.755374
566.648638	10366.512823
567.004567	10320.865175
567.360441	10305.106528
567.716260	10220.400020
568.072023	10310.828237
568.427732	10265.137739
568.783385	10173.361013
569.138982	10240.277289
569.494525	10258.702707
569.850013	10140.648966
570.205445	10218.476819
570.560823	10113.063772
570.916145	10033.007728
571.271412	10105.675961
571.626625	10042.782526
571.981782	10021.644968
572.336884	9996.640844
572.691931	10001.863480
573.046923	9945.604203
573.401860	9906.144571
573.756743	9842.058903
574.111570	9884.581036
574.466342	9866.901709
574.821059	9894.348271
575.175722	9789.623341
575.530330	9792.300194
575.884882	9793.116861
576.239380	9714.986538
576.593823	9695.323517
576.948211	9713.602741
577.302544	9586.679090
577.656823	9611.045507
578.011047	9609.303789
578.365216	9584.443338
578.719330	9503.489969
579.073389	9518.812557
579.427394	9460.851890
579.781344	9445.302451
580.135239	9392.965192
580.489080	9404.126307
580.842866	9301.190986
581.196597	9309.143406
581.550273	9350.075055
581.903895	9319.666815
582.257463	9378.822235
582.610975	9261.161704
582.964434	9287.350498
583.317837	9206.777736
583.671186	9188.319552
584.024481	9186.986166
584.377721	9102.509031
584.730906	9084.401206
585.084037	9111.638560
585.437113	9047.958705
585.790135	9070.752282
586.143103	8963.370664
586.496016	8943.362324
586.848874	8994.640941
587.201679	8991.107093
587.554428	8872.080409
587.907124	8918.799302
588.259765	8891.846773
588.612352	8895.176455
588.964884	8770.722970
589.317362	8786.201833
589.669786	8785.606977
590.022155	8835.161519
590.374470	8854.315383
590.726731	8786.153942
591.078937	8644.505080
591.431090	8755.665043
591.783188	8627.007235
592.135232	8618.585988
592.487222	8617.590360
592.839157	8670.540119
593.191038	8602.734080
593.542866	8551.175679
593.894639	8449.142725
594.246358	8503.965273
594.598022	8516.288373
594.949633	8415.873630
595.301190	8394.766319
595.652692	8416.576871
596.004141	8527.363788
596.355535	8312.552661
596.706876	8291.717573
597.058162	8220.430616
597.409395	8299.790980
597.760573	8359.873973
598.111698	8270.443903
598.462768	8256.409331
598.813785	8222.137047
599.164748	8185.387035
599.515657	8174.394799
599.866511	8090.257941
600.217312	8217.794093
600.568060	8073.138183
600.918753	8179.395624
601.269392	8148.906725
601.619978	8067.217348
601.970510	8122.985112
602.320988	8122.304556
602.671412	8172.363214
603.021783	8109.525231
603.372100	8085.418434
603.722363	8093.436389
604.072572	8066.302378
604.422728	8080.672187
604.772830	8005.627051
605.122878	8017.947631
605.472872	8009.632247
605.822813	8036.713326
606.172701	7979.246692
606.522534	8056.789721
606.872314	8047.443422
607.222041	8031.183180
607.571714	8082.802075
607.921333	8037.230044
608.270899	8045.227835
608.620411	8133.821072
608.969870	8034.984210
609.319276	8034.775002
609.668627	8048.081128
610.017926	8089.282478
610.367171	8131.610526
610.716362	8105.782175
611.065500	8101.799663
611.414585	8121.049309
611.763616	8114.659647
612.112594	8086.174607
612.461518	8115.125953
612.810389	8174.548554
613.159207	8114.165613
613.507971	8059.789207
613.856682	8179.125922
614.205340	8128.948797
614.553945	8215.066828
614.902496	8112.086137
615.250994	8164.657810
615.599439	8144.493195
615.947830	8160.367788
616.296169	8133.853840
616.644454	8147.364132
616.992686	8145.287177
617.340864	8200.162657
617.688990	8110.374666
618.037063	8193.538581
618.385082	8143.222824
618.733048	8226.018735
619.080961	8170.147627
619.428821	8183.688166
619.776628	8184.709000
620.124382	8138.791650
620.472083	8126.098025
620.819731	8149.451170
621.167326	8043.211373
621.514868	8052.129174
621.862357	7939.366124
622.209793	7959.281203
622.557176	7893.920122
622.904506	7865.220834
623.251783	7801.445196
623.599007	7757.874504
623.946179	7762.295596
624.293297	7705.940537
624.640363	7632.188456
624.987376	7614.630117
625.334336	7560.599030
625.681243	7511.745208
626.028097	7500.788260
626.374899	7482.277143
626.721647	7471.443704
627.068343	7403.141110
627.414987	7372.992490
627.761577	7331.183680
628.108115	7367.540482
628.454600	7258.666682
628.801032	7311.825650
629.147412	7274.299300
629.493739	7263.435614
629.840014	7196.771395
630.186236	7256.002432
630.532405	7140.481872
630.878521	7189.812082
631.224585	7147.378170
631.570597	7074.165493
631.916556	7108.399968
632.262462	7100.248423
632.608316	7065.822383
632.954117	7039.704165
633.299866	7023.451485
633.645562	7016.713983
633.991206	6941.192457
634.336797	6885.275979
634.682336	6841.692683
635.027823	6808.030378
635.373257	6799.644419
635.718639	6734.250571
636.063968	6742.349185
636.409245	6641.614328
636.754470	6634.324820
637.099642	6596.087668
637.444762	6547.012035
637.789829	6550.271141
638.134845	6491.559343
638.479808	6479.236242
638.824719	6481.353527
639.169577	6413.436582
639.514383	6429.822852
639.859137	6359.612182
640.203839	6367.945209
640.548489	6356.889959
640.893086	6331.598490
641.237632	6305.507998
641.582125	6325.536502
641.926566	6300.310569
642.270955	6313.089894
642.615292	6300.187060
642.959576	6313.871272
643.303809	6303.030271
643.647990	6316.681716
643.992118	6302.238810
644.336195	6250.703094
644.680219	6277.690911
645.024192	6271.845693
645.368112	6362.795671
645.711981	6388.402212
646.055797	6458.743952
646.399562	6419.561583
646.743274	6546.220574
647.086935	6596.259067
647.430544	6593.877122
647.774101	6612.768846
648.117606	6619.460977
648.461059	6611.589216
648.804460	6570.279481
649.147810	6479.200954
649.491108	6451.313291
649.834354	6426.145330
650.177548	6341.748853
650.520690	6256.122335
650.863781	6233.767338
651.206820	6258.950422
651.549807	6173.858266
651.892742	6114.072702
652.235626	6124.954032
652.578458	6112.782166
652.921238	6019.810686
653.263967	6057.135389
653.606644	6004.571278
653.949269	6001.133211
654.291843	5944.064829
654.634365	5993.379917
654.976836	5946.502227
655.319255	5945.476352
655.661622	5925.904073
656.003938	5923.922899
656.346203	5880.755499
656.688416	5912.991157
657.030577	5866.872161
657.372687	5836.453839
657.714746	5824.886911
658.056753	5868.636565
658.398708	5807.870496
658.740612	5797.299197
659.082465	5847.493966
659.424266	5834.891081
659.766016	5837.507440
660.107715	5814.252597
660.449362	5829.481923
660.790958	5821.625285
661.132503	5806.191792
661.473996	5845.233008
661.815438	5832.718344
662.156829	5830.795143
662.498168	5821.196787
662.839456	5796.600997
663.180693	5833.648437
663.521879	5837.726730
663.863013	5821.209389
664.204097	5842.402400
664.545129	5887.785388
664.886110	5878.620570
665.227040	5913.807824
665.567918	5877.677874
665.908746	5909.694242
666.249522	5911.425879
666.590248	5899.264095
666.930922	5923.234782
667.271545	5939.472338
667.612118	5941.332524
667.952639	5914.216157
668.293109	5934.665598
668.633528	5891.228496
668.973896	5892.783692
669.314213	5889.401078
669.654480	5870.925249
669.994695	5859.887642
670.334859	5851.279872
670.674973	5845.096897
671.015035	5847.743503
671.355047	5847.327608
671.695008	5834.825546
672.034918	5803.593077
672.374777	5819.767619
672.714585	5804.911339
673.054342	5804.792872
673.394049	5797.836080
673.733705	5833.061142
674.073310	5821.776519
674.412864	5775.080311
674.752368	5770.621411
675.091820	5773.199961
675.431223	5714.394901
675.770574	5710.692174
676.109875	5667.053425
676.449125	5666.924876
676.788324	5636.665350
677.127473	5577.313325
677.466571	5570.759825
677.805619	5561.960491
678.144616	5547.646135
678.483562	5527.050501
678.822458	5497.615203
679.161303	5487.737062
679.500098	5478.287420
679.838842	5462.765707
680.177535	5468.875585
680.516179	5485.576928
680.854771	5495.500439
681.193314	5575.027162
681.531805	5681.178738
681.870247	5832.509136
682.208638	5934.773983
682.546978	5947.402073
682.885268	5924.353918
683.223508	5843.251835
683.561697	5789.805522
683.899836	5756.259163
684.237925	5712.436413
684.575963	5678.610271
684.913951	5634.517818
685.251889	5699.125246
685.589776	5666.019989
685.927614	5639.672398
686.265401	5709.142019
686.603137	5694.603331
686.940824	5767.125370
687.278460	5789.956756
687.616046	5801.503519
687.953582	5867.978694
688.291068	5851.143761
688.628504	5913.338997
688.965889	5877.183841
689.303224	5823.437579
689.640510	5772.277430
689.977745	5694.033681
690.314930	5598.397951
690.652065	5540.328900
690.989150	5452.557370
691.326185	5375.163056
691.663170	5324.348225
692.000105	5250.258387
692.336990	5172.145708
692.673825	5147.746524
693.010610	5075.940328
693.347345	5008.928270
693.684030	4995.813708
694.020665	4951.093633
694.357251	4866.556003
694.693786	4870.808217
695.030272	4838.436447
695.366707	4804.391015
695.703093	4770.849697
696.039429	4796.468841
696.375716	4777.108290
696.711952	4751.237088
697.048139	4736.985747
697.384276	4719.129980
697.720363	4732.879727
698.056400	4741.427003
698.392388	4690.914642
698.728326	4668.962937
699.064214	4649.841841
699.400053	4645.269514
699.735842	4609.126962
700.071581	4587.384465
700.407270	4561.034354
700.742910	4542.054410
701.078501	4488.414012
701.414042	4488.202284
701.749533	4455.714568
702.084974	4393.995721
702.420366	4451.210297
702.755709	4388.568919
703.091002	4337.653265
703.426246	4385.017426
703.761440	4344.123586
704.096584	4304.255621
704.431679	4324.707582
704.766725	4307.882731
705.101721	4297.500475
705.436668	4325.299918
705.771565	4274.066671
706.106413	4302.231598
706.441212	4335.510775
706.775961	4343.934543
707.110661	4322.807067
707.445311	4348.058207
707.779913	4375.315726
708.114465	4389.347777
708.448967	4410.356786
708.783421	4472.277279
709.117825	4513.103063
709.452180	4516.901573
709.786485	4561.926638
710.120742	4646.534844
710.454949	4629.919201
710.789107	4696.981670
711.123216	4770.532105
711.457275	4762.252010
711.791286	4835.971323
712.125247	4852.523952
712.459159	4754.745732
712.793023	4826.388089
713.126837	4786.545330
713.460602	4781.768837
713.794318	4702.773956
714.127985	4707.099266
714.461602	4624.847800
714.795171	4594.789920
715.128691	4530.908418
715.462162	4474.182835
715.795584	4425.578550
716.128957	4407.974841
716.462281	4356.645812
716.795556	4331.490455
717.128782	4292.182058
717.461960	4226.999938
717.795088	4233.813058
718.128167	4192.619269
718.461198	4133.458808
718.794180	4127.200216
719.127113	4109.528451
719.459997	4086.719750
719.792833	4044.830282
720.125619	4035.927605
720.458357	3997.942510
720.791046	4003.772605
721.123686	3979.854850
721.456278	3941.373203
721.788821	3955.475830
722.121315	3927.222684
722.453761	3899.198909
722.786158	3917.929317
723.118506	3943.563584
723.450805	3892.229514
723.783056	3912.754572
724.115259	3930.799382
724.447412	3933.725772
724.779518	3926.728651
725.111574	3930.633024
725.443582	3959.493630
725.775542	3949.383596
726.107453	3997.420751
726.439315	3998.973426
726.771129	4011.883821
727.102895	4047.166857
727.434612	4094.193261
727.766281	4103.773974
728.097901	4107.474181
728.429473	4112.522896
728.760996	4121.044967
729.092471	4113.584059
729.423897	4099.171400
729.755276	4108.948718
730.086606	4099.733489
730.417887	4142.293430
730.749120	4206.048903
731.080305	4268.523923
731.411442	4295.536945
731.742530	4265.650465
732.073570	4270.724386
732.404562	4323.822860
732.735506	4312.881035
733.066401	4277.857619
733.397249	4217.099112
733.728048	4135.311432
734.058798	4052.039132
734.389501	3984.175119
734.720156	3921.163217
735.050762	3877.837020
735.381320	3872.206051
735.711831	3822.671673
736.042293	3792.515491
736.372707	3817.307886
736.703073	3789.059780
737.033391	3778.962349
737.363661	3793.843835
737.693883	3821.300480
738.024056	3828.698373
738.354182	3824.796520
738.684260	3888.985532
739.014290	3907.499169
739.344272	3902.258890
739.674207	3946.563070
740.004093	3951.558854
740.333931	3946.033749
740.663722	3946.409315
740.993464	3941.521917
741.323159	3920.747322
741.652806	3893.371336
741.982405	3860.934031
742.311956	3832.431347
742.641460	3824.471365
742.970915	3798.461532
743.300323	3759.798403
743.629683	3723.623083
743.958996	3713.200497
744.288260	3687.959440
744.617477	3657.157990
744.946647	3639.392964
745.275768	3617.779017
745.604842	3616.705251
745.933869	3569.406625
746.262847	3559.359605
746.591778	3599.887962
746.920662	3567.894279
747.249498	3537.029814
747.578286	3585.795416
747.907027	3601.024742
748.235720	3597.286726
748.564365	3623.672125
748.892963	3625.270171
749.221514	3604.777881
749.550017	3583.045467
749.878473	3582.473296
750.206881	3548.349725
750.535242	3544.883932
750.863555	3549.451217
751.191821	3543.391750
751.520039	3523.486754
751.848210	3501.633353
752.176334	3537.745658
752.504411	3544.644477
752.832440	3503.125534
753.160421	3484.344715
753.488356	3495.589009
753.816243	3504.902541
754.144082	3462.435861
754.471875	3449.659056
754.799620	3466.783856
755.127318	3461.699852
755.454969	3461.079790
755.782572	3468.018939
756.110129	3442.298972
756.437638	3431.422682
756.765100	3446.147893
757.092515	3456.746919
757.419882	3463.078608
757.747203	3436.428548
758.074477	3438.245884
758.401703	3455.360601
758.728882	3474.879949
759.056014	3480.354642
759.383099	3487.122391
759.710138	3480.876402
760.037129	3497.174452
760.364073	3531.161911
760.690970	3513.704395
761.017820	3492.090448
761.344623	3510.543592
761.671379	3555.808112
761.998088	3603.878035
762.324751	3733.886872
762.651366	3980.855519
762.977935	4452.563847
763.304456	4895.779572
763.630931	4986.870702
763.957359	4623.269919
764.283740	4281.542702
764.610074	4091.765945
764.936362	3896.766553
765.262602	3740.354672
765.588796	3627.039616
765.914943	3542.607851
766.241044	3450.997483
766.567097	3422.910694
766.893104	3377.787326
767.219064	3348.205835
767.544978	3317.754745
767.870845	3264.258021
768.196665	3244.363107
768.522438	3254.947010
768.848165	3246.054414
769.173846	3211.290617
769.499479	3194.508616
769.825066	3177.456913
770.150607	3162.293122
770.476101	3178.586132
770.801548	3173.923064
771.126949	3127.746095
771.452303	3111.926954
771.777611	3118.077162
772.102872	3123.415744
772.428087	3098.888010
772.753256	3089.846701
773.078378	3080.686924
773.403453	3047.735422
773.728482	3035.785367
774.053465	3058.014335
774.378401	3041.915410
774.703291	3013.019516
775.028135	3013.417767
775.352932	3010.123373
775.677683	2994.939418
776.002388	2993.618635
776.327046	2996.812206
776.651658	2983.858962
776.976224	2973.915286
777.300743	2977.444093
777.625216	2966.293061
777.949643	2957.776032
778.274024	2961.662761
778.598359	2951.373766
778.922647	2956.409879
779.246889	2955.205043
779.571086	2937.906324
779.895236	2930.190838
780.219339	2945.218517
780.543397	2960.347020
780.867409	2960.316773
781.191374	2952.545834
781.515294	2948.810339
781.839167	2949.816050
782.162995	2942.342539
782.486776	2950.403344
782.810511	2946.304886
783.134201	2934.438010
783.457844	2941.273814
783.781441	2932.237546
784.104993	2912.272056
784.428498	2913.403795
784.751958	2926.009201
785.075372	2921.492327
785.398739	2906.353742
785.722061	2919.914446
786.045337	2933.054213
786.368568	2916.448652
786.691752	2907.770306
787.014891	2959.595888
787.337983	2990.130157
787.661030	3013.689989
787.984031	3083.094075
788.306987	3127.882206
788.629897	3121.096813
788.952760	3104.755913
789.275579	3088.498192
789.598351	3027.540560
789.921078	2985.756956
790.243759	2978.802684
790.566395	2958.854838
790.888984	2932.592948
791.211529	2919.574168
791.534027	2910.134607
791.856480	2899.437279
792.178888	2882.930020
792.501249	2876.142107
792.823566	2876.139586
793.145836	2870.909389
793.468062	2867.839326
793.790241	2865.785056
794.112375	2871.229502
794.434464	2883.020761
794.756507	2888.258520
795.078505	2895.603481
795.400457	2908.944895
795.722364	2943.050821
796.044226	2968.624595
796.366042	2972.110553
796.687812	2959.749643
797.009538	2980.115905
797.331218	2965.020170
797.652852	2952.220680
797.974442	2933.815427
798.295986	2932.040941
798.617484	2926.311670
798.938938	2909.567477
799.260346	2893.934859
799.581709	2890.169117
799.903026	2884.888509
800.224299	2878.516490
800.545526	2868.068699
800.866708	2853.948427
801.187845	2843.394771
801.508936	2845.456603
801.829983	2849.602952
802.150984	2839.681962
802.471940	2823.114209
802.792851	2826.000270
803.113717	2825.092862
803.434538	2829.614777
803.755314	2825.009683
804.076045	2820.956596
804.396731	2817.851245
804.717372	2819.071204
805.037967	2814.473672
805.358518	2816.608600
805.679024	2832.233657
805.999485	2824.805517
806.319901	2831.001095
806.640272	2824.888696
806.960598	2828.972030
807.280879	2836.851354
807.601115	2844.007272
807.921306	2833.236846
808.241453	2826.580003
808.561554	2832.808348
808.881611	2834.867660
809.201623	2831.396825
809.521590	2829.317349
809.841513	2823.610763
810.161390	2832.251301
810.481223	2823.124292
810.801011	2812.689103
811.120755	2810.355049
811.440453	2812.371511
811.760107	2810.786068
812.079716	2811.648105
812.399281	2798.881383
812.718801	2792.930301
813.038276	2788.420989
813.357707	2797.316105
813.677093	2803.799028
813.996434	2794.298974
814.315731	2794.132616
814.634983	2787.327058
814.954191	2789.567851
815.273354	2803.620067
815.592473	2809.896304
815.911547	2814.080462
816.230577	2821.087666
816.549562	2830.852381
816.868502	2827.547904
817.187399	2839.185408
817.506250	2856.789117
817.825058	2847.256295
818.143821	2862.374716
818.462539	2875.060779
818.781213	2904.901889
819.099843	2937.946653
819.418429	2996.789521
819.736970	3058.710014
820.055466	3132.893113
820.373919	3236.372878
820.692327	3373.378837
821.010691	3538.950494
821.329011	3983.744101
821.647286	4880.429259
821.965517	6251.411376
822.283704	6981.856925
822.601847	6962.766075
822.919945	6328.803170
823.237999	5829.035781
823.556010	5250.059262
823.873976	4698.826732
824.191897	4293.843118
824.509775	4000.079960
824.827609	3735.971389
825.145398	3612.727780
825.463144	3601.740586
825.780845	3692.438505
826.098502	3797.904485
826.416116	4078.787495
826.733685	4398.857914
827.051210	4459.535762
827.368692	4344.070654
827.686129	4077.915375
828.003522	3753.595263
828.320872	3494.316118
828.638177	3300.052734
828.955439	3165.423679
829.272656	3081.049887
829.589830	3015.207377
829.906960	2967.071919
830.224046	2921.646082
830.541088	2889.599467
830.858086	2873.185470
831.175041	2857.462111
831.491952	2859.554190
831.808819	2869.777650
832.125642	2891.454612
832.442421	2939.756427
832.759157	3020.601411
833.075849	3198.183617
833.392497	3476.115032
833.709101	3678.845034
834.025662	3629.696304
834.342179	3470.579845
834.658653	3291.079480
834.975083	3146.625216
835.291469	3047.193498
835.607811	2964.306846
835.924110	2906.704102
836.240366	2855.024713
836.556578	2812.852941
836.872746	2793.401649
837.188871	2769.713267
837.504952	2751.797006
837.820990	2742.730491
838.136984	2731.438306
838.452935	2722.848180
838.768842	2720.403220
839.084706	2737.775037
839.400526	2817.377376
839.716303	2951.250258
840.032037	3031.165149
840.347727	3014.534383
840.663373	2956.495578
840.978977	2881.563868
841.294537	2807.912610
841.610054	2762.002822
841.925527	2738.740417
842.240957	2715.346943
842.556344	2695.489838
842.871687	2681.891326
843.186987	2670.878925
843.502244	2668.658297
843.817458	2659.301915
844.132629	2651.687252
844.447756	2640.528658
844.762840	2632.629170
845.077881	2636.309212
845.392879	2634.822072
845.707833	2634.622947
846.022745	2623.976030
846.337613	2627.472070
846.652438	2627.749333
846.967221	2625.755557
847.281960	2624.013838
847.596656	2623.398817
847.911309	2620.331275
848.225919	2618.773559
848.540485	2614.453290
848.855009	2616.149638
849.169490	2617.719958
849.483928	2616.994032
849.798323	2615.975718
850.112675	2614.528907
850.426984	2615.741305
850.741251	2612.537652
851.055474	2610.233844
851.369654	2616.323558
851.683792	2616.439505
851.997887	2613.382045
852.311938	2612.477158
852.625947	2614.309617
852.939914	2615.912704
853.253837	2618.496295
853.567718	2613.377004
853.881555	2614.206273
854.195350	2615.078393
854.509103	2615.012858
854.822812	2614.992693
855.136479	2609.646550
855.450103	2615.761469
855.763685	2616.774741
856.077224	2611.952878
856.390720	2612.063783
856.704173	2617.263733
857.017584	2618.340020
857.330953	2619.512088
857.644278	2620.679115
857.957561	2618.597118
858.270802	2614.254164
858.584000	2616.242900
858.897155	2620.485031
859.210268	2620.941255
859.523339	2614.526387
859.836367	2612.179730
860.149352	2612.633433
860.462295	2616.373970
860.775195	2611.239554
861.088054	2609.084461
861.400869	2609.399533
861.713642	2606.180757
862.026373	2607.125973
862.339062	2612.464555
862.651708	2617.188116
862.964312	2616.875564
863.276873	2614.365070
863.589392	2614.418002
863.901869	2620.361522
864.214303	2629.347379
864.526696	2629.271762
864.839045	2631.331073
865.151353	2634.133955
865.463619	2634.496918
865.775842	2634.338121
866.088023	2631.656227
866.400162	2634.156640
866.712258	2633.193779
867.024313	2633.917185
867.336325	2629.302009
867.648296	2632.225878
867.960224	2634.658235
868.272110	2634.590179
868.583954	2626.680609
868.895755	2629.014663
869.207515	2632.369551
869.519233	2637.826600
869.830909	2637.345170
870.142542	2631.946094
870.454134	2633.032462
870.765684	2637.841723
871.077191	2641.322640
871.388657	2645.075779
871.700081	2642.295583
872.011463	2642.953453
872.322803	2642.882877
872.634101	2644.949750
872.945357	2655.672284
873.256571	2661.358706
873.567744	2656.990546
873.878874	2655.657161
874.189963	2656.945176
874.501010	2662.329128
874.812015	2667.153512
875.122979	2666.215858
875.433900	2657.212357
875.744780	2654.679177
876.055618	2662.457677
876.366415	2666.654438
876.677169	2665.184942
876.987882	2662.808038
877.298554	2663.266783
877.609183	2668.103770
877.919771	2677.699606
878.230317	2684.500123
878.540822	2693.541432
878.851285	2710.832590
879.161707	2730.339335
879.472087	2768.735283
879.782425	2820.520536
880.092722	2933.659152
880.402977	3117.724281
880.713191	3376.247253
881.023363	3665.838857
881.333494	3854.597301
881.643583	4023.503681
881.953631	4024.327910
882.263637	3844.857792
882.573602	3623.992239
882.883526	3496.884586
883.193408	3383.990466
883.503248	3284.649488
883.813048	3170.681602
884.122806	3057.550548
884.432522	2974.275728
884.742197	2909.128897
885.051831	2870.952239
885.361424	2836.138030
885.670975	2802.016981
885.980485	2773.693258
886.289954	2751.481934
886.599382	2738.624471
886.908768	2730.389746
887.218113	2708.682538
887.527417	2695.268027
887.836680	2690.355423
888.145901	2683.227231
888.455082	2677.324040
888.764221	2664.756444
889.073319	2657.030875
889.382376	2659.062460
889.691392	2655.783190
890.000366	2657.610608
890.309300	2657.456853
890.618193	2659.667399
890.927044	2661.915753
891.235855	2660.826864
891.544625	2659.579179
891.853353	2658.487769
892.162041	2668.650735
892.470687	2688.656554
892.779293	2699.048893
893.087858	2707.860830
893.396381	2730.359499
893.704864	2771.142434
894.013306	2841.688341
894.321707	2934.735438
894.630068	2984.259733
894.938387	3002.392764
895.246665	2995.693070
895.554903	2953.486010
895.863100	2909.927920
896.171256	2853.013293
896.479371	2790.313942
896.787446	2751.310535
897.095480	2734.369737
897.403473	2728.597616
897.711425	2711.777806
898.019336	2693.571679
898.327207	2681.185564
898.635038	2680.331088
898.942827	2679.146417
899.250576	2667.062772
899.558284	2657.091369
899.865952	2652.766059
900.173579	2650.817653
900.481165	2648.223980
900.788711	2640.546302
901.096216	2632.876187
901.403681	2629.629684
901.711105	2631.439458
902.018489	2629.576752
902.325832	2631.338635
902.633135	2633.660086
902.940397	2651.253713
903.247619	2686.607325
903.554800	2755.098962
903.861941	2881.463045
904.169041	3004.993999
904.476101	3066.513720
904.783121	3061.185220
905.090100	3003.000223
905.397039	2928.486928
905.703938	2854.444981
906.010796	2795.478604
906.317614	2742.231417
906.624391	2707.558360
906.931129	2684.840401
907.237826	2658.956596
907.544483	2637.491363
907.851099	2625.155660
908.157675	2618.760956
908.464211	2610.695110
908.770707	2601.051382
909.077163	2594.797831
909.383578	2592.093252
909.689954	2591.097624
909.996289	2588.972778
910.302584	2590.646441
910.608839	2586.979002
910.915054	2588.675350
911.221229	2589.340782
911.527363	2592.988057
911.833458	2589.204671
912.139513	2589.771801
912.445527	2590.641400
912.751502	2595.848912
913.057436	2603.695468
913.363331	2609.525562
913.669186	2622.130967
913.975000	2633.559263
914.280775	2651.364618
914.586510	2670.427742
914.892205	2704.999975
915.197859	2772.692589
915.503475	2854.354240
915.809050	2923.100455
916.114585	2934.848864
916.420081	2942.408074
916.725536	2953.115485
917.030952	2933.724687
917.336328	2884.432284
917.641665	2831.807679
917.946961	2783.800771
918.252218	2753.906729
918.557435	2726.835733
918.862612	2703.366641
919.167750	2689.382480
919.472848	2672.915551
919.777906	2655.170690
920.082925	2643.787764
920.387904	2633.884417
920.692843	2626.930146
920.997743	2621.236162
921.302603	2618.065277
921.607423	2610.382558
921.912204	2603.224120
922.216946	2599.319746
922.521647	2600.464088
922.826310	2596.100969
923.130932	2592.977975
923.435516	2586.308528
923.740059	2585.214598
924.044564	2582.152097
924.349028	2583.392221
924.653454	2571.633729
924.957840	2571.885787
925.262186	2569.198852
925.566493	2569.367731
925.870761	2565.017215
926.174989	2567.515107
926.479178	2559.794579
926.783328	2561.296843
927.087438	2560.822975
927.391509	2564.848336
927.695541	2557.697459
927.999533	2556.863148
928.303486	2557.465566
928.607400	2556.369115
928.911275	2556.527912
929.215110	2554.844166
929.518906	2556.424568
929.822663	2559.328273
930.126381	2558.446071
930.430060	2555.242417
930.733699	2557.309291
931.037299	2556.749722
931.340861	2559.514795
931.644383	2557.647048
931.947866	2556.931204
932.251309	2559.164435
932.554714	2557.838612
932.858080	2557.513457
933.161407	2557.417675
933.464694	2556.923642
933.767943	2555.358364
934.071153	2556.129661
934.374323	2554.927345
934.677455	2554.420709
934.980548	2551.290153
935.283602	2554.924825
935.586617	2552.651264
935.889593	2556.525391
936.192530	2553.046995
936.495428	2554.118240
936.798287	2555.857438
937.101108	2557.349620
937.403890	2559.537481
937.706632	2563.792214
938.009336	2565.203737
938.312002	2569.153482
938.614628	2571.497618
938.917216	2576.687486
939.219765	2577.078175
939.522275	2577.811663
939.824747	2576.228741
940.127179	2572.604151
940.429573	2567.794891
940.731929	2567.411763
941.034246	2565.549057
941.336524	2570.106260
941.638763	2567.399160
941.940964	2566.625343
942.243126	2563.885476
942.545250	2563.918243
942.847335	2564.165260
943.149381	2562.015208
943.451389	2562.612584
943.753359	2558.645196
944.055290	2558.849363
944.357182	2556.772408
944.659036	2557.604198
944.960851	2557.727706
945.262628	2558.746019
945.564367	2559.555125
945.866067	2557.200906
946.167729	2559.280382
946.469352	2557.891544
946.770937	2560.147460
947.072484	2556.333827
947.373992	2560.583520
947.675462	2556.230484
947.976893	2557.652089
948.278286	2554.929866
948.579641	2553.851059
948.880958	2553.006666
949.182236	2554.279557
949.483476	2553.974567
949.784678	2554.458518
950.085841	2553.349464
950.386967	2554.897098
950.688054	2554.559341
950.989103	2554.385421
951.290114	2557.032027
951.591087	2557.052192
951.892021	2557.914229
952.192917	2560.815413
952.493776	2560.001267
952.794596	2561.168294
953.095378	2562.892368
953.396122	2563.378840
953.696828	2562.743654
953.997496	2559.076215
954.298126	2557.518498
954.598718	2556.119578
954.899272	2555.580175
955.199788	2553.561193
955.500266	2551.975750
955.800706	2551.005328
956.101108	2546.077600
956.401472	2545.076931
956.701798	2542.584080
957.002087	2542.954605
957.302337	2545.626417
957.602550	2545.533155
957.902724	2546.168341
958.202861	2546.052394
958.502960	2544.194729
958.803022	2543.138607
959.103045	2542.213555
959.403031	2542.573998
959.702979	2541.280942
960.002889	2543.246992
960.302762	2540.562577
960.602596	2542.752959
960.902393	2543.940151
961.202153	2539.375386
961.501875	2541.495191
961.801559	2543.625078
962.101205	2540.474357
962.400814	2542.518545
962.700385	2540.033256
962.999918	2541.691796
963.299414	2542.347146
963.598873	2542.034594
963.898293	2539.380427
964.197677	2541.124666
964.497022	2538.641898
964.796331	2536.806918
965.095601	2538.621733
965.394835	2540.590304
965.694030	2538.893956
965.993189	2539.695499
966.292309	2538.238606
966.591393	2535.680220
966.890439	2537.777340
967.189447	2537.878163
967.488419	2538.999820
967.787353	2539.458565
968.086249	2539.146013
968.385108	2541.626261
968.683930	2540.978473
968.982714	2539.506456
969.281462	2539.907227
969.580172	2539.458565
969.878844	2538.321785
970.177480	2537.666435
970.476078	2541.616179
970.774639	2540.174409
971.073162	2537.963863
971.371649	2538.067206
971.670098	2534.674510
971.968510	2536.907741
972.266885	2535.281969
972.565223	2543.010058
972.863524	2537.280786
973.161788	2542.085006
973.460014	2538.828421
973.758204	2538.783050
974.056356	2542.573998
974.354471	2540.930582
974.652550	2542.332023
974.950591	2541.376724
975.248595	2538.193235
975.546563	2539.519059
975.844493	2539.521579
976.142386	2538.722556
976.440243	2538.800694
976.738062	2539.014943
977.035845	2536.925385
977.333590	2540.607948
977.631299	2538.609130
977.928971	2538.437731
978.226606	2536.764068
978.524204	2541.081816
978.821765	2536.912782
979.119290	2536.353214
979.416777	2537.374048
979.714228	2538.757844
980.011642	2538.047042
980.309020	2541.033925
980.606360	2540.439069
980.903664	2538.820859
981.200931	2539.108205
981.498162	2539.589635
981.795356	2541.754810
982.092513	2544.824873
982.389633	2548.837632
982.686717	2550.738147
982.983764	2552.792417
983.280775	2554.657644
983.577749	2556.432130
983.874686	2552.726882
984.171587	2550.387786
984.468451	2546.574153
984.765279	2546.052394
985.062070	2545.094575
985.358824	2542.352187
985.655543	2542.861344
985.952224	2537.966383
986.248869	2541.427135
986.545478	2535.191228
986.842050	2535.760878
987.138586	2534.009078
987.435086	2532.753830
987.731549	2531.949766
988.027975	2534.382123
988.324366	2536.481763
988.620719	2535.483615
988.917037	2534.679551
989.213318	2537.600900
989.509563	2535.223996
989.805772	2535.833975
990.101944	2535.990251
990.398080	2535.130734
990.694180	2534.203162
990.990244	2536.736342
991.286271	2534.359438
991.582262	2532.776515
991.878217	2536.030580
992.174136	2537.116949
992.470019	2535.443286
992.765865	2533.318439
993.061676	2534.044366
993.357450	2535.677699
993.653188	2535.793646
993.948890	2537.361445
994.244556	2536.769109
994.540186	2538.362114
994.835780	2538.495704
995.131337	2537.237937
995.426859	2536.416228
995.722345	2536.728780
996.017795	2538.193235
996.313208	2540.197094
996.608586	2538.530993
996.903928	2540.633154
997.199234	2540.068544
997.494504	2538.936805
997.789738	2539.244316
998.084936	2539.173740
998.380099	2537.989068
998.675225	2538.362114
998.970316	2536.643080
999.265371	2535.685261
999.560390	2536.267514
999.855373	2536.534696
1000.150320	2535.982689
1000.445232	2533.240302
1000.740108	2536.403626
1001.034948	2535.803728
1001.329752	2535.806249
1001.624521	2535.367668
1001.919254	2533.094108
1002.213951	2532.204344
1002.508613	2530.883562
1002.803239	2534.878677
1003.097829	2528.403314
1003.392384	2535.271887
1003.686903	2535.274407
1003.981386	2536.111239
1004.275834	2535.213913
1004.570246	2533.358769
1004.864623	2534.500590
1005.158964	2535.886907
1005.453270	2535.493697
1005.747540	2536.638039
1006.041775	2530.727286
1006.335974	2535.390354
1006.630138	2532.937832
1006.924266	2534.775333
1007.218359	2532.826927
1007.512416	2533.903213
1007.806438	2535.801208
1008.100425	2535.042514
1008.394376	2533.943543
1008.688292	2534.316588
1008.982172	2533.993954
1009.276017	2533.129396
1009.569827	2529.656041
1009.863602	2534.886238
1010.157341	2532.602596
1010.451045	2532.857174
1010.744714	2533.141999
1011.038347	2534.072092
1011.331945	2531.095291
1011.625508	2532.839530
1011.919036	2532.894982
1012.212528	2534.399767
1012.505986	2531.755682
1012.799408	2532.511855
1013.092795	2532.030425
1013.386147	2530.427338
1013.679464	2531.352389
1013.972745	2531.609488
1014.265992	2531.720394
1014.559204	2533.671320
1014.852380	2533.769623
1015.145521	2534.135106
1015.438628	2534.399767
1015.731699	2534.301464
1016.024736	2530.964221
1016.317737	2532.292565
1016.610703	2535.163502
1016.903635	2530.134951
1017.196531	2530.558408
1017.489393	2529.829961
1017.782219	2526.734692
1018.075011	2531.969931
1018.367768	2532.164015
1018.660490	2533.257946
1018.953177	2533.257946
1019.245829	2533.257946
