Dividing Wavelength (nm)	Counts (n)	Blue Motor Position (mm): 35.100000	Red Motor Position (mm): 0.000000	
326.493990	2129.486728
326.888308	2129.486728
327.282561	2129.486728
327.676750	2098.511358
328.070874	2096.560432
328.464933	2100.202666
328.858929	2107.076279
329.252859	2114.161621
329.646726	2129.103601
330.040528	2139.279170
330.434265	2156.391366
330.827938	2171.471978
331.221547	2192.632221
331.615091	2209.331043
332.008571	2229.568756
332.401986	2248.198340
332.795338	2267.879004
333.188625	2287.433640
333.581847	2307.063893
333.975006	2326.374033
334.368100	2342.140242
334.761129	2361.213447
335.154095	2377.937475
335.546996	2398.699467
335.939833	2426.030083
336.332606	2437.828903
336.725315	2451.248455
337.117960	2463.591720
337.510540	2469.777216
337.903056	2480.003196
338.295508	2488.918477
338.687896	2497.932060
339.080220	2506.088647
339.472480	2511.797754
339.864676	2514.928310
340.256807	2522.056502
340.648875	2521.527181
341.040879	2529.219981
341.432818	2527.200999
341.824694	2528.534384
342.216506	2530.175280
342.608253	2529.371216
342.999937	2528.960362
343.391557	2529.890455
343.783113	2531.680064
344.174605	2528.312574
344.566033	2526.286030
344.957397	2525.111441
345.348697	2523.349558
345.739934	2521.257479
346.131106	2520.090452
346.522215	2518.731861
346.913260	2515.984432
347.304241	2513.952847
347.695159	2510.285408
348.086012	2511.167609
348.476802	2508.369769
348.867528	2505.939933
349.258191	2506.028153
349.648789	2508.417660
350.039324	2501.241577
350.429796	2504.238543
350.820203	2498.539519
351.210548	2500.596310
351.600828	2497.894251
351.991045	2497.904334
352.381198	2496.102121
352.771288	2497.138078
353.161314	2493.415186
353.551276	2495.804693
353.941175	2494.582213
354.331010	2497.364930
354.720782	2494.438540
355.110490	2497.654797
355.500135	2496.001298
355.889717	2498.181597
356.279235	2498.746206
356.668689	2496.326453
357.058080	2494.884683
357.447408	2495.350989
357.836672	2493.982316
358.225873	2495.166987
358.615010	2493.465598
359.004084	2499.404077
359.393095	2500.051865
359.782043	2499.066320
360.170927	2500.157729
360.559748	2500.135044
360.948505	2501.589417
361.337199	2504.117556
361.725830	2500.596310
362.114398	2502.771568
362.502903	2500.392143
362.891344	2505.087978
363.279722	2504.147803
363.668037	2501.947339
364.056289	2504.659480
364.444478	2508.702485
364.832603	2505.960098
365.220665	2507.452279
365.608665	2505.977742
365.996601	2507.900942
366.384474	2508.906652
366.772284	2508.306755
367.160031	2505.801301
367.547715	2508.576456
367.935336	2509.027640
368.322893	2508.831035
368.710388	2507.507732
369.097820	2513.340347
369.485189	2511.273474
369.872495	2512.861437
370.259738	2510.406395
370.646918	2512.286746
371.034035	2511.134842
371.421090	2515.021572
371.808081	2512.803464
372.195010	2513.809174
372.581875	2511.023937
372.968678	2513.289935
373.355418	2513.196674
373.742096	2514.477127
374.128710	2512.997548
374.515262	2513.967970
374.901751	2513.794051
375.288177	2514.714061
375.674540	2512.664832
376.060841	2517.353105
376.447079	2518.247910
376.833254	2515.480317
377.219367	2510.116529
377.605417	2516.107940
377.991404	2511.016375
378.377329	2515.747498
378.763191	2512.586694
379.148991	2518.086593
379.534727	2517.816891
379.920402	2517.080883
380.306013	2518.996521
380.691563	2520.776049
381.077049	2517.728671
381.462474	2519.460307
381.847835	2518.406706
382.233134	2518.731861
382.618371	2521.776718
383.003545	2521.801923
383.388657	2519.399814
383.773706	2522.485000
384.158693	2519.868641
384.543618	2519.019207
384.928480	2523.697397
385.313280	2521.270082
385.698017	2522.303518
386.082692	2523.105062
386.467305	2525.413910
386.851856	2523.616739
387.236344	2524.042716
387.620770	2523.750329
388.005133	2525.640762
388.389435	2524.204033
388.773674	2523.054650
389.157851	2522.028775
389.541965	2524.395597
389.926018	2524.594723
390.310008	2526.006246
390.693936	2526.354085
391.077802	2524.859383
391.461606	2526.628828
391.845348	2526.265865
392.229027	2529.043541
392.612645	2526.785104
392.996200	2529.396422
393.379694	2529.477080
393.763125	2529.111597
394.146494	2530.142513
394.529801	2532.123686
394.913047	2532.090918
395.296230	2530.596216
395.679351	2529.661082
396.062410	2535.236598
396.445408	2533.207534
396.828343	2533.356248
397.211217	2528.511699
397.594028	2533.767102
397.976778	2532.751310
398.359466	2533.439427
398.742092	2532.348017
399.124656	2536.610313
399.507158	2536.212062
399.889598	2538.435211
400.271977	2536.943029
400.654294	2540.907897
401.036549	2538.805735
401.418742	2538.523431
401.800874	2542.692465
402.182944	2543.577187
402.564952	2545.213042
402.946898	2545.959133
403.328783	2551.443908
403.710606	2553.425082
404.092367	2555.691080
404.474067	2563.300702
404.855705	2569.970148
405.237282	2574.199677
405.618797	2586.570668
406.000250	2594.097111
406.381642	2606.090016
406.762972	2619.421347
407.144240	2628.127420
407.525447	2637.821559
407.906593	2655.619352
408.287677	2670.236178
408.668700	2680.421829
409.049661	2700.901517
409.430560	2723.264075
409.811399	2736.794532
410.192176	2769.388112
410.572891	2784.766152
410.953545	2818.458704
411.334138	2828.611588
411.714669	2858.009076
412.095139	2870.523741
412.475547	2916.718354
412.855894	2944.230451
413.236180	2971.598875
413.616405	2994.820951
413.996568	3040.405584
414.376670	3059.955179
414.756711	3079.232551
415.136691	3121.757204
415.516609	3176.882222
415.896466	3219.530383
416.276262	3268.762292
416.655997	3298.432003
417.035670	3398.047723
417.415283	3469.163281
417.794834	3493.696056
418.174324	3514.548789
418.553753	3524.807537
418.933121	3640.197028
419.312428	3717.535889
419.691674	3738.202100
420.070859	3841.248325
420.449983	3850.670242
420.829045	3950.356539
421.208047	3954.449956
421.586988	4036.986247
421.965867	4091.299638
422.344686	4222.203280
422.723444	4184.354297
423.102141	4113.639512
423.480777	4341.696271
423.859352	4247.910644
424.237866	4456.947130
424.616319	4494.516329
424.994712	4612.824648
425.373044	4574.479111
425.751314	4721.927820
426.129524	4622.415443
426.507673	4811.499042
426.885762	4905.597219
427.263789	4903.989091
427.641756	4848.526317
428.019662	4977.042972
428.397508	5018.932440
428.775292	5016.288355
429.153016	5133.555676
429.530679	5104.518629
429.908282	5201.482703
430.285824	5122.107215
430.663305	5390.790633
431.040726	5186.545764
431.418086	5210.816399
431.795385	5335.292570
432.172624	5371.014186
432.549802	5382.858377
432.926920	5418.461526
433.303977	5447.334735
433.680974	5498.353732
434.057910	5534.319845
434.434786	5558.449327
434.811601	5542.022728
435.188355	5774.656854
435.565050	5676.424930
435.941683	5670.173900
436.318257	5886.830089
436.694770	5883.823041
437.071222	5925.793167
437.447614	5870.292584
437.823946	5793.019257
438.200218	5951.351817
438.576429	5826.414381
438.952580	5933.745587
439.328670	5978.596733
439.704700	5895.034567
440.080670	5886.157095
440.456580	6158.316388
440.832429	6046.145674
441.208218	5897.348457
441.583947	6050.632301
441.959616	6063.063786
442.335224	5988.217775
442.710773	6123.330781
443.086261	6150.714328
443.461689	5950.935922
443.837057	6103.579540
444.212365	6260.936637
444.587612	6149.509492
444.962800	6309.689635
445.337927	6282.974041
445.712995	5897.487088
446.088002	6476.942517
446.462949	6307.012783
446.837837	6242.158338
447.212664	6410.343834
447.587431	6554.414969
447.962139	7095.050993
448.336786	8020.621963
448.711374	7761.831809
449.085901	6837.425346
449.460369	6755.388129
449.834776	6692.565270
450.209124	7082.962306
450.583412	7235.923517
450.957640	7382.502627
451.331808	7144.550083
451.705917	6700.749583
452.079965	6626.556402
452.453954	6832.847979
452.827883	6712.737447
453.201752	6809.255379
453.575562	6605.819615
453.949311	6811.153373
454.323001	6703.915428
454.696632	6773.407734
455.070202	6911.948724
455.443713	7071.433187
455.817164	7166.688310
456.190556	7250.515137
456.563888	7323.190931
456.937160	7372.874023
457.310373	7025.173039
457.683526	7050.668675
458.056619	6942.094824
458.429653	6929.517145
458.802628	6869.119081
459.175542	6969.853937
459.548398	7327.624626
459.921194	7486.965417
460.293930	7491.467167
460.666607	8013.264399
461.039224	8323.716297
461.411782	8448.598280
461.784280	8469.995458
462.156719	8362.651648
462.529099	8240.799398
462.901419	7829.219433
463.273680	7726.866366
463.645882	7732.643529
464.018024	7600.250226
464.390106	7763.414732
464.762130	8152.299422
465.134094	8620.259651
465.505999	9639.112131
465.877845	10850.955104
466.249631	11499.378559
466.621358	11125.856785
466.993026	10493.345733
467.364634	10241.363658
467.736184	9880.023832
468.107674	9545.926402
468.479105	9575.036545
468.850477	9341.910906
469.221790	9115.621072
469.593043	8791.794993
469.964238	8646.483733
470.335373	8661.965117
470.706449	8721.193633
471.077467	8703.602527
471.448425	10008.429583
471.819324	11075.336862
472.190164	11092.000396
472.560945	9853.610707
472.931667	9067.901510
473.302330	8933.975696
473.672934	8577.498063
474.043479	8935.898896
474.413965	8873.323053
474.784393	8760.529757
475.154761	8914.252182
475.525070	8999.457764
475.895321	8824.880086
476.265513	9001.650666
476.635645	9176.858488
477.005719	9170.907406
477.375734	9293.173031
477.745691	9522.883288
478.115588	9658.916304
478.485427	9900.858921
478.855207	10427.339385
479.224928	11246.741134
479.594591	11870.780527
479.964194	11683.146261
480.333739	11624.089143
480.703226	11536.932635
481.072653	11625.901438
481.442022	11872.912936
481.811333	12055.163250
482.180584	11861.482119
482.549777	11574.254817
482.918912	11392.899307
483.287988	11420.446693
483.657005	11427.877353
484.025964	11111.635690
484.394864	11238.798796
484.763706	11210.893489
485.132489	10970.269134
485.501213	10933.826633
485.869879	11009.527119
486.238487	10852.243119
486.607036	10966.384925
486.975527	10745.342931
487.343959	10936.503485
487.712333	10984.417132
488.080648	10911.426265
488.448905	10957.283121
488.817104	10895.776003
489.185244	11163.355408
489.553326	11315.714201
489.921350	11861.063703
490.289315	12908.673446
490.657222	13257.302002
491.025070	13161.250377
491.392861	13024.919933
491.760593	12652.285403
492.128267	12304.102989
492.495883	11977.816827
492.863440	11641.619756
493.230939	11307.350927
493.598380	11243.237532
493.965763	11111.189548
494.333088	11015.211020
494.700354	10937.002559
495.067563	10994.335602
495.434713	10830.669501
495.801805	10944.849115
496.168839	10872.364885
496.535815	10810.729217
496.902733	10807.732251
497.269593	10749.834599
497.636395	10842.705256
498.003139	10829.646147
498.369825	10700.166631
498.736453	10861.279388
499.103023	10785.278952
499.469535	10810.091511
499.835989	10802.590274
500.202385	10762.984449
500.568723	10614.950967
500.935003	10844.731800
501.301226	10651.534620
501.667390	10905.601212
502.033497	11001.950265
502.399546	10856.381907
502.765537	10769.900912
503.131470	10842.801038
503.497345	11015.188335
503.863163	10625.247523
504.228923	10938.703949
504.594625	11001.136119
504.960269	10744.324618
505.325856	10962.624224
505.691385	10765.348750
506.056856	10916.306102
506.422270	10942.426841
506.787625	10831.823926
507.152924	10943.886255
507.518164	10934.517271
507.883347	10854.819149
508.248472	10763.349933
508.613540	11002.446819
508.978550	10881.892666
509.343503	10857.385096
509.708398	10973.883641
510.073236	11090.563667
510.438016	11096.653381
510.802738	11043.441482
511.167403	11101.881058
511.532010	10991.555406
511.896561	11221.535365
512.261053	11299.010338
512.625488	11169.465287
512.989866	11150.911320
513.354186	11140.289609
513.718449	11041.414938
514.082655	11234.773435
514.446803	11126.620520
514.810894	11250.229612
515.174927	11114.030238
515.538904	11137.436316
515.902822	11288.305447
516.266684	11176.275886
516.630488	11120.644232
516.994235	11173.382263
517.357925	11231.960471
517.721558	11324.760552
518.085133	11342.548263
518.448651	11349.321053
518.812112	11238.229146
519.175516	11245.604354
519.538863	11367.872499
519.902152	11281.961155
520.265385	11448.888883
520.628560	11355.811539
520.991678	11330.540234
521.354739	11396.793599
521.717743	11328.324647
522.080690	11312.437451
522.443580	11448.513317
522.806413	11403.573951
523.169189	11435.149218
523.531908	11482.757875
523.894569	11304.051492
524.257174	11310.365537
524.619722	11435.015627
524.982213	11378.650486
525.344647	11432.379104
525.707025	11389.912424
526.069345	11472.582306
526.431608	11398.923486
526.793815	11498.851758
527.155964	11290.558843
527.518057	11345.313336
527.880093	11294.962291
528.242072	11363.153979
528.603995	11266.447004
528.965860	11187.512617
529.327669	11244.979251
529.689421	11194.605521
530.051117	11162.768114
530.412755	11263.013979
530.774337	11156.244861
531.135862	11136.765842
531.497331	11157.318627
531.858743	11013.141627
532.220098	11179.529950
532.581396	11049.400126
532.942638	11027.266940
533.303824	10993.876857
533.664953	11012.390495
534.026025	10917.526062
534.387040	11028.408761
534.747999	11030.210973
535.108902	11081.124107
535.469748	10842.687612
535.830537	10944.783580
536.191270	10923.305744
536.551947	10950.719539
536.912567	10942.265524
537.273131	10869.060408
537.633638	10848.225320
537.994089	10839.496562
538.354483	10790.839345
538.714821	10937.360481
539.075103	10938.073805
539.435328	10906.488455
539.795497	10730.353060
540.155609	10894.634182
540.515665	10981.193314
540.875665	10712.315812
541.235609	10786.201483
541.595496	10777.142530
541.955328	10931.066601
542.315102	10822.883439
542.674821	10766.054512
543.034483	10771.299832
543.394090	10769.285892
543.753640	10694.288646
544.113134	10925.677607
544.472571	10776.151943
544.831953	10922.559654
545.191278	10726.368028
545.550548	10762.850859
545.909761	10883.730166
546.268918	10866.093689
546.628019	10951.248860
546.987064	10815.742645
547.346053	10731.890612
547.704986	10837.152425
548.063863	10821.729015
548.422684	10810.562859
548.781449	10731.300797
549.140158	10829.953658
549.498811	10709.452437
549.857408	10565.976157
550.215949	10797.821343
550.574434	10657.228603
550.932864	10746.300751
551.291237	10807.094545
551.649555	10758.694427
552.007817	10762.064439
552.366022	10730.247196
552.724173	10718.019877
553.082267	10706.173166
553.440305	10843.589979
553.798288	10647.448765
554.156215	10805.214195
554.514086	10780.890628
554.871902	10626.583429
555.229661	10666.393421
555.587365	10639.975254
555.945014	10530.897288
556.302606	10659.459314
556.660143	10551.737418
557.017625	10703.536643
557.375050	10605.922260
557.732421	10738.983516
558.089735	10650.354990
558.446994	10649.278704
558.804197	10685.237254
559.161345	10687.500732
559.518437	10539.568073
559.875474	10629.731630
560.232455	10655.693572
560.589381	10607.623649
560.946251	10604.349420
561.303065	10714.798580
561.659825	10642.082457
562.016528	10579.015101
562.373177	10456.167223
562.729770	10573.840357
563.086307	10485.330298
563.442789	10579.637684
563.799216	10458.473551
564.155587	10505.883082
564.511904	10460.038829
564.868164	10446.253794
565.224370	10468.061826
565.580520	10389.266071
565.936615	10396.404344
566.292654	10271.292988
566.648638	10402.746116
567.004567	10356.473365
567.360441	10339.613226
567.716260	10246.737528
568.072023	10345.120686
568.427732	10293.622779
568.783385	10207.121620
569.138982	10272.961610
569.494525	10288.967274
569.850013	10165.726186
570.205445	10252.214742
570.560823	10142.423452
570.916145	10062.793386
571.271412	10137.334407
571.626625	10081.485984
571.981782	10056.930524
572.336884	10021.574391
572.691931	10029.713334
573.046923	9981.502259
573.401860	9939.859808
573.756743	9862.747798
574.111570	9916.451210
574.466342	9900.861442
574.821059	9927.166183
575.175722	9824.737498
575.530330	9831.837963
575.884882	9824.442591
576.239380	9746.279500
576.593823	9720.420902
576.948211	9742.972503
577.302544	9625.495975
577.656823	9644.556577
578.011047	9642.706474
578.365216	9611.965518
578.719330	9538.803252
579.073389	9550.181136
579.427394	9500.608950
579.781344	9476.108942
580.135239	9424.774873
580.489080	9436.117469
580.842866	9334.792797
581.196597	9338.437551
581.550273	9381.670487
581.903895	9347.539355
582.257463	9410.190815
582.610975	9290.274368
582.964434	9318.310745
583.317837	9246.202080
583.671186	9220.527483
584.024481	9214.626813
584.377721	9137.572776
584.730906	9112.944219
585.084037	9148.375969
585.437113	9077.802336
585.790135	9102.854350
586.143103	8999.044389
586.496016	8976.626378
586.848874	9027.683184
587.201679	9019.932410
587.554428	8906.279597
587.907124	8953.837842
588.259765	8925.841794
588.612352	8924.886496
588.964884	8802.673803
589.317362	8814.752407
589.669786	8817.605701
590.022155	8863.500365
590.374470	8880.899908
590.726731	8817.391452
591.078937	8670.915685
591.431090	8780.830483
591.783188	8660.452771
592.135232	8655.038571
592.487222	8643.370821
592.839157	8704.565387
593.191038	8633.149881
593.542866	8578.745749
593.894639	8478.729257
594.246358	8532.863687
594.598022	8544.239051
594.949633	8443.143752
595.301190	8422.752284
595.652692	8445.961757
596.004141	8563.828975
596.355535	8334.847164
596.706876	8317.208167
597.058162	8255.627952
597.409395	8327.643355
597.760573	8393.465701
598.111698	8299.964900
598.462768	8286.091645
598.813785	8255.053261
599.164748	8224.725679
599.515657	8209.491312
599.866511	8123.464022
600.217312	8250.082683
600.568060	8105.744366
600.918753	8210.018113
601.269392	8181.775048
601.619978	8088.730472
601.970510	8156.715472
602.320988	8150.149370
602.671412	8206.932927
603.021783	8146.653329
603.372100	8116.534956
603.722363	8124.026110
604.072572	8096.690454
604.422728	8102.870908
604.772830	8036.914972
605.122878	8040.927730
605.472872	8041.552833
605.822813	8061.656955
606.172701	8011.999069
606.522534	8085.811644
606.872314	8085.219308
607.222041	8054.155718
607.571714	8112.239893
607.921333	8069.294303
608.270899	8080.294101
608.620411	8163.647059
608.969870	8074.955519
609.319276	8065.402532
609.668627	8082.711334
610.017926	8113.013710
610.367171	8163.026997
610.716362	8139.184860
611.065500	8128.457285
611.414585	8160.670258
611.763616	8143.363977
612.112594	8125.465360
612.461518	8144.644430
612.810389	8202.721043
613.159207	8140.225858
613.507971	8088.899350
613.856682	8211.291004
614.205340	8165.920619
614.553945	8245.129749
614.902496	8144.198287
615.250994	8196.964045
615.599439	8179.579626
615.947830	8188.447015
616.296169	8165.265269
616.644454	8178.132815
616.992686	8173.086620
617.340864	8236.756393
617.688990	8134.554560
618.037063	8231.001916
618.385082	8179.652722
618.733048	8267.716639
619.080961	8194.962707
619.428821	8217.352992
619.776628	8220.223929
620.124382	8170.813059
620.472083	8157.436357
620.819731	8178.934358
621.167326	8070.599962
621.514868	8085.284843
621.862357	7971.470713
622.209793	7993.072057
622.557176	7927.753827
622.904506	7892.788383
623.251783	7830.283117
623.599007	7786.246117
623.946179	7786.677136
624.293297	7743.121567
624.640363	7663.592324
624.987376	7641.328068
625.334336	7593.331242
625.681243	7539.249744
626.028097	7531.360338
626.374899	7513.376022
626.721647	7497.284658
627.068343	7432.291583
627.414987	7404.290493
627.761577	7359.043617
628.108115	7392.975624
628.454600	7291.542567
628.801032	7346.483582
629.147412	7302.244937
629.493739	7286.342617
629.840014	7228.087043
630.186236	7283.605270
630.532405	7171.585791
630.878521	7218.493727
631.224585	7174.607962
631.570597	7097.465706
631.916556	7135.067672
632.262462	7136.174206
632.608316	7092.664007
632.954117	7067.327168
633.299866	7056.337452
633.645562	7047.699435
633.991206	6967.028371
634.336797	6905.586788
634.682336	6868.567074
635.027823	6835.673545
635.373257	6828.250446
635.718639	6757.157574
636.063968	6773.392610
636.409245	6664.055024
636.754470	6662.272977
637.099642	6621.900896
637.444762	6568.613379
637.789829	6575.149235
638.134845	6520.288878
638.479808	6501.218193
638.824719	6503.842114
639.169577	6439.534635
639.514383	6458.610361
639.859137	6384.787704
640.203839	6392.412449
640.548489	6377.793103
640.893086	6357.504980
641.237632	6326.746379
641.582125	6349.862590
641.926566	6315.834802
642.270955	6333.151165
642.615292	6324.997099
642.959576	6337.617628
643.303809	6330.171843
643.647990	6336.374983
643.992118	6328.195711
644.336195	6275.031703
644.680219	6301.467513
645.024192	6292.506863
645.368112	6386.408435
645.711981	6406.532721
646.055797	6485.348641
646.399562	6438.138235
646.743274	6567.181692
647.086935	6619.821420
647.430544	6613.749350
647.774101	6637.664584
648.117606	6644.888558
648.461059	6632.510004
648.804460	6597.398368
649.147810	6506.448391
649.491108	6473.219625
649.834354	6447.839936
650.177548	6366.929417
650.520690	6278.500017
650.863781	6261.395382
651.206820	6279.800634
651.549807	6198.386000
651.892742	6145.695860
652.235626	6145.506816
652.578458	6131.381503
652.921238	6045.051744
653.263967	6082.265541
653.606644	6022.910996
653.949269	6028.708323
654.291843	5966.863448
654.634365	6013.965468
654.976836	5969.706658
655.319255	5967.942254
655.661622	5945.025169
656.003938	5939.747081
656.346203	5904.040588
656.688416	5934.436225
657.030577	5887.946705
657.372687	5855.393454
657.714746	5843.715621
658.056753	5889.156582
658.398708	5826.386654
658.740612	5818.552701
659.082465	5866.864599
659.424266	5855.496797
659.766016	5855.030491
660.107715	5834.921328
660.449362	5846.878945
660.790958	5839.304611
661.132503	5827.720040
661.473996	5866.496595
661.815438	5853.359348
662.156829	5852.106621
662.498168	5840.907698
662.839456	5815.712011
663.180693	5854.163412
663.521879	5854.443196
663.863013	5844.920457
664.204097	5860.898394
664.545129	5903.430609
664.886110	5901.003293
665.227040	5935.540238
665.567918	5896.390637
665.908746	5928.170071
666.249522	5930.925062
666.590248	5915.168935
666.930922	5942.222288
667.271545	5957.595286
667.612118	5958.520338
667.952639	5933.223828
668.293109	5955.379699
668.633528	5914.758081
668.973896	5914.218678
669.314213	5909.371608
669.654480	5889.431324
669.994695	5883.651642
670.334859	5873.438264
670.674973	5862.816553
671.015035	5868.770155
671.355047	5869.017172
671.695008	5853.399677
672.034918	5825.650646
672.374777	5835.014589
672.714585	5821.511859
673.054342	5827.420091
673.394049	5817.330222
673.733705	5849.581003
674.073310	5840.116237
674.412864	5794.965143
674.752368	5791.648063
675.091820	5793.256191
675.431223	5729.644392
675.770574	5731.446604
676.109875	5679.469787
676.449125	5687.394481
676.788324	5650.425179
677.127473	5596.396613
677.466571	5588.000571
677.805619	5578.208130
678.144616	5568.274536
678.483562	5546.670672
678.822458	5510.505434
679.161303	5506.603581
679.500098	5493.483978
679.838842	5473.916739
680.177535	5480.336649
680.516179	5499.510677
680.854771	5508.120968
681.193314	5591.491570
681.531805	5698.976532
681.870247	5844.832236
682.208638	5948.697650
682.546978	5966.117357
682.885268	5940.341937
683.223508	5855.164081
683.561697	5803.076359
683.899836	5775.261793
684.237925	5727.128856
684.575963	5690.918248
684.913951	5650.531044
685.251889	5713.812648
685.589776	5683.016239
685.927614	5655.511704
686.265401	5724.683896
686.603137	5706.674374
686.940824	5785.245798
687.278460	5808.866124
687.616046	5816.611857
687.953582	5884.843874
688.291068	5864.449887
688.628504	5931.282984
688.965889	5892.672786
689.303224	5832.778838
689.640510	5792.759638
689.977745	5715.377926
690.314930	5616.253718
690.652065	5557.932609
690.989150	5465.240913
691.326185	5392.126539
691.663170	5338.299618
692.000105	5258.914048
692.336990	5181.239950
692.673825	5160.480478
693.010610	5093.987659
693.347345	5021.891597
693.684030	5007.945245
694.020665	4964.422443
694.357251	4873.832909
694.693786	4883.511924
695.030272	4852.231565
695.366707	4818.077747
695.703093	4783.671872
696.039429	4808.328156
696.375716	4786.777223
696.711952	4762.269654
697.048139	4750.306996
697.384276	4727.677256
697.720363	4738.777877
698.056400	4753.339250
698.392388	4701.974933
698.728326	4684.277962
699.064214	4658.973891
699.400053	4653.995751
699.735842	4619.330257
700.071581	4594.989046
700.407270	4567.582813
700.742910	4551.831727
701.078501	4498.337523
701.414042	4497.039426
701.749533	4468.841732
702.084974	4403.092483
702.420366	4456.006955
702.755709	4398.719282
703.091002	4339.349613
703.426246	4389.650247
703.761440	4349.784802
704.096584	4312.255932
704.431679	4330.252851
704.766725	4316.989576
705.101721	4304.807627
705.436668	4337.582689
705.771565	4281.832569
706.106413	4306.874500
706.441212	4340.156198
706.775961	4348.179194
707.110661	4331.911391
707.445311	4357.651522
707.779913	4379.812435
708.114465	4394.179723
708.448967	4413.164709
708.783421	4480.413701
709.117825	4519.654042
709.452180	4519.260832
709.786485	4567.580292
710.120742	4654.124301
710.454949	4639.527640
710.789107	4699.913101
711.123216	4779.412097
711.457275	4769.775932
711.791286	4843.759906
712.125247	4860.728429
712.459159	4762.930045
712.793023	4837.576930
713.126837	4796.703255
713.460602	4788.057676
713.794318	4708.783011
714.127985	4718.585535
714.461602	4631.098831
714.795171	4602.475159
715.128691	4536.362947
715.462162	4481.767251
715.795584	4431.794293
716.128957	4415.218979
716.462281	4361.999518
716.795556	4335.992205
717.128782	4301.298984
717.461960	4229.298704
717.795088	4238.370261
718.128167	4197.917522
718.461198	4141.655724
718.794180	4135.162718
719.127113	4117.737970
719.459997	4092.396089
719.792833	4048.923699
720.125619	4042.226526
720.458357	4005.199251
720.791046	4013.794419
721.123686	3984.550685
721.456278	3943.729942
721.788821	3958.180409
722.121315	3936.566462
722.453761	3910.039911
722.786158	3919.857558
723.118506	3941.993264
723.450805	3896.731265
723.783056	3913.694747
724.115259	3935.427162
724.447412	3938.149385
724.779518	3931.411882
725.111574	3933.743416
725.443582	3962.969506
725.775542	3950.084316
726.107453	3997.030062
726.439315	3998.381091
726.771129	4014.696785
727.102895	4053.339750
727.434612	4100.227522
727.766281	4109.820838
728.097901	4112.969038
728.429473	4117.311992
728.760996	4123.187457
729.092471	4118.174030
729.423897	4097.517902
729.755276	4107.824541
730.086606	4108.066516
730.417887	4147.057321
730.749120	4209.197103
731.080305	4274.951394
731.411442	4299.325373
731.742530	4267.195578
732.073570	4272.642545
732.404562	4328.783355
732.735506	4318.123835
733.066401	4281.749390
733.397249	4218.734967
733.728048	4144.022546
734.058798	4058.234710
734.389501	3989.730471
734.720156	3925.425512
735.050762	3882.830283
735.381320	3872.944580
735.711831	3826.064370
736.042293	3793.853918
736.372707	3819.044563
736.703073	3793.833753
737.033391	3780.837658
737.363661	3797.128147
737.693883	3824.098320
738.024056	3834.614167
738.354182	3828.552179
738.684260	3891.246489
739.014290	3912.878080
739.344272	3908.683840
739.674207	3950.185139
740.004093	3950.336374
740.333931	3946.313533
740.663722	3949.507104
740.993464	3947.233544
741.323159	3923.645985
741.652806	3892.163979
741.982405	3868.553735
742.311956	3831.087880
742.641460	3825.522446
742.970915	3800.440185
743.300323	3762.571037
743.629683	3728.215574
743.958996	3712.605641
744.288260	3690.180068
744.617477	3657.152949
744.946647	3642.740290
745.275768	3619.384624
745.604842	3615.714664
745.933869	3571.707912
746.262847	3562.603588
746.591778	3598.242025
746.920662	3571.614650
747.249498	3536.024104
747.578286	3585.109819
747.907027	3604.427521
748.235720	3597.697580
748.564365	3623.674646
748.892963	3625.794451
749.221514	3606.343159
749.550017	3586.491095
749.878473	3582.987493
750.206881	3554.404151
750.535242	3548.137997
750.863555	3548.647153
751.191821	3546.141700
751.520039	3528.353988
751.848210	3501.658558
752.176334	3537.261707
752.504411	3543.500135
752.832440	3505.280627
753.160421	3487.003924
753.488356	3498.396932
753.816243	3504.232067
754.144082	3464.999288
754.471875	3451.478913
754.799620	3470.199238
755.127318	3462.844194
755.454969	3461.699852
755.782572	3468.848208
756.110129	3441.734363
756.437638	3434.316305
756.765100	3444.196966
757.092515	3456.988894
757.419882	3460.011066
757.747203	3436.564659
758.074477	3435.657252
758.401703	3453.200467
758.728882	3474.567397
759.056014	3484.495950
759.383099	3488.949809
759.710138	3479.341370
760.037129	3502.757530
760.364073	3530.473794
760.690970	3514.763038
761.017820	3494.532887
761.344623	3509.520238
761.671379	3557.995973
761.998088	3604.319136
762.324751	3734.196903
762.651366	3979.020539
762.977935	4450.723825
763.304456	4893.349736
763.630931	4988.418336
763.957359	4629.699910
764.283740	4288.559988
764.610074	4096.839867
764.936362	3900.335690
765.262602	3742.953387
765.588796	3630.165132
765.914943	3541.846637
766.241044	3454.087710
766.567097	3422.850200
766.893104	3377.613406
767.219064	3345.287007
767.544978	3318.702482
767.870845	3264.709204
768.196665	3246.389651
768.522438	3253.139756
768.848165	3249.638675
769.173846	3214.496791
769.499479	3196.946014
769.825066	3180.259795
770.150607	3165.491735
770.476101	3177.807273
770.801548	3171.720080
771.126949	3130.138123
771.452303	3112.279835
771.777611	3119.087913
772.102872	3124.925570
772.428087	3099.616457
772.753256	3088.488110
773.078378	3080.142479
773.403453	3048.670556
773.728482	3035.921478
774.053465	3057.321176
774.378401	3044.128476
774.703291	3016.583612
775.028135	3016.986904
775.352932	3009.604134
775.677683	2998.717763
776.002388	2995.430930
776.327046	2995.380519
776.651658	2984.811740
776.976224	2974.177426
777.300743	2973.746407
777.625216	2964.957155
777.949643	2957.024900
778.274024	2962.771815
778.598359	2953.463324
778.922647	2955.822584
779.246889	2956.298973
779.571086	2941.543516
779.895236	2934.581683
780.219339	2946.395627
780.543397	2957.367698
780.867409	2962.345838
781.191374	2952.336627
781.515294	2951.454425
781.839167	2952.760083
782.162995	2941.120059
782.486776	2951.255299
782.810511	2949.448045
783.134201	2933.613781
783.457844	2939.983279
783.781441	2932.542536
784.104993	2912.859351
784.428498	2913.199629
784.751958	2927.198913
785.075372	2922.273706
785.398739	2905.610172
785.722061	2918.949065
786.045337	2935.174018
786.368568	2917.845052
786.691752	2908.314751
787.014891	2959.119499
787.337983	2986.835763
787.661030	3012.961543
787.984031	3082.410999
788.306987	3129.117289
788.629897	3118.493057
788.952760	3104.486211
789.275579	3087.928542
789.598351	3032.196065
789.921078	2983.914414
790.243759	2976.241778
790.566395	2960.014304
790.888984	2934.589244
791.211529	2918.959147
791.534027	2908.821387
791.856480	2899.676733
792.178888	2886.466390
792.501249	2875.935419
792.823566	2874.347456
793.145836	2872.792260
793.468062	2866.213554
793.790241	2863.912267
794.112375	2868.351003
794.434464	2880.618651
794.756507	2887.580485
795.078505	2893.521485
795.400457	2906.865419
795.722364	2942.763475
796.044226	2967.898668
796.366042	2971.460244
796.687812	2959.366516
797.009538	2979.001810
797.331218	2965.917495
797.652852	2950.534414
797.974442	2934.553956
798.295986	2931.284768
798.617484	2924.665733
798.938938	2909.222158
799.260346	2895.419479
799.581709	2890.564848
799.903026	2884.258364
800.224299	2877.740153
800.545526	2868.968545
800.866708	2853.076307
801.187845	2841.849658
801.508936	2842.774709
801.829983	2852.274764
802.150984	2840.685151
802.471940	2826.532112
802.792851	2827.192503
803.113717	2828.082267
803.434538	2832.228616
803.755314	2823.719148
804.076045	2817.014413
804.396731	2815.935606
804.717372	2818.040288
805.037967	2813.563743
805.358518	2819.441729
805.679024	2831.568224
805.999485	2825.657472
806.319901	2830.927998
806.640272	2822.156390
806.960598	2827.285764
807.280879	2836.284224
807.601115	2844.828980
807.921306	2828.477997
808.241453	2826.718634
808.561554	2832.009325
808.881611	2833.531754
809.201623	2829.438337
809.521590	2829.816423
809.841513	2824.732420
810.161390	2830.310457
810.481223	2822.027841
810.801011	2812.283290
811.120755	2809.613999
811.440453	2813.432673
811.760107	2810.506284
812.079716	2810.254226
812.399281	2799.657721
812.718801	2794.208233
813.038276	2789.456946
813.357707	2795.473563
813.677093	2801.631332
813.996434	2795.702935
814.315731	2793.179838
814.634983	2786.379321
814.954191	2787.347223
815.273354	2803.927578
815.592473	2811.164154
815.911547	2811.549802
816.230577	2820.326451
816.549562	2830.128975
816.868502	2826.300219
817.187399	2837.378154
817.506250	2854.659230
817.825058	2846.409381
818.143821	2861.653831
818.462539	2876.492467
818.781213	2905.799215
819.099843	2941.619133
819.418429	2998.425376
819.736970	3057.263203
820.055466	3134.460912
820.373919	3236.345152
820.692327	3375.049979
821.010691	3543.684137
821.329011	3985.213597
821.647286	4885.193149
821.965517	6262.254898
822.283704	7009.749629
822.601847	6989.970662
822.919945	6358.745103
823.237999	5846.337021
823.556010	5267.804123
823.873976	4710.156726
824.191897	4300.736896
824.509775	4011.014222
824.827609	3741.125969
825.145398	3615.719705
825.463144	3606.194445
825.780845	3695.523691
826.098502	3801.914723
826.416116	4079.122731
826.733685	4397.285074
827.051210	4463.525836
827.368692	4346.954194
827.686129	4082.908638
828.003522	3754.734564
828.320872	3498.807786
828.638177	3302.338897
828.955439	3168.740758
829.272656	3084.056935
829.589830	3018.426153
829.906960	2967.139975
830.224046	2920.259765
830.541088	2887.595608
830.858086	2872.701519
831.175041	2856.048067
831.491952	2858.117461
831.808819	2869.223123
832.125642	2890.380846
832.442421	2936.144440
832.759157	3019.494878
833.075849	3197.256045
833.392497	3477.839106
833.709101	3681.259746
834.025662	3631.153198
834.342179	3470.400884
834.658653	3296.420582
834.975083	3144.933909
835.291469	3049.209959
835.607811	2966.721559
835.924110	2909.537230
836.240366	2859.297091
836.556578	2814.375369
836.872746	2790.001390
837.188871	2768.672268
837.504952	2751.116450
837.820990	2741.714698
838.136984	2729.686505
838.452935	2722.563355
838.768842	2721.038406
839.084706	2738.972311
839.400526	2816.316213
839.716303	2950.325206
840.032037	3031.386960
840.347727	3015.197294
840.663373	2955.121864
840.978977	2878.861809
841.294537	2810.002168
841.610054	2757.614497
841.925527	2737.623802
842.240957	2716.070349
842.556344	2694.705939
842.871687	2678.763290
843.186987	2670.372289
843.502244	2664.973213
843.817458	2661.008346
844.132629	2650.416882
844.447756	2641.471354
844.762840	2632.225878
845.077881	2637.191414
845.392879	2637.390540
845.707833	2632.180507
846.022745	2620.573251
846.337613	2626.564662
846.652438	2623.764301
846.967221	2623.071142
847.281960	2625.737913
847.596656	2621.689866
847.911309	2619.882613
848.225919	2618.173662
848.540485	2615.365739
848.855009	2614.211315
849.169490	2614.922117
849.483928	2615.769031
849.798323	2615.370780
850.112675	2612.028495
850.426984	2614.861623
850.741251	2613.041767
851.055474	2609.394492
851.369654	2615.849690
851.683792	2616.013527
851.997887	2612.560337
852.311938	2610.947167
852.625947	2615.501850
852.939914	2614.980091
853.253837	2617.606532
853.567718	2611.284925
853.881555	2608.275356
854.195350	2613.626541
854.509103	2614.158382
854.822812	2609.389451
855.136479	2611.632764
855.450103	2611.501694
855.763685	2614.609566
856.077224	2611.413474
856.390720	2606.115222
856.704173	2611.993207
857.017584	2615.819443
857.330953	2617.170472
857.644278	2619.121398
857.957561	2618.957561
858.270802	2614.085286
858.584000	2616.205091
858.897155	2618.919752
859.210268	2619.844804
859.523339	2611.809205
859.836367	2610.561519
860.149352	2610.198556
860.462295	2613.442539
860.775195	2606.831065
861.088054	2607.070520
861.400869	2606.755448
861.713642	2604.930550
862.026373	2606.475664
862.339062	2608.413988
862.651708	2617.112499
862.964312	2613.981942
863.276873	2613.145111
863.589392	2617.225925
863.901869	2623.093828
864.214303	2626.693212
864.526696	2626.723458
864.839045	2629.438120
865.151353	2630.912657
865.463619	2632.477936
865.775842	2628.384519
866.088023	2630.779067
866.400162	2632.177987
866.712258	2633.115642
867.024313	2632.724952
867.336325	2625.841257
867.648296	2627.716566
867.960224	2636.788122
868.272110	2633.208903
868.583954	2628.966772
868.895755	2627.575413
869.207515	2633.166053
869.519233	2639.228041
869.830909	2636.422638
870.142542	2629.422996
870.454134	2634.272586
870.765684	2638.466826
871.077191	2641.557054
871.388657	2644.458238
871.700081	2640.563946
872.011463	2641.952784
872.322803	2643.573515
872.634101	2646.641057
872.945357	2650.933600
873.256571	2660.542039
873.567744	2657.582882
873.878874	2656.108344
874.189963	2655.760505
874.501010	2662.046823
874.812015	2665.666372
875.122979	2668.396157
875.433900	2657.948365
875.744780	2655.395021
876.055618	2663.738131
876.366415	2667.161074
876.677169	2666.054541
876.987882	2659.740496
877.298554	2659.894251
877.609183	2670.145437
877.919771	2679.327899
878.230317	2683.907787
878.540822	2693.997657
878.851285	2708.795964
879.161707	2732.212123
879.472087	2771.543206
879.782425	2818.128508
880.092722	2930.684871
880.402977	3120.905249
880.713191	3381.099364
881.023363	3675.164991
881.333494	3867.958879
881.643583	4040.777195
881.953631	4038.586813
882.263637	3860.263558
882.573602	3640.471771
882.883526	3507.014784
883.193408	3391.741240
883.503248	3290.686270
883.813048	3177.514887
884.122806	3060.870148
884.432522	2978.200266
884.742197	2913.865061
885.051831	2874.276880
885.361424	2838.882939
885.670975	2802.309367
885.980485	2772.271652
886.289954	2755.799682
886.599382	2741.414750
886.908768	2730.558625
887.218113	2710.416695
887.527417	2696.644262
887.836680	2689.286698
888.145901	2683.154135
888.455082	2675.509225
888.764221	2664.396001
889.073319	2656.715803
889.382376	2656.645227
889.691392	2657.850063
890.000366	2658.722182
890.309300	2655.140443
890.618193	2656.557007
890.927044	2661.981288
891.235855	2658.603715
891.544625	2660.446257
891.853353	2660.907523
892.162041	2666.140240
892.470687	2686.506502
892.779293	2700.866229
893.087858	2708.490974
893.396381	2732.060889
893.704864	2771.906169
894.013306	2841.832014
894.321707	2937.833227
894.630068	2989.217708
894.938387	3006.700430
895.246665	2999.453771
895.554903	2955.056329
895.863100	2913.708785
896.171256	2854.507995
896.479371	2794.490538
896.787446	2753.831112
897.095480	2732.353276
897.403473	2729.278172
897.711425	2713.998434
898.019336	2697.445806
898.327207	2681.407375
898.635038	2681.989628
898.942827	2678.037363
899.250576	2667.866836
899.558284	2658.601195
899.865952	2652.670277
900.173579	2651.251192
900.481165	2648.944865
900.788711	2641.809111
901.096216	2632.039355
901.403681	2630.264869
901.711105	2629.972482
902.018489	2626.796555
902.325832	2634.086064
902.633135	2632.387195
902.940397	2648.317241
903.247619	2684.913497
903.554800	2755.860176
903.861941	2882.332644
904.169041	3010.037673
904.476101	3074.390523
904.783121	3067.781570
905.090100	3007.244874
905.397039	2936.792229
905.703938	2862.362113
906.010796	2798.349541
906.317614	2743.877353
906.624391	2708.919472
906.931129	2681.016685
907.237826	2658.349137
907.544483	2639.666621
907.851099	2625.876545
908.157675	2618.740791
908.464211	2611.519338
908.770707	2598.387133
909.077163	2597.439396
909.383578	2591.914291
909.689954	2592.216760
909.996289	2588.287181
910.302584	2588.733323
910.608839	2586.858014
910.915054	2586.731985
911.221229	2588.723241
911.527363	2591.077460
911.833458	2587.321800
912.139513	2587.780545
912.445527	2593.499734
912.751502	2599.607092
913.057436	2603.317381
913.363331	2608.671087
913.669186	2621.435288
913.975000	2632.535909
914.280775	2651.271357
914.586510	2671.035201
914.892205	2705.980479
915.197859	2774.925820
915.503475	2855.687625
915.809050	2922.495516
916.114585	2939.259873
916.420081	2950.415947
916.725536	2960.324335
917.030952	2934.833740
917.336328	2889.417985
917.641665	2837.284893
917.946961	2788.791513
918.252218	2754.874630
918.557435	2729.225240
918.862612	2706.363607
919.167750	2688.969106
919.472848	2672.723987
919.777906	2656.385608
920.082925	2642.459420
920.387904	2633.448358
920.692843	2629.561628
920.997743	2620.873199
921.302603	2617.987139
921.607423	2609.245778
921.912204	2604.960797
922.216946	2600.469129
922.521647	2600.093563
922.826310	2595.395208
923.130932	2589.086204
923.435516	2586.590833
923.740059	2584.110585
924.044564	2584.024885
924.349028	2579.523135
924.653454	2573.035170
924.957840	2569.173646
925.262186	2566.953018
925.566493	2569.844120
925.870761	2562.037893
926.174989	2563.593089
926.479178	2561.117882
926.783328	2562.872204
927.087438	2561.606874
927.391509	2557.538663
927.695541	2557.256358
927.999533	2558.577141
928.303486	2556.227963
928.607400	2556.895916
928.911275	2557.442881
929.215110	2556.578323
929.518906	2555.262582
929.822663	2557.538663
930.126381	2557.213509
930.430060	2556.885834
930.733699	2555.315514
931.037299	2554.670247
931.340861	2555.532284
931.644383	2555.365926
931.947866	2555.242417
932.251309	2556.308622
932.554714	2558.937583
932.858080	2557.137891
933.161407	2555.658313
933.464694	2553.185627
933.767943	2553.394835
934.071153	2557.210988
934.374323	2553.485575
934.677455	2551.227138
934.980548	2553.898950
935.283602	2552.116902
935.586617	2551.499361
935.889593	2552.232849
936.192530	2553.031872
936.495428	2554.488765
936.798287	2551.343085
937.101108	2555.623025
937.403890	2557.241235
937.706632	2562.063099
938.009336	2565.299519
938.312002	2569.072823
938.614628	2571.001064
938.917216	2574.204718
939.219765	2575.996848
939.522275	2574.895356
939.824747	2574.124059
940.127179	2570.907803
940.429573	2567.784808
940.731929	2569.269428
941.034246	2562.405897
941.336524	2566.169118
941.638763	2563.855229
941.940964	2567.295816
942.243126	2563.381360
942.545250	2563.802297
942.847335	2562.320198
943.149381	2561.178376
943.451389	2560.797769
943.753359	2556.716955
944.055290	2559.615618
944.357182	2558.589744
944.659036	2554.854249
944.960851	2557.175700
945.262628	2553.707386
945.564367	2558.035217
945.866067	2557.420196
946.167729	2557.354661
946.469352	2555.653272
946.770937	2557.541184
947.072484	2556.341389
947.373992	2557.745350
947.675462	2556.195196
947.976893	2551.612787
948.278286	2554.377860
948.579641	2552.653785
948.880958	2550.581871
949.182236	2551.819474
949.483476	2551.015410
949.784678	2555.376008
950.085841	2552.558003
950.386967	2554.753426
950.688054	2552.462221
950.989103	2553.122612
951.290114	2554.990360
951.591087	2555.411296
951.892021	2559.482028
952.192917	2558.778787
952.493776	2556.931204
952.794596	2560.838098
953.095378	2563.509910
953.396122	2561.203582
953.696828	2560.981771
953.997496	2555.562531
954.298126	2556.797613
954.598718	2556.963972
954.899272	2553.041954
955.199788	2552.983981
955.500266	2551.708569
955.800706	2545.265974
956.101108	2546.564071
956.401472	2547.330327
956.701798	2542.634492
957.002087	2543.325130
957.302337	2547.456355
957.602550	2544.769420
957.902724	2541.906045
958.202861	2538.588966
958.502960	2540.360931
958.803022	2541.253216
959.103045	2543.693134
959.403031	2539.970242
959.702979	2541.580891
960.002889	2541.117104
960.302762	2537.300951
960.602596	2538.672145
960.902393	2540.181970
961.202153	2537.893287
961.501875	2537.852957
961.801559	2540.935623
962.101205	2538.213400
962.400814	2537.200128
962.700385	2540.799512
962.999918	2538.031918
963.299414	2538.886394
963.598873	2535.602082
963.898293	2537.631147
964.197677	2538.157947
964.497022	2535.455889
964.796331	2538.669624
965.095601	2536.171733
965.394835	2537.689120
965.694030	2537.316074
965.993189	2539.151054
966.292309	2536.738862
966.591393	2539.193904
966.890439	2537.553009
967.189447	2535.569315
967.488419	2535.319777
967.787353	2539.130890
968.086249	2536.751465
968.385108	2540.481919
968.683930	2536.973276
968.982714	2537.321116
969.281462	2537.616023
969.580172	2536.653163
969.878844	2537.835313
970.177480	2540.267670
970.476078	2535.667617
970.774639	2536.630478
971.073162	2534.964376
971.371649	2536.133924
971.670098	2537.197607
971.968510	2535.609644
972.266885	2533.888090
972.565223	2539.193904
972.863524	2536.927906
973.161788	2540.582742
973.460014	2538.427649
973.758204	2537.268183
974.056356	2538.289017
974.354471	2541.170037
974.652550	2537.981507
974.950591	2540.202135
975.248595	2538.462937
975.546563	2538.357073
975.844493	2539.322454
976.142386	2539.453524
976.440243	2536.582587
976.738062	2537.389171
977.035845	2536.302802
977.333590	2538.231044
977.631299	2536.769109
977.928971	2537.734490
978.226606	2536.771630
978.524204	2535.801208
978.821765	2535.894469
979.119290	2538.760365
979.416777	2537.210210
979.714228	2535.166022
980.011642	2536.002854
980.309020	2537.996630
980.606360	2538.775488
980.903664	2534.631660
981.200931	2538.883873
981.498162	2538.621733
981.795356	2540.529810
982.092513	2542.972249
982.389633	2545.447456
982.686717	2549.303938
982.983764	2553.223435
983.280775	2552.847869
983.577749	2553.465411
983.874686	2553.525905
984.171587	2548.832590
984.468451	2547.547096
984.765279	2543.284801
985.062070	2545.404606
985.358824	2541.961498
985.655543	2539.745911
985.952224	2539.503935
986.248869	2535.864222
986.545478	2530.986906
986.842050	2536.345652
987.138586	2531.657379
987.435086	2533.658717
987.731549	2531.758202
988.027975	2535.773481
988.324366	2534.959335
988.620719	2536.703574
988.917037	2530.180321
989.213318	2535.042514
989.509563	2529.678726
989.805772	2532.237112
990.101944	2533.212575
990.398080	2533.210055
990.694180	2535.793646
990.990244	2533.986392
991.286271	2535.501259
991.582262	2534.581248
991.878217	2532.852133
992.174136	2535.075282
992.470019	2534.397246
992.765865	2535.980169
993.061676	2532.521937
993.357450	2534.246012
993.653188	2533.489839
993.948890	2536.038142
994.244556	2532.342976
994.540186	2535.733152
994.835780	2535.080323
995.131337	2534.853471
995.426859	2536.857329
995.722345	2535.823893
996.017795	2538.193235
996.313208	2535.912113
996.608586	2537.358924
996.903928	2537.149716
997.199234	2536.610313
997.494504	2536.726259
997.789738	2539.927392
998.084936	2535.823893
998.380099	2534.470343
998.675225	2537.462268
998.970316	2537.230375
999.265371	2534.850950
999.560390	2534.629139
999.855373	2532.574869
1000.150320	2530.079498
1000.445232	2533.399098
1000.740108	2534.160312
1001.034948	2530.976823
1001.329752	2534.283820
1001.624521	2532.857174
1001.919254	2529.101514
1002.213951	2530.616381
1002.508613	2531.357431
1002.803239	2530.979344
1003.097829	2528.020187
1003.392384	2532.645445
1003.686903	2532.804242
1003.981386	2532.073274
1004.275834	2530.432379
1004.570246	2533.527647
1004.864623	2533.797349
1005.158964	2531.254087
1005.453270	2532.363141
1005.747540	2532.965559
1006.041775	2530.971782
1006.335974	2530.177801
1006.630138	2531.387678
1006.924266	2533.633512
1007.218359	2532.728624
1007.512416	2533.663758
1007.806438	2528.413397
1008.100425	2530.293747
1008.394376	2530.704601
1008.688292	2531.206196
1008.982172	2530.636546
1009.276017	2533.666279
1009.569827	2533.028573
1009.863602	2533.842719
1010.157341	2528.567152
1010.451045	2531.188552
1010.744714	2531.576721
1011.038347	2530.606299
1011.331945	2530.079498
1011.625508	2530.644107
1011.919036	2534.223327
1012.212528	2532.731145
1012.505986	2528.607481
1012.799408	2528.292409
1013.092795	2531.939684
1013.386147	2529.151926
1013.679464	2530.820548
1013.972745	2530.066895
1014.265992	2532.592513
1014.559204	2534.203162
1014.852380	2528.657893
1015.145521	2530.114786
1015.438628	2531.773326
1015.731699	2531.206196
1016.024736	2531.100332
1016.317737	2533.613347
1016.610703	2531.110414
1016.903635	2529.328366
1017.196531	2527.127902
1017.489393	2528.695701
1017.782219	2526.974147
1018.075011	2530.593696
1018.367768	2531.221319
1018.660490	2531.798532
1018.953177	2531.798532
1019.245829	2531.798532
