Dividing Wavelength (nm)	Counts (n)	Blue Motor Position (mm): 22.600000	Red Motor Position (mm): 0.000000	
326.493990	2134.663993
326.888308	2134.663993
327.282561	2134.663993
327.676750	2099.874991
328.070874	2102.118304
328.464933	2104.147368
328.858929	2107.247678
329.252859	2120.783176
329.646726	2129.915226
330.040528	2144.106074
330.434265	2159.940339
330.827938	2177.145797
331.221547	2193.940401
331.615091	2216.544935
332.008571	2235.431618
332.401986	2253.461304
332.795338	2274.409819
333.188625	2294.385391
333.581847	2310.766621
333.975006	2329.560042
334.368100	2347.398165
334.761129	2366.698223
335.154095	2384.208670
335.546996	2403.470919
335.939833	2424.968920
336.332606	2438.340580
336.725315	2452.657457
337.117960	2459.647017
337.510540	2470.102370
337.903056	2481.339102
338.295508	2488.336224
338.687896	2497.344766
339.080220	2506.237361
339.472480	2510.913031
339.864676	2517.625328
340.256807	2521.229752
340.648875	2523.924249
341.040879	2526.626308
341.432818	2528.962882
341.824694	2528.741072
342.216506	2529.608150
342.608253	2528.582275
342.999937	2530.074457
343.391557	2530.936494
343.783113	2528.645290
344.174605	2526.651513
344.566033	2526.308715
344.957397	2523.273940
345.348697	2524.539270
345.739934	2518.736902
346.131106	2517.368229
346.522215	2517.458969
346.913260	2516.412930
347.304241	2512.682476
347.695159	2512.995028
348.086012	2511.162568
348.476802	2511.941427
348.867528	2506.875067
349.258191	2505.710560
349.648789	2503.227792
350.039324	2503.714263
350.429796	2501.165960
350.820203	2502.874911
351.210548	2499.613285
351.600828	2496.442399
351.991045	2496.991885
352.381198	2496.276041
352.771288	2497.105311
353.161314	2494.499034
353.551276	2497.501041
353.941175	2495.451812
354.331010	2493.178252
354.720782	2497.521206
355.110490	2497.188490
355.500135	2497.175887
355.889717	2496.719663
356.279235	2496.003819
356.668689	2497.838799
357.058080	2499.792246
357.447408	2492.774960
357.836672	2492.313694
358.225873	2493.815958
358.615010	2494.020125
359.004084	2497.763181
359.393095	2498.990702
359.782043	2500.379540
360.170927	2499.111690
360.559748	2503.386588
360.948505	2501.662514
361.337199	2501.765858
361.725830	2501.160919
362.114398	2502.428769
362.502903	2502.529592
362.891344	2505.599655
363.279722	2503.195025
363.668037	2503.731908
364.056289	2505.443379
364.444478	2503.925992
364.832603	2505.750890
365.220665	2508.566374
365.608665	2508.208452
365.996601	2505.808863
366.384474	2507.842968
366.772284	2509.030160
367.160031	2506.991013
367.547715	2509.425891
367.935336	2508.258864
368.322893	2510.250119
368.710388	2507.447238
369.097820	2514.295645
369.485189	2508.586539
369.872495	2512.816067
370.259738	2510.688700
370.646918	2510.282887
371.034035	2509.635099
371.421090	2514.000738
371.808081	2510.923113
372.195010	2508.954543
372.581875	2512.092661
372.968678	2511.805315
373.355418	2513.330264
373.742096	2513.945285
374.128710	2511.505367
374.515262	2513.229441
374.901751	2512.216169
375.288177	2514.401510
375.674540	2512.644668
376.060841	2515.465193
376.447079	2518.494927
376.833254	2517.383352
377.219367	2508.566374
377.605417	2512.412774
377.991404	2509.572084
378.377329	2512.722805
378.763191	2510.678618
379.148991	2514.893022
379.534727	2515.571057
379.920402	2517.199350
380.306013	2516.659947
380.691563	2519.573733
381.077049	2515.709689
381.462474	2517.063239
381.847835	2518.066428
382.233134	2518.542818
382.618371	2515.190450
383.003545	2519.619104
383.388657	2520.390400
383.773706	2519.636748
384.158693	2518.615914
384.543618	2520.584485
384.928480	2521.711183
385.313280	2519.432581
385.698017	2521.224711
386.082692	2522.026255
386.467305	2519.833353
386.851856	2519.137674
387.236344	2519.079700
387.620770	2519.213291
388.005133	2519.099865
388.389435	2521.239835
388.773674	2521.033148
389.157851	2521.146573
389.541965	2521.607839
389.926018	2522.537932
390.310008	2521.791841
390.693936	2519.876203
391.077802	2518.794875
391.461606	2523.097500
391.845348	2522.716893
392.229027	2522.860566
392.612645	2522.855525
392.996200	2524.975330
393.379694	2525.781914
393.763125	2524.478776
394.146494	2523.853673
394.529801	2523.301667
394.913047	2526.331400
395.296230	2526.439785
395.679351	2525.837367
396.062410	2523.344517
396.445408	2524.294774
396.828343	2524.350227
397.211217	2522.154804
397.594028	2523.042047
397.976778	2521.847294
398.359466	2522.394259
398.742092	2523.762932
399.124656	2528.579755
399.507158	2523.357119
399.889598	2525.950793
400.271977	2527.309384
400.654294	2528.337779
401.036549	2525.870135
401.418742	2530.119827
401.800874	2529.204858
402.182944	2527.594209
402.564952	2529.013294
402.946898	2528.834333
403.328783	2528.756195
403.710606	2530.472708
404.092367	2530.961700
404.474067	2530.414735
404.855705	2528.383150
405.237282	2529.555218
405.618797	2530.114786
406.000250	2531.286854
406.381642	2531.675023
406.762972	2531.105373
407.144240	2531.934643
407.525447	2531.972451
407.906593	2533.905734
408.287677	2531.309540
408.668700	2530.346679
409.049661	2532.216947
409.430560	2532.937832
409.811399	2529.638397
410.192176	2531.314581
410.572891	2533.804911
410.953545	2530.132430
411.334138	2532.083357
411.714669	2532.506814
412.095139	2530.621422
412.475547	2530.422297
412.855894	2533.462112
413.236180	2532.118645
413.616405	2534.954294
413.996568	2532.411032
414.376670	2533.245343
414.756711	2534.608975
415.136691	2530.071936
415.516609	2534.699716
415.896466	2534.929088
416.276262	2535.960004
416.655997	2532.640404
417.035670	2526.432223
417.415283	2533.300795
417.794834	2530.170239
418.174324	2534.765251
418.553753	2533.194931
418.933121	2536.784233
419.312428	2532.554705
419.691674	2536.605272
420.070859	2537.104346
420.449983	2536.033101
420.829045	2535.465971
421.208047	2536.751465
421.586988	2537.958822
421.965867	2537.580735
422.344686	2536.217103
422.723444	2539.670293
423.102141	2536.237267
423.480777	2541.946374
423.859352	2535.103008
424.237866	2540.003009
424.616319	2535.483615
424.994712	2540.794471
425.373044	2538.042001
425.751314	2539.524100
426.129524	2537.389171
426.507673	2538.306661
426.885762	2540.373534
427.263789	2537.121990
427.641756	2538.591486
428.019662	2539.957639
428.397508	2538.631816
428.775292	2536.753986
429.153016	2541.825387
429.530679	2542.193391
429.908282	2540.978473
430.285824	2540.849923
430.663305	2542.304296
431.040726	2541.938813
431.418086	2541.056611
431.795385	2540.744059
432.172624	2539.551826
432.549802	2541.502753
432.926920	2540.247505
433.303977	2542.697506
433.680974	2541.870757
434.057910	2540.542413
434.434786	2542.579039
434.811601	2540.149203
435.188355	2540.658359
435.565050	2540.817156
435.941683	2542.831097
436.318257	2539.614841
436.694770	2539.720705
437.071222	2541.217927
437.447614	2539.272042
437.823946	2539.882022
438.200218	2541.487629
438.576429	2542.190870
438.952580	2540.222300
439.328670	2544.388813
439.704700	2543.680531
440.080670	2544.625747
440.456580	2541.278421
440.832429	2540.517207
441.208218	2543.299924
441.583947	2542.405119
441.959616	2544.103988
442.335224	2543.128525
442.710773	2543.420912
443.086261	2544.918134
443.461689	2545.298742
443.837057	2545.018958
444.212365	2545.964174
444.587612	2544.174564
444.962800	2543.541899
445.337927	2547.718495
445.712995	2542.117773
446.088002	2545.807898
446.462949	2547.494164
446.837837	2548.041129
447.212664	2546.697662
447.587431	2547.584905
447.962139	2547.373176
448.336786	2549.268650
448.711374	2546.427960
449.085901	2548.426777
449.460369	2547.436191
449.834776	2550.438198
450.209124	2550.377704
450.583412	2548.494833
450.957640	2550.075235
451.331808	2549.631613
451.705917	2548.310831
452.079965	2548.802343
452.453954	2549.319062
452.827883	2552.341233
453.201752	2552.013558
453.575562	2550.309648
453.949311	2549.029195
454.323001	2548.376366
454.696632	2549.908877
455.070202	2551.373332
455.443713	2548.961140
455.817164	2547.698331
456.190556	2548.915769
456.563888	2550.450801
456.937160	2549.929041
457.310373	2554.392983
457.683526	2553.215874
458.056619	2553.377191
458.429653	2553.646892
458.802628	2553.087324
459.175542	2551.660678
459.548398	2555.139074
459.921194	2551.960626
460.293930	2556.275854
460.666607	2556.757284
461.039224	2557.687377
461.411782	2556.278375
461.784280	2558.761143
462.156719	2559.141750
462.529099	2559.204764
462.901419	2559.169476
463.273680	2558.849363
463.645882	2559.484548
464.018024	2559.310629
464.390106	2562.592420
464.762130	2564.543346
465.134094	2565.874211
465.505999	2572.775551
465.877845	2579.828125
466.249631	2583.888774
466.621358	2585.774166
466.993026	2585.600246
467.364634	2590.449836
467.736184	2587.382294
468.107674	2588.574527
468.479105	2594.155084
468.850477	2594.873448
469.221790	2599.617174
469.593043	2599.004674
469.964238	2601.051382
470.335373	2606.793257
470.706449	2613.054370
471.077467	2619.484362
471.448425	2639.336425
471.819324	2663.677637
472.190164	2668.156702
472.560945	2658.570948
472.931667	2655.319404
473.302330	2660.035403
473.672934	2663.438182
474.043479	2681.324196
474.413965	2685.420133
474.784393	2689.185875
475.154761	2704.155582
475.525070	2715.919114
475.895321	2723.468242
476.265513	2736.212279
476.635645	2756.825557
477.005719	2771.923813
477.375734	2789.419137
477.745691	2811.819504
478.115588	2831.926146
478.485427	2858.225846
478.855207	2901.582290
479.224928	2973.572487
479.594591	3022.098634
479.964194	3031.760005
480.333739	3041.247457
480.703226	3064.272927
481.072653	3103.747682
481.442022	3159.840601
481.811333	3194.894264
482.180584	3213.007130
482.549777	3221.093141
482.918912	3242.608786
483.287988	3280.258643
483.657005	3313.494970
484.025964	3318.503357
484.394864	3363.195706
484.763706	3395.285171
485.132489	3406.458888
485.501213	3445.011113
485.869879	3482.600476
486.238487	3514.211031
486.607036	3560.627455
486.975527	3588.807505
487.343959	3648.167092
487.712333	3699.743137
488.080648	3736.437696
488.448905	3799.217705
488.817104	3833.066533
489.185244	3923.323351
489.553326	4007.203110
489.921350	4162.450484
490.289315	4424.154424
490.657222	4539.929563
491.025070	4598.767390
491.392861	4635.726610
491.760593	4628.432060
492.128267	4620.212459
492.495883	4612.444041
492.863440	4604.340386
493.230939	4598.860652
493.598380	4648.374865
493.965763	4692.222821
494.333088	4716.561512
494.700354	4778.875214
495.067563	4846.227550
495.434713	4876.023290
495.801805	4978.174711
496.168839	5027.315879
496.535815	5084.742183
496.902733	5142.506244
497.269593	5201.139905
497.636395	5294.333195
498.003139	5372.261872
498.369825	5386.208224
498.736453	5522.818452
499.103023	5560.654832
499.469535	5649.444675
499.835989	5712.534715
500.202385	5776.693480
500.568723	5795.116377
500.935003	5940.465445
501.301226	5964.973015
501.667390	6119.993537
502.033497	6245.626652
502.399546	6248.051447
502.765537	6285.582838
503.131470	6396.848665
503.497345	6555.929836
503.863163	6444.774914
504.228923	6666.457134
504.594625	6762.939778
504.960269	6719.051492
505.325856	6899.302989
505.691385	6876.713579
506.056856	7027.388626
506.422270	7122.507637
506.787625	7123.972093
507.152924	7272.383662
507.518164	7324.330232
507.883347	7361.024791
508.248472	7378.187399
508.613540	7592.766633
508.978550	7595.879545
509.343503	7653.885582
509.708398	7793.497817
510.073236	7936.459899
510.438016	8007.855241
510.802738	8044.912762
511.167403	8152.107858
511.532010	8156.516347
511.896561	8361.840023
512.261053	8486.018765
512.625488	8469.077968
512.989866	8526.968058
513.354186	8579.963188
513.718449	8579.872447
514.082655	8769.016539
514.446803	8768.640973
514.810894	8914.509280
515.174927	8883.969970
515.538904	8953.931103
515.902822	9136.327611
516.266684	9105.367365
516.630488	9123.823029
516.994235	9209.520124
517.357925	9333.154422
517.721558	9452.488616
518.085133	9520.017392
518.448651	9575.828007
518.812112	9527.949648
519.175516	9601.610988
519.538863	9747.849820
519.902152	9725.273012
520.265385	9920.360625
520.628560	9877.646928
520.991678	9918.908773
521.354739	10009.253811
521.717743	10001.992029
522.080690	10025.188899
522.443580	10192.046050
522.806413	10194.916987
523.169189	10262.962482
523.531908	10350.691161
523.894569	10235.152956
524.257174	10279.931005
524.619722	10417.725905
524.982213	10406.479090
525.344647	10493.794396
525.707025	10479.749741
526.069345	10597.667371
526.431608	10562.349047
526.793815	10685.214569
527.155964	10530.867041
527.518057	10605.203896
527.880093	10590.897101
528.242072	10680.009578
528.603995	10621.839703
528.965860	10566.112268
529.327669	10644.277879
529.689421	10628.017637
530.051117	10618.295772
530.412755	10746.257901
530.774337	10657.004272
531.135862	10667.447022
531.497331	10700.504388
531.858743	10577.885883
532.220098	10759.637123
532.581396	10657.415126
532.942638	10655.509570
533.303824	10637.673967
533.664953	10660.833028
534.026025	10600.661816
534.387040	10705.878258
534.747999	10729.574202
535.108902	10792.112236
535.469748	10575.196427
535.830537	10688.761021
536.191270	10674.623105
536.551947	10702.636797
536.912567	10719.975845
537.273131	10651.065793
537.633638	10640.769236
537.994089	10644.787036
538.354483	10601.785993
538.714821	10746.429300
539.075103	10763.055025
539.435328	10739.351520
539.795497	10568.584954
540.155609	10735.099307
540.515665	10830.235962
540.875665	10578.629453
541.235609	10648.845164
541.595496	10655.355815
541.955328	10804.039606
542.315102	10697.099089
542.674821	10646.564042
543.034483	10664.951651
543.394090	10665.493575
543.753640	10603.154667
544.113134	10824.708337
544.472571	10678.560246
544.831953	10824.405868
545.191278	10637.127002
545.550548	10666.514409
545.909761	10801.458535
546.268918	10781.518251
546.628019	10865.887002
546.987064	10735.936138
547.346053	10658.347739
547.704986	10755.924313
548.063863	10748.241595
548.422684	10739.449823
548.781449	10655.524693
549.140158	10767.889492
549.498811	10646.521192
549.857408	10505.724286
550.215949	10729.985056
550.574434	10586.584394
550.932864	10682.983858
551.291237	10738.547456
551.649555	10696.214367
552.007817	10706.455471
552.366022	10661.848821
552.724173	10669.990284
553.082267	10652.467233
553.440305	10787.759200
553.798288	10595.608059
554.156215	10738.562579
554.514086	10725.558923
554.871902	10573.555532
555.229661	10613.967942
555.587365	10587.829559
555.945014	10488.266770
556.302606	10603.754564
556.660143	10506.591365
557.017625	10654.924796
557.375050	10564.186547
557.732421	10696.670591
558.089735	10600.780283
558.446994	10603.812537
558.804197	10645.704526
559.161345	10644.822324
559.518437	10495.576443
559.875474	10583.428632
560.232455	10615.114804
560.589381	10562.996835
560.946251	10555.906452
561.303065	10668.596405
561.659825	10602.862280
562.016528	10536.069512
562.373177	10415.585935
562.729770	10533.503564
563.086307	10448.434093
563.442789	10542.580162
563.799216	10416.790771
564.155587	10467.320776
564.511904	10426.235372
564.868164	10414.209700
565.224370	10433.161918
565.580520	10355.913797
565.936615	10359.568633
566.292654	10230.585671
566.648638	10359.646771
567.004567	10318.699999
567.360441	10301.081166
567.716260	10210.370644
568.072023	10305.499738
568.427732	10257.815463
568.783385	10171.357154
569.138982	10236.632535
569.494525	10254.105174
569.850013	10133.051947
570.205445	10208.049193
570.560823	10110.449934
570.916145	10031.981853
571.271412	10100.735630
571.626625	10042.543071
571.981782	10026.338282
572.336884	9994.929373
572.691931	10001.755095
573.046923	9945.717629
573.401860	9901.846987
573.756743	9839.651752
574.111570	9886.148834
574.466342	9864.683601
574.821059	9901.819261
575.175722	9792.043095
575.530330	9798.861256
575.884882	9790.563516
576.239380	9713.151558
576.593823	9696.699752
576.948211	9705.380619
577.302544	9593.961037
577.656823	9603.854301
578.011047	9614.891908
578.365216	9579.873532
578.719330	9511.870888
579.073389	9521.572588
579.427394	9467.133168
579.781344	9447.492832
580.135239	9394.046519
580.489080	9401.061285
580.842866	9304.268611
581.196597	9308.593921
581.550273	9348.255198
581.903895	9316.639602
582.257463	9383.896156
582.610975	9261.718752
582.964434	9284.240106
583.317837	9206.946615
583.671186	9193.993370
584.024481	9192.430613
584.377721	9104.638918
584.730906	9081.631092
585.084037	9112.034291
585.437113	9048.278818
585.790135	9075.826203
586.143103	8970.387950
586.496016	8943.195966
586.848874	9003.473043
587.201679	8987.878233
587.554428	8878.376810
587.907124	8924.107637
588.259765	8893.207885
588.612352	8898.911950
588.964884	8769.399667
589.317362	8790.592678
589.669786	8785.284343
590.022155	8838.647477
590.374470	8848.686935
590.726731	8784.301318
591.078937	8645.745204
591.431090	8752.509281
591.783188	8628.272565
592.135232	8624.958006
592.487222	8620.171431
592.839157	8673.567332
593.191038	8605.859595
593.542866	8552.783807
593.894639	8457.422820
594.246358	8503.256991
594.598022	8521.679888
594.949633	8422.419568
595.301190	8397.831340
595.652692	8421.471831
596.004141	8538.759317
596.355535	8308.797002
596.706876	8290.863097
597.058162	8227.452943
597.409395	8303.965056
597.760573	8365.005867
598.111698	8271.404243
598.462768	8258.181297
598.813785	8226.817758
599.164748	8196.999333
599.515657	8184.535080
599.866511	8094.482428
600.217312	8221.161583
600.568060	8080.389883
600.918753	8181.094492
601.269392	8155.424937
601.619978	8064.807676
601.970510	8130.362841
602.320988	8128.719425
602.671412	8178.921755
603.021783	8120.068805
603.372100	8093.396060
603.722363	8096.153571
604.072572	8068.802791
604.422728	8084.596726
604.772830	8003.976073
605.122878	8019.026437
605.472872	8011.021085
605.822813	8036.922534
606.172701	7984.960840
606.522534	8062.367758
606.872314	8058.539001
607.222041	8032.196452
607.571714	8081.524142
607.921333	8044.930407
608.270899	8051.897281
608.620411	8136.951629
608.969870	8045.101806
609.319276	8042.939151
609.668627	8055.912560
610.017926	8085.231911
610.367171	8136.197976
610.716362	8114.518494
611.065500	8104.577339
611.414585	8136.818038
611.763616	8119.915049
612.112594	8099.039631
612.461518	8113.258206
612.810389	8176.882608
613.159207	8115.128474
613.507971	8065.581493
613.856682	8182.561468
614.205340	8137.428018
614.553945	8216.601860
614.902496	8116.277857
615.250994	8172.184253
615.599439	8147.117116
615.947830	8161.875093
616.296169	8136.054303
616.644454	8154.802355
616.992686	8143.555540
617.340864	8207.893266
617.688990	8114.551262
618.037063	8204.535858
618.385082	8146.088720
618.733048	8232.978048
619.080961	8172.839603
619.428821	8192.013632
619.776628	8193.062192
620.124382	8142.610324
620.472083	8128.898386
620.819731	8156.770925
621.167326	8051.693114
621.514868	8062.239208
621.862357	7952.074873
622.209793	7964.566852
622.557176	7903.810866
622.904506	7869.510856
623.251783	7806.808984
623.599007	7761.834330
623.946179	7764.117973
624.293297	7718.669450
624.640363	7638.366390
624.987376	7621.914584
625.334336	7570.041111
625.681243	7518.928853
626.028097	7505.521904
626.374899	7485.599264
626.721647	7477.646844
627.068343	7406.397696
627.414987	7382.104375
627.761577	7330.540933
628.108115	7371.427212
628.454600	7270.271418
628.801032	7319.452915
629.147412	7286.715662
629.493739	7269.732015
629.840014	7205.790020
630.186236	7261.928309
630.532405	7148.643500
630.878521	7197.446910
631.224585	7153.697256
631.570597	7079.632624
631.916556	7110.285360
632.262462	7106.277643
632.608316	7068.365645
632.954117	7045.390587
633.299866	7031.408946
633.645562	7024.492483
633.991206	6950.679909
634.336797	6890.848974
634.682336	6849.083015
635.027823	6816.325597
635.373257	6805.739174
635.718639	6741.414051
636.063968	6747.281954
636.409245	6647.963661
636.754470	6641.710110
637.099642	6603.946827
637.444762	6545.343413
637.789829	6553.343724
638.134845	6497.558316
638.479808	6482.530636
638.824719	6491.939950
639.169577	6415.712662
639.514383	6434.483399
639.859137	6364.575198
640.203839	6375.617845
640.548489	6360.353232
640.893086	6339.923956
641.237632	6308.414223
641.582125	6330.819632
641.926566	6294.982069
642.270955	6311.713659
642.615292	6311.340613
642.959576	6317.437889
643.303809	6310.944883
643.647990	6318.980482
643.992118	6310.886909
644.336195	6254.534371
644.680219	6283.032014
645.024192	6269.998111
645.368112	6370.692638
645.711981	6385.725359
646.055797	6465.642771
646.399562	6421.545277
646.743274	6550.311470
647.086935	6597.680672
647.430544	6598.749397
647.774101	6619.995340
648.117606	6622.538602
648.461059	6612.451253
648.804460	6572.308545
649.147810	6481.227498
649.491108	6456.886287
649.834354	6427.408139
650.177548	6347.478125
650.520690	6258.847078
650.863781	6239.453759
651.206820	6261.831441
651.549807	6183.668351
651.892742	6125.521162
652.235626	6131.227748
652.578458	6118.907168
652.921238	6022.958887
653.263967	6060.686882
653.606644	6003.991546
653.949269	6007.621176
654.291843	5947.036589
654.634365	5991.224823
654.976836	5951.503052
655.319255	5952.523885
655.661622	5929.732829
656.003938	5927.182005
656.346203	5884.979986
656.688416	5917.374440
657.030577	5869.511205
657.372687	5845.235529
657.714746	5827.899001
658.056753	5872.220825
658.398708	5814.305529
658.740612	5805.480989
659.082465	5847.042782
659.424266	5840.184293
659.766016	5839.347461
660.107715	5817.489018
660.449362	5832.670453
660.790958	5826.621068
661.132503	5813.209078
661.473996	5847.499007
661.815438	5834.049208
662.156829	5833.207336
662.498168	5827.886398
662.839456	5802.395803
663.180693	5839.728068
663.521879	5837.517522
663.863013	5826.124514
664.204097	5850.190983
664.545129	5885.098453
664.886110	5883.863370
665.227040	5917.598772
665.567918	5883.291199
665.908746	5912.408904
666.249522	5907.314818
666.590248	5895.203446
666.930922	5926.619916
667.271545	5936.931597
667.612118	5949.128668
667.952639	5915.746148
668.293109	5940.135250
668.633528	5897.560185
668.973896	5893.449124
669.314213	5889.239761
669.654480	5869.531370
669.994695	5865.269074
670.334859	5859.252457
670.674973	5845.976578
671.015035	5851.642835
671.355047	5851.494121
671.695008	5835.506102
672.034918	5812.009284
672.374777	5824.082847
672.714585	5805.017203
673.054342	5810.602802
673.394049	5806.685825
673.733705	5835.105330
674.073310	5820.743083
674.412864	5782.642042
674.752368	5773.124343
675.091820	5774.535867
675.431223	5714.697370
675.770574	5713.968924
676.109875	5661.137631
676.449125	5672.220608
676.788324	5634.719465
677.127473	5579.044962
677.466571	5575.143108
677.805619	5564.211366
678.144616	5553.337597
678.483562	5530.463362
678.822458	5497.574874
679.161303	5490.996168
679.500098	5479.860260
679.838842	5468.298373
680.177535	5469.621676
680.516179	5485.965097
680.854771	5497.000183
681.193314	5576.390794
681.531805	5684.130334
681.870247	5834.760011
682.208638	5933.503612
682.546978	5942.960817
682.885268	5923.421304
683.223508	5842.639334
683.561697	5787.151354
683.899836	5751.583493
684.237925	5710.631680
684.575963	5676.130023
684.913951	5638.429754
685.251889	5696.143404
685.589776	5666.778682
685.927614	5636.761132
686.265401	5710.011618
686.603137	5696.103074
686.940824	5768.189054
687.278460	5789.934071
687.616046	5802.700793
687.953582	5870.257296
688.291068	5849.989337
688.628504	5912.756743
688.965889	5871.000866
689.303224	5822.081509
689.640510	5770.596205
689.977745	5698.800092
690.314930	5601.677222
690.652065	5540.593561
690.989150	5449.797339
691.326185	5379.132965
691.663170	5323.327392
692.000105	5243.944342
692.336990	5170.151932
692.673825	5145.646883
693.010610	5076.774639
693.347345	5009.097149
693.684030	4992.315148
694.020665	4954.405671
694.357251	4865.883009
694.693786	4873.016242
695.030272	4839.928629
695.366707	4804.441426
695.703093	4769.037403
696.039429	4793.045898
696.375716	4773.128299
696.711952	4753.465278
697.048139	4740.156632
697.384276	4719.094692
697.720363	4730.225559
698.056400	4741.613526
698.392388	4687.678221
698.728326	4668.146270
699.064214	4645.108197
699.400053	4641.861694
699.735842	4611.566880
700.071581	4583.492694
700.407270	4555.952871
700.742910	4539.992578
701.078501	4487.297397
701.414042	4483.612313
701.749533	4460.367553
702.084974	4389.625041
702.420366	4449.904638
702.755709	4389.574629
703.091002	4332.937266
703.426246	4382.411150
703.761440	4339.861291
704.096584	4302.750837
704.431679	4323.230524
704.766725	4305.460457
705.101721	4294.836225
705.436668	4323.490143
705.771565	4272.216568
706.106413	4297.752533
706.441212	4336.191331
706.775961	4344.085778
707.110661	4323.144824
707.445311	4349.817569
707.779913	4373.082494
708.114465	4380.510635
708.448967	4407.274120
708.783421	4468.619922
709.117825	4507.300695
709.452180	4514.091129
709.786485	4558.838931
710.120742	4640.331704
710.454949	4627.265033
710.789107	4694.672822
711.123216	4770.199389
711.457275	4758.077934
711.791286	4833.153318
712.125247	4848.097818
712.459159	4747.098301
712.793023	4825.107636
713.126837	4784.455772
713.460602	4779.399494
713.794318	4696.885888
714.127985	4704.775294
714.461602	4621.145072
714.795171	4593.428808
715.128691	4528.322307
715.462162	4472.912464
715.795584	4423.247016
716.128957	4405.260179
716.462281	4353.676573
716.795556	4325.410823
717.128782	4290.745329
717.461960	4223.216552
717.795088	4231.282398
718.128167	4191.421995
718.461198	4130.209784
718.794180	4125.801295
719.127113	4107.416207
719.459997	4082.616251
719.792833	4045.636867
720.125619	4035.226884
720.458357	3996.720031
720.791046	4003.601206
721.123686	3975.277483
721.456278	3938.315743
721.788821	3952.549441
722.121315	3926.350564
722.453761	3897.469794
722.786158	3913.898914
723.118506	3934.365999
723.450805	3890.437384
723.783056	3910.425559
724.115259	3927.610852
724.447412	3933.536729
724.779518	3923.978701
725.111574	3927.804937
725.443582	3957.283084
725.775542	3943.641722
726.107453	3993.259278
726.439315	3992.684587
726.771129	4006.562883
727.102895	4042.612175
727.434612	4090.261161
727.766281	4102.491000
728.097901	4105.679530
728.429473	4108.736990
728.760996	4114.350314
729.092471	4108.409315
729.423897	4095.057819
729.755276	4101.712142
730.086606	4100.847584
730.417887	4138.212616
730.749120	4201.902554
731.080305	4268.723048
731.411442	4292.013179
731.742530	4259.797685
732.073570	4268.604581
732.404562	4322.020647
732.735506	4316.021674
733.066401	4272.965179
733.397249	4208.466136
733.728048	4131.762460
734.058798	4048.613668
734.389501	3979.678410
734.720156	3917.984769
735.050762	3873.844426
735.381320	3868.382336
735.711831	3816.294614
736.042293	3791.555151
736.372707	3814.613389
736.703073	3783.993421
737.033391	3773.147378
737.363661	3788.759832
737.693883	3819.417609
738.024056	3824.841890
738.354182	3819.621775
738.684260	3881.799367
739.014290	3904.487080
739.344272	3898.488107
739.674207	3943.465281
740.004093	3945.791774
740.333931	3942.207513
740.663722	3942.567956
740.993464	3936.541257
741.323159	3914.632402
741.652806	3886.815315
741.982405	3856.137373
742.311956	3827.145698
742.641460	3818.681600
742.970915	3795.267961
743.300323	3757.028289
743.629683	3720.603432
743.958996	3709.994323
744.288260	3683.543389
744.617477	3652.671363
744.946647	3637.817603
745.275768	3613.597379
745.604842	3608.100001
745.933869	3562.958989
746.262847	3556.206363
746.591778	3595.585337
746.920662	3564.325142
747.249498	3533.619474
747.578286	3579.151175
747.907027	3596.076849
748.235720	3593.732713
748.564365	3617.239613
748.892963	3619.162813
749.221514	3600.591202
749.550017	3577.684199
749.878473	3580.204776
750.206881	3545.677914
750.535242	3543.119528
750.863555	3546.665980
751.191821	3540.581307
751.520039	3518.806043
751.848210	3496.859380
752.176334	3529.914226
752.504411	3539.994013
752.832440	3496.032631
753.160421	3480.440342
753.488356	3491.354440
753.816243	3502.359279
754.144082	3460.142136
754.471875	3445.041359
754.799620	3466.796459
755.127318	3457.256075
755.454969	3456.444449
755.782572	3460.159780
756.110129	3440.216975
756.437638	3429.963268
756.765100	3443.760906
757.092515	3452.207360
757.419882	3457.777835
757.747203	3434.268414
758.074477	3433.318156
758.401703	3451.118470
758.728882	3473.123107
759.056014	3477.624857
759.383099	3479.585866
759.710138	3477.609734
760.037129	3495.450377
760.364073	3525.828370
760.690970	3509.810104
761.017820	3485.090806
761.344623	3505.141996
761.671379	3554.043708
761.998088	3600.631532
762.324751	3728.233218
762.651366	3974.118017
762.977935	4442.216878
763.304456	4885.331781
763.630931	4970.572651
763.957359	4611.723156
764.283740	4272.713121
764.610074	4083.614399
764.936362	3891.695152
765.262602	3733.488621
765.588796	3623.788072
765.914943	3533.669885
766.241044	3447.680403
766.567097	3419.500353
766.893104	3371.357334
767.219064	3341.075123
767.544978	3315.077893
767.870845	3260.242742
768.196665	3243.014598
768.522438	3250.533479
768.848165	3244.988210
769.173846	3211.716595
769.499479	3194.659851
769.825066	3177.666121
770.150607	3160.294305
770.476101	3175.974814
770.801548	3172.771161
771.126949	3127.156280
771.452303	3110.893518
771.777611	3114.966770
772.102872	3121.250568
772.428087	3099.152671
772.753256	3086.030547
773.078378	3079.134249
773.403453	3045.527397
773.728482	3032.536343
774.053465	3056.111299
774.378401	3044.025133
774.703291	3008.429545
775.028135	3010.856861
775.352932	3006.236643
775.677683	2995.168790
776.002388	2994.647031
776.327046	2993.676609
776.651658	2983.427943
776.976224	2972.604586
777.300743	2973.007878
777.625216	2963.338945
777.949643	2960.755353
778.274024	2961.141002
778.598359	2947.723971
778.922647	2955.293263
779.246889	2951.976184
779.571086	2936.799790
779.895236	2931.093204
780.219339	2942.811366
780.543397	2955.136988
780.867409	2957.566824
781.191374	2950.688169
781.515294	2949.508539
781.839167	2949.947120
782.162995	2940.973866
782.486776	2949.926955
782.810511	2946.491409
783.134201	2933.046651
783.457844	2937.906324
783.781441	2934.218720
784.104993	2909.973290
784.428498	2911.094947
784.751958	2924.106165
785.075372	2920.116092
785.398739	2902.277969
785.722061	2921.013417
786.045337	2933.081939
786.368568	2916.922521
786.691752	2909.638053
787.014891	2958.297791
787.337983	2985.739312
787.661030	3012.772499
787.984031	3080.787747
788.306987	3124.232411
788.629897	3114.568519
788.952760	3104.980244
789.275579	3086.012903
789.598351	3025.962678
789.921078	2981.592963
790.243759	2974.721870
790.566395	2958.605301
790.888984	2934.916919
791.211529	2915.526121
791.534027	2907.382137
791.856480	2899.333935
792.178888	2882.703168
792.501249	2876.149668
792.823566	2876.137066
793.145836	2870.780840
793.468062	2866.168184
793.790241	2864.310519
794.112375	2870.286807
794.434464	2883.393807
794.756507	2887.207439
795.078505	2893.178686
795.400457	2906.666293
795.722364	2943.897735
796.044226	2965.988071
796.366042	2968.400263
796.687812	2957.884416
797.009538	2976.115749
797.331218	2965.531847
797.652852	2949.652212
797.974442	2935.519337
798.295986	2928.791918
798.617484	2924.806885
798.938938	2907.850964
799.260346	2895.230436
799.581709	2886.673077
799.903026	2881.163096
800.224299	2875.771582
800.545526	2868.285468
800.866708	2850.107068
801.187845	2841.345542
801.508936	2843.064576
801.829983	2848.927438
802.150984	2837.494101
802.471940	2823.144456
802.792851	2823.265444
803.113717	2823.686380
803.434538	2831.117041
803.755314	2822.398366
804.076045	2816.099444
804.396731	2816.653971
804.717372	2816.512818
805.037967	2811.915286
805.358518	2818.957778
805.679024	2828.382215
805.999485	2828.840960
806.319901	2830.882627
806.640272	2823.159580
806.960598	2827.341217
807.280879	2833.975375
807.601115	2842.719257
807.921306	2830.297854
808.241453	2828.208295
808.561554	2833.390602
808.881611	2836.374965
809.201623	2830.502020
809.521590	2827.686536
809.841513	2823.492296
810.161390	2829.317349
810.481223	2821.571616
810.801011	2814.733291
811.120755	2809.616520
811.440453	2809.974442
811.760107	2809.992086
812.079716	2809.818166
812.399281	2797.482463
812.718801	2791.112965
813.038276	2786.364198
813.357707	2795.740744
813.677093	2802.397588
813.996434	2796.748975
814.315731	2790.840742
814.634983	2785.545010
814.954191	2789.212450
815.273354	2803.814152
815.592473	2810.748259
815.911547	2812.815132
816.230577	2820.263437
816.549562	2828.709890
816.868502	2826.748881
817.187399	2838.356138
817.506250	2853.575382
817.825058	2844.937364
818.143821	2858.283819
818.462539	2874.327291
818.781213	2898.005591
819.099843	2936.467074
819.418429	2992.045795
819.736970	3052.877399
820.055466	3124.650827
820.373919	3230.303329
820.692327	3369.570245
821.010691	3534.534443
821.329011	3972.847647
821.647286	4857.771793
821.965517	6220.456171
822.283704	6941.000893
822.601847	6912.992243
822.919945	6289.509897
823.237999	5800.023940
823.556010	5226.265015
823.873976	4679.793856
824.191897	4277.030870
824.509775	3986.834328
824.827609	3723.350860
825.145398	3604.450206
825.463144	3594.299843
825.780845	3683.500539
826.098502	3786.703041
826.416116	4065.562027
826.733685	4375.109038
827.051210	4433.964509
827.368692	4320.720029
827.686129	4059.179927
828.003522	3739.958942
828.320872	3483.722133
828.638177	3296.191210
828.955439	3158.731547
829.272656	3079.819846
829.589830	3013.402644
829.906960	2964.299285
830.224046	2920.353026
830.541088	2887.212481
830.858086	2872.000799
831.175041	2853.252748
831.491952	2855.644775
831.808819	2867.312526
832.125642	2889.649878
832.442421	2934.622012
832.759157	3015.598066
833.075849	3189.956454
833.392497	3468.066830
833.709101	3668.525792
834.025662	3619.324130
834.342179	3461.094914
834.658653	3287.376752
834.975083	3141.455513
835.291469	3044.267108
835.607811	2960.866259
835.924110	2905.385840
836.240366	2854.326513
836.556578	2810.937302
836.872746	2793.656227
837.188871	2767.658997
837.504952	2751.013107
837.820990	2744.535224
838.136984	2730.472925
838.452935	2723.039744
838.768842	2720.191492
839.084706	2739.201683
839.400526	2815.940647
839.716303	2946.660287
840.032037	3025.433357
840.347727	3009.790657
840.663373	2951.320834
840.978977	2877.604041
841.294537	2802.730304
841.610054	2759.202461
841.925527	2734.319326
842.240957	2718.341388
842.556344	2695.005887
842.871687	2677.939061
843.186987	2669.618637
843.502244	2666.291475
843.817458	2662.442554
844.132629	2650.396717
844.447756	2641.599903
844.762840	2632.929119
845.077881	2640.115284
845.392879	2637.829120
845.707833	2633.831485
846.022745	2623.620628
846.337613	2627.593057
846.652438	2626.420989
846.967221	2625.483335
847.281960	2625.349744
847.596656	2622.990484
847.911309	2623.933180
848.225919	2619.262551
848.540485	2614.009668
848.855009	2616.948661
849.169490	2616.706686
849.483928	2616.326079
849.798323	2618.677777
850.112675	2614.856582
850.426984	2614.191150
850.741251	2614.145780
851.055474	2612.260388
851.369654	2618.929835
851.683792	2615.292642
851.997887	2612.746859
852.311938	2613.268619
852.625947	2613.218207
852.939914	2615.844648
853.253837	2617.626696
853.567718	2612.885491
853.881555	2614.435646
854.195350	2614.352467
854.509103	2614.758280
854.822812	2612.676283
855.136479	2610.896756
855.450103	2615.761469
855.763685	2616.497478
856.077224	2614.115533
856.390720	2611.088320
856.704173	2614.357508
857.017584	2618.435802
857.330953	2619.260030
857.644278	2623.113992
857.957561	2621.289095
858.270802	2618.617283
858.584000	2616.527725
858.897155	2618.559310
859.210268	2620.840432
859.523339	2614.173506
859.836367	2612.686366
860.149352	2611.698299
860.462295	2611.635285
860.775195	2608.345932
861.088054	2610.130501
861.400869	2608.678648
861.713642	2605.918617
862.026373	2609.646550
862.339062	2610.657301
862.651708	2612.991355
862.964312	2618.660133
863.276873	2614.579319
863.589392	2617.288939
863.901869	2624.117182
864.214303	2626.189096
864.526696	2633.342493
864.839045	2628.840743
865.151353	2632.034314
865.463619	2632.034314
865.775842	2630.572379
866.088023	2635.061527
866.400162	2634.995992
866.712258	2633.907103
867.024313	2632.563635
867.336325	2627.265383
867.648296	2629.798562
867.960224	2634.587658
868.272110	2634.534726
868.583954	2628.298819
868.895755	2626.642800
869.207515	2635.240488
869.519233	2640.601755
869.830909	2637.940026
870.142542	2632.006588
870.454134	2633.622278
870.765684	2639.485139
871.077191	2640.299286
871.388657	2644.712816
871.700081	2642.577887
872.011463	2642.419091
872.322803	2645.761376
872.634101	2647.238434
872.945357	2655.863848
873.256571	2662.266114
873.567744	2656.257058
873.878874	2655.889054
874.189963	2655.052222
874.501010	2662.389622
874.812015	2668.330622
875.122979	2665.525220
875.433900	2658.092038
875.744780	2657.802172
876.055618	2662.626556
876.366415	2666.954387
876.677169	2666.493121
876.987882	2660.884837
877.298554	2658.409631
877.609183	2671.788853
877.919771	2676.756910
878.230317	2683.386028
878.540822	2695.381453
878.851285	2706.557691
879.161707	2730.626680
879.472087	2766.300406
879.782425	2812.857982
880.092722	2922.619025
880.402977	3108.546861
880.713191	3363.034389
881.023363	3645.646515
881.333494	3833.941173
881.643583	4001.516688
881.953631	3999.255731
882.263637	3824.065552
882.573602	3609.135958
882.883526	3482.671052
883.193408	3368.846840
883.503248	3272.706995
883.813048	3161.930159
884.122806	3051.460835
884.432522	2969.418576
884.742197	2903.707136
885.051831	2866.785725
885.361424	2835.502845
885.670975	2800.182001
885.980485	2768.485746
886.289954	2751.658374
886.599382	2739.920047
886.908768	2730.117524
887.218113	2708.387630
887.527417	2694.748788
887.836680	2689.934487
888.145901	2683.005421
888.455082	2675.647857
888.764221	2666.838440
889.073319	2656.516678
889.382376	2657.280412
889.691392	2657.502223
890.000366	2657.043478
890.309300	2655.354692
890.618193	2655.137922
890.927044	2659.687563
891.235855	2659.937101
891.544625	2659.072543
891.853353	2662.114879
892.162041	2668.587721
892.470687	2688.845597
892.779293	2698.940508
893.087858	2704.634491
893.396381	2727.919581
893.704864	2767.321239
894.013306	2836.644666
894.321707	2929.442226
894.630068	2977.179433
894.938387	2994.132833
895.246665	2988.108654
895.554903	2946.531738
895.863100	2904.266704
896.171256	2848.541789
896.479371	2787.818571
896.787446	2748.873137
897.095480	2729.971330
897.403473	2723.317007
897.711425	2712.365101
898.019336	2692.429858
898.327207	2680.252951
898.635038	2679.264884
898.942827	2676.086437
899.250576	2668.171825
899.558284	2656.995587
899.865952	2654.583395
900.173579	2652.564413
900.481165	2648.271871
900.788711	2639.636374
901.096216	2633.138327
901.403681	2628.593727
901.711105	2632.936681
902.018489	2627.703963
902.325832	2634.726290
902.633135	2635.452216
902.940397	2651.483086
903.247619	2685.646985
903.554800	2753.876482
903.861941	2874.226468
904.169041	2996.330776
904.476101	3054.722461
904.783121	3051.107954
905.090100	2995.400683
905.397039	2919.201122
905.703938	2849.779393
906.010796	2788.249589
906.317614	2741.457599
906.624391	2705.892259
906.931129	2681.757735
907.237826	2658.762512
907.544483	2639.265849
907.851099	2629.972482
908.157675	2618.090482
908.464211	2612.532610
908.770707	2600.746393
909.077163	2595.581731
909.383578	2591.455546
909.689954	2594.182810
909.996289	2589.504620
910.302584	2589.557552
910.608839	2587.871286
910.915054	2586.416913
911.221229	2589.494537
911.527363	2592.531832
911.833458	2590.979157
912.139513	2591.253900
912.445527	2592.362954
912.751502	2598.926536
913.057436	2605.376693
913.363331	2610.327106
913.669186	2618.322376
913.975000	2634.295272
914.280775	2648.730616
914.586510	2666.556136
914.892205	2701.105683
915.197859	2767.190169
915.503475	2847.170596
915.809050	2909.108732
916.114585	2925.300918
916.420081	2933.956580
916.725536	2948.452418
917.030952	2922.278747
917.336328	2877.006665
917.641665	2830.696105
917.946961	2781.479320
918.252218	2743.751324
918.557435	2721.960937
918.862612	2702.315560
919.167750	2687.068591
919.472848	2667.861794
919.777906	2651.498209
920.082925	2641.511683
920.387904	2633.309726
920.692843	2628.576082
920.997743	2626.179014
921.302603	2615.637961
921.607423	2611.010182
921.912204	2605.497680
922.216946	2606.372320
922.521647	2601.830241
922.826310	2596.899992
923.130932	2591.216091
923.435516	2586.477407
923.740059	2585.882551
924.044564	2584.639906
924.349028	2582.804926
924.653454	2578.192270
924.957840	2571.026270
925.262186	2567.230281
925.566493	2572.286559
925.870761	2564.853377
926.174989	2568.082236
926.479178	2568.798080
926.783328	2563.673747
927.087438	2564.949159
927.391509	2562.710887
927.695541	2561.221226
927.999533	2560.152501
928.303486	2559.345917
928.607400	2561.710218
928.911275	2559.610577
929.215110	2556.187634
929.518906	2558.463715
929.822663	2558.524209
930.126381	2559.542522
930.430060	2560.086966
930.733699	2556.033879
931.037299	2559.209806
931.340861	2560.933880
931.644383	2560.691905
931.947866	2559.426575
932.251309	2560.187789
932.554714	2557.384908
932.858080	2559.792059
933.161407	2559.217367
933.464694	2558.441030
933.767943	2554.803837
934.071153	2555.242418
934.374323	2556.316183
934.677455	2557.067315
934.980548	2555.892726
935.283602	2551.610266
935.586617	2556.396842
935.889593	2554.203940
936.192530	2553.979608
936.495428	2557.687377
936.798287	2557.768036
937.101108	2558.234342
937.403890	2560.568397
937.706632	2565.130641
938.009336	2565.881773
938.312002	2571.008626
938.614628	2572.934347
938.917216	2576.286714
939.219765	2573.398133
939.522275	2577.862075
939.824747	2576.138000
940.127179	2570.975859
940.429573	2568.525858
940.731929	2572.745304
941.034246	2565.491083
941.336524	2572.389902
941.638763	2566.708522
941.940964	2567.149623
942.243126	2569.370251
942.545250	2565.019735
942.847335	2566.033007
943.149381	2563.487225
943.451389	2565.271793
943.753359	2562.650393
944.055290	2557.989846
944.357182	2560.722152
944.659036	2557.054712
944.960851	2559.897923
945.262628	2559.207285
945.564367	2559.671071
945.866067	2555.345761
946.167729	2557.949517
946.469352	2556.593447
946.770937	2559.829868
947.072484	2558.098231
947.373992	2558.224260
947.675462	2554.987839
947.976893	2557.762994
948.278286	2555.328117
948.579641	2555.643189
948.880958	2554.564382
949.182236	2555.330638
949.483476	2555.565051
949.784678	2558.052861
950.085841	2555.123950
950.386967	2556.011193
950.688054	2553.639331
950.989103	2554.239228
951.290114	2558.284754
951.591087	2557.364743
951.892021	2562.748696
952.192917	2561.949673
952.493776	2559.534960
952.794596	2562.259704
953.095378	2561.397666
953.396122	2562.436144
953.696828	2562.547049
953.997496	2559.799621
954.298126	2558.488921
954.598718	2556.759805
954.899272	2556.280895
955.199788	2559.207285
955.500266	2553.573796
955.800706	2550.004659
956.101108	2547.947868
956.401472	2547.577343
956.701798	2548.943496
957.002087	2545.492826
957.302337	2547.957950
957.602550	2547.327806
957.902724	2548.222611
958.202861	2547.189174
958.502960	2544.356046
958.803022	2547.163968
959.103045	2542.679862
959.403031	2546.170861
959.702979	2545.331509
960.002889	2546.334699
960.302762	2543.867054
960.602596	2542.465613
960.902393	2541.336395
961.202153	2545.122301
961.501875	2542.057280
961.801559	2543.582229
962.101205	2542.682383
962.400814	2543.226827
962.700385	2540.658359
962.999918	2542.442928
963.299414	2540.426466
963.598873	2542.087527
963.898293	2542.246323
964.197677	2543.304965
964.497022	2541.762372
964.796331	2541.404450
965.095601	2542.130376
965.394835	2544.230017
965.694030	2538.324305
965.993189	2542.148020
966.292309	2540.073586
966.591393	2540.161806
966.890439	2543.458720
967.189447	2541.636343
967.488419	2538.057124
967.787353	2543.529297
968.086249	2543.544420
968.385108	2541.469985
968.683930	2541.487629
968.982714	2540.817156
969.281462	2542.117773
969.580172	2542.947043
969.878844	2540.214738
970.177480	2541.727084
970.476078	2540.670962
970.774639	2541.054090
971.073162	2542.402599
971.371649	2540.852444
971.670098	2538.518390
971.968510	2540.285314
972.266885	2539.844213
972.565223	2542.649615
972.863524	2540.925541
973.161788	2541.858154
973.460014	2542.203473
973.758204	2545.661705
974.056356	2541.162475
974.354471	2541.694317
974.652550	2541.238092
974.950591	2542.833617
975.248595	2539.536703
975.546563	2542.984852
975.844493	2541.757331
976.142386	2539.241795
976.440243	2542.604245
976.738062	2541.722043
977.035845	2541.979142
977.333590	2541.953936
977.631299	2539.284645
977.928971	2539.415715
978.226606	2539.425797
978.524204	2539.738349
978.821765	2538.110056
979.119290	2538.001671
979.416777	2541.250695
979.714228	2538.949408
980.011642	2539.725746
980.309020	2544.439225
980.606360	2539.541744
980.903664	2540.187012
981.200931	2540.592824
981.498162	2542.992414
981.795356	2542.415202
982.092513	2547.826880
982.389633	2548.124308
982.686717	2554.027499
982.983764	2557.173179
983.280775	2556.918601
983.577749	2555.234856
983.874686	2556.081770
984.171587	2550.760832
984.468451	2549.792930
984.765279	2549.001469
985.062070	2543.690613
985.358824	2542.974770
985.655543	2542.916796
985.952224	2542.016950
986.248869	2540.149203
986.545478	2536.184335
986.842050	2539.352701
987.138586	2533.943543
987.435086	2536.806918
987.731549	2533.174767
988.027975	2539.519059
988.324366	2537.358924
988.620719	2540.761703
988.917037	2535.423121
989.213318	2538.954449
989.509563	2540.408822
989.805772	2541.313709
990.101944	2540.214738
990.398080	2538.919161
990.694180	2538.425128
990.990244	2538.314223
991.286271	2540.063503
991.582262	2537.547968
991.878217	2538.263811
992.174136	2534.732483
992.470019	2535.821372
992.765865	2538.011754
993.061676	2538.208359
993.357450	2538.687268
993.653188	2533.845240
993.948890	2535.894469
994.244556	2537.094264
994.540186	2539.476209
994.835780	2536.222144
995.131337	2537.711805
995.426859	2538.682227
995.722345	2539.196425
996.017795	2539.002340
996.313208	2544.645912
996.608586	2540.141641
996.903928	2538.132741
997.199234	2542.269008
997.494504	2542.450490
997.789738	2539.708102
998.084936	2539.279604
998.380099	2539.698020
998.675225	2540.804553
998.970316	2540.244985
999.265371	2540.358411
999.560390	2537.542926
999.855373	2538.641898
1000.150320	2538.813297
1000.445232	2535.881866
1000.740108	2540.237423
1001.034948	2534.878677
1001.329752	2534.213244
1001.624521	2535.975128
1001.919254	2534.331711
1002.213951	2535.060158
1002.508613	2531.223840
1002.803239	2534.737524
1003.097829	2533.121834
1003.392384	2536.872453
1003.686903	2534.876156
1003.981386	2536.224665
1004.275834	2537.487474
1004.570246	2537.742052
1004.864623	2533.744417
1005.158964	2537.452186
1005.453270	2534.694674
1005.747540	2536.703574
1006.041775	2531.818696
1006.335974	2536.411187
1006.630138	2535.380271
1006.924266	2539.085519
1007.218359	2535.728111
1007.512416	2534.316588
1007.806438	2538.357073
1008.100425	2535.687782
1008.394376	2533.237781
1008.688292	2534.792977
1008.982172	2535.450848
1009.276017	2537.507638
1009.569827	2534.916485
1009.863602	2536.534696
1010.157341	2536.827082
1010.451045	2536.640560
1010.744714	2534.344314
1011.038347	2535.491177
1011.331945	2535.357586
1011.625508	2535.796167
1011.919036	2535.975127
1012.212528	2535.680220
1012.505986	2535.501259
1012.799408	2537.331198
1013.092795	2536.247350
1013.386147	2534.276259
1013.679464	2534.936650
1013.972745	2534.167874
1014.265992	2535.476053
1014.559204	2539.108205
1014.852380	2537.489994
1015.145521	2536.965714
1015.438628	2534.540919
1015.731699	2537.626105
1016.024736	2535.355066
1016.317737	2533.492359
1016.610703	2535.448327
1016.903635	2529.887934
1017.196531	2531.503624
1017.489393	2533.648635
1017.782219	2529.955990
1018.075011	2532.595034
1018.367768	2535.216434
1018.660490	2534.813142
1018.953177	2534.813142
1019.245829	2534.813142
