Dividing Wavelength (nm)	Counts (n)	Blue Motor Position (mm): 40.600000	Red Motor Position (mm): 0.000000	
326.493990	2129.935391
326.888308	2129.935391
327.282561	2129.935391
327.676750	2096.462129
328.070874	2096.033631
328.464933	2099.217120
328.858929	2102.493870
329.252859	2114.431322
329.646726	2124.760647
330.040528	2139.281690
330.434265	2154.054792
330.827938	2171.255208
331.221547	2188.107786
331.615091	2208.421115
332.008571	2231.013046
332.401986	2250.471900
332.795338	2269.852616
333.188625	2286.387601
333.581847	2303.439303
333.975006	2323.372026
334.368100	2342.709892
334.761129	2359.469208
335.154095	2376.881353
335.546996	2400.234498
335.939833	2422.730647
336.332606	2438.985848
336.725315	2449.466407
337.117960	2458.227932
337.510540	2468.746300
337.903056	2480.421612
338.295508	2486.846563
338.687896	2495.459374
339.080220	2505.624861
339.472480	2509.617455
339.864676	2514.595594
340.256807	2517.569875
340.648875	2520.707993
341.040879	2524.594723
341.432818	2527.518592
341.824694	2527.329549
342.216506	2529.807276
342.608253	2529.759385
342.999937	2529.915661
343.391557	2531.125537
343.783113	2525.842408
344.174605	2527.710156
344.566033	2525.734023
344.957397	2521.743950
345.348697	2521.605318
345.739934	2522.984074
346.131106	2519.465349
346.522215	2516.551562
346.913260	2512.838752
347.304241	2511.593587
347.695159	2508.752897
348.086012	2510.953360
348.476802	2507.827845
348.867528	2506.096209
349.258191	2504.016733
349.648789	2502.058244
350.039324	2500.046824
350.429796	2501.090343
350.820203	2498.597492
351.210548	2500.878614
351.600828	2495.633294
351.991045	2498.776453
352.381198	2497.513644
352.771288	2495.020794
353.161314	2495.207316
353.551276	2498.042965
353.941175	2494.131030
354.331010	2495.761843
354.720782	2494.226812
355.110490	2493.216061
355.500135	2493.568941
355.889717	2496.185300
356.279235	2497.861484
356.668689	2497.629591
357.058080	2497.836278
357.447408	2494.468787
357.836672	2496.076915
358.225873	2494.289826
358.615010	2491.524753
359.004084	2497.208654
359.393095	2495.902996
359.782043	2499.903151
360.170927	2497.758140
360.559748	2499.996413
360.948505	2503.177381
361.337199	2503.530261
361.725830	2502.942967
362.114398	2503.865498
362.502903	2501.423059
362.891344	2504.067144
363.279722	2505.161075
363.668037	2501.730569
364.056289	2506.416322
364.444478	2506.202073
364.832603	2508.032012
365.220665	2506.998575
365.608665	2505.521517
365.996601	2507.560664
366.384474	2507.419512
366.772284	2510.340860
367.160031	2509.420850
367.547715	2509.952691
367.935336	2511.144924
368.322893	2509.078051
368.710388	2510.338340
369.097820	2515.510563
369.485189	2510.698782
369.872495	2511.538134
370.259738	2514.550224
370.646918	2510.653412
371.034035	2514.406551
371.421090	2513.378155
371.808081	2513.494102
372.195010	2514.613238
372.581875	2514.522497
372.968678	2518.381501
373.355418	2514.129287
373.742096	2518.305883
374.128710	2515.213135
374.515262	2516.299504
374.901751	2519.843435
375.288177	2514.386386
375.674540	2516.891840
376.060841	2518.633558
376.447079	2518.699093
376.833254	2521.832170
377.219367	2512.690038
377.605417	2516.221366
377.991404	2512.684997
378.377329	2518.812519
378.763191	2513.824298
379.148991	2523.788138
379.534727	2519.362005
379.920402	2520.710514
380.306013	2523.578930
380.691563	2523.102541
381.077049	2522.638755
381.462474	2524.753519
381.847835	2523.762932
382.233134	2523.962058
382.618371	2524.960206
383.003545	2525.318128
383.388657	2527.468180
383.773706	2526.712007
384.158693	2527.505989
384.543618	2529.323325
384.928480	2529.179652
385.313280	2531.324663
385.698017	2534.979500
386.082692	2539.599717
386.467305	2537.568132
386.851856	2544.439225
387.236344	2551.269988
387.620770	2558.584702
388.005133	2567.469736
388.389435	2574.668504
388.773674	2583.215780
389.157851	2600.070878
389.541965	2611.567229
389.926018	2620.633745
390.310008	2644.266674
390.693936	2657.295536
391.077802	2676.978721
391.461606	2695.709128
391.845348	2722.790207
392.229027	2743.201839
392.612645	2762.194386
392.996200	2797.795014
393.379694	2830.237360
393.763125	2870.375027
394.146494	2890.118706
394.529801	2933.558328
394.913047	2973.189359
395.296230	2993.858090
395.679351	3042.971532
396.062410	3082.267326
396.445408	3103.795573
396.828343	3152.029333
397.211217	3192.910570
397.594028	3195.864687
397.976778	3261.442536
398.359466	3308.431131
398.742092	3353.012575
399.124656	3351.716999
399.507158	3428.322373
399.889598	3474.390957
400.271977	3547.596073
400.654294	3568.423600
401.036549	3608.964559
401.418742	3617.312710
401.800874	3720.326168
402.182944	3771.103190
402.564952	3850.060262
402.946898	3872.450547
403.328783	3904.857605
403.710606	3872.858881
404.092367	4045.042011
404.474067	4051.688772
404.855705	4082.477619
405.237282	4055.731777
405.618797	4169.155218
406.000250	4224.333168
406.381642	4317.949915
406.762972	4312.704595
407.144240	4344.199203
407.525447	4363.922718
407.906593	4440.245787
408.287677	4498.637472
408.668700	4451.197694
409.049661	4515.197663
409.430560	4568.792690
409.811399	4515.878218
410.192176	4679.347714
410.572891	4631.388697
410.953545	4742.977158
411.334138	4639.356241
411.714669	4715.840627
412.095139	4623.027943
412.475547	4769.846508
412.855894	4760.535497
413.236180	4774.701139
413.616405	4733.630859
413.996568	4821.170495
414.376670	4770.995891
414.756711	4730.964088
415.136691	4767.159573
415.516609	4846.275441
415.896466	4884.941091
416.276262	4919.914096
416.655997	4902.292743
417.035670	5089.420374
417.415283	5176.246687
417.794834	5121.477071
418.174324	5074.952262
418.553753	4986.366586
418.933121	5170.928270
419.312428	5235.969237
419.691674	5176.367675
420.070859	5303.341737
420.449983	5218.168922
420.829045	5329.018854
421.208047	5239.815637
421.586988	5311.505886
421.965867	5326.508360
422.344686	5449.235250
422.723444	5310.865659
423.102141	5135.791427
423.480777	5431.651705
423.859352	5198.568916
424.237866	5456.524758
424.616319	5446.313901
424.994712	5558.618206
425.373044	5435.649340
425.751314	5580.174180
426.129524	5383.528851
426.507673	5573.610598
426.885762	5662.440770
427.263789	5589.850675
427.641756	5476.328931
428.019662	5592.494760
428.397508	5598.415595
428.775292	5549.110590
429.153016	5650.210930
429.530679	5573.340896
429.908282	5658.347353
430.285824	5530.196181
430.663305	5800.996883
431.040726	5539.915525
431.418086	5543.484662
431.795385	5644.615250
432.172624	5656.346015
432.549802	5647.302185
432.926920	5665.079814
433.303977	5676.465260
433.680974	5707.407862
434.057910	5728.714299
434.434786	5737.927007
434.811601	5702.265885
435.188355	5941.433347
435.565050	5814.600437
435.941683	5791.275018
436.318257	6004.659498
436.694770	5995.383775
437.071222	6024.125914
437.447614	5953.764009
437.823946	5870.247213
438.200218	6022.429566
438.576429	5891.777982
438.952580	5988.878166
439.328670	6024.279669
439.704700	5941.438388
440.080670	5926.541778
440.456580	6197.655032
440.832429	6081.698412
441.208218	5927.113949
441.583947	6079.732362
441.959616	6081.834523
442.335224	6014.489748
442.710773	6148.186190
443.086261	6177.757598
443.461689	5972.433922
443.837057	6119.197034
444.212365	6274.106651
444.587612	6170.503378
444.962800	6320.812941
445.337927	6299.577081
445.712995	5909.104427
446.088002	6489.154712
446.462949	6324.392161
446.837837	6250.934987
447.212664	6428.728922
447.587431	6568.447021
447.962139	7110.728982
448.336786	8032.763582
448.711374	7772.133407
449.085901	6848.876327
449.460369	6769.011848
449.834776	6698.826383
450.209124	7093.276507
450.583412	7250.099241
450.957640	7391.496045
451.331808	7160.001219
451.705917	6707.151849
452.079965	6631.131249
452.453954	6847.290884
452.827883	6719.911009
453.201752	6810.331665
453.575562	6614.692046
453.949311	6817.646379
454.323001	6705.069852
454.696632	6783.711852
455.070202	6922.351145
455.443713	7073.729433
455.817164	7172.480596
456.190556	7249.027996
456.563888	7328.804256
456.937160	7367.903445
457.310373	7034.899945
457.683526	7056.173615
458.056619	6949.462470
458.429653	6933.189625
458.802628	6867.347115
459.175542	6979.658982
459.548398	7333.154772
459.921194	7491.063875
460.293930	7495.931109
460.666607	8025.146398
461.039224	8335.709202
461.411782	8455.978529
461.784280	8475.999472
462.156719	8366.074592
462.529099	8238.276301
462.901419	7834.255546
463.273680	7722.099955
463.645882	7740.263233
464.018024	7602.221317
464.390106	7771.624251
464.762130	8162.588417
465.134094	8633.805231
465.505999	9659.380090
465.877845	10872.574093
466.249631	11522.434276
466.621358	11135.540842
466.993026	10503.486014
467.364634	10252.023178
467.736184	9879.996106
468.107674	9555.486951
468.479105	9589.668494
468.850477	9349.245785
469.221790	9120.783213
469.593043	8795.069222
469.964238	8655.199888
470.335373	8668.296806
470.706449	8725.445847
471.077467	8710.070327
471.448425	10015.247743
471.819324	11088.610220
472.190164	11101.674370
472.560945	9853.449390
472.931667	9071.952077
473.302330	8938.447199
473.672934	8588.255886
474.043479	8947.148231
474.413965	8883.594404
474.784393	8767.322712
475.154761	8922.136546
475.525070	9018.362091
475.895321	8839.305347
476.265513	9015.619703
476.635645	9178.461575
477.005719	9191.800468
477.375734	9299.703846
477.745691	9538.989775
478.115588	9665.167335
478.485427	9913.184543
478.855207	10457.858530
479.224928	11262.343505
479.594591	11892.525545
479.964194	11706.499406
480.333739	11635.194805
480.703226	11559.922817
481.072653	11655.253557
481.442022	11888.666541
481.811333	12073.699573
482.180584	11879.131199
482.549777	11589.002713
482.918912	11411.468398
483.287988	11436.263313
483.657005	11444.646752
484.025964	11136.654937
484.394864	11263.818043
484.763706	11226.082486
485.132489	10986.305044
485.501213	10959.533997
485.869879	11032.585357
486.238487	10873.776408
486.607036	10977.664506
486.975527	10764.605180
487.343959	10952.282297
487.712333	11004.780873
488.080648	10927.157186
488.448905	10975.390946
488.817104	10905.898640
489.185244	11180.298726
489.553326	11335.566265
489.921350	11875.932587
490.289315	12930.922578
490.657222	13264.830965
491.025070	13179.577492
491.392861	13057.967217
491.760593	12676.825739
492.128267	12322.278869
492.495883	11997.273160
492.863440	11660.209011
493.230939	11327.238279
493.598380	11256.089954
493.965763	11124.019285
494.333088	11019.685044
494.700354	10949.237440
495.067563	11013.471822
495.434713	10844.691471
495.801805	10968.658485
496.168839	10896.454038
496.535815	10825.444345
496.902733	10825.681280
497.269593	10758.165106
497.636395	10861.201250
498.003139	10852.853099
498.369825	10718.861750
498.736453	10872.624504
499.103023	10794.393358
499.469535	10831.576909
499.835989	10818.840434
500.202385	10788.175095
500.568723	10631.002000
500.935003	10860.810560
501.301226	10659.940744
501.667390	10922.927658
502.033497	11013.794456
502.399546	10874.714063
502.765537	10781.815679
503.131470	10855.202277
503.497345	11034.440502
503.863163	10644.494649
504.228923	10955.654829
504.594625	11018.747390
504.960269	10761.335992
505.325856	10985.092647
505.691385	10775.410893
506.056856	10932.795717
506.422270	10957.535179
506.787625	10847.086019
507.152924	10962.450304
507.518164	10942.631008
507.883347	10863.409275
508.248472	10785.465475
508.613540	11021.643533
508.978550	10901.769935
509.343503	10878.807479
509.708398	10994.275108
510.073236	11109.422624
510.438016	11122.615323
510.802738	11065.993083
511.167403	11117.803542
511.532010	11012.458550
511.896561	11247.111659
512.261053	11319.394243
512.625488	11184.576145
512.989866	11168.169710
513.354186	11153.091619
513.718449	11057.302134
514.082655	11245.947152
514.446803	11148.509210
514.810894	11267.578743
515.174927	11136.133178
515.538904	11159.720736
515.902822	11309.939559
516.266684	11194.734070
516.630488	11137.378342
516.994235	11193.889677
517.357925	11254.643143
517.721558	11344.688233
518.085133	11354.465551
518.448651	11373.596729
518.812112	11255.275807
519.175516	11266.336099
519.538863	11384.399922
519.902152	11309.576596
520.265385	11465.141563
520.628560	11375.809796
520.991678	11350.830879
521.354739	11423.032805
521.717743	11349.920950
522.080690	11335.122643
522.443580	11465.630555
522.806413	11420.834862
523.169189	11455.424739
523.531908	11512.684685
523.894569	11332.856645
524.257174	11331.976963
524.619722	11450.249994
524.982213	11401.368446
525.344647	11453.108328
525.707025	11401.922973
526.069345	11489.969245
526.431608	11412.660631
526.793815	11519.356652
527.155964	11313.155815
527.518057	11360.371262
527.880093	11311.242697
528.242072	11380.089736
528.603995	11287.970211
528.965860	11212.809127
529.327669	11257.047773
529.689421	11210.938859
530.051117	11180.452482
530.412755	11281.920826
530.774337	11172.432006
531.135862	11155.040025
531.497331	11174.821513
531.858743	11029.868175
532.220098	11193.136025
532.581396	11066.124153
532.942638	11051.184694
533.303824	11015.770588
533.664953	11026.094871
534.026025	10942.643611
534.387040	11044.853005
534.747999	11048.328880
535.108902	11101.034144
535.469748	10860.855931
535.830537	10964.227311
536.191270	10943.253590
536.551947	10962.896446
536.912567	10963.597167
537.273131	10896.310366
537.633638	10866.370953
537.994089	10854.388130
538.354483	10805.385594
538.714821	10951.843716
539.075103	10964.444080
539.435328	10928.556106
539.795497	10748.355021
540.155609	10909.687067
540.515665	11002.086376
540.875665	10738.164328
541.235609	10806.764350
541.595496	10797.367639
541.955328	10952.889756
542.315102	10833.732002
542.674821	10786.992944
543.034483	10786.967739
543.394090	10794.728595
543.753640	10713.490401
544.113134	10940.264186
544.472571	10792.886053
544.831953	10941.053127
545.191278	10736.054605
545.550548	10777.515575
545.909761	10906.891748
546.268918	10881.665814
546.628019	10966.299225
546.987064	10827.619603
547.346053	10756.652760
547.704986	10853.082471
548.063863	10839.670482
548.422684	10830.646816
548.781449	10748.372665
549.140158	10852.850578
549.498811	10726.831814
549.857408	10578.027035
550.215949	10808.559001
550.574434	10663.472072
550.932864	10761.908163
551.291237	10821.260188
551.649555	10770.483166
552.007817	10777.331573
552.366022	10743.089536
552.724173	10742.955945
553.082267	10726.710827
553.440305	10859.431805
553.798288	10659.315641
554.156215	10822.089458
554.514086	10789.503439
554.871902	10642.813424
555.229661	10669.418113
555.587365	10649.808025
555.945014	10548.122911
556.302606	10675.399442
556.660143	10571.067722
557.017625	10724.291073
557.375050	10617.030443
557.732421	10745.456357
558.089735	10667.837712
558.446994	10665.349902
558.804197	10701.104286
559.161345	10705.810203
559.518437	10553.088447
559.875474	10641.898454
560.232455	10674.010604
560.589381	10619.072110
560.946251	10616.828796
561.303065	10719.809487
561.659825	10658.262040
562.016528	10594.075548
562.373177	10475.414349
562.729770	10586.087840
563.086307	10505.855356
563.442789	10590.264436
563.799216	10474.446447
564.155587	10523.905207
564.511904	10476.478032
564.868164	10468.641558
565.224370	10481.922478
565.580520	10401.039685
565.936615	10408.780377
566.292654	10277.269276
566.648638	10414.701212
567.004567	10371.455674
567.360441	10352.175781
567.716260	10263.272513
568.072023	10355.029074
568.427732	10311.917127
568.783385	10217.410615
569.138982	10285.052818
569.494525	10302.147370
569.850013	10180.461478
570.205445	10265.835939
570.560823	10154.900308
570.916145	10077.110263
571.271412	10143.736672
571.626625	10087.978990
571.981782	10063.194158
572.336884	10042.711949
572.691931	10041.587772
573.046923	9991.778652
573.401860	9946.375499
573.756743	9881.884018
574.111570	9921.699051
574.466342	9903.361854
574.821059	9933.684395
575.175722	9831.464918
575.530330	9840.939767
575.884882	9835.011370
576.239380	9758.216953
576.593823	9740.298171
576.948211	9752.424667
577.302544	9632.611563
577.656823	9651.498246
578.011047	9655.427826
578.365216	9629.682653
578.719330	9543.335249
579.073389	9554.506446
579.427394	9500.704732
579.781344	9485.392227
580.135239	9436.268703
580.489080	9447.018964
580.842866	9342.077264
581.196597	9351.698307
581.550273	9392.909739
581.903895	9356.005972
582.257463	9425.094986
582.610975	9297.296695
582.964434	9333.628291
583.317837	9246.098736
583.671186	9236.742355
584.024481	9227.474193
584.377721	9144.380855
584.730906	9125.050550
585.084037	9151.020054
585.437113	9088.353471
585.790135	9104.868291
586.143103	9011.637192
586.496016	8985.816402
586.848874	9043.640957
587.201679	9027.607567
587.554428	8912.361749
587.907124	8962.866549
588.259765	8928.138040
588.612352	8933.025438
588.964884	8810.893404
589.317362	8824.708686
589.669786	8818.555958
590.022155	8865.809214
590.374470	8890.062205
590.726731	8830.911826
591.078937	8682.283487
591.431090	8789.498747
591.783188	8658.360692
592.135232	8654.579826
592.487222	8657.213829
592.839157	8707.368269
593.191038	8639.221951
593.542866	8584.860669
593.894639	8486.948858
594.246358	8540.284266
594.598022	8556.927635
594.949633	8450.521480
595.301190	8430.114890
595.652692	8457.543808
596.004141	8566.379799
596.355535	8342.035850
596.706876	8323.451636
597.058162	8259.285309
597.409395	8333.667534
597.760573	8397.420486
598.111698	8309.696848
598.462768	8291.720093
598.813785	8259.222295
599.164748	8225.829692
599.515657	8215.253351
599.866511	8129.170608
600.217312	8248.285512
600.568060	8110.674614
600.918753	8215.500367
601.269392	8186.100358
601.619978	8094.061492
601.970510	8156.123137
602.320988	8154.741861
602.671412	8211.384265
603.021783	8149.730954
603.372100	8121.366902
603.722363	8128.096842
604.072572	8101.245136
604.422728	8105.436856
604.772830	8043.400416
605.122878	8047.082979
605.472872	8041.058800
605.822813	8073.120539
606.172701	8014.502002
606.522534	8092.140812
606.872314	8087.525636
607.222041	8056.835091
607.571714	8116.126622
607.921333	8075.048780
608.270899	8081.635048
608.620411	8171.236516
608.969870	8073.254129
609.319276	8072.447545
609.668627	8083.074297
610.017926	8116.290460
610.367171	8168.635281
610.716362	8145.209039
611.065500	8130.824106
611.414585	8163.989857
611.763616	8148.878999
612.112594	8132.454920
612.461518	8146.993607
612.810389	8208.490643
613.159207	8147.560737
613.507971	8095.697346
613.856682	8214.343423
614.205340	8163.639497
614.553945	8247.037826
614.902496	8144.450345
615.250994	8201.145682
615.599439	8180.058535
615.947830	8193.878859
616.296169	8168.126124
616.644454	8188.583127
616.992686	8181.381838
617.340864	8234.641629
617.688990	8141.312227
618.037063	8234.939057
618.385082	8182.637086
618.733048	8263.368644
619.080961	8201.465795
619.428821	8224.677788
619.776628	8226.182573
620.124382	8178.064759
620.472083	8161.295361
620.819731	8189.614043
621.167326	8075.809994
621.514868	8093.869928
621.862357	7973.958522
622.209793	7997.205803
622.557176	7927.494207
622.904506	7893.458857
623.251783	7830.230185
623.599007	7789.621170
623.946179	7789.278372
624.293297	7750.365705
624.640363	7660.345821
624.987376	7648.693194
625.334336	7592.436437
625.681243	7541.929117
626.028097	7537.215638
626.374899	7507.538365
626.721647	7503.399578
627.068343	7431.495080
627.414987	7404.902994
627.761577	7362.181735
628.108115	7396.476705
628.454600	7288.837988
628.801032	7343.806730
629.147412	7302.554968
629.493739	7286.952597
629.840014	7232.182981
630.186236	7287.161804
630.532405	7170.761562
630.878521	7224.273410
631.224585	7178.565268
631.570597	7102.693382
631.916556	7138.135214
632.262462	7129.406457
632.608316	7090.224088
632.954117	7067.228865
633.299866	7053.920219
633.645562	7045.110802
633.991206	6968.407126
634.336797	6912.657006
634.682336	6866.190170
635.027823	6835.751683
635.373257	6828.958728
635.718639	6755.476349
636.063968	6776.689525
636.409245	6668.524007
636.754470	6660.785836
637.099642	6625.210413
637.444762	6566.952319
637.789829	6575.088741
638.134845	6521.808786
638.479808	6501.984449
638.824719	6505.271281
639.169577	6435.085817
639.514383	6451.703980
639.859137	6386.902468
640.203839	6390.748869
640.548489	6381.347117
640.893086	6360.242326
641.237632	6326.930382
641.582125	6347.871335
641.926566	6313.117620
642.270955	6328.992213
642.615292	6324.019115
642.959576	6341.302711
643.303809	6332.631927
643.647990	6337.859603
643.992118	6319.081305
644.336195	6274.842659
644.680219	6297.043901
645.024192	6287.858919
645.368112	6384.941459
645.711981	6407.954327
646.055797	6486.908878
646.399562	6436.497340
646.743274	6569.611528
647.086935	6623.814014
647.430544	6616.627849
647.774101	6639.854965
648.117606	6643.512323
648.461059	6632.613348
648.804460	6596.674962
649.147810	6507.260016
649.491108	6474.570654
649.834354	6453.544002
650.177548	6362.543613
650.520690	6281.479338
650.863781	6258.768940
651.206820	6280.881962
651.549807	6203.593512
651.892742	6142.386342
652.235626	6149.338093
652.578458	6138.212267
652.921238	6040.245003
653.263967	6083.755202
653.606644	6024.415780
653.949269	6028.262181
654.291843	5964.942768
654.634365	6008.750395
654.976836	5971.085414
655.319255	5970.702286
655.661622	5947.853256
656.003938	5941.140960
656.346203	5901.373818
656.688416	5936.493016
657.030577	5886.522579
657.372687	5856.810018
657.714746	5846.306774
658.056753	5884.574173
658.398708	5826.681562
658.740612	5822.699050
659.082465	5861.581470
659.424266	5857.193146
659.766016	5856.847827
660.107715	5832.748591
660.449362	5846.344583
660.790958	5842.755281
661.132503	5828.493857
661.473996	5867.096492
661.815438	5850.821127
662.156829	5848.199727
662.498168	5842.964489
662.839456	5815.734696
663.180693	5852.724163
663.521879	5856.086612
663.863013	5844.247463
664.204097	5861.478126
664.545129	5901.666205
664.886110	5901.850207
665.227040	5935.636020
665.567918	5897.814763
665.908746	5924.936171
666.249522	5925.397437
666.590248	5916.197331
666.930922	5939.273213
667.271545	5960.982942
667.612118	5961.388754
667.952639	5932.329023
668.293109	5952.511283
668.633528	5912.078708
668.973896	5918.458288
669.314213	5904.340537
669.654480	5892.307303
669.994695	5884.261621
670.334859	5876.372215
670.674973	5865.637078
671.015035	5868.709662
671.355047	5869.072625
671.695008	5851.557136
672.034918	5829.597869
672.374777	5840.784190
672.714585	5825.615358
673.054342	5824.433207
673.394049	5824.032436
673.733705	5853.066961
674.073310	5833.766904
674.412864	5799.792047
674.752368	5786.654800
675.091820	5790.700326
675.431223	5727.605245
675.770574	5730.816460
676.109875	5682.723852
676.449125	5686.958421
676.788324	5655.320140
677.127473	5598.881902
677.466571	5592.426704
677.805619	5579.473460
678.144616	5565.572478
678.483562	5540.545670
678.822458	5513.328480
679.161303	5504.350185
679.500098	5497.426160
679.838842	5482.186752
680.177535	5487.290920
680.516179	5501.771635
680.854771	5510.999467
681.193314	5591.347897
681.531805	5702.671698
681.870247	5852.151992
682.208638	5951.117403
682.546978	5966.618952
682.885268	5939.147184
683.223508	5853.230799
683.561697	5804.056863
683.899836	5778.009222
684.237925	5732.865689
684.575963	5694.837745
684.913951	5657.838196
685.251889	5715.773657
685.589776	5679.154715
685.927614	5656.681251
686.265401	5726.917127
686.603137	5714.493204
686.940824	5788.981293
687.278460	5808.757739
687.616046	5824.438248
687.953582	5886.141972
688.291068	5869.649837
688.628504	5932.074445
688.965889	5899.511112
689.303224	5840.128840
689.640510	5789.712260
689.977745	5713.550508
690.314930	5619.843020
690.652065	5563.999638
690.989150	5467.307787
691.326185	5399.461417
691.663170	5338.483621
692.000105	5264.842445
692.336990	5184.191545
692.673825	5161.972660
693.010610	5090.229479
693.347345	5021.803377
693.684030	5008.283003
694.020665	4966.015448
694.357251	4877.422210
694.693786	4890.940064
695.030272	4854.482440
695.366707	4815.801666
695.703093	4787.145227
696.039429	4807.055264
696.375716	4792.882060
696.711952	4763.991208
697.048139	4750.591821
697.384276	4734.003904
697.720363	4745.976644
698.056400	4753.460237
698.392388	4704.709759
698.728326	4680.809649
699.064214	4661.741484
699.400053	4657.393489
699.735842	4623.733705
700.071581	4596.720682
700.407270	4569.415272
700.742910	4550.949526
701.078501	4496.905836
701.414042	4497.470445
701.749533	4467.145384
702.084974	4401.305394
702.420366	4456.140545
702.755709	4400.592071
703.091002	4345.315819
703.426246	4395.316503
703.761440	4354.742777
704.096584	4312.848268
704.431679	4333.600178
704.766725	4315.537723
705.101721	4305.077329
705.436668	4338.457329
705.771565	4282.782826
706.106413	4310.932629
706.441212	4342.913709
706.775961	4352.779247
707.110661	4333.456505
707.445311	4359.771328
707.779913	4383.101788
708.114465	4395.074528
708.448967	4417.779885
708.783421	4481.129545
709.117825	4521.103374
709.452180	4525.448849
709.786485	4571.235129
710.120742	4659.830887
710.454949	4641.559225
710.789107	4706.953073
711.123216	4781.020225
711.457275	4770.506899
711.791286	4847.913816
712.125247	4860.504098
712.459159	4766.151342
712.793023	4842.852498
713.126837	4800.920180
713.460602	4799.720386
713.794318	4711.941294
714.127985	4718.192325
714.461602	4638.955469
714.795171	4609.323567
715.128691	4539.216240
715.462162	4483.834124
715.795584	4432.752112
716.128957	4420.116460
716.462281	4365.568655
716.795556	4340.312474
717.128782	4300.830157
717.461960	4231.554621
717.795088	4243.207248
718.128167	4203.419941
718.461198	4141.499448
718.794180	4136.972492
719.127113	4118.607569
719.459997	4099.970423
719.792833	4052.865882
720.125619	4044.699212
720.458357	4011.682175
720.791046	4015.047145
721.123686	3984.459944
721.456278	3943.374541
721.788821	3960.292653
722.121315	3935.971606
722.453761	3907.332811
722.786158	3923.429215
723.118506	3943.830765
723.450805	3899.153539
723.783056	3918.020057
724.115259	3936.042182
724.447412	3939.225671
724.779518	3935.835495
725.111574	3939.024025
725.443582	3971.118531
725.775542	3953.640850
726.107453	4002.945856
726.439315	4003.875948
726.771129	4015.979759
727.102895	4056.707241
727.434612	4100.580403
727.766281	4113.246302
728.097901	4113.914255
728.429473	4117.551447
728.760996	4126.804485
729.092471	4121.675111
729.423897	4107.766568
729.755276	4113.629429
730.086606	4114.486426
730.417887	4151.415398
730.749120	4216.055593
731.080305	4278.593627
731.411442	4304.928615
731.742530	4277.212351
732.073570	4278.613792
732.404562	4337.738965
732.735506	4327.787727
733.066401	4286.004123
733.397249	4222.793095
733.728048	4150.467661
734.058798	4061.440884
734.389501	3993.090400
734.720156	3927.477262
735.050762	3882.608472
735.381320	3880.468502
735.711831	3828.869772
736.042293	3796.908857
736.372707	3819.251251
736.703073	3792.444915
737.033391	3783.776651
737.363661	3800.823313
737.693883	3825.225018
738.024056	3836.721369
738.354182	3833.225329
738.684260	3895.889392
739.014290	3916.535437
739.344272	3911.975714
739.674207	3950.906024
740.004093	3957.489771
740.333931	3952.345274
740.663722	3954.480202
740.993464	3953.739153
741.323159	3928.293929
741.652806	3897.863004
741.982405	3870.895351
742.311956	3836.930577
742.641460	3828.839525
742.970915	3805.251966
743.300323	3765.328548
743.629683	3728.329000
743.958996	3719.360787
744.288260	3696.597457
744.617477	3662.693177
744.946647	3646.818583
745.275768	3624.133391
745.604842	3623.034419
745.933869	3571.735638
746.262847	3564.340265
746.591778	3602.300154
746.920662	3573.883169
747.249498	3540.614075
747.578286	3585.384562
747.907027	3605.251749
748.235720	3604.349383
748.564365	3626.711941
748.892963	3627.110192
749.221514	3610.557564
749.550017	3588.472269
749.878473	3583.347936
750.206881	3556.299625
750.535242	3554.565468
750.863555	3555.808112
751.191821	3547.349056
751.520039	3528.454812
751.848210	3506.485463
752.176334	3542.307902
752.504411	3546.358469
752.832440	3507.060155
753.160421	3490.222701
753.488356	3498.202847
753.816243	3510.493180
754.144082	3468.681850
754.471875	3455.552165
754.799620	3471.537664
755.127318	3464.233032
755.454969	3467.497179
755.782572	3469.251501
756.110129	3445.865588
756.437638	3438.054320
756.765100	3448.539920
757.092515	3460.288329
757.419882	3467.073722
757.747203	3442.276287
758.074477	3442.301492
758.401703	3457.820684
758.728882	3480.077379
759.056014	3486.915704
759.383099	3490.016013
759.710138	3485.199191
760.037129	3501.756861
760.364073	3531.812220
760.690970	3520.663708
761.017820	3495.657065
761.344623	3518.140611
761.671379	3560.766087
761.998088	3608.727625
762.324751	3742.494642
762.651366	3986.829287
762.977935	4462.371411
763.304456	4909.178959
763.630931	5000.968288
763.957359	4638.857166
764.283740	4296.414106
764.610074	4102.720372
764.936362	3904.350969
765.262602	3747.644181
765.588796	3635.299547
765.914943	3545.627502
766.241044	3456.628452
766.567097	3429.842281
766.893104	3381.237996
767.219064	3349.750949
767.544978	3325.971826
767.870845	3270.509052
768.196665	3249.356370
768.522438	3254.493306
768.848165	3252.466762
769.173846	3215.053839
769.499479	3201.427600
769.825066	3182.838345
770.150607	3167.220850
770.476101	3181.331040
770.801548	3174.827952
771.126949	3131.801703
771.452303	3112.204218
771.777611	3116.718571
772.102872	3123.372894
772.428087	3101.665686
772.753256	3088.830908
773.078378	3085.972574
773.403453	3049.862789
773.728482	3037.587579
774.053465	3059.599777
774.378401	3049.252809
774.703291	3013.069928
775.028135	3014.544465
775.352932	3013.596728
775.677683	2999.592403
776.002388	2997.041579
776.327046	2998.606857
776.651658	2989.971361
776.976224	2972.425625
777.300743	2974.852940
777.625216	2967.381950
777.949643	2959.837863
778.274024	2962.736527
778.598359	2953.543983
778.922647	2957.433233
779.246889	2955.094138
779.571086	2941.914041
779.895236	2935.121086
780.219339	2945.626851
780.543397	2960.200827
780.867409	2964.168215
781.191374	2954.683284
781.515294	2952.941565
781.839167	2950.715896
782.162995	2941.914041
782.486776	2950.506688
782.810511	2950.473920
783.134201	2936.865325
783.457844	2942.014864
783.781441	2934.286775
784.104993	2913.197108
784.428498	2915.112747
784.751958	2927.151022
785.075372	2924.786721
785.398739	2907.503125
785.722061	2922.392173
786.045337	2934.324584
786.368568	2918.092068
786.691752	2910.242992
787.014891	2957.236628
787.337983	2988.663181
787.661030	3016.598735
787.984031	3084.273705
788.306987	3130.997639
788.629897	3122.047071
788.952760	3104.728187
789.275579	3092.137905
789.598351	3029.375540
789.921078	2987.110506
790.243759	2978.628764
790.566395	2959.956331
790.888984	2937.596293
791.211529	2916.942685
791.534027	2909.569998
791.856480	2902.794687
792.178888	2885.037223
792.501249	2880.764845
792.823566	2874.561705
793.145836	2872.550285
793.468062	2869.069368
793.790241	2865.608616
794.112375	2870.725387
794.434464	2881.901625
794.756507	2889.576782
795.078505	2893.460991
795.400457	2909.403640
795.722364	2944.938733
796.044226	2968.435551
796.366042	2974.585759
796.687812	2959.490024
797.009538	2978.911069
797.331218	2965.506641
797.652852	2954.895012
797.974442	2937.243412
798.295986	2932.058585
798.617484	2926.223450
798.938938	2915.029568
799.260346	2899.827968
799.581709	2891.071484
799.903026	2884.001266
800.224299	2877.999772
800.545526	2868.643390
800.866708	2852.829291
801.187845	2843.876202
801.508936	2841.650532
801.829983	2851.601770
802.150984	2839.848320
802.471940	2824.757626
802.792851	2825.677636
803.113717	2824.102276
803.434538	2831.691733
803.755314	2823.562872
804.076045	2818.509115
804.396731	2815.746563
804.717372	2816.908549
805.037967	2814.075421
805.358518	2815.791933
805.679024	2832.042093
805.999485	2827.026145
806.319901	2831.336331
806.640272	2822.158911
806.960598	2828.979592
807.280879	2836.803463
807.601115	2846.563137
807.921306	2833.977896
808.241453	2825.002122
808.561554	2834.456806
808.881611	2834.734069
809.201623	2829.060250
809.521590	2831.172494
809.841513	2824.288798
810.161390	2828.835919
810.481223	2824.571103
810.801011	2815.824701
811.120755	2813.011737
811.440453	2812.636171
811.760107	2811.683393
812.079716	2813.888898
812.399281	2799.453554
812.718801	2795.652524
813.038276	2788.317645
813.357707	2793.638583
813.677093	2803.317598
813.996434	2793.951134
814.315731	2792.731175
814.634983	2785.605504
814.954191	2788.673046
815.273354	2803.829275
815.592473	2811.262457
815.911547	2813.755307
816.230577	2819.955927
816.549562	2831.512772
816.868502	2829.327432
817.187399	2843.409895
817.506250	2857.661237
817.825058	2848.166223
818.143821	2862.009232
818.462539	2880.618651
818.781213	2905.340470
819.099843	2943.373455
819.418429	2998.780777
819.736970	3063.902402
820.055466	3136.351345
820.373919	3243.213724
820.692327	3382.828480
821.010691	3553.426167
821.329011	3998.991070
821.647286	4904.067229
821.965517	6293.139527
822.283704	7047.565844
822.601847	7031.146806
822.919945	6391.363889
823.237999	5876.387339
823.556010	5289.929747
823.873976	4731.611877
824.191897	4322.842355
824.509775	4022.170296
824.827609	3750.810025
825.145398	3629.819812
825.463144	3614.572843
825.780845	3707.529199
826.098502	3809.468892
826.416116	4093.792489
826.733685	4416.930451
827.051210	4482.278928
827.368692	4364.961196
827.686129	4092.930452
828.003522	3765.298302
828.320872	3508.640556
828.638177	3311.791060
828.955439	3169.965759
829.272656	3087.230342
829.589830	3017.785927
829.906960	2974.711788
830.224046	2923.806216
830.541088	2891.436968
830.858086	2877.417519
831.175041	2859.874303
831.491952	2859.145857
831.808819	2871.189173
832.125642	2894.333110
832.442421	2942.682817
832.759157	3023.353881
833.075849	3202.163608
833.392497	3487.835714
833.709101	3692.504040
834.025662	3641.338849
834.342179	3482.368583
834.658653	3305.383754
834.975083	3152.165444
835.291469	3056.728840
835.607811	2969.534523
835.924110	2907.951788
836.240366	2856.998325
836.556578	2813.467962
836.872746	2791.387708
837.188871	2772.891714
837.504952	2752.018817
837.820990	2746.254257
838.136984	2729.915878
838.452935	2723.637121
838.768842	2723.097717
839.084706	2742.929616
839.400526	2819.764363
839.716303	2955.752008
840.032037	3035.170346
840.347727	3021.508819
840.663373	2960.939356
840.978977	2881.659650
841.294537	2810.229020
841.610054	2761.730600
841.925527	2737.820407
842.240957	2717.852397
842.556344	2694.015301
842.871687	2679.216993
843.186987	2670.233657
843.502244	2664.227122
843.817458	2662.568583
844.132629	2646.020995
844.447756	2641.748617
844.762840	2632.651855
845.077881	2634.950622
845.392879	2634.940539
845.707833	2631.096659
846.022745	2621.397479
846.337613	2626.252111
846.652438	2625.362347
846.967221	2625.231277
847.281960	2619.179372
847.596656	2618.299690
847.911309	2620.303549
848.225919	2617.306583
848.540485	2612.605707
848.855009	2614.614607
849.169490	2615.020420
849.483928	2615.191819
849.798323	2613.626541
850.112675	2609.356683
850.426984	2612.759462
850.741251	2610.735439
851.055474	2610.611931
851.369654	2615.496809
851.683792	2611.047991
851.997887	2613.152672
852.311938	2611.829369
852.625947	2612.520007
852.939914	2615.227107
853.253837	2616.094186
853.567718	2611.053032
853.881555	2609.384410
854.195350	2612.109153
854.509103	2612.729215
854.822812	2609.475151
855.136479	2610.558999
855.450103	2613.719802
855.763685	2614.904473
856.077224	2610.886674
856.390720	2608.822321
856.704173	2612.512446
857.017584	2617.142746
857.330953	2617.888836
857.644278	2619.517129
857.957561	2622.745988
858.270802	2615.612755
858.584000	2616.550410
858.897155	2618.949999
859.210268	2621.135339
859.523339	2615.859772
859.836367	2609.263422
860.149352	2611.922631
860.462295	2614.433125
860.775195	2607.924996
861.088054	2608.633278
861.400869	2606.142948
861.713642	2604.290324
862.026373	2606.465582
862.339062	2607.201590
862.651708	2617.377159
862.964312	2620.003600
863.276873	2613.871037
863.589392	2615.761469
863.901869	2621.092490
864.214303	2624.154991
864.526696	2626.630197
864.839045	2628.243366
865.151353	2633.314767
865.463619	2631.928450
865.775842	2631.003398
866.088023	2631.061371
866.400162	2632.046917
866.712258	2633.949952
867.024313	2633.062709
867.336325	2626.491565
867.648296	2630.632873
867.960224	2634.096146
868.272110	2634.096146
868.583954	2624.979219
868.895755	2630.050620
869.207515	2633.670168
869.519233	2638.877680
869.830909	2634.877525
870.142542	2630.973151
870.454134	2635.154788
870.765684	2638.625623
871.077191	2641.665438
871.388657	2646.973773
871.700081	2643.386992
872.011463	2640.606796
872.322803	2643.989410
872.634101	2647.666932
872.945357	2653.290339
873.256571	2659.342244
873.567744	2655.576502
873.878874	2655.634476
874.189963	2657.580361
874.501010	2659.894251
874.812015	2666.301557
875.122979	2667.060251
875.433900	2655.263951
875.744780	2657.996256
876.055618	2664.580003
876.366415	2668.711229
876.677169	2671.390602
876.987882	2661.643531
877.298554	2662.079591
877.609183	2672.121569
877.919771	2678.460820
878.230317	2686.030113
878.540822	2698.703574
878.851285	2711.308979
879.161707	2733.873183
879.472087	2772.765685
879.782425	2822.849549
880.092722	2937.104780
880.402977	3129.210550
880.713191	3395.968247
881.023363	3694.558310
881.333494	3889.585429
881.643583	4064.097572
881.953631	4062.915422
882.263637	3881.524624
882.573602	3656.159841
882.883526	3526.085469
883.193408	3408.064496
883.503248	3305.837458
883.813048	3186.324303
884.122806	3070.655028
884.432522	2987.070177
884.742197	2916.584763
885.051831	2879.759135
885.361424	2841.869822
885.670975	2806.969914
885.980485	2775.792898
886.289954	2757.952255
886.599382	2745.976994
886.908768	2732.852350
887.218113	2711.566078
887.527417	2697.435723
887.836680	2689.899198
888.145901	2685.783096
888.455082	2676.464523
888.764221	2664.194355
889.073319	2657.943324
889.382376	2659.730413
889.691392	2658.641524
890.000366	2659.380053
890.309300	2657.436688
890.618193	2658.404590
890.927044	2661.905671
891.235855	2663.291988
891.544625	2661.862821
891.853353	2659.533808
892.162041	2669.028822
892.470687	2688.679239
892.779293	2701.385467
893.087858	2712.178578
893.396381	2734.336970
893.704864	2775.099740
894.013306	2847.644464
894.321707	2943.146603
894.630068	2995.914881
894.938387	3016.865916
895.246665	3009.730163
895.554903	2964.662248
895.863100	2917.635844
896.171256	2858.654344
896.479371	2796.431382
896.787446	2757.727923
897.095480	2736.081209
897.403473	2732.769171
897.711425	2716.415668
898.019336	2696.702236
898.327207	2682.811336
898.635038	2682.531552
898.942827	2677.523166
899.250576	2669.545540
899.558284	2658.150012
899.865952	2654.270844
900.173579	2652.060298
900.481165	2647.586274
900.788711	2642.199801
901.096216	2633.690333
901.403681	2630.345527
901.711105	2632.041876
902.018489	2628.669344
902.325832	2635.240488
902.633135	2634.733852
902.940397	2651.447797
903.247619	2690.178983
903.554800	2757.468304
903.861941	2886.647871
904.169041	3019.885567
904.476101	3085.140783
904.783121	3077.884043
905.090100	3018.365660
905.397039	2940.961263
905.703938	2863.942514
906.010796	2800.504634
906.317614	2748.217787
906.624391	2713.922817
906.931129	2686.332582
907.237826	2659.367450
907.544483	2641.259626
907.851099	2629.012142
908.157675	2616.404217
908.464211	2610.425408
908.770707	2602.082298
909.077163	2595.790938
909.383578	2589.791965
909.689954	2594.054261
909.996289	2592.771287
910.302584	2589.058477
910.608839	2582.981367
910.915054	2585.582602
911.221229	2586.658888
911.527363	2593.643407
911.833458	2585.055801
912.139513	2589.930597
912.445527	2592.937645
912.751502	2598.934098
913.057436	2604.658328
913.363331	2608.958432
913.669186	2620.064094
913.975000	2636.523462
914.280775	2653.265133
914.586510	2670.079902
914.892205	2710.535162
915.197859	2775.913886
915.503475	2862.896475
915.809050	2930.538677
916.114585	2950.083231
916.420081	2964.140488
916.725536	2970.852785
917.030952	2943.411264
917.336328	2895.515261
917.641665	2843.427539
917.946961	2796.181845
918.252218	2762.315373
918.557435	2732.403687
918.862612	2708.082640
919.167750	2691.411545
919.472848	2673.580983
919.777906	2658.429796
920.082925	2644.513690
920.387904	2634.595220
920.692843	2631.164715
920.997743	2623.209774
921.302603	2620.626183
921.607423	2612.141921
921.912204	2605.729573
922.216946	2602.407453
922.521647	2598.777822
922.826310	2595.622060
923.130932	2594.150043
923.435516	2587.009248
923.740059	2586.033785
924.044564	2584.851635
924.349028	2582.598239
924.653454	2570.935529
924.957840	2570.935529
925.262186	2567.683985
925.566493	2565.891855
925.870761	2563.794735
926.174989	2567.235322
926.479178	2563.298181
926.783328	2562.489076
927.087438	2561.175856
927.391509	2560.530588
927.695541	2558.057902
927.999533	2556.066646
928.303486	2553.336861
928.607400	2555.791903
928.911275	2555.517160
929.215110	2554.448436
929.518906	2553.253682
929.822663	2555.033210
930.126381	2553.261244
930.430060	2554.695452
930.733699	2553.921635
931.037299	2555.013045
931.340861	2557.210988
931.644383	2556.820299
931.947866	2556.290977
932.251309	2555.423899
932.554714	2556.351471
932.858080	2557.513457
933.161407	2554.370298
933.464694	2554.473642
933.767943	2554.070349
934.071153	2551.393497
934.374323	2553.999773
934.677455	2552.353836
934.980548	2549.316541
935.283602	2551.658157
935.586617	2551.821995
935.889593	2552.515153
936.192530	2550.660009
936.495428	2552.447098
936.798287	2554.183775
937.101108	2553.989691
937.403890	2557.757953
937.706632	2561.236349
938.009336	2562.993192
938.312002	2569.753379
938.614628	2571.651373
938.917216	2575.165057
939.219765	2578.056159
939.522275	2576.440469
939.824747	2577.824266
940.127179	2568.586352
940.429573	2566.532082
940.731929	2567.205076
941.034246	2564.510579
941.336524	2565.097873
941.638763	2565.392781
941.940964	2563.847667
942.243126	2562.894889
942.545250	2563.666186
942.847335	2560.346586
943.149381	2562.726010
943.451389	2559.721483
943.753359	2557.813406
944.055290	2555.186965
944.357182	2556.913560
944.659036	2553.294012
944.960851	2557.546225
945.262628	2555.073539
945.564367	2556.043961
945.866067	2555.502037
946.167729	2556.394321
946.469352	2554.788714
946.770937	2558.040258
947.072484	2554.899619
947.373992	2555.963302
947.675462	2555.171841
947.976893	2557.606719
948.278286	2552.736964
948.579641	2556.280895
948.880958	2551.091027
949.182236	2552.323589
949.483476	2550.130687
949.784678	2553.840977
950.085841	2551.733774
950.386967	2552.081614
950.688054	2553.483055
950.989103	2554.342572
951.290114	2553.982129
951.591087	2559.227450
951.892021	2558.078067
952.192917	2559.361040
952.493776	2558.867007
952.794596	2559.540001
953.095378	2558.935063
953.396122	2561.059909
953.696828	2557.752912
953.997496	2557.866338
954.298126	2554.372818
954.598718	2554.468600
954.899272	2551.277550
955.199788	2552.462221
955.500266	2552.152190
955.800706	2547.567261
956.101108	2542.314378
956.401472	2542.034594
956.701798	2543.423432
957.002087	2541.961498
957.302337	2544.018288
957.602550	2541.550644
957.902724	2543.514173
958.202861	2540.920499
958.502960	2543.015099
958.803022	2540.146682
959.103045	2540.728936
959.403031	2540.519728
959.702979	2538.778009
960.002889	2537.787422
960.302762	2538.611651
960.602596	2537.989068
960.902393	2537.250539
961.202153	2538.092412
961.501875	2538.871270
961.801559	2536.653163
962.101205	2537.265663
962.400814	2537.984027
962.700385	2537.111908
962.999918	2537.187525
963.299414	2536.431352
963.598873	2538.064686
963.898293	2538.152906
964.197677	2536.736342
964.497022	2535.851619
964.796331	2534.689633
965.095601	2536.549819
965.394835	2537.782381
965.694030	2537.051414
965.993189	2536.043183
966.292309	2535.239119
966.591393	2533.651156
966.890439	2540.038298
967.189447	2535.158461
967.488419	2537.673996
967.787353	2536.774150
968.086249	2535.226516
968.385108	2539.413194
968.683930	2538.815818
968.982714	2539.350180
969.281462	2534.903882
969.580172	2538.788091
969.878844	2538.750283
970.177480	2537.595858
970.476078	2539.675334
970.774639	2535.208872
971.073162	2535.407998
971.371649	2533.658717
971.670098	2533.336083
971.968510	2537.540406
972.266885	2533.192411
972.565223	2536.922864
972.863524	2535.919675
973.161788	2539.035108
973.460014	2536.801877
973.758204	2538.316743
974.056356	2540.101312
974.354471	2538.944367
974.652550	2536.474202
974.950591	2536.607792
975.248595	2535.483615
975.546563	2536.088553
975.844493	2536.771630
976.142386	2534.982020
976.440243	2535.211393
976.738062	2535.705426
977.035845	2533.678882
977.333590	2535.380271
977.631299	2532.957997
977.928971	2535.975128
978.226606	2537.472350
978.524204	2534.409849
978.821765	2536.348173
979.119290	2534.503111
979.416777	2537.316074
979.714228	2536.194418
980.011642	2534.051927
980.309020	2536.978317
980.606360	2534.639222
980.903664	2534.656866
981.200931	2534.649304
981.498162	2538.185673
981.795356	2541.676673
982.092513	2543.244471
982.389633	2543.415871
982.686717	2550.876778
982.983764	2551.106151
983.280775	2554.087993
983.577749	2549.712272
983.874686	2551.491799
984.171587	2547.375697
984.468451	2544.051056
984.765279	2542.500901
985.062070	2539.425797
985.358824	2538.614172
985.655543	2535.781043
985.952224	2535.723070
986.248869	2538.742721
986.545478	2531.801052
986.842050	2534.167874
987.138586	2531.700229
987.435086	2531.022194
987.731549	2528.052954
988.027975	2531.312060
988.324366	2532.753830
988.620719	2532.821886
988.917037	2530.550846
989.213318	2533.391536
989.509563	2530.641587
989.805772	2533.588141
990.101944	2528.632687
990.398080	2531.922040
990.694180	2531.392719
990.990244	2531.143182
991.286271	2528.610002
991.582262	2531.208717
991.878217	2529.522451
992.174136	2533.210055
992.470019	2531.997657
992.765865	2531.312060
993.061676	2530.576052
993.357450	2535.072761
993.653188	2534.530837
993.948890	2532.254756
994.244556	2531.682585
994.540186	2533.194931
994.835780	2533.590662
995.131337	2534.888759
995.426859	2537.928575
995.722345	2534.235929
996.017795	2537.391692
996.313208	2537.300951
996.608586	2536.980838
996.903928	2536.723739
997.199234	2535.108049
997.494504	2536.219623
997.789738	2534.485467
998.084936	2535.279448
998.380099	2533.005888
998.675225	2536.065868
998.970316	2535.229037
999.265371	2532.262318
999.560390	2534.079654
999.855373	2531.324663
1000.150320	2532.310209
1000.445232	2533.880528
1000.740108	2530.323994
1001.034948	2533.310878
1001.329752	2532.973120
1001.624521	2532.176618
1001.919254	2526.384332
1002.213951	2530.689478
1002.508613	2527.808458
1002.803239	2529.426669
1003.097829	2526.316277
1003.392384	2531.453212
1003.686903	2528.783922
1003.981386	2529.605630
1004.275834	2531.153264
1004.570246	2533.310878
1004.864623	2530.777698
1005.158964	2530.581093
1005.453270	2530.901206
1005.747540	2530.676875
1006.041775	2529.267872
1006.335974	2530.984385
1006.630138	2529.431710
1006.924266	2530.203006
1007.218359	2528.307532
1007.512416	2529.194776
1007.806438	2529.948428
1008.100425	2530.702081
1008.394376	2527.296781
1008.688292	2531.652338
1008.982172	2527.505989
1009.276017	2529.164529
1009.569827	2531.856505
1009.863602	2530.260980
1010.157341	2530.137471
1010.451045	2531.261649
1010.744714	2530.581093
1011.038347	2528.274765
1011.331945	2529.603109
1011.625508	2527.984899
1011.919036	2530.003881
1012.212528	2527.921884
1012.505986	2527.813499
1012.799408	2530.293747
1013.092795	2529.469518
1013.386147	2530.712163
1013.679464	2530.271062
1013.972745	2528.496576
1014.265992	2530.651669
1014.559204	2531.012112
1014.852380	2530.964221
1015.145521	2531.269210
1015.438628	2529.635877
1015.731699	2531.730476
1016.024736	2527.611853
1016.317737	2530.243336
1016.610703	2530.266021
1016.903635	2525.728982
1017.196531	2526.114631
1017.489393	2526.401976
1017.782219	2524.322500
1018.075011	2531.707791
1018.367768	2528.068078
1018.660490	2529.512368
1018.953177	2529.512368
1019.245829	2529.512368
