Dividing Wavelength (nm)	Counts (n)	Blue Motor Position (mm): 19.500000	Red Motor Position (mm): 0.000000	
326.493990	2136.330095
326.888308	2136.330095
327.282561	2136.330095
327.676750	2101.306678
328.070874	2101.125197
328.464933	2102.297265
328.858929	2111.144490
329.252859	2118.330655
329.646726	2131.281379
330.040528	2145.842752
330.434265	2159.978147
330.827938	2179.472289
331.221547	2196.730679
331.615091	2215.803885
332.008571	2234.274673
332.401986	2255.384504
332.795338	2275.617175
333.188625	2292.411779
333.581847	2313.047743
333.975006	2329.383602
334.368100	2348.255161
334.761129	2365.997502
335.154095	2383.114740
335.546996	2405.154665
335.939833	2424.328693
336.332606	2438.010385
336.725315	2452.193671
337.117960	2457.585185
337.510540	2471.034984
337.903056	2478.705099
338.295508	2486.445791
338.687896	2498.189159
339.080220	2503.197545
339.472480	2512.201046
339.864676	2512.932013
340.256807	2519.669515
340.648875	2522.800072
341.040879	2524.191430
341.432818	2526.964065
341.824694	2529.043541
342.216506	2530.767616
342.608253	2532.108562
342.999937	2529.734179
343.391557	2527.198479
343.783113	2530.082019
344.174605	2525.108920
344.566033	2527.644621
344.957397	2520.700431
345.348697	2521.252438
345.739934	2519.840915
346.131106	2517.123733
346.522215	2516.211284
346.913260	2515.329082
347.304241	2512.558968
347.695159	2510.139214
348.086012	2508.291631
348.476802	2506.161744
348.867528	2507.386744
349.258191	2504.972031
349.648789	2503.827689
350.039324	2499.630929
350.429796	2503.832731
350.820203	2499.477174
351.210548	2502.950529
351.600828	2499.338542
351.991045	2497.140599
352.381198	2495.295537
352.771288	2495.343428
353.161314	2494.183962
353.551276	2496.213027
353.941175	2495.275372
354.331010	2494.075577
354.720782	2493.563900
355.110490	2495.008191
355.500135	2496.313850
355.889717	2493.442913
356.279235	2496.573469
356.668689	2495.003150
357.058080	2499.101608
357.447408	2493.142964
357.836672	2494.083139
358.225873	2492.422079
358.615010	2490.705566
359.004084	2498.632780
359.393095	2495.729076
359.782043	2498.680671
360.170927	2497.591782
360.559748	2499.991371
360.948505	2499.739314
361.337199	2500.818121
361.725830	2502.643018
362.114398	2501.445744
362.502903	2504.170488
362.891344	2502.864829
363.279722	2500.888697
363.668037	2503.920951
364.056289	2503.689058
364.444478	2503.759634
364.832603	2505.612258
365.220665	2505.927330
365.608665	2504.004130
365.996601	2506.544871
366.384474	2504.019253
366.772284	2507.721981
367.160031	2508.838596
367.547715	2507.835407
367.935336	2506.416322
368.322893	2505.559326
368.710388	2507.694254
369.097820	2510.068638
369.485189	2507.968997
369.872495	2508.221055
370.259738	2512.621982
370.646918	2510.179543
371.034035	2508.105108
371.421090	2509.728360
371.808081	2509.720798
372.195010	2511.601149
372.581875	2511.328926
372.968678	2511.586025
373.355418	2509.619975
373.742096	2511.366735
374.128710	2511.893536
374.515262	2512.732888
374.901751	2512.669873
375.288177	2511.117198
375.674540	2509.829183
376.060841	2511.598628
376.447079	2514.164575
376.833254	2512.589215
377.219367	2507.328771
377.605417	2512.821108
377.991404	2510.620644
378.377329	2510.744152
378.763191	2508.828514
379.148991	2515.755059
379.534727	2514.945954
379.920402	2512.677435
380.306013	2515.122395
380.691563	2516.143228
381.077049	2513.703310
381.462474	2512.778258
381.847835	2515.475275
382.233134	2513.718433
382.618371	2516.700276
383.003545	2519.505678
383.388657	2516.183558
383.773706	2515.999555
384.158693	2517.451408
384.543618	2517.292611
384.928480	2515.286232
385.313280	2517.922756
385.698017	2518.328568
386.082692	2518.401665
386.467305	2516.667508
386.851856	2520.534073
387.236344	2519.225894
387.620770	2519.480472
388.005133	2518.759587
388.389435	2518.038702
388.773674	2518.895698
389.157851	2518.043743
389.541965	2516.914525
389.926018	2520.224042
390.310008	2516.254134
390.693936	2521.570030
391.077802	2519.019207
391.461606	2523.064733
391.845348	2520.541635
392.229027	2518.661285
392.612645	2523.543642
392.996200	2521.025586
393.379694	2519.157838
393.763125	2524.662778
394.146494	2521.738909
394.529801	2523.465504
394.913047	2522.789990
395.296230	2522.469876
395.679351	2523.362161
396.062410	2524.448529
396.445408	2522.205216
396.828343	2522.036337
397.211217	2519.669515
397.594028	2521.055833
397.976778	2519.730009
398.359466	2523.210926
398.742092	2521.655730
399.124656	2523.170597
399.507158	2523.899043
399.889598	2525.557583
400.271977	2524.856863
400.654294	2526.384332
401.036549	2530.281144
401.418742	2526.207892
401.800874	2523.951976
402.182944	2527.175793
402.564952	2525.776873
402.946898	2526.563293
403.328783	2525.272758
403.710606	2525.905423
404.092367	2526.936339
404.474067	2528.894827
404.855705	2528.252080
405.237282	2527.115300
405.618797	2528.012625
406.000250	2528.375588
406.381642	2527.561442
406.762972	2528.468849
407.144240	2531.339787
407.525447	2531.594365
407.906593	2529.411545
408.287677	2531.985054
408.668700	2528.030269
409.049661	2529.651000
409.430560	2529.177132
409.811399	2531.601927
410.192176	2528.181504
410.572891	2529.787111
410.953545	2529.895496
411.334138	2530.548325
411.714669	2529.668644
412.095139	2529.809796
412.475547	2527.795855
412.855894	2531.216278
413.236180	2530.344159
413.616405	2531.972451
413.996568	2532.655528
414.376670	2533.358769
414.756711	2534.866074
415.136691	2531.745599
415.516609	2531.440610
415.896466	2530.255938
416.276262	2530.548325
416.655997	2530.649148
417.035670	2527.720238
417.415283	2529.159488
417.794834	2527.160670
418.174324	2533.237781
418.553753	2529.290557
418.933121	2532.887421
419.312428	2531.216278
419.691674	2534.432534
420.070859	2533.908254
420.449983	2532.756351
420.829045	2534.243491
421.208047	2533.860363
421.586988	2534.152750
421.965867	2535.113090
422.344686	2536.499407
422.723444	2535.155940
423.102141	2534.394726
423.480777	2533.378933
423.859352	2536.282638
424.237866	2534.346835
424.616319	2534.855991
424.994712	2533.941022
425.373044	2535.468492
425.751314	2536.499408
426.129524	2536.169212
426.507673	2535.123172
426.885762	2537.207690
427.263789	2535.377751
427.641756	2538.931764
428.019662	2537.999151
428.397508	2537.512679
428.775292	2537.195087
429.153016	2535.279448
429.530679	2538.077289
429.908282	2534.959335
430.285824	2537.305992
430.663305	2535.254242
431.040726	2536.945550
431.418086	2536.217103
431.795385	2537.978986
432.172624	2538.556198
432.549802	2537.598379
432.926920	2536.466640
433.303977	2538.485622
433.680974	2538.097453
434.057910	2538.548637
434.434786	2537.570653
434.811601	2539.267001
435.188355	2536.443955
435.565050	2538.578883
435.941683	2540.814635
436.318257	2539.445962
436.694770	2537.013605
437.071222	2540.013092
437.447614	2534.321629
437.823946	2537.696682
438.200218	2538.268852
438.576429	2541.316230
438.952580	2539.738349
439.328670	2536.920344
439.704700	2540.560057
440.080670	2537.694161
440.456580	2540.854964
440.832429	2543.010058
441.208218	2541.215407
441.583947	2541.250695
441.959616	2539.632485
442.335224	2541.265818
442.710773	2540.542413
443.086261	2542.324461
443.461689	2542.533669
443.837057	2540.343287
444.212365	2539.985365
444.587612	2538.823379
444.962800	2539.171219
445.337927	2541.296065
445.712995	2542.644574
446.088002	2542.644574
446.462949	2542.374872
446.837837	2545.916283
447.212664	2541.033925
447.587431	2541.873278
447.962139	2543.912424
448.336786	2544.923176
448.711374	2543.420912
449.085901	2545.500388
449.460369	2541.964018
449.834776	2542.906714
450.209124	2540.086188
450.583412	2544.497198
450.957640	2544.540048
451.331808	2542.153062
451.705917	2542.558874
452.079965	2545.341591
452.453954	2546.009544
452.827883	2544.124153
453.201752	2544.948381
453.575562	2545.011396
453.949311	2544.512322
454.323001	2543.821683
454.696632	2543.604914
455.070202	2542.626930
455.443713	2545.341591
455.817164	2543.814122
456.190556	2542.568957
456.563888	2541.868236
456.937160	2542.077444
457.310373	2543.907383
457.683526	2544.174564
458.056619	2547.854607
458.429653	2542.909235
458.802628	2547.564740
459.175542	2543.962836
459.548398	2545.313865
459.921194	2547.257230
460.293930	2547.244627
460.666607	2545.994421
461.039224	2545.447456
461.411782	2546.523742
461.784280	2547.184133
462.156719	2548.162117
462.529099	2547.302600
462.901419	2546.685059
463.273680	2547.738660
463.645882	2547.201777
464.018024	2546.748073
464.390106	2549.550955
464.762130	2549.951727
465.134094	2547.569781
465.505999	2548.532642
465.877845	2550.987684
466.249631	2548.358722
466.621358	2552.371480
466.993026	2553.185627
467.364634	2554.342572
467.736184	2549.422405
468.107674	2551.459032
468.479105	2548.883002
468.850477	2551.781665
469.221790	2550.420554
469.593043	2548.262940
469.964238	2549.775286
470.335373	2551.002807
470.706449	2552.464742
471.077467	2549.946685
471.448425	2554.145967
471.819324	2552.411810
472.190164	2551.476676
472.560945	2551.385935
472.931667	2550.327293
473.302330	2551.277550
473.672934	2550.980122
474.043479	2552.147149
474.413965	2552.454659
474.784393	2548.381407
475.154761	2552.179917
475.525070	2550.702858
475.895321	2551.297715
476.265513	2548.618341
476.635645	2553.662016
477.005719	2553.455328
477.375734	2556.001111
477.745691	2553.525905
478.115588	2556.016235
478.485427	2556.623694
478.855207	2554.834084
479.224928	2555.718807
479.594591	2560.888510
479.964194	2556.865669
480.333739	2555.060936
480.703226	2558.443550
481.072653	2557.788200
481.442022	2559.557645
481.811333	2560.661658
482.180584	2558.284754
482.549777	2559.194682
482.918912	2557.384908
483.287988	2561.720300
483.657005	2557.576472
484.025964	2560.938921
484.394864	2559.537481
484.763706	2563.119220
485.132489	2560.457491
485.501213	2561.695094
485.869879	2563.260373
486.238487	2563.890517
486.607036	2562.083263
486.975527	2564.568552
487.343959	2563.028480
487.712333	2565.801114
488.080648	2564.863460
488.448905	2567.512586
488.817104	2567.893193
489.185244	2572.379820
489.553326	2570.665828
489.921350	2575.858216
490.289315	2579.253433
490.657222	2582.613362
491.025070	2585.789289
491.392861	2587.021851
491.760593	2587.921697
492.128267	2590.643920
492.495883	2588.587130
492.863440	2592.315063
493.230939	2591.417737
493.598380	2593.482090
493.965763	2592.519230
494.333088	2593.668613
494.700354	2601.018615
495.067563	2606.480705
495.434713	2604.325612
495.801805	2615.418671
496.168839	2618.836573
496.535815	2624.160032
496.902733	2626.854528
497.269593	2635.268214
497.636395	2639.132259
498.003139	2646.419247
498.369825	2651.583909
498.736453	2660.090856
499.103023	2662.913902
499.469535	2673.454955
499.835989	2677.371931
500.202385	2683.053312
500.568723	2690.017666
500.935003	2701.551826
501.301226	2710.404092
501.667390	2722.540670
502.033497	2739.113463
502.399546	2741.956674
502.765537	2752.333889
503.131470	2762.852256
503.497345	2776.687703
503.863163	2781.373456
504.228923	2800.552525
504.594625	2814.040132
504.960269	2820.528097
505.325856	2840.919565
505.691385	2849.179495
506.056856	2868.577855
506.422270	2885.564023
506.787625	2898.202196
507.152924	2917.804723
507.518164	2934.493463
507.883347	2948.873354
508.248472	2965.957824
508.613540	2994.321876
508.978550	3012.903569
509.343503	3027.205323
509.708398	3057.265723
510.073236	3084.545927
510.438016	3106.439658
510.802738	3127.642752
511.167403	3155.338851
511.532010	3181.757017
511.896561	3215.487378
512.261053	3248.194384
512.625488	3263.746344
512.989866	3291.802885
513.354186	3318.291628
513.718449	3341.087726
514.082655	3387.380642
514.446803	3411.530289
514.810894	3457.205664
515.174927	3481.451093
515.538904	3507.755834
515.902822	3560.423289
516.266684	3579.496494
516.630488	3614.300620
516.994235	3648.421670
517.357925	3703.340000
517.721558	3749.045622
518.085133	3794.020276
518.448651	3830.619053
518.812112	3857.604349
519.175516	3904.691247
519.538863	3964.970844
519.902152	3987.328361
520.265385	4070.451947
520.628560	4081.913010
520.991678	4135.659272
521.354739	4184.974359
521.717743	4218.649267
522.080690	4258.512191
522.443580	4342.578473
522.806413	4386.852406
523.169189	4435.078604
523.531908	4501.256352
523.894569	4516.243702
524.257174	4567.849994
524.619722	4650.388806
524.982213	4676.012991
525.344647	4758.488788
525.707025	4789.353253
526.069345	4867.319738
526.431608	4911.570987
526.793815	4990.538141
527.155964	4993.638451
527.518057	5051.578952
527.880093	5099.671560
528.242072	5165.375439
528.603995	5206.128126
528.965860	5237.037961
529.327669	5313.524868
529.689421	5349.662379
530.051117	5395.698196
530.412755	5499.210729
530.774337	5508.357902
531.135862	5573.600515
531.497331	5630.205111
531.858743	5644.176669
532.220098	5753.148771
532.581396	5773.653665
532.942638	5815.848122
533.303824	5866.126070
533.664953	5937.874292
534.026025	5952.599503
534.387040	6055.431479
534.747999	6109.538184
535.108902	6198.156627
535.469748	6149.164173
535.830537	6251.411376
536.191270	6300.489530
536.551947	6374.400407
536.912567	6427.743376
537.273131	6447.010666
537.633638	6493.023798
537.994089	6551.528909
538.354483	6582.965544
538.714821	6700.227824
539.075103	6763.585045
539.435328	6808.073228
539.795497	6772.240707
540.155609	6914.383601
540.515665	7013.477562
540.875665	6931.016888
541.235609	7027.983482
541.595496	7078.047181
541.955328	7225.274079
542.315102	7211.461318
542.674821	7242.900474
543.034483	7297.334853
543.394090	7352.505241
543.753640	7368.221038
544.113134	7554.801703
544.472571	7515.238728
544.831953	7669.911410
545.191278	7602.790967
545.550548	7668.562902
545.909761	7804.643808
546.268918	7847.912032
546.628019	7950.638144
546.987064	7922.299298
547.346053	7914.036847
547.704986	8033.381123
548.063863	8079.046415
548.422684	8114.304245
548.781449	8112.290304
549.140158	8232.504179
549.498811	8196.303654
549.857408	8137.173440
550.215949	8348.952313
550.574434	8289.433930
550.932864	8412.826253
551.291237	8491.271647
551.649555	8514.546655
552.007817	8562.546001
552.366022	8570.258967
552.724173	8610.943599
553.082267	8639.879822
553.440305	8797.829254
553.798288	8679.659567
554.156215	8848.979322
554.514086	8872.755924
554.871902	8788.273747
555.229661	8861.642700
555.587365	8879.687510
555.945014	8835.622784
556.302606	8971.844844
556.660143	8919.641175
557.017625	9088.222401
557.375050	9040.911172
557.732421	9181.393006
558.089735	9154.500971
558.446994	9182.779323
558.804197	9253.695755
559.161345	9284.698851
559.518437	9189.473976
559.875474	9304.560998
560.232455	9359.474286
560.589381	9346.258902
560.946251	9389.363288
561.303065	9494.274740
561.659825	9473.623653
562.016528	9444.730280
562.373177	9360.984112
562.729770	9502.496862
563.086307	9453.413668
563.442789	9560.023989
563.799216	9481.485333
564.155587	9551.370849
564.511904	9536.741420
564.868164	9554.037619
565.224370	9581.955529
565.580520	9555.859996
565.936615	9569.619826
566.292654	9482.249068
566.648638	9615.015416
567.004567	9607.350342
567.360441	9605.706925
567.716260	9546.029746
568.072023	9655.236262
568.427732	9636.795721
568.783385	9565.639835
569.138982	9650.058997
569.494525	9681.737608
569.850013	9584.851672
570.205445	9680.091671
570.560823	9595.233928
570.916145	9537.275782
571.271412	9618.788720
571.626625	9586.540458
571.981782	9574.091329
572.336884	9569.019928
572.691931	9586.611035
573.046923	9548.530158
573.401860	9514.998924
573.756743	9466.117375
574.111570	9531.745637
574.466342	9518.068986
574.821059	9558.977950
575.175722	9464.957910
575.530330	9493.957147
575.884882	9494.065532
576.239380	9432.669320
576.593823	9419.874871
576.948211	9444.465620
577.302544	9344.101288
577.656823	9368.248415
578.011047	9371.376451
578.365216	9355.063277
578.719330	9284.310683
579.073389	9307.242891
579.427394	9264.544318
579.781344	9251.460003
580.135239	9200.884627
580.489080	9221.833142
580.842866	9129.658165
581.196597	9148.106267
581.550273	9187.669243
581.903895	9167.003033
582.257463	9229.299091
582.610975	9120.891598
582.964434	9150.049632
583.317837	9079.173530
583.671186	9061.905057
584.024481	9064.468484
584.377721	8985.027461
584.730906	8969.165470
585.084037	9001.771653
585.437113	8943.097664
585.790135	8969.001633
586.143103	8871.848516
586.496016	8846.234413
586.848874	8907.441583
587.201679	8903.398577
587.554428	8796.271537
587.907124	8840.031273
588.259765	8810.795102
588.612352	8823.377822
588.964884	8703.226961
589.317362	8720.571051
589.669786	8714.713230
590.022155	8770.423021
590.374470	8788.079662
590.726731	8723.111792
591.078937	8587.035927
591.431090	8698.959624
591.783188	8568.799553
592.135232	8575.877333
592.487222	8567.201507
592.839157	8623.266699
593.191038	8554.407058
593.542866	8505.739759
593.894639	8406.030777
594.246358	8457.309394
594.598022	8477.332857
594.949633	8373.096919
595.301190	8355.324331
595.652692	8380.565388
596.004141	8497.633584
596.355535	8274.378524
596.706876	8257.261286
597.058162	8192.931122
597.409395	8270.469109
597.760573	8328.951535
598.111698	8236.436279
598.462768	8225.307932
598.813785	8190.292078
599.164748	8163.994899
599.515657	8152.768249
599.866511	8066.141061
600.217312	8189.845936
600.568060	8055.297539
600.918753	8153.899988
601.269392	8125.377140
601.619978	8041.862864
601.970510	8098.901000
602.320988	8098.835465
602.671412	8155.175400
603.021783	8095.384795
603.372100	8065.621822
603.722363	8070.408398
604.072572	8046.407465
604.422728	8057.918939
604.772830	7989.744895
605.122878	7999.421390
605.472872	7991.509299
605.822813	8020.208588
606.172701	7968.332594
606.522534	8040.819346
606.872314	8044.885036
607.222041	8014.711210
607.571714	8067.345897
607.921333	8023.571038
608.270899	8034.787605
608.620411	8123.821944
608.969870	8032.561936
609.319276	8018.429061
609.668627	8037.671145
610.017926	8069.657266
610.367171	8119.985626
610.716362	8098.601051
611.065500	8089.012776
611.414585	8117.386911
611.763616	8101.212369
612.112594	8082.860048
612.461518	8097.751617
612.810389	8159.044486
613.159207	8096.917306
613.507971	8048.192033
613.856682	8167.057400
614.205340	8122.697766
614.553945	8200.323974
614.902496	8095.513344
615.250994	8152.881675
615.599439	8132.384343
615.947830	8153.232035
616.296169	8121.313970
616.644454	8139.399109
616.992686	8130.211606
617.340864	8188.464659
617.688990	8098.540557
618.037063	8190.758384
618.385082	8136.016495
618.733048	8224.488745
619.080961	8158.000967
619.428821	8176.670880
619.776628	8181.901077
620.124382	8132.444837
620.472083	8116.323227
620.819731	8149.683063
621.167326	8040.161475
621.514868	8049.510295
621.862357	7931.963190
622.209793	7950.605377
622.557176	7890.590440
622.904506	7854.967127
623.251783	7794.495966
623.599007	7747.172134
623.946179	7751.681446
624.293297	7707.906587
624.640363	7625.730738
624.987376	7613.596681
625.334336	7556.155253
625.681243	7506.467120
626.028097	7494.582600
626.374899	7473.888663
626.721647	7471.816749
627.068343	7392.799183
627.414987	7372.929475
627.761577	7322.318811
628.108115	7360.966817
628.454600	7257.754233
628.801032	7310.509908
629.147412	7272.098837
629.493739	7257.398832
629.840014	7198.545882
630.186236	7252.574448
630.532405	7138.437684
630.878521	7187.520878
631.224585	7140.983466
631.570597	7066.339101
631.916556	7097.800942
632.262462	7094.783812
632.608316	7058.726959
632.954117	7033.828700
633.299866	7024.056423
633.645562	7013.906060
633.991206	6938.462672
634.336797	6883.924949
634.682336	6838.161355
635.027823	6807.483413
635.373257	6794.777185
635.718639	6729.665642
636.063968	6741.913125
636.409245	6638.839173
636.754470	6636.333719
637.099642	6588.538540
637.444762	6537.302773
637.789829	6545.650923
638.134845	6489.401729
638.479808	6470.416743
638.824719	6478.417055
639.169577	6410.517753
639.514383	6432.308141
639.859137	6354.734866
640.203839	6364.749118
640.548489	6350.331418
640.893086	6328.457851
641.237632	6303.579757
641.582125	6323.131872
641.926566	6292.022912
642.270955	6303.665457
642.615292	6305.571013
642.959576	6313.657023
643.303809	6304.860210
643.647990	6310.652496
643.992118	6299.834180
644.336195	6249.316777
644.680219	6271.308811
645.024192	6263.651298
645.368112	6356.902562
645.711981	6383.136726
646.055797	6451.285565
646.399562	6416.602426
646.743274	6539.505757
647.086935	6590.519713
647.430544	6584.661893
647.774101	6612.289936
648.117606	6616.658096
648.461059	6609.666016
648.804460	6566.612041
649.147810	6474.860521
649.491108	6445.889009
649.834354	6420.337921
650.177548	6338.088976
650.520690	6254.572180
650.863781	6233.250620
651.206820	6252.885914
651.549807	6174.501013
651.892742	6116.275686
652.235626	6124.107118
652.578458	6110.062464
652.921238	6016.145768
653.263967	6057.193363
653.606644	5997.443087
653.949269	5997.165823
654.291843	5938.537204
654.634365	5988.333722
654.976836	5941.536691
655.319255	5939.028717
655.661622	5922.977683
656.003938	5915.773874
656.346203	5876.614191
656.688416	5910.979737
657.030577	5864.066759
657.372687	5830.497715
657.714746	5817.063040
658.056753	5863.628178
658.398708	5805.639786
658.740612	5796.855575
659.082465	5840.234704
659.424266	5834.797820
659.766016	5830.848076
660.107715	5808.818233
660.449362	5823.402291
660.790958	5818.961035
661.132503	5803.759435
661.473996	5843.211505
661.815438	5830.137273
662.156829	5827.427653
662.498168	5815.056661
662.839456	5792.666376
663.180693	5829.809598
663.521879	5826.704247
663.863013	5821.090922
664.204097	5837.656154
664.545129	5875.913470
664.886110	5874.154108
665.227040	5905.666360
665.567918	5873.019848
665.908746	5901.830042
666.249522	5902.850876
666.590248	5891.044494
666.930922	5916.545170
667.271545	5933.261637
667.612118	5933.659888
667.952639	5904.075876
668.293109	5934.869765
668.633528	5887.878649
668.973896	5890.253033
669.314213	5880.168204
669.654480	5864.051635
669.994695	5857.059555
670.334859	5847.864490
670.674973	5837.467111
671.015035	5843.012380
671.355047	5838.808058
671.695008	5826.195091
672.034918	5803.252799
672.374777	5812.228574
672.714585	5795.557478
673.054342	5805.780938
673.394049	5790.027332
673.733705	5827.904042
674.073310	5811.837884
674.412864	5773.497389
674.752368	5762.469865
675.091820	5764.400627
675.431223	5702.102047
675.770574	5705.850145
676.109875	5659.504297
676.449125	5661.976983
676.788324	5627.591273
677.127473	5568.380401
677.466571	5564.382766
677.805619	5557.932609
678.144616	5540.064239
678.483562	5517.666393
678.822458	5488.064737
679.161303	5484.498121
679.500098	5473.286595
679.838842	5457.863185
680.177535	5461.623886
680.516179	5478.405887
680.854771	5485.652545
681.193314	5566.096758
681.531805	5680.929201
681.870247	5825.592673
682.208638	5926.904742
682.546978	5937.471000
682.885268	5911.859418
683.223508	5830.243137
683.561697	5776.890085
683.899836	5746.484366
684.237925	5701.056008
684.575963	5667.799516
684.913951	5628.944823
685.251889	5689.814235
685.589776	5658.811139
685.927614	5628.564216
686.265401	5702.157500
686.603137	5689.010171
686.940824	5760.135811
687.278460	5784.834944
687.616046	5787.625223
687.953582	5858.508887
688.291068	5844.660837
688.628504	5902.460187
688.965889	5862.549372
689.303224	5808.528367
689.640510	5764.698055
689.977745	5687.754924
690.314930	5592.144400
690.652065	5534.987797
690.989150	5440.690494
691.326185	5368.365060
691.663170	5313.676103
692.000105	5238.862859
692.336990	5162.156662
692.673825	5135.902333
693.010610	5068.139143
693.347345	4999.607177
693.684030	4988.062934
694.020665	4946.846461
694.357251	4853.832131
694.693786	4867.740674
695.030272	4834.627855
695.366707	4799.117968
695.703093	4767.073873
696.039429	4788.755876
696.375716	4767.547742
696.711952	4744.847426
697.048139	4736.544646
697.384276	4710.295358
697.720363	4725.796906
698.056400	4736.184203
698.392388	4682.780740
698.728326	4663.331968
699.064214	4643.245491
699.400053	4635.739213
699.735842	4603.148153
700.071581	4579.825255
700.407270	4553.573446
700.742910	4533.300446
701.078501	4482.621726
701.414042	4480.912775
701.749533	4451.505204
702.084974	4382.073392
702.420366	4439.852577
702.755709	4380.145151
703.091002	4324.352181
703.426246	4376.807907
703.761440	4338.701825
704.096584	4298.400321
704.431679	4317.526458
704.766725	4300.946103
705.101721	4291.216677
705.436668	4318.562416
705.771565	4266.051237
706.106413	4293.454949
706.441212	4327.129857
706.775961	4333.907688
707.110661	4315.769616
707.445311	4340.758616
707.779913	4365.961865
708.114465	4376.031569
708.448967	4402.041403
708.783421	4459.109785
709.117825	4502.181403
709.452180	4505.614429
709.786485	4551.506573
710.120742	4636.477742
710.454949	4619.179022
710.789107	4690.087892
711.123216	4763.794603
711.457275	4754.846555
711.791286	4824.285928
712.125247	4840.170604
712.459159	4742.712497
712.793023	4816.628416
713.126837	4778.731542
713.460602	4769.627218
713.794318	4692.212739
714.127985	4701.276733
714.461602	4617.734732
714.795171	4584.896656
715.128691	4519.815359
715.462162	4468.408193
715.795584	4419.491357
716.128957	4397.229621
716.462281	4346.114842
716.795556	4319.525276
717.128782	4282.876088
717.461960	4215.100295
717.795088	4223.879464
718.128167	4186.486705
718.461198	4127.013693
718.794180	4121.486068
719.127113	4104.026031
719.459997	4083.750511
719.792833	4037.364333
720.125619	4026.359495
720.458357	3997.496368
720.791046	4003.886031
721.123686	3972.565342
721.456278	3929.551697
721.788821	3948.420736
722.121315	3922.335285
722.453761	3894.261099
722.786158	3913.954367
723.118506	3932.145370
723.450805	3883.009244
723.783056	3907.216865
724.115259	3922.607507
724.447412	3925.793517
724.779518	3919.119029
725.111574	3925.238990
725.443582	3955.417857
725.775542	3940.627112
726.107453	3990.252230
726.439315	3987.620748
726.771129	4001.410824
727.102895	4034.773180
727.434612	4084.466354
727.766281	4096.179475
728.097901	4098.911781
728.429473	4105.258593
728.760996	4109.972072
729.092471	4104.661217
729.423897	4093.326182
729.755276	4095.259465
730.086606	4093.512705
730.417887	4132.621977
730.749120	4193.110782
731.080305	4262.726596
731.411442	4287.279535
731.742530	4255.001027
732.073570	4260.919342
732.404562	4313.569153
732.735506	4304.427020
733.066401	4268.700363
733.397249	4206.432031
733.728048	4125.932365
734.058798	4049.062331
734.389501	3981.097495
734.720156	3915.907814
735.050762	3871.061709
735.381320	3861.987632
735.711831	3814.517607
736.042293	3786.214049
736.372707	3807.490239
736.703073	3780.421763
737.033391	3771.859363
737.363661	3786.559368
737.693883	3813.602638
738.024056	3820.808967
738.354182	3817.653205
738.684260	3879.515724
739.014290	3898.838467
739.344272	3894.384608
739.674207	3934.650824
740.004093	3940.959828
740.333931	3935.757357
740.663722	3940.531330
740.993464	3935.197789
741.323159	3911.360693
741.652806	3882.540417
741.982405	3854.723330
742.311956	3821.822239
742.641460	3811.684479
742.970915	3790.017599
743.300323	3746.666197
743.629683	3715.418605
743.958996	3704.449054
744.288260	3682.877957
744.617477	3649.321516
744.946647	3634.127478
745.275768	3610.726442
745.604842	3607.984055
745.933869	3560.108217
746.262847	3552.024726
746.591778	3590.264399
746.920662	3560.198957
747.249498	3529.228629
747.578286	3575.110690
747.907027	3595.217332
748.235720	3591.504523
748.564365	3615.613841
748.892963	3616.480919
749.221514	3595.287909
749.550017	3573.172367
749.878473	3574.099939
750.206881	3542.567522
750.535242	3539.820093
750.863555	3540.220865
751.191821	3534.509237
751.520039	3517.805374
751.848210	3496.657734
752.176334	3528.870707
752.504411	3536.442520
752.832440	3495.006756
753.160421	3480.160558
753.488356	3487.407216
753.816243	3499.836181
754.144082	3456.003348
754.471875	3442.548509
754.799620	3463.817137
755.127318	3453.278605
755.454969	3453.651650
755.782572	3459.267496
756.110129	3437.461985
756.437638	3425.033020
756.765100	3441.449537
757.092515	3452.172072
757.419882	3453.941517
757.747203	3427.152825
758.074477	3433.194648
758.401703	3447.052780
758.728882	3466.403249
759.056014	3471.572952
759.383099	3478.554950
759.710138	3474.045638
760.037129	3492.861745
760.364073	3522.533976
760.690970	3504.968076
761.017820	3482.892863
761.344623	3503.662417
761.671379	3547.281001
761.998088	3597.453084
762.324751	3727.608115
762.651366	3972.431751
762.977935	4439.721507
763.304456	4874.294174
763.630931	4963.575530
763.957359	4605.686374
764.283740	4267.740023
764.610074	4082.782609
764.936362	3886.200294
765.262602	3728.918815
765.588796	3619.475365
765.914943	3532.321377
766.241044	3445.684107
766.567097	3417.625044
766.893104	3373.131820
767.219064	3339.129238
767.544978	3313.162254
767.870845	3256.590426
768.196665	3238.469998
768.522438	3249.242944
768.848165	3241.832448
769.173846	3205.871377
769.499479	3191.118440
769.825066	3176.158816
770.150607	3156.284067
770.476101	3172.282169
770.801548	3167.036848
771.126949	3123.655199
771.452303	3108.766151
771.777611	3117.290742
772.102872	3121.505147
772.428087	3093.108327
772.753256	3085.796133
773.078378	3077.579053
773.403453	3043.493291
773.728482	3030.169521
774.053465	3056.123902
774.378401	3042.774927
774.703291	3009.951974
775.028135	3007.900224
775.352932	3006.476098
775.677683	2993.101917
776.002388	2993.656444
776.327046	2991.453460
776.651658	2981.267808
776.976224	2969.731128
777.300743	2971.702219
777.625216	2963.349027
777.949643	2955.106741
778.274024	2956.266206
778.598359	2947.045936
778.922647	2952.326544
779.246889	2953.307049
779.571086	2938.720470
779.895236	2929.618667
780.219339	2941.435131
780.543397	2953.410392
780.867409	2958.857359
781.191374	2949.332099
781.515294	2949.385031
781.839167	2947.232458
782.162995	2940.147117
782.486776	2949.138014
782.810511	2944.903445
783.134201	2931.761157
783.457844	2940.041252
783.781441	2928.383584
784.104993	2909.627971
784.428498	2909.587642
784.751958	2925.096752
785.075372	2917.204825
785.398739	2899.575910
785.722061	2920.315217
786.045337	2928.907864
786.368568	2914.991759
786.691752	2908.758372
787.014891	2953.624641
787.337983	2983.909373
787.661030	3011.590349
787.984031	3079.837490
788.306987	3122.553707
788.629897	3115.188581
788.952760	3099.503031
789.275579	3083.341092
789.598351	3022.756505
789.921078	2982.996924
790.243759	2974.575677
790.566395	2957.334931
790.888984	2933.573452
791.211529	2913.764238
791.534027	2907.364493
791.856480	2898.366033
792.178888	2881.896584
792.501249	2874.521376
792.823566	2871.726056
793.145836	2867.199100
793.468062	2865.175077
793.790241	2864.305477
794.112375	2866.566435
794.434464	2881.694938
794.756507	2885.039743
795.078505	2889.808675
795.400457	2902.598082
795.722364	2943.229782
796.044226	2965.715849
796.366042	2968.899338
796.687812	2956.472893
797.009538	2977.733960
797.331218	2963.762402
797.652852	2949.233796
797.974442	2931.340221
798.295986	2926.677153
798.617484	2922.157759
798.938938	2907.868608
799.260346	2894.088614
799.581709	2889.256668
799.903026	2879.494474
800.224299	2877.241078
800.545526	2862.336907
800.866708	2850.827953
801.187845	2838.575428
801.508936	2844.692868
801.829983	2848.236800
802.150984	2837.063082
802.471940	2823.451967
802.792851	2822.869713
803.113717	2821.697645
803.434538	2829.241732
803.755314	2822.370639
804.076045	2814.687921
804.396731	2814.405616
804.717372	2811.940492
805.037967	2809.944195
805.358518	2815.764207
805.679024	2830.093687
805.999485	2824.906340
806.319901	2829.466063
806.640272	2819.136739
806.960598	2825.468428
807.280879	2838.315809
807.601115	2843.351922
807.921306	2826.905157
808.241453	2824.997080
808.561554	2832.412618
808.881611	2833.556960
809.201623	2828.147802
809.521590	2824.419868
809.841513	2820.268478
810.161390	2828.162925
810.481223	2818.551965
810.801011	2810.488640
811.120755	2807.884884
811.440453	2811.073413
811.760107	2810.337405
812.079716	2809.687096
812.399281	2799.592186
812.718801	2791.508695
813.038276	2787.132974
813.357707	2795.350055
813.677093	2800.187042
813.996434	2794.172945
814.315731	2790.881072
814.634983	2784.539300
814.954191	2788.231945
815.273354	2801.565797
815.592473	2809.586273
815.911547	2809.462765
816.230577	2818.630103
816.549562	2826.058243
816.868502	2824.513130
817.187399	2835.810355
817.506250	2854.205526
817.825058	2847.616738
818.143821	2857.172245
818.462539	2871.539533
818.781213	2898.481980
819.099843	2937.271138
819.418429	2993.480004
819.736970	3054.530897
820.055466	3123.196454
820.373919	3227.737382
820.692327	3366.459853
821.010691	3529.521016
821.329011	3964.481852
821.647286	4856.410681
821.965517	6208.047371
822.283704	6924.798625
822.601847	6897.213431
822.919945	6274.116733
823.237999	5789.598834
823.556010	5214.234302
823.873976	4672.063247
824.191897	4270.452164
824.509775	3983.688648
824.827609	3718.617217
825.145398	3598.131119
825.463144	3586.027309
825.780845	3680.657328
826.098502	3785.190695
826.416116	4062.449115
826.733685	4371.431517
827.051210	4425.298766
827.368692	4315.610820
827.686129	4053.508629
828.003522	3737.791246
828.320872	3480.911690
828.638177	3291.341620
828.955439	3159.074346
829.272656	3076.137283
829.589830	3012.107067
829.906960	2962.807103
830.224046	2919.959816
830.541088	2885.143087
830.858086	2870.760675
831.175041	2852.854497
831.491952	2855.732995
831.808819	2864.537371
832.125642	2890.131309
832.442421	2934.238884
832.759157	3012.694362
833.075849	3186.959488
833.392497	3466.027683
833.709101	3663.441788
834.025662	3612.538737
834.342179	3454.279274
834.658653	3281.909621
834.975083	3136.227837
835.291469	3043.682334
835.607811	2958.118830
835.924110	2901.030283
836.240366	2854.850793
836.556578	2811.501912
836.872746	2787.526184
837.188871	2768.468102
837.504952	2750.582088
837.820990	2744.288207
838.136984	2727.639797
838.452935	2720.937583
838.768842	2720.088148
839.084706	2739.481467
839.400526	2816.356543
839.716303	2944.721964
840.032037	3022.625435
840.347727	3008.442148
840.663373	2947.023250
840.978977	2875.973228
841.294537	2803.957825
841.610054	2756.323962
841.925527	2737.434759
842.240957	2715.483054
842.556344	2693.238963
842.871687	2679.153979
843.186987	2672.512259
843.502244	2666.755261
843.817458	2660.930208
844.132629	2648.639875
844.447756	2640.019502
844.762840	2631.643625
845.077881	2638.207207
845.392879	2634.378451
845.707833	2629.695219
846.022745	2622.846811
846.337613	2628.286216
846.652438	2624.545680
846.967221	2625.138016
847.281960	2623.640793
847.596656	2621.473097
847.911309	2621.062243
848.225919	2622.504013
848.540485	2614.551592
848.855009	2616.759618
849.169490	2616.663836
849.483928	2616.177365
849.798323	2619.822119
850.112675	2612.940944
850.426984	2613.457662
850.741251	2612.593104
851.055474	2615.564864
851.369654	2615.983280
851.683792	2615.892539
851.997887	2613.150152
852.311938	2613.359360
852.625947	2614.339864
852.939914	2616.157200
853.253837	2616.235338
853.567718	2610.090171
853.881555	2612.409102
854.195350	2618.347581
854.509103	2615.827004
854.822812	2613.760131
855.136479	2611.572271
855.450103	2613.273660
855.763685	2614.309617
856.077224	2613.276181
856.390720	2607.640171
856.704173	2612.711571
857.017584	2617.354474
857.330953	2619.834722
857.644278	2620.870679
857.957561	2622.783797
858.270802	2613.752570
858.584000	2614.964967
858.897155	2619.862448
859.210268	2619.254989
859.523339	2616.938579
859.836367	2612.449431
860.149352	2611.224431
860.462295	2615.784155
860.775195	2609.651591
861.088054	2609.588577
861.400869	2609.331478
861.713642	2605.485077
862.026373	2604.668410
862.339062	2608.693772
862.651708	2616.626027
862.964312	2617.805657
863.276873	2610.256529
863.589392	2617.503188
863.901869	2621.868827
864.214303	2628.387039
864.526696	2630.335445
864.839045	2630.902575
865.151353	2632.982051
865.463619	2634.171763
865.775842	2632.760240
866.088023	2632.835857
866.400162	2634.005405
866.712258	2635.079171
867.024313	2632.898872
867.336325	2626.738582
867.648296	2629.365023
867.960224	2634.075981
868.272110	2632.142699
868.583954	2627.582975
868.895755	2626.945269
869.207515	2633.218985
869.519233	2637.788791
869.830909	2636.926754
870.142542	2631.497431
870.454134	2631.653707
870.765684	2640.137969
871.077191	2640.463123
871.388657	2644.178454
871.700081	2640.707619
872.011463	2641.178967
872.322803	2644.080151
872.634101	2647.505615
872.945357	2656.350320
873.256571	2658.245793
873.567744	2655.503406
873.878874	2654.603560
874.189963	2653.852428
874.501010	2660.048006
874.812015	2665.608399
875.122979	2665.187462
875.433900	2657.734116
875.744780	2654.931235
876.055618	2660.229487
876.366415	2664.857267
876.677169	2667.541681
876.987882	2658.152532
877.298554	2657.242604
877.609183	2670.863802
877.919771	2674.369924
878.230317	2680.237827
878.540822	2690.746112
878.851285	2705.441076
879.161707	2729.494941
879.472087	2765.650097
879.782425	2812.684062
880.092722	2924.655651
880.402977	3104.471088
880.713191	3357.315200
881.023363	3638.067140
881.333494	3824.322651
881.643583	3992.457735
881.953631	3991.946058
882.263637	3817.867454
882.573602	3602.791666
882.883526	3477.037563
883.193408	3365.161756
883.503248	3269.039555
883.813048	3156.241217
884.122806	3044.688044
884.432522	2963.845581
884.742197	2901.481467
885.051831	2866.382433
885.361424	2831.273317
885.670975	2797.646300
885.980485	2767.694285
886.289954	2750.224166
886.599382	2739.229409
886.908768	2725.008314
887.218113	2706.741693
887.527417	2694.481607
887.836680	2689.059846
888.145901	2684.011131
888.455082	2672.529903
888.764221	2665.056392
889.073319	2655.657161
889.382376	2657.131698
889.691392	2655.765546
890.000366	2656.062974
890.309300	2654.840494
890.618193	2657.159425
890.927044	2661.313336
891.235855	2658.248314
891.544625	2657.192192
891.853353	2658.381905
892.162041	2665.237874
892.470687	2684.714372
892.779293	2696.056968
893.087858	2708.024667
893.396381	2725.595609
893.704864	2764.848553
894.013306	2836.165757
894.321707	2926.437699
894.630068	2972.702888
894.938387	2989.621000
895.246665	2983.609424
895.554903	2941.576284
895.863100	2901.035324
896.171256	2845.184381
896.479371	2784.531738
896.787446	2745.001531
897.095480	2732.065930
897.403473	2723.425392
897.711425	2708.831252
898.019336	2692.273582
898.327207	2681.089782
898.635038	2679.274967
898.942827	2676.688855
899.250576	2669.444717
899.558284	2654.845535
899.865952	2652.158600
900.173579	2650.031233
900.481165	2646.071407
900.788711	2638.847433
901.096216	2632.200672
901.403681	2630.027935
901.711105	2630.118676
902.018489	2627.409055
902.325832	2632.689664
902.633135	2633.314767
902.940397	2647.724905
903.247619	2683.877540
903.554800	2751.451687
903.861941	2874.193701
904.169041	2995.536794
904.476101	3052.126267
904.783121	3044.365411
905.090100	2987.649909
905.397039	2918.379414
905.703938	2844.297138
906.010796	2786.412089
906.317614	2741.596231
906.624391	2700.218440
906.931129	2679.474092
907.237826	2656.458704
907.544483	2639.989255
907.851099	2625.427882
908.157675	2617.087293
908.464211	2610.226282
908.770707	2597.381422
909.077163	2597.358737
909.383578	2593.159456
909.689954	2591.445464
909.996289	2589.141657
910.302584	2588.206522
910.608839	2587.024372
910.915054	2585.643096
911.221229	2588.360278
911.527363	2590.475042
911.833458	2587.344485
912.139513	2591.500917
912.445527	2590.089393
912.751502	2596.925198
913.057436	2605.152361
913.363331	2608.734101
913.669186	2619.413785
913.975000	2631.605816
914.280775	2647.409833
914.586510	2661.830054
914.892205	2700.062165
915.197859	2764.886362
915.503475	2845.053311
915.809050	2908.939854
916.114585	2917.686256
916.420081	2927.551794
916.725536	2942.466047
917.030952	2917.172058
917.336328	2872.061293
917.641665	2825.985147
917.946961	2779.422529
918.252218	2747.093609
918.557435	2721.353478
918.862612	2699.648790
919.167750	2684.487520
919.472848	2668.683502
919.777906	2654.051553
920.082925	2641.209214
920.387904	2630.716052
920.692843	2624.971657
920.997743	2623.683643
921.302603	2614.775924
921.607423	2610.795933
921.912204	2603.350149
922.216946	2602.321753
922.521647	2599.488625
922.826310	2596.413521
923.130932	2590.240628
923.435516	2585.660740
923.740059	2583.752663
924.044564	2583.629155
924.349028	2582.063877
924.653454	2575.212948
924.957840	2570.204562
925.262186	2570.123904
925.566493	2571.051476
925.870761	2567.550395
926.174989	2569.647515
926.479178	2563.880435
926.783328	2562.690722
927.087438	2564.881104
927.391509	2561.180897
927.695541	2561.921946
927.999533	2558.183931
928.303486	2560.094528
928.607400	2559.860114
928.911275	2557.833571
929.215110	2558.743499
929.518906	2558.521688
929.822663	2559.013201
930.126381	2557.901626
930.430060	2557.576472
930.733699	2555.534804
931.037299	2556.810216
931.340861	2557.069836
931.644383	2560.563355
931.947866	2558.917419
932.251309	2560.147460
932.554714	2558.907336
932.858080	2560.792728
933.161407	2554.597150
933.464694	2557.740309
933.767943	2556.840463
934.071153	2555.711245
934.374323	2556.164949
934.677455	2555.560010
934.980548	2555.121430
935.283602	2553.919115
935.586617	2554.491286
935.889593	2554.392983
936.192530	2552.636141
936.495428	2554.055226
936.798287	2557.962120
937.101108	2558.574620
937.403890	2557.458005
937.706632	2563.247770
938.009336	2564.129972
938.312002	2569.438307
938.614628	2572.652042
938.917216	2575.225551
939.219765	2578.008268
939.522275	2577.123546
939.824747	2575.046590
940.127179	2572.296641
940.429573	2568.175498
940.731929	2569.314798
941.034246	2566.600137
941.336524	2565.780950
941.638763	2566.199365
941.940964	2565.254149
942.243126	2564.364385
942.545250	2563.530074
942.847335	2563.429251
943.149381	2562.239539
943.451389	2562.065619
943.753359	2557.906667
944.055290	2559.741647
944.357182	2558.257027
944.659036	2556.273333
944.960851	2560.051678
945.262628	2558.932542
945.564367	2559.469425
945.866067	2560.301215
946.167729	2559.030845
946.469352	2561.765671
946.770937	2556.893395
947.072484	2558.743499
947.373992	2559.141750
947.675462	2557.921791
947.976893	2558.869528
948.278286	2554.952551
948.579641	2554.161090
948.880958	2554.014897
949.182236	2555.973385
949.483476	2553.793086
949.784678	2556.734599
950.085841	2554.087993
950.386967	2555.292829
950.688054	2556.321224
950.989103	2556.734599
951.290114	2555.663354
951.591087	2559.280382
951.892021	2560.008828
952.192917	2562.872204
952.493776	2562.269786
952.794596	2562.002605
953.095378	2562.849519
953.396122	2561.511092
953.696828	2562.544529
953.997496	2556.941286
954.298126	2559.247614
954.598718	2556.732078
954.899272	2556.187634
955.199788	2559.141750
955.500266	2555.330638
955.800706	2553.785524
956.101108	2545.833104
956.401472	2548.330996
956.701798	2546.614483
957.002087	2543.441076
957.302337	2545.359235
957.602550	2545.258412
957.902724	2545.230686
958.202861	2545.076931
958.502960	2545.790254
958.803022	2546.548948
959.103045	2543.932589
959.403031	2544.746735
959.702979	2542.478216
960.002889	2545.986859
960.302762	2542.392516
960.602596	2546.775800
960.902393	2543.287321
961.202153	2541.422094
961.501875	2542.085006
961.801559	2542.389996
962.101205	2542.576518
962.400814	2544.560213
962.700385	2543.357897
962.999918	2543.219266
963.299414	2540.799512
963.598873	2539.060314
963.898293	2541.908566
964.197677	2542.843700
964.497022	2540.852444
964.796331	2539.677855
965.095601	2542.095088
965.394835	2543.244471
965.694030	2541.291024
965.993189	2540.817156
966.292309	2540.492001
966.591393	2542.548792
966.890439	2542.460572
967.189447	2541.429656
967.488419	2538.062165
967.787353	2541.848072
968.086249	2539.272042
968.385108	2541.477547
968.683930	2539.995448
968.982714	2539.667773
969.281462	2539.057793
969.580172	2539.629964
969.878844	2542.052238
970.177480	2541.555685
970.476078	2539.672814
970.774639	2543.829245
971.073162	2540.239944
971.371649	2540.638195
971.670098	2538.278935
971.968510	2539.191384
972.266885	2538.377237
972.565223	2540.411343
972.863524	2542.450490
973.161788	2542.558874
973.460014	2542.536189
973.758204	2542.999975
974.056356	2541.084337
974.354471	2542.115253
974.652550	2542.319420
974.950591	2540.708771
975.248595	2542.110212
975.546563	2540.371014
975.844493	2543.942671
976.142386	2542.150541
976.440243	2541.442259
976.738062	2540.098791
977.035845	2540.754141
977.333590	2539.166178
977.631299	2543.246992
977.928971	2538.778009
978.226606	2543.418391
978.524204	2538.220962
978.821765	2541.656508
979.119290	2542.657177
979.416777	2543.274718
979.714228	2539.604758
980.011642	2539.670293
980.309020	2543.302445
980.606360	2538.974614
980.903664	2542.624409
981.200931	2541.301107
981.498162	2539.624923
981.795356	2542.485778
982.092513	2546.904349
982.389633	2547.322765
982.686717	2552.431974
982.983764	2554.849207
983.280775	2557.848694
983.577749	2553.510781
983.874686	2554.829043
984.171587	2551.103630
984.468451	2548.031047
984.765279	2548.013403
985.062070	2542.662218
985.358824	2546.327137
985.655543	2544.708927
985.952224	2543.123484
986.248869	2536.738862
986.545478	2537.759696
986.842050	2537.174922
987.138586	2536.562422
987.435086	2537.242978
987.731549	2534.051927
988.027975	2538.160468
988.324366	2539.483771
988.620719	2537.537885
988.917037	2540.423946
989.213318	2538.664583
989.509563	2538.074768
989.805772	2535.851619
990.101944	2536.653163
990.398080	2538.004192
990.694180	2538.815818
990.990244	2537.978986
991.286271	2535.962525
991.582262	2538.198276
991.878217	2537.812628
992.174136	2538.157947
992.470019	2537.361445
992.765865	2538.941847
993.061676	2536.000333
993.357450	2536.698533
993.653188	2536.658204
993.948890	2537.482432
994.244556	2536.086033
994.540186	2538.039480
994.835780	2538.863709
995.131337	2539.110725
995.426859	2536.471681
995.722345	2540.799512
996.017795	2539.413194
996.313208	2542.415202
996.608586	2540.560057
996.903928	2542.374872
997.199234	2542.833617
997.494504	2541.351518
997.789738	2539.975283
998.084936	2540.774306
998.380099	2538.730118
998.675225	2538.586445
998.970316	2536.859850
999.265371	2538.765406
999.560390	2538.014274
999.855373	2538.712474
1000.150320	2535.740714
1000.445232	2537.621064
1000.740108	2537.492515
1001.034948	2535.715508
1001.329752	2536.315405
1001.624521	2536.990920
1001.919254	2532.922709
1002.213951	2533.013450
1002.508613	2533.618388
1002.803239	2534.777853
1003.097829	2532.773995
1003.392384	2534.316588
1003.686903	2537.994110
1003.981386	2536.799356
1004.275834	2536.249870
1004.570246	2537.895807
1004.864623	2534.641742
1005.158964	2536.761547
1005.453270	2534.099818
1005.747540	2537.469830
1006.041775	2533.867925
1006.335974	2538.314223
1006.630138	2535.685261
1006.924266	2537.706764
1007.218359	2535.498738
1007.512416	2535.473533
1007.806438	2535.902031
1008.100425	2536.680889
1008.394376	2534.500590
1008.688292	2536.189377
1008.982172	2535.745755
1009.276017	2532.922709
1009.569827	2537.497556
1009.863602	2536.454037
1010.157341	2534.631660
1010.451045	2534.750127
1010.744714	2535.395395
1011.038347	2537.260622
1011.331945	2536.280117
1011.625508	2537.921013
1011.919036	2535.881866
1012.212528	2535.382792
1012.505986	2535.317257
1012.799408	2536.910262
1013.092795	2534.611495
1013.386147	2535.193749
1013.679464	2536.136444
1013.972745	2533.845240
1014.265992	2535.523944
1014.559204	2535.965045
1014.852380	2534.238450
1015.145521	2534.661907
1015.438628	2537.542926
1015.731699	2536.154088
1016.024736	2533.812472
1016.317737	2534.583769
1016.610703	2537.419418
1016.903635	2534.485467
1017.196531	2534.288862
1017.489393	2532.708460
1017.782219	2532.829448
1018.075011	2531.985054
1018.367768	2533.121834
1018.660490	2535.922195
1018.953177	2535.922195
1019.245829	2535.922195
