Dividing Wavelength (nm)	Counts (n)	Blue Motor Position (mm): 21.500000	Red Motor Position (mm): 0.000000	
326.493990	2133.746503
326.888308	2133.746503
327.282561	2133.746503
327.676750	2099.874991
328.070874	2101.667121
328.464933	2103.718870
328.858929	2107.855137
329.252859	2120.294184
329.646726	2132.087964
330.040528	2143.823770
330.434265	2161.011584
330.827938	2175.817453
331.221547	2194.384022
331.615091	2214.904039
332.008571	2233.856257
332.401986	2255.119844
332.795338	2274.140117
333.188625	2291.758950
333.581847	2310.799388
333.975006	2328.229178
334.368100	2348.159379
334.761129	2363.940711
335.154095	2380.226159
335.546996	2401.232647
335.939833	2425.044537
336.332606	2438.325457
336.725315	2451.850873
337.117960	2460.287244
337.510540	2467.760754
337.903056	2481.482775
338.295508	2486.430668
338.687896	2495.693788
339.080220	2503.099243
339.472480	2508.954543
339.864676	2516.823784
340.256807	2518.255472
340.648875	2521.383508
341.040879	2525.204702
341.432818	2524.597243
341.824694	2526.712007
342.216506	2529.736700
342.608253	2526.739734
342.999937	2526.969106
343.391557	2531.417924
343.783113	2526.462470
344.174605	2526.419620
344.566033	2524.438447
344.957397	2523.082377
345.348697	2520.476100
345.739934	2520.960051
346.131106	2517.955523
346.522215	2515.807992
346.913260	2515.182888
347.304241	2511.906138
347.695159	2509.894718
348.086012	2509.945130
348.476802	2507.512773
348.867528	2506.292814
349.258191	2504.351969
349.648789	2502.375837
350.039324	2499.484735
350.429796	2498.370640
350.820203	2500.906341
351.210548	2496.081957
351.600828	2498.511793
351.991045	2496.598675
352.381198	2494.529281
352.771288	2496.404590
353.161314	2497.148161
353.551276	2494.062974
353.941175	2494.599857
354.331010	2495.008191
354.720782	2494.206647
355.110490	2494.342758
355.500135	2493.374857
355.889717	2494.181442
356.279235	2494.650269
356.668689	2496.086998
357.058080	2496.704539
357.447408	2495.736638
357.836672	2490.629949
358.225873	2493.536174
358.615010	2492.434682
359.004084	2500.324088
359.393095	2495.802172
359.782043	2499.691423
360.170927	2498.834427
360.559748	2500.450116
360.948505	2499.797287
361.337199	2499.620847
361.725830	2503.517658
362.114398	2502.441372
362.502903	2504.798112
362.891344	2502.048162
363.279722	2503.379027
363.668037	2504.888852
364.056289	2503.557988
364.444478	2503.245436
364.832603	2504.314161
365.220665	2504.984634
365.608665	2503.837772
365.996601	2505.244254
366.384474	2505.450941
366.772284	2505.481188
367.160031	2505.892042
367.547715	2508.518483
367.935336	2505.934892
368.322893	2507.396826
368.710388	2508.959584
369.097820	2511.775068
369.485189	2505.856754
369.872495	2510.509739
370.259738	2508.883967
370.646918	2509.700634
371.034035	2507.585870
371.421090	2509.872033
371.808081	2510.731550
372.195010	2511.205418
372.581875	2508.712568
372.968678	2510.033350
373.355418	2509.526714
373.742096	2510.146776
374.128710	2511.328926
374.515262	2511.888494
374.901751	2510.769358
375.288177	2512.284225
375.674540	2512.932013
376.060841	2512.664832
376.447079	2513.413443
376.833254	2512.498474
377.219367	2507.638802
377.605417	2512.286746
377.991404	2509.473782
378.377329	2509.927486
378.763191	2510.658453
379.148991	2515.049298
379.534727	2513.736077
379.920402	2514.567868
380.306013	2515.674401
380.691563	2516.085255
381.077049	2516.453259
381.462474	2514.197343
381.847835	2516.876716
382.233134	2518.507529
382.618371	2513.504184
383.003545	2517.378311
383.388657	2516.183558
383.773706	2516.470903
384.158693	2518.525173
384.543618	2515.883609
384.928480	2515.445028
385.313280	2517.411078
385.698017	2519.498116
386.082692	2517.554751
386.467305	2517.320338
386.851856	2521.736388
387.236344	2518.656243
387.620770	2520.259330
388.005133	2518.880575
388.389435	2519.959382
388.773674	2520.138343
389.157851	2520.264372
389.541965	2519.533404
389.926018	2519.518281
390.310008	2518.066428
390.693936	2519.233456
391.077802	2519.011645
391.461606	2520.735719
391.845348	2520.415606
392.229027	2519.984587
392.612645	2518.820081
392.996200	2519.873682
393.379694	2523.326872
393.763125	2521.302849
394.146494	2522.255627
394.529801	2523.745288
394.913047	2523.042047
395.296230	2523.374763
395.679351	2524.642614
396.062410	2523.813344
396.445408	2523.251255
396.828343	2523.684794
397.211217	2519.316635
397.594028	2520.791172
397.976778	2520.670184
398.359466	2521.731347
398.742092	2519.850997
399.124656	2525.166894
399.507158	2526.028931
399.889598	2524.183869
400.271977	2524.985412
400.654294	2526.802748
401.036549	2527.634538
401.418742	2526.457429
401.800874	2524.665299
402.182944	2529.134282
402.564952	2524.950124
402.946898	2527.780732
403.328783	2526.616225
403.710606	2526.333921
404.092367	2529.731658
404.474067	2527.241328
404.855705	2527.581606
405.237282	2526.238139
405.618797	2526.177645
406.000250	2528.052954
406.381642	2528.567152
406.762972	2528.012625
407.144240	2528.035310
407.525447	2526.253262
407.906593	2528.095804
408.287677	2530.127389
408.668700	2527.513551
409.049661	2528.610002
409.430560	2530.076977
409.811399	2531.178470
410.192176	2530.613860
410.572891	2528.514220
410.953545	2528.405835
411.334138	2532.216947
411.714669	2530.994467
412.095139	2532.486649
412.475547	2531.738038
412.855894	2531.087729
413.236180	2533.862884
413.616405	2532.317770
413.996568	2532.600075
414.376670	2531.291896
414.756711	2533.759540
415.136691	2531.415404
415.516609	2534.306506
415.896466	2532.721063
416.276262	2535.284489
416.655997	2531.168387
417.035670	2528.985568
417.415283	2530.104704
417.794834	2530.119827
418.174324	2530.321473
418.553753	2532.204344
418.933121	2535.599562
419.312428	2534.999664
419.691674	2531.249046
420.070859	2532.685775
420.449983	2535.082843
420.829045	2534.329191
421.208047	2532.466484
421.586988	2536.486805
421.965867	2533.537730
422.344686	2533.537730
422.723444	2535.357586
423.102141	2534.470343
423.480777	2538.508307
423.859352	2536.229706
424.237866	2536.164171
424.616319	2534.982020
424.994712	2535.803728
425.373044	2536.239788
425.751314	2535.657535
426.129524	2537.817669
426.507673	2534.954294
426.885762	2534.553522
427.263789	2537.575694
427.641756	2538.306661
428.019662	2537.179963
428.397508	2534.737524
428.775292	2537.351363
429.153016	2539.950077
429.530679	2538.147865
429.908282	2536.958153
430.285824	2539.239275
430.663305	2538.364634
431.040726	2538.599048
431.418086	2537.248019
431.795385	2537.636188
432.172624	2542.016950
432.549802	2538.372196
432.926920	2538.934285
433.303977	2539.675334
433.680974	2538.291538
434.057910	2538.452855
434.434786	2541.192722
434.811601	2539.496373
435.188355	2539.400592
435.565050	2540.035777
435.941683	2539.864378
436.318257	2540.444110
436.694770	2535.589479
437.071222	2538.092412
437.447614	2537.381609
437.823946	2537.769778
438.200218	2540.660880
438.576429	2540.907897
438.952580	2541.412012
439.328670	2540.945705
439.704700	2543.725902
440.080670	2542.498381
440.456580	2539.632485
440.832429	2543.115922
441.208218	2541.903524
441.583947	2542.750438
441.959616	2539.451003
442.335224	2542.942002
442.710773	2541.931251
443.086261	2542.989893
443.461689	2541.921168
443.837057	2541.137269
444.212365	2541.931251
444.587612	2543.690613
444.962800	2542.722712
445.337927	2543.249512
445.712995	2542.589121
446.088002	2545.114739
446.462949	2544.136756
446.837837	2545.099616
447.212664	2545.286139
447.587431	2543.425953
447.962139	2545.283618
448.336786	2550.695297
448.711374	2544.570295
449.085901	2546.826211
449.460369	2546.347302
449.834776	2544.202291
450.209124	2545.107178
450.583412	2545.954092
450.957640	2545.603731
451.331808	2547.088351
451.705917	2543.889739
452.079965	2546.551468
452.453954	2548.454504
452.827883	2548.399051
453.201752	2547.332847
453.575562	2546.637168
453.949311	2545.195398
454.323001	2545.840666
454.696632	2548.051212
455.070202	2550.617159
455.443713	2548.152035
455.817164	2545.848227
456.190556	2544.459389
456.563888	2545.510470
456.937160	2541.835469
457.310373	2549.155224
457.683526	2549.293856
458.056619	2547.985677
458.429653	2547.426108
458.802628	2549.200595
459.175542	2548.731767
459.548398	2549.825698
459.921194	2549.344267
460.293930	2548.388969
460.666607	2551.922818
461.039224	2550.332334
461.411782	2550.007179
461.784280	2553.684701
462.156719	2549.868548
462.529099	2554.781152
462.901419	2550.090358
463.273680	2552.983981
463.645882	2553.195709
464.018024	2550.990204
464.390106	2548.935934
464.762130	2554.811399
465.134094	2553.243600
465.505999	2553.326779
465.877845	2555.312994
466.249631	2558.874569
466.621358	2557.261400
466.993026	2558.055381
467.364634	2559.035886
467.736184	2556.550597
468.107674	2556.069167
468.479105	2556.550597
468.850477	2558.733417
469.221790	2557.100083
469.593043	2557.311811
469.964238	2555.948179
470.335373	2561.158212
470.706449	2558.587223
471.077467	2558.088149
471.448425	2562.973027
471.819324	2565.390260
472.190164	2565.168449
472.560945	2564.263562
472.931667	2563.893037
473.302330	2568.165415
473.672934	2564.485373
474.043479	2568.132648
474.413965	2571.991651
474.784393	2566.993347
475.154761	2573.690520
475.525070	2571.916034
475.895321	2577.753690
476.265513	2580.349884
476.635645	2586.424475
477.005719	2587.926738
477.375734	2592.486462
477.745691	2597.147009
478.115588	2606.737804
478.485427	2612.305758
478.855207	2619.978395
479.224928	2637.211579
479.594591	2649.373363
479.964194	2653.771769
480.333739	2657.784528
480.703226	2664.844664
481.072653	2676.666170
481.442022	2692.180321
481.811333	2702.784388
482.180584	2711.097250
482.549777	2714.747046
482.918912	2722.921277
483.287988	2736.693709
483.657005	2746.707961
484.025964	2751.837335
484.394864	2763.711773
484.763706	2778.189967
485.132489	2784.440998
485.501213	2799.289716
485.869879	2810.851603
486.238487	2825.770897
486.607036	2841.479133
486.975527	2855.299456
487.343959	2872.595655
487.712333	2893.637431
488.080648	2909.811973
488.448905	2933.008843
488.817104	2951.525001
489.185244	2983.402737
489.553326	3019.358767
489.921350	3078.133580
490.289315	3174.364165
490.657222	3220.921742
491.025070	3249.580701
491.392861	3268.737086
491.760593	3273.049793
492.128267	3274.980555
492.495883	3279.414250
492.863440	3281.730660
493.230939	3291.215591
493.598380	3318.563851
493.965763	3341.498580
494.333088	3359.079604
494.700354	3391.693349
495.067563	3432.057868
495.434713	3452.749284
495.801805	3507.723066
496.168839	3539.109290
496.535815	3577.187646
496.902733	3605.841564
497.269593	3644.729025
497.636395	3692.922456
498.003139	3747.603852
498.369825	3761.071294
498.736453	3838.468129
499.103023	3865.690360
499.469535	3922.569699
499.835989	3962.909012
500.202385	4009.978265
500.568723	4036.789642
500.935003	4116.258391
501.301226	4156.106192
501.667390	4239.338162
502.033497	4323.606090
502.399546	4341.048482
502.765537	4379.767064
503.131470	4452.095019
503.497345	4546.626736
503.863163	4514.718753
504.228923	4647.401922
504.594625	4722.817584
504.960269	4718.527562
505.325856	4831.545190
505.691385	4842.577755
506.056856	4943.360503
506.422270	5020.215414
506.787625	5038.832395
507.152924	5144.288292
507.518164	5198.468093
507.883347	5238.404114
508.248472	5276.177480
508.613540	5413.445578
508.978550	5451.113080
509.343503	5501.491851
509.708398	5613.087873
510.073236	5722.561570
510.438016	5787.433659
510.802738	5841.313511
511.167403	5926.597231
511.532010	5969.310928
511.896561	6112.862825
512.261053	6218.366613
512.625488	6242.120530
512.989866	6301.064221
513.354186	6369.966712
513.718449	6395.543006
514.082655	6544.181427
514.446803	6575.287867
514.810894	6697.840837
515.174927	6718.988478
515.538904	6789.630167
515.902822	6939.624658
516.266684	6949.333921
516.630488	6999.221179
516.994235	7083.040444
517.357925	7192.471291
517.721558	7309.277346
518.085133	7400.769248
518.448651	7469.268446
518.812112	7473.860937
519.175516	7562.320584
519.538863	7701.030453
519.902152	7714.979326
520.265385	7895.407263
520.628560	7898.003457
520.991678	7968.400650
521.354739	8063.388591
521.717743	8081.020027
522.080690	8132.326370
522.443580	8296.433572
522.806413	8344.279163
523.169189	8416.261799
523.531908	8510.876695
523.894569	8466.552350
524.257174	8538.479533
524.619722	8685.565278
524.982213	8689.502420
525.344647	8799.760016
525.707025	8812.315010
526.069345	8948.768962
526.431608	8958.510992
526.793815	9090.132998
527.155964	8994.398966
527.518057	9087.844314
527.880093	9105.306871
528.242072	9205.300678
528.603995	9206.523158
528.965860	9189.582361
529.327669	9279.680383
529.689421	9293.435171
530.051117	9322.850304
530.412755	9452.085324
530.774337	9408.486905
531.135862	9444.775651
531.497331	9509.125979
531.858743	9447.278583
532.220098	9617.689748
532.581396	9553.654491
532.942638	9584.347557
533.303824	9584.924769
533.664953	9651.329368
534.026025	9617.956929
534.387040	9739.478984
534.747999	9774.635991
535.108902	9861.144711
535.469748	9695.966264
535.830537	9820.278598
536.191270	9836.622018
536.551947	9889.755780
536.912567	9916.511704
537.273131	9883.386282
537.633638	9898.550073
537.994089	9927.347664
538.354483	9906.116845
538.714821	10060.275329
539.075103	10097.809240
539.435328	10098.610784
539.795497	9966.063726
540.155609	10140.505293
540.515665	10249.205173
540.875665	10025.766111
541.235609	10112.269790
541.595496	10134.551690
541.955328	10301.950765
542.315102	10216.394823
542.674821	10195.839518
543.034483	10215.522703
543.394090	10235.405014
543.753640	10192.527480
544.113134	10414.991079
544.472571	10288.180854
544.831953	10448.277817
545.191278	10287.485174
545.550548	10331.318007
545.909761	10467.182144
546.268918	10462.209046
546.628019	10555.026771
546.987064	10441.913361
547.346053	10381.744669
547.704986	10490.774744
548.063863	10489.832049
548.422684	10496.463687
548.781449	10424.627244
549.140158	10533.430468
549.498811	10432.272154
549.857408	10301.744078
550.215949	10537.670078
550.574434	10395.743953
550.932864	10508.630511
551.291237	10565.174613
551.649555	10528.359067
552.007817	10551.447552
552.366022	10511.627477
552.724173	10522.206339
553.082267	10514.838692
553.440305	10645.485235
553.798288	10457.833325
554.156215	10616.249064
554.514086	10606.736406
554.871902	10461.415064
555.229661	10500.110961
555.587365	10480.420214
555.945014	10387.552078
556.302606	10513.656542
556.660143	10417.330174
557.017625	10572.723741
557.375050	10477.960131
557.732421	10601.738102
558.089735	10526.801350
558.446994	10529.115240
558.804197	10570.636704
559.161345	10573.477394
559.518437	10432.060426
559.875474	10521.364466
560.232455	10551.286235
560.589381	10510.188228
560.946251	10510.634370
561.303065	10604.157856
561.659825	10546.212313
562.016528	10478.948198
562.373177	10364.266989
562.729770	10482.179577
563.086307	10402.945242
563.442789	10486.124280
563.799216	10374.452640
564.155587	10420.231358
564.511904	10382.619309
564.868164	10370.213030
565.224370	10390.120546
565.580520	10314.873763
565.936615	10322.813581
566.292654	10189.394403
566.648638	10329.014200
567.004567	10280.107446
567.360441	10265.772925
567.716260	10185.575729
568.072023	10269.334500
568.427732	10222.713909
568.783385	10139.008070
569.138982	10212.929030
569.494525	10231.223377
569.850013	10109.250139
570.205445	10178.777733
570.560823	10080.603782
570.916145	10002.090332
571.271412	10073.387371
571.626625	10011.517289
571.981782	9995.851904
572.336884	9972.697884
572.691931	9977.113935
573.046923	9927.665257
573.401860	9878.274552
573.756743	9815.668463
574.111570	9858.603970
574.466342	9843.266259
574.821059	9872.084015
575.175722	9764.725082
575.530330	9773.418552
575.884882	9763.358930
576.239380	9695.396614
576.593823	9674.798459
576.948211	9687.111478
577.302544	9572.137882
577.656823	9583.888812
578.011047	9592.567158
578.365216	9562.907529
578.719330	9495.804730
579.073389	9496.828085
579.427394	9448.611969
579.781344	9429.369884
580.135239	9369.395277
580.489080	9386.041167
580.842866	9284.706413
581.196597	9291.186816
581.550273	9333.920678
581.903895	9302.005132
582.257463	9366.834371
582.610975	9242.128828
582.964434	9273.326008
583.317837	9192.914563
583.671186	9173.480915
584.024481	9165.485645
584.377721	9090.642155
584.730906	9074.606244
585.084037	9098.952497
585.437113	9036.996716
585.790135	9057.887257
586.143103	8956.920508
586.496016	8928.579141
586.848874	8990.134150
587.201679	8977.037232
587.554428	8860.137916
587.907124	8906.057786
588.259765	8877.950833
588.612352	8883.755721
588.964884	8761.898430
589.317362	8775.484340
589.669786	8777.457951
590.022155	8823.183737
590.374470	8843.098816
590.726731	8779.083723
591.078937	8631.267010
591.431090	8743.157941
591.783188	8611.656922
592.135232	8611.543496
592.487222	8609.612734
592.839157	8655.136874
593.191038	8594.040610
593.542866	8537.564563
593.894639	8436.791898
594.246358	8490.394487
594.598022	8502.717587
594.949633	8403.792505
595.301190	8384.862972
595.652692	8408.931961
596.004141	8519.638220
596.355535	8297.623284
596.706876	8278.691231
597.058162	8216.581695
597.409395	8288.750853
597.760573	8350.772169
598.111698	8260.769929
598.462768	8247.315089
598.813785	8212.866365
599.164748	8180.683638
599.515657	8167.964807
599.866511	8079.202691
600.217312	8205.440745
600.568060	8065.730207
600.918753	8171.251640
601.269392	8139.895663
601.619978	8051.309987
601.970510	8117.134853
602.320988	8113.779965
602.671412	8170.313985
603.021783	8106.346784
603.372100	8075.469717
603.722363	8082.542455
604.072572	8057.238384
604.422728	8068.041576
604.772830	7996.139599
605.122878	8002.282245
605.472872	8000.147316
605.822813	8029.517079
606.172701	7972.526834
606.522534	8048.554996
606.872314	8048.557517
607.222041	8018.426540
607.571714	8068.540651
607.921333	8028.632356
608.270899	8038.518059
608.620411	8129.301678
608.969870	8032.503962
609.319276	8024.118003
609.668627	8040.141310
610.017926	8080.341992
610.367171	8121.578630
610.716362	8100.322605
611.065500	8091.987057
611.414585	8114.992363
611.763616	8106.117411
612.112594	8085.307528
612.461518	8102.669262
612.810389	8157.764032
613.159207	8103.664890
613.507971	8050.596663
613.856682	8169.303234
614.205340	8126.191286
614.553945	8201.806073
614.902496	8103.755631
615.250994	8158.676481
615.599439	8135.537585
615.947830	8154.270513
616.296169	8128.432079
616.644454	8134.264694
616.992686	8136.359293
617.340864	8187.753857
617.688990	8093.887572
618.037063	8184.872837
618.385082	8136.109756
618.733048	8220.342396
619.080961	8160.340062
619.428821	8177.117022
619.776628	8185.845780
620.124382	8129.745299
620.472083	8118.314483
620.819731	8141.697875
621.167326	8035.011936
621.514868	8043.952423
621.862357	7930.962521
622.209793	7950.660830
622.557176	7890.184627
622.904506	7857.157508
623.251783	7798.753220
623.599007	7746.652895
623.946179	7747.489727
624.293297	7706.449693
624.640363	7620.576158
624.987376	7613.647092
625.334336	7552.961682
625.681243	7508.433170
626.028097	7490.017835
626.374899	7479.829663
626.721647	7469.772561
627.068343	7397.462251
627.414987	7368.594083
627.761577	7330.946746
628.108115	7358.136209
628.454600	7250.497492
628.801032	7311.437481
629.147412	7264.227075
629.493739	7256.831702
629.840014	7188.279572
630.186236	7249.806854
630.532405	7131.203628
630.878521	7180.561565
631.224585	7145.820453
631.570597	7069.817497
631.916556	7098.796570
632.262462	7093.082422
632.608316	7053.920219
632.954117	7032.238216
633.299866	7021.341762
633.645562	7015.667943
633.991206	6936.572240
634.336797	6879.697942
634.682336	6835.643298
635.027823	6804.315048
635.373257	6795.790457
635.718639	6728.115487
636.063968	6736.839204
636.409245	6636.593339
636.754470	6631.514376
637.099642	6589.440906
637.444762	6534.572988
637.789829	6542.104472
638.134845	6484.741182
638.479808	6468.390200
638.824719	6478.545604
639.169577	6406.585653
639.514383	6424.317912
639.859137	6354.553384
640.203839	6365.175095
640.548489	6347.639442
640.893086	6326.022974
641.237632	6295.902080
641.582125	6318.496531
641.926566	6290.198014
642.270955	6300.726464
642.615292	6295.430732
642.959576	6312.162321
643.303809	6298.684797
643.647990	6309.225849
643.992118	6295.778571
644.336195	6244.873000
644.680219	6272.027175
645.024192	6260.253560
645.368112	6351.944587
645.711981	6376.822681
646.055797	6453.657427
646.399562	6409.827115
646.743274	6536.367639
647.086935	6592.344611
647.430544	6583.893117
647.774101	6606.495130
648.117606	6612.610049
648.461059	6604.876919
648.804460	6564.456948
649.147810	6474.913453
649.491108	6440.258041
649.834354	6414.631335
650.177548	6333.254509
650.520690	6245.954327
650.863781	6226.460185
651.206820	6251.910451
651.549807	6167.302245
651.892742	6110.702690
652.235626	6119.955728
652.578458	6102.614159
652.921238	6014.209964
653.263967	6053.961983
653.606644	5989.344473
653.949269	5994.819166
654.291843	5934.957985
654.634365	5984.323484
654.976836	5940.147853
655.319255	5940.984684
655.661622	5919.302682
656.003938	5913.528040
656.346203	5872.248552
656.688416	5909.414458
657.030577	5860.038877
657.372687	5825.771634
657.714746	5811.797555
658.056753	5857.954360
658.398708	5798.390607
658.740612	5789.780316
659.082465	5839.405434
659.424266	5828.191388
659.766016	5828.332540
660.107715	5805.327234
660.449362	5816.059851
660.790958	5816.155633
661.132503	5800.780113
661.473996	5839.463408
661.815438	5823.674514
662.156829	5823.218289
662.498168	5813.246887
662.839456	5792.172343
663.180693	5825.940512
663.521879	5823.861036
663.863013	5816.478267
664.204097	5835.294373
664.545129	5875.643769
664.886110	5872.442636
665.227040	5904.511936
665.567918	5869.004569
665.908746	5893.116408
666.249522	5900.365587
666.590248	5887.445110
666.930922	5913.638945
667.271545	5928.449855
667.612118	5928.916162
667.952639	5897.734105
668.293109	5927.391213
668.633528	5883.233226
668.973896	5885.322784
669.314213	5874.539756
669.654480	5858.919741
669.994695	5853.533268
670.334859	5844.360888
670.674973	5836.179096
671.015035	5837.961144
671.355047	5835.591801
671.695008	5825.847251
672.034918	5795.789371
672.374777	5808.188089
672.714585	5794.884484
673.054342	5797.790709
673.394049	5790.990193
673.733705	5823.760213
674.073310	5806.002749
674.412864	5768.052943
674.752368	5758.978866
675.091820	5760.644967
675.431223	5702.568354
675.770574	5704.569692
676.109875	5652.550026
676.449125	5657.868443
676.788324	5625.206807
677.127473	5568.982818
677.466571	5559.268515
677.805619	5547.751999
678.144616	5536.628693
678.483562	5513.131875
678.822458	5482.675744
679.161303	5478.920084
679.500098	5470.067818
679.838842	5458.919307
680.177535	5458.334533
680.516179	5471.708714
680.854771	5485.004757
681.193314	5569.199588
681.531805	5676.490465
681.870247	5822.734338
682.208638	5920.938536
682.546978	5936.616524
682.885268	5911.564510
683.223508	5823.969421
683.561697	5772.335403
683.899836	5740.387090
684.237925	5703.319486
684.575963	5668.485113
684.913951	5627.495491
685.251889	5685.516651
685.589776	5654.848792
685.927614	5626.840141
686.265401	5695.767838
686.603137	5682.809552
686.940824	5756.919554
687.278460	5780.295385
687.616046	5789.813083
687.953582	5853.225758
688.291068	5839.488613
688.628504	5905.429426
688.965889	5860.124577
689.303224	5808.011649
689.640510	5761.386017
689.977745	5687.442372
690.314930	5585.396815
690.652065	5531.953023
690.989150	5438.870638
691.326185	5365.214339
691.663170	5309.983457
692.000105	5230.991097
692.336990	5159.978883
692.673825	5133.429647
693.010610	5067.100665
693.347345	4998.092310
693.684030	4985.023119
694.020665	4944.184731
694.357251	4853.015464
694.693786	4865.441908
695.030272	4826.713244
695.366707	4793.476917
695.703093	4759.751597
696.039429	4783.387047
696.375716	4768.777783
696.711952	4741.875666
697.048139	4726.553079
697.384276	4708.667065
697.720363	4720.775916
698.056400	4731.001897
698.392388	4680.834854
698.728326	4662.507740
699.064214	4638.479080
699.400053	4633.130416
699.735842	4601.187144
700.071581	4575.504986
700.407270	4550.944484
700.742910	4530.636196
701.078501	4478.798011
701.414042	4475.080160
701.749533	4446.940439
702.084974	4379.391498
702.420366	4438.814099
702.755709	4379.928381
703.091002	4327.187830
703.426246	4374.005026
703.761440	4330.525074
704.096584	4295.340340
704.431679	4312.434893
704.766725	4299.554745
705.101721	4289.989156
705.436668	4314.821879
705.771565	4263.490330
706.106413	4291.980411
706.441212	4324.329496
706.775961	4333.627904
707.110661	4309.863905
707.445311	4340.458667
707.779913	4361.066904
708.114465	4372.933780
708.448967	4394.956061
708.783421	4461.849652
709.117825	4498.582019
709.452180	4503.514788
709.786485	4551.839289
710.120742	4639.454543
710.454949	4621.616420
710.789107	4683.393240
711.123216	4762.246968
711.457275	4751.668107
711.791286	4825.006813
712.125247	4840.785625
712.459159	4742.493207
712.793023	4821.084796
713.126837	4775.076705
713.460602	4770.141415
713.794318	4690.476061
714.127985	4696.409499
714.461602	4613.328763
714.795171	4584.054783
715.128691	4520.397613
715.462162	4458.628355
715.795584	4411.773350
716.128957	4398.689035
716.462281	4343.979913
716.795556	4319.923527
717.128782	4283.135707
717.461960	4212.360428
717.795088	4224.544896
718.128167	4185.004606
718.461198	4124.329278
718.794180	4123.442035
719.127113	4101.409672
719.459997	4080.428390
719.792833	4035.151267
720.125619	4026.425030
720.458357	3991.361284
720.791046	3996.518384
721.123686	3972.588027
721.456278	3930.441460
721.788821	3945.401084
722.121315	3918.148607
722.453761	3896.388466
722.786158	3908.852719
723.118506	3926.746295
723.450805	3882.091754
723.783056	3904.350969
724.115259	3920.354112
724.447412	3926.655554
724.779518	3917.652053
725.111574	3923.681273
725.443582	3947.631795
725.775542	3938.701391
726.107453	3984.822907
726.439315	3989.425481
726.771129	4001.453674
727.102895	4040.464643
727.434612	4084.990634
727.766281	4095.932459
728.097901	4099.257100
728.429473	4102.705249
728.760996	4107.847226
729.092471	4102.233901
729.423897	4088.824432
729.755276	4094.052108
730.086606	4093.275771
730.417887	4131.167604
730.749120	4196.206050
731.080305	4260.511008
731.411442	4282.772744
731.742530	4257.309876
732.073570	4259.575874
732.404562	4313.347342
732.735506	4305.861228
733.066401	4263.865896
733.397249	4204.718038
733.728048	4127.633755
734.058798	4045.011764
734.389501	3972.018377
734.720156	3913.074685
735.050762	3868.528529
735.381320	3862.433774
735.711831	3810.976197
736.042293	3784.053914
736.372707	3806.925629
736.703073	3778.443110
737.033391	3771.183849
737.363661	3786.541724
737.693883	3810.005774
738.024056	3820.382990
738.354182	3815.306548
738.684260	3881.953122
739.014290	3897.890730
739.344272	3896.138929
739.674207	3934.398766
740.004093	3943.351855
740.333931	3932.871297
740.663722	3933.650155
740.993464	3935.984209
741.323159	3912.754572
741.652806	3880.523955
741.982405	3855.703834
742.311956	3823.309379
742.641460	3813.239675
742.970915	3789.354688
743.300323	3749.080910
743.629683	3716.162175
743.958996	3706.026935
744.288260	3678.131710
744.617477	3645.996875
744.946647	3632.025317
745.275768	3612.599231
745.604842	3606.209568
745.933869	3560.319945
746.262847	3552.949778
746.591778	3587.348091
746.920662	3557.585119
747.249498	3531.156870
747.578286	3575.274528
747.907027	3593.886468
748.235720	3587.166610
748.564365	3614.661063
748.892963	3613.829272
749.221514	3599.131788
749.550017	3575.564394
749.878473	3570.946697
750.206881	3542.597769
750.535242	3538.201883
750.863555	3541.370248
751.191821	3535.525030
751.520039	3517.591125
751.848210	3496.940038
752.176334	3527.680994
752.504411	3536.205586
752.832440	3497.550018
753.160421	3475.169815
753.488356	3486.973677
753.816243	3501.431706
754.144082	3457.402269
754.471875	3442.336780
754.799620	3463.328145
755.127318	3457.218267
755.454969	3454.488482
755.782572	3459.975778
756.110129	3435.611881
756.437638	3424.735592
756.765100	3440.978189
757.092515	3448.136628
757.419882	3454.478399
757.747203	3428.072836
758.074477	3430.525357
758.401703	3446.929272
758.728882	3467.393836
759.056014	3472.586224
759.383099	3480.952019
759.710138	3472.450113
760.037129	3489.612721
760.364073	3522.690252
760.690970	3506.319105
761.017820	3483.517966
761.344623	3505.015967
761.671379	3549.035322
761.998088	3599.714042
762.324751	3726.312538
762.651366	3971.952842
762.977935	4443.388947
763.304456	4877.875914
763.630931	4967.618535
763.957359	4606.578658
764.283740	4268.039972
764.610074	4081.000561
764.936362	3888.609966
765.262602	3725.934452
765.588796	3616.823718
765.914943	3532.286088
766.241044	3444.935495
766.567097	3414.534817
766.893104	3370.152498
767.219064	3338.184021
767.544978	3314.203253
767.870845	3255.191506
768.196665	3241.235071
768.522438	3246.346801
768.848165	3245.457037
769.173846	3209.034701
769.499479	3189.538038
769.825066	3173.875173
770.150607	3156.752894
770.476101	3171.629339
770.801548	3169.743948
771.126949	3122.800723
771.452303	3105.413784
771.777611	3111.632047
772.102872	3119.599591
772.428087	3095.465067
772.753256	3079.653487
773.078378	3075.905390
773.403453	3040.642518
773.728482	3029.937628
774.053465	3052.973181
774.378401	3042.457334
774.703291	3008.295955
775.028135	3012.691841
775.352932	3002.332270
775.677683	2995.662823
776.002388	2991.576968
776.327046	2990.813233
776.651658	2983.138077
776.976224	2968.259111
777.300743	2971.387147
777.625216	2960.369705
777.949643	2955.207564
778.274024	2958.179324
778.598359	2946.498970
778.922647	2950.433591
779.246889	2951.474589
779.571086	2937.220727
779.895236	2930.697474
780.219339	2942.085440
780.543397	2955.663788
780.867409	2958.880044
781.191374	2951.857717
781.515294	2945.747838
781.839167	2947.487037
782.162995	2940.764658
782.486776	2946.703137
782.810511	2942.541665
783.134201	2932.401384
783.457844	2939.078392
783.781441	2928.973399
784.104993	2910.038825
784.428498	2910.568146
784.751958	2922.994591
785.075372	2918.404620
785.398739	2901.799059
785.722061	2919.430495
786.045337	2929.969027
786.368568	2913.731470
786.691752	2905.380799
787.014891	2952.150104
787.337983	2981.295535
787.661030	3010.589680
787.984031	3078.327664
788.306987	3123.330044
788.629897	3114.656739
788.952760	3096.206116
789.275579	3084.135073
789.598351	3026.358409
789.921078	2978.843013
790.243759	2974.437045
790.566395	2955.263016
790.888984	2931.488935
791.211529	2919.044847
791.534027	2902.623288
791.856480	2894.721279
792.178888	2879.958260
792.501249	2874.786036
792.823566	2872.978783
793.145836	2867.438555
793.468062	2864.323122
793.790241	2861.762215
794.112375	2869.258411
794.434464	2881.183261
794.756507	2885.616955
795.078505	2886.657954
795.400457	2901.274779
795.722364	2941.777930
796.044226	2966.277938
796.366042	2967.439923
796.687812	2954.703448
797.009538	2975.626757
797.331218	2961.382977
797.652852	2947.315637
797.974442	2930.858791
798.295986	2926.576330
798.617484	2921.676329
798.938938	2908.113104
799.260346	2891.825136
799.581709	2885.959754
799.903026	2879.668394
800.224299	2876.061448
800.545526	2865.575848
800.866708	2849.688652
801.187845	2840.735563
801.508936	2841.988289
801.829983	2851.291739
802.150984	2834.149295
802.471940	2823.512461
802.792851	2825.261741
803.113717	2822.844508
803.434538	2826.862307
803.755314	2822.214363
804.076045	2812.744556
804.396731	2813.762869
804.717372	2815.164310
805.037967	2811.348156
805.358518	2818.919969
805.679024	2827.774756
805.999485	2825.586895
806.319901	2826.496824
806.640272	2819.749239
806.960598	2824.989519
807.280879	2834.237515
807.601115	2841.368227
807.921306	2828.445230
808.241453	2824.545897
808.561554	2834.166939
808.881611	2833.834223
809.201623	2826.859787
809.521590	2824.316525
809.841513	2825.120589
810.161390	2828.286433
810.481223	2819.706389
810.801011	2811.181798
811.120755	2808.141982
811.440453	2808.762044
811.760107	2808.641057
812.079716	2807.005202
812.399281	2798.702422
812.718801	2790.160187
813.038276	2786.480144
813.357707	2792.199333
813.677093	2800.809624
813.996434	2793.608336
814.315731	2791.838891
814.634983	2784.519136
814.954191	2783.999897
815.273354	2801.845581
815.592473	2804.890438
815.911547	2809.646767
816.230577	2818.473827
816.549562	2827.880620
816.868502	2823.951041
817.187399	2836.178360
817.506250	2853.315762
817.825058	2848.473734
818.143821	2857.356247
818.462539	2871.416025
818.781213	2899.328894
819.099843	2934.599327
819.418429	2991.277019
819.736970	3053.648695
820.055466	3123.829119
820.373919	3227.427351
820.692327	3362.946169
821.010691	3530.138557
821.329011	3969.099549
821.647286	4854.946226
821.965517	6217.491973
822.283704	6940.433763
822.601847	6916.095073
822.919945	6288.836902
823.237999	5793.452796
823.556010	5217.763109
823.873976	4674.326725
824.191897	4273.018111
824.509775	3986.849451
824.827609	3721.089903
825.145398	3596.601129
825.463144	3588.290787
825.780845	3683.379552
826.098502	3784.245478
826.416116	4067.029003
826.733685	4374.002505
827.051210	4434.440898
827.368692	4324.122808
827.686129	4060.157911
828.003522	3738.244949
828.320872	3482.976042
828.638177	3292.261630
828.955439	3159.497803
829.272656	3073.770461
829.589830	3010.262005
829.906960	2961.594706
830.224046	2915.846234
830.541088	2885.170813
830.858086	2868.018287
831.175041	2851.329547
831.491952	2854.134950
831.808819	2863.647607
832.125642	2889.231463
832.442421	2934.001950
832.759157	3013.352232
833.075849	3191.138605
833.392497	3466.544401
833.709101	3669.516378
834.025662	3615.684417
834.342179	3455.000159
834.658653	3283.159827
834.975083	3141.962149
835.291469	3043.642005
835.607811	2957.954993
835.924110	2903.434914
836.240366	2852.093282
836.556578	2809.971921
836.872746	2790.417286
837.188871	2765.708070
837.504952	2751.996132
837.820990	2742.249061
838.136984	2731.574417
838.452935	2723.853890
838.768842	2718.840463
839.084706	2737.696899
839.400526	2815.741522
839.716303	2946.909824
840.032037	3022.426309
840.347727	3009.523476
840.663373	2953.871658
840.978977	2874.707898
841.294537	2802.523617
841.610054	2759.968716
841.925527	2738.415263
842.240957	2717.156717
842.556344	2691.023376
842.871687	2679.746315
843.186987	2668.887669
843.502244	2665.500014
843.817458	2661.073881
844.132629	2646.192395
844.447756	2638.809625
844.762840	2632.803090
845.077881	2636.402474
845.392879	2634.202010
845.707833	2631.893162
846.022745	2622.778756
846.337613	2627.260341
846.652438	2623.277830
846.967221	2623.023252
847.281960	2623.481997
847.596656	2621.460494
847.911309	2622.007459
848.225919	2621.092490
848.540485	2614.700307
848.855009	2615.295163
849.169490	2612.562857
849.483928	2614.239041
849.798323	2615.683332
850.112675	2610.758124
850.426984	2615.017899
850.741251	2613.324072
851.055474	2612.346088
851.369654	2614.717951
851.683792	2613.520677
851.997887	2614.715430
852.311938	2610.349791
852.625947	2609.792743
852.939914	2616.668877
853.253837	2616.868003
853.567718	2612.139400
853.881555	2614.168465
854.195350	2615.363218
854.509103	2611.572271
854.822812	2610.800974
855.136479	2610.077568
855.450103	2613.576129
855.763685	2617.122581
856.077224	2612.401540
856.390720	2609.545727
856.704173	2613.414812
857.017584	2615.078393
857.330953	2620.656430
857.644278	2619.696090
857.957561	2617.472941
858.270802	2613.649226
858.584000	2615.945472
858.897155	2619.812037
859.210268	2618.413116
859.523339	2614.884309
859.836367	2612.464555
860.149352	2612.688886
860.462295	2614.919597
860.775195	2608.287959
861.088054	2609.142434
861.400869	2608.154368
861.713642	2606.684872
862.026373	2606.914244
862.339062	2609.853237
862.651708	2617.997221
862.964312	2616.061418
863.276873	2614.501181
863.589392	2618.221552
863.901869	2621.909157
864.214303	2627.333438
864.526696	2628.664303
864.839045	2629.289406
865.151353	2632.414921
865.463619	2632.566156
865.775842	2632.722432
866.088023	2633.075312
866.400162	2634.464150
866.712258	2629.453243
867.024313	2628.636576
867.336325	2627.056175
867.648296	2628.142543
867.960224	2635.653862
868.272110	2634.386012
868.583954	2625.901750
868.895755	2627.691360
869.207515	2632.687143
869.519233	2639.457413
869.830909	2636.142854
870.142542	2630.106073
870.454134	2634.186887
870.765684	2637.713174
871.077191	2638.844913
871.388657	2644.238947
871.700081	2640.148051
872.011463	2642.270377
872.322803	2641.846920
872.634101	2646.328506
872.945357	2653.461738
873.256571	2658.460042
873.567744	2657.083807
873.878874	2656.040289
874.189963	2655.027017
874.501010	2660.806700
874.812015	2665.268121
875.122979	2665.061433
875.433900	2655.173210
875.744780	2653.267654
876.055618	2660.322749
876.366415	2667.032525
876.677169	2665.089160
876.987882	2659.052378
877.298554	2659.135557
877.609183	2666.999757
877.919771	2677.142559
878.230317	2683.890143
878.540822	2693.034796
878.851285	2704.904193
879.161707	2728.642986
879.472087	2766.580190
879.782425	2812.888229
880.092722	2922.364446
880.402977	3108.604834
880.713191	3362.512630
881.023363	3648.172133
881.333494	3829.782221
881.643583	4003.550794
881.953631	3998.802027
882.263637	3823.405161
882.573602	3606.827110
882.883526	3480.876402
883.193408	3370.326418
883.503248	3272.076850
883.813048	3158.242555
884.122806	3048.473951
884.432522	2963.558235
884.742197	2902.023391
885.051831	2865.727083
885.361424	2833.786332
885.670975	2797.240487
885.980485	2766.839809
886.289954	2748.936151
886.599382	2738.206055
886.908768	2728.000239
887.218113	2707.676827
887.527417	2696.011597
887.836680	2688.177644
888.145901	2683.764114
888.455082	2671.191477
888.764221	2661.938439
889.073319	2656.809065
889.382376	2654.469969
889.691392	2655.561379
890.000366	2659.007008
890.309300	2651.417551
890.618193	2654.429640
890.927044	2659.163283
891.235855	2658.971720
891.544625	2657.960968
891.853353	2657.414003
892.162041	2666.268790
892.470687	2686.342664
892.779293	2695.751978
893.087858	2702.872608
893.396381	2727.518809
893.704864	2767.480036
894.013306	2836.695078
894.321707	2925.986515
894.630068	2974.051397
894.938387	2995.733399
895.246665	2988.292656
895.554903	2945.263888
895.863100	2901.027763
896.171256	2847.934330
896.479371	2785.035854
896.787446	2748.411871
897.095480	2730.941752
897.403473	2726.087121
897.711425	2709.761345
898.019336	2694.206864
898.327207	2679.758917
898.635038	2681.152797
898.942827	2674.511076
899.250576	2667.531599
899.558284	2656.506595
899.865952	2651.954433
900.173579	2648.476037
900.481165	2647.490492
900.788711	2636.306692
901.096216	2631.353758
901.403681	2629.017183
901.711105	2629.037348
902.018489	2627.865280
902.325832	2632.427524
902.633135	2633.980199
902.940397	2647.455204
903.247619	2685.715041
903.554800	2751.557551
903.861941	2875.844679
904.169041	2996.076198
904.476101	3056.476783
904.783121	3047.049825
905.090100	2989.656288
905.397039	2918.071904
905.703938	2849.693693
906.010796	2788.557100
906.317614	2741.117322
906.624391	2704.395036
906.931129	2677.039215
907.237826	2656.861997
907.544483	2639.190232
907.851099	2623.686163
908.157675	2616.371449
908.464211	2608.333329
908.770707	2598.245980
909.077163	2595.385126
909.383578	2589.875144
909.689954	2588.970257
909.996289	2589.401276
910.302584	2591.180803
910.608839	2585.280133
910.915054	2586.331213
911.221229	2589.479414
911.527363	2591.256421
911.833458	2591.931935
912.139513	2592.025197
912.445527	2591.223653
912.751502	2598.339242
913.057436	2601.255549
913.363331	2608.829883
913.669186	2618.488734
913.975000	2632.074643
914.280775	2647.646767
914.586510	2664.580003
914.892205	2699.679037
915.197859	2765.824017
915.503475	2848.471213
915.809050	2912.687952
916.114585	2924.819488
916.420081	2935.136210
916.725536	2944.416974
917.030952	2919.135587
917.336328	2876.633619
917.641665	2829.539160
917.946961	2781.358332
918.252218	2746.080337
918.557435	2723.412789
918.862612	2699.174922
919.167750	2686.282171
919.472848	2669.336332
919.777906	2651.904022
920.082925	2638.597896
920.387904	2629.511217
920.692843	2624.981740
920.997743	2621.515947
921.302603	2614.322220
921.607423	2609.913731
921.912204	2606.702516
922.216946	2602.803183
922.521647	2599.677668
922.826310	2595.934611
923.130932	2589.905391
923.435516	2581.766448
923.740059	2586.064032
924.044564	2580.606983
924.349028	2581.413568
924.653454	2571.016188
924.957840	2569.060220
925.262186	2569.198852
925.566493	2570.723801
925.870761	2567.389078
926.174989	2566.295147
926.479178	2564.999571
926.783328	2564.525702
927.087438	2562.262224
927.391509	2561.926987
927.695541	2563.499827
927.999533	2563.149467
928.303486	2559.908005
928.607400	2556.714434
928.911275	2559.207285
929.215110	2555.953220
929.518906	2559.570248
929.822663	2558.675443
930.126381	2556.550597
930.430060	2555.350802
930.733699	2558.176369
931.037299	2560.427244
931.340861	2558.002449
931.644383	2560.389436
931.947866	2557.795762
932.251309	2560.437327
932.554714	2557.137891
932.858080	2557.402552
933.161407	2556.971533
933.464694	2556.076728
933.767943	2559.166956
934.071153	2555.494475
934.374323	2553.578837
934.677455	2554.660164
934.980548	2555.232335
935.283602	2554.967675
935.586617	2554.392983
935.889593	2553.523384
936.192530	2553.296532
936.495428	2555.514640
936.798287	2554.415668
937.101108	2559.519837
937.403890	2559.383725
937.706632	2563.048644
938.009336	2568.649366
938.312002	2567.535271
938.614628	2569.753379
938.917216	2575.384348
939.219765	2576.327043
939.522275	2577.552044
939.824747	2577.166396
940.127179	2571.101887
940.429573	2569.062741
940.731929	2568.508214
941.034246	2565.753223
941.336524	2568.432597
941.638763	2568.488049
941.940964	2566.988306
942.243126	2564.283727
942.545250	2564.545867
942.847335	2564.538305
943.149381	2561.906823
943.451389	2559.913047
943.753359	2560.903633
944.055290	2556.391801
944.357182	2557.379867
944.659036	2557.150494
944.960851	2557.609239
945.262628	2554.826522
945.564367	2558.425906
945.866067	2558.783828
946.167729	2558.037737
946.469352	2557.248797
946.770937	2557.299208
947.072484	2557.624363
947.373992	2560.848181
947.675462	2555.239897
947.976893	2556.338868
948.278286	2556.096893
948.579641	2553.974567
948.880958	2556.192675
949.182236	2554.040102
949.483476	2555.174362
949.784678	2558.211657
950.085841	2553.238559
950.386967	2558.546894
950.688054	2556.227963
950.989103	2557.727706
951.290114	2554.536656
951.591087	2556.230484
951.892021	2562.441185
952.192917	2560.225598
952.493776	2558.768705
952.794596	2559.388767
953.095378	2561.185938
953.396122	2561.891699
953.696828	2560.160063
953.997496	2558.879610
954.298126	2556.316183
954.598718	2556.827860
954.899272	2556.159907
955.199788	2555.653272
955.500266	2553.243600
955.800706	2551.721172
956.101108	2547.209339
956.401472	2545.951571
956.701798	2544.739173
957.002087	2543.620037
957.302337	2547.993238
957.602550	2548.210008
957.902724	2546.753114
958.202861	2545.805378
958.502960	2543.539379
958.803022	2543.254554
959.103045	2544.681200
959.403031	2543.365459
959.702979	2544.903011
960.002889	2540.421425
960.302762	2545.475182
960.602596	2542.458051
960.902393	2538.311702
961.202153	2539.829090
961.501875	2543.204142
961.801559	2540.693647
962.101205	2540.731456
962.400814	2542.458051
962.700385	2542.263967
962.999918	2538.828421
963.299414	2542.359749
963.598873	2540.091230
963.898293	2541.391847
964.197677	2540.058462
964.497022	2539.045190
964.796331	2540.499563
965.095601	2538.964532
965.394835	2541.855633
965.694030	2538.856147
965.993189	2540.502084
966.292309	2538.871270
966.591393	2540.716333
966.890439	2539.272042
967.189447	2537.898328
967.488419	2540.164326
967.787353	2541.195242
968.086249	2539.214069
968.385108	2539.856816
968.683930	2541.926210
968.982714	2536.995961
969.281462	2541.848072
969.580172	2541.732125
969.878844	2541.958977
970.177480	2539.340098
970.476078	2541.535520
970.774639	2542.135417
971.073162	2540.653318
971.371649	2539.945036
971.670098	2538.215920
971.968510	2538.152906
972.266885	2536.874973
972.565223	2544.708927
972.863524	2541.124666
973.161788	2538.679707
973.460014	2539.042670
973.758204	2540.968390
974.056356	2541.207845
974.354471	2541.464944
974.652550	2543.206663
974.950591	2540.822197
975.248595	2541.795140
975.546563	2540.756662
975.844493	2540.948226
976.142386	2539.539223
976.440243	2539.418236
976.738062	2541.228010
977.035845	2540.071065
977.333590	2540.423946
977.631299	2540.980993
977.928971	2540.628113
978.226606	2537.880684
978.524204	2539.536703
978.821765	2535.811290
979.119290	2542.127856
979.416777	2538.626774
979.714228	2541.689275
980.011642	2538.568801
980.309020	2541.961498
980.606360	2540.058462
980.903664	2539.624923
981.200931	2541.104502
981.498162	2540.602907
981.795356	2542.901673
982.092513	2544.320758
982.389633	2545.490305
982.686717	2549.117416
982.983764	2555.161759
983.280775	2554.798796
983.577749	2551.557334
983.874686	2554.556821
984.171587	2549.447611
984.468451	2546.536345
984.765279	2545.054246
985.062070	2547.005172
985.358824	2542.473175
985.655543	2542.286652
985.952224	2538.510828
986.248869	2541.780016
986.545478	2530.850795
986.842050	2538.198276
987.138586	2534.961856
987.435086	2536.564942
987.731549	2533.971269
988.027975	2536.653163
988.324366	2536.486805
988.620719	2538.775488
988.917037	2535.128214
989.213318	2537.242978
989.509563	2536.751465
989.805772	2537.331198
990.101944	2537.847916
990.398080	2539.254398
990.694180	2537.371527
990.990244	2538.745242
991.286271	2534.964376
991.582262	2538.485622
991.878217	2538.130221
992.174136	2537.328677
992.470019	2535.786084
992.765865	2537.835313
993.061676	2537.376568
993.357450	2538.311702
993.653188	2534.790456
993.948890	2537.185004
994.244556	2535.702905
994.540186	2539.272042
994.835780	2538.026877
995.131337	2538.044521
995.426859	2536.796836
995.722345	2536.703574
996.017795	2539.892104
996.313208	2540.030736
996.608586	2539.647608
996.903928	2540.733977
997.199234	2541.699358
997.494504	2540.086188
997.789738	2536.189377
998.084936	2541.527958
998.380099	2540.030736
998.675225	2539.955118
998.970316	2537.633667
999.265371	2537.860519
999.560390	2538.848585
999.855373	2538.281455
1000.150320	2538.145344
1000.445232	2536.990920
1000.740108	2536.726259
1001.034948	2538.992258
1001.329752	2538.457896
1001.624521	2537.815149
1001.919254	2531.244005
1002.213951	2534.850950
1002.508613	2532.804242
1002.803239	2532.461443
1003.097829	2532.529499
1003.392384	2536.794315
1003.686903	2536.617875
1003.981386	2535.735673
1004.275834	2537.986548
1004.570246	2538.982176
1004.864623	2531.743079
1005.158964	2536.567463
1005.453270	2537.084181
1005.747540	2537.568132
1006.041775	2533.832637
1006.335974	2535.556712
1006.630138	2532.753830
1006.924266	2535.178625
1007.218359	2535.460930
1007.512416	2536.542257
1007.806438	2532.685775
1008.100425	2537.061496
1008.394376	2534.707277
1008.688292	2535.561753
1008.982172	2536.068389
1009.276017	2534.669469
1009.569827	2535.496218
1009.863602	2538.067206
1010.157341	2533.842719
1010.451045	2537.076620
1010.744714	2533.746938
1011.038347	2536.577545
1011.331945	2535.982689
1011.625508	2534.316588
1011.919036	2533.389016
1012.212528	2535.163502
1012.505986	2535.687782
1012.799408	2534.465302
1013.092795	2532.675692
1013.386147	2534.288862
1013.679464	2534.888759
1013.972745	2536.827082
1014.265992	2535.198790
1014.559204	2534.543440
1014.852380	2534.944212
1015.145521	2536.272556
1015.438628	2533.094108
1015.731699	2533.983872
1016.024736	2532.413552
1016.317737	2534.538399
1016.610703	2535.886907
1016.903635	2532.930271
1017.196531	2530.064375
1017.489393	2531.725435
1017.782219	2532.494211
1018.075011	2531.198634
1018.367768	2533.212575
1018.660490	2535.183666
1018.953177	2535.183666
1019.245829	2535.183666
