Dividing Wavelength (nm)	Counts (n)	Blue Motor Position (mm): 41.600000	Red Motor Position (mm): 0.000000	
326.493990	2130.099228
326.888308	2130.099228
327.282561	2130.099228
327.676750	2097.074630
328.070874	2096.739393
328.464933	2099.950608
328.858929	2105.266505
329.252859	2115.638679
329.646726	2126.819958
330.040528	2139.256484
330.434265	2155.720893
330.827938	2177.163441
331.221547	2192.722962
331.615091	2210.253575
332.008571	2229.089846
332.401986	2249.776221
332.795338	2267.576535
333.188625	2288.081428
333.581847	2304.858388
333.975006	2324.632314
334.368100	2342.704851
334.761129	2360.830319
335.154095	2379.086858
335.546996	2398.752399
335.939833	2425.604105
336.332606	2440.442742
336.725315	2454.560493
337.117960	2462.308746
337.510540	2470.145220
337.903056	2482.763228
338.295508	2487.138950
338.687896	2498.282420
339.080220	2507.752228
339.472480	2512.014523
339.864676	2514.396468
340.256807	2521.844773
340.648875	2522.973992
341.040879	2526.149919
341.432818	2530.356762
341.824694	2529.504807
342.216506	2529.346010
342.608253	2527.901720
342.999937	2529.930784
343.391557	2530.649148
343.783113	2528.970444
344.174605	2527.937008
344.566033	2526.258303
344.957397	2526.797707
345.348697	2522.585823
345.739934	2520.919722
346.131106	2517.582478
346.522215	2518.714217
346.913260	2516.395286
347.304241	2513.763804
347.695159	2511.018895
348.086012	2509.408247
348.476802	2506.086126
348.867528	2508.415139
349.258191	2505.463544
349.648789	2503.666372
350.039324	2503.565549
350.429796	2503.439521
350.820203	2500.140085
351.210548	2498.194200
351.600828	2498.922647
351.991045	2499.033552
352.381198	2497.916937
352.771288	2498.584889
353.161314	2497.432986
353.551276	2499.051196
353.941175	2498.902482
354.331010	2494.473828
354.720782	2499.373830
355.110490	2496.636483
355.500135	2497.637152
355.889717	2496.936432
356.279235	2497.919457
356.668689	2498.839468
357.058080	2499.283089
357.447408	2497.375013
357.836672	2495.681185
358.225873	2496.591113
358.615010	2495.063643
359.004084	2500.712256
359.393095	2500.838285
359.782043	2499.688902
360.170927	2502.443893
360.559748	2499.946001
360.948505	2502.685868
361.337199	2503.336177
361.725830	2505.894563
362.114398	2505.912207
362.502903	2506.547392
362.891344	2506.920437
363.279722	2507.545540
363.668037	2507.714419
364.056289	2507.048987
364.444478	2510.098885
364.832603	2507.447238
365.220665	2508.717609
365.608665	2510.698782
365.996601	2512.788340
366.384474	2510.900428
366.772284	2513.287415
367.160031	2510.476971
367.547715	2511.891015
367.935336	2511.878412
368.322893	2513.088289
368.710388	2510.043432
369.097820	2513.705830
369.485189	2513.239524
369.872495	2515.359329
370.259738	2514.719102
370.646918	2511.129801
371.034035	2514.940913
371.421090	2516.153311
371.808081	2514.315810
372.195010	2514.318331
372.581875	2516.884278
372.968678	2515.014010
373.355418	2518.812519
373.742096	2518.530215
374.128710	2518.631038
374.515262	2517.973167
374.901751	2518.510050
375.288177	2518.089114
375.674540	2518.053826
376.060841	2521.910308
376.447079	2519.677077
376.833254	2516.927128
377.219367	2516.591891
377.605417	2521.476769
377.991404	2517.355626
378.377329	2520.937366
378.763191	2517.269926
379.148991	2525.378622
379.534727	2524.730834
379.920402	2524.345186
380.306013	2522.371574
380.691563	2528.080681
381.077049	2525.330731
381.462474	2528.499096
381.847835	2528.761236
382.233134	2531.533871
382.618371	2531.211237
383.003545	2537.195087
383.388657	2536.023018
383.773706	2541.590973
384.158693	2545.833104
384.543618	2551.496840
384.928480	2557.775597
385.313280	2566.050651
385.698017	2577.476427
386.082692	2592.272213
386.467305	2600.378388
386.851856	2616.817591
387.236344	2629.609519
387.620770	2646.709113
388.005133	2665.124448
388.389435	2683.444001
388.773674	2700.624253
389.157851	2723.742985
389.541965	2744.603279
389.926018	2757.967378
390.310008	2790.742440
390.693936	2815.880154
391.077802	2849.275277
391.461606	2871.244626
391.845348	2911.868764
392.229027	2940.051335
392.612645	2968.304481
392.996200	3024.921680
393.379694	3068.532702
393.763125	3122.967081
394.146494	3142.481388
394.529801	3199.877445
394.913047	3255.861979
395.296230	3271.648352
395.679351	3332.442147
396.062410	3380.413767
396.445408	3401.153074
396.828343	3459.834625
397.211217	3501.802231
397.594028	3487.621465
397.976778	3566.036613
398.359466	3615.253398
398.742092	3667.144516
399.124656	3644.683655
399.507158	3729.725399
399.889598	3779.141310
400.271977	3852.419522
400.654294	3862.219525
401.036549	3893.638517
401.418742	3896.937952
401.800874	4007.926516
402.182944	4048.868247
402.564952	4125.791213
402.946898	4138.835199
403.328783	4158.483096
403.710606	4101.757512
404.092367	4295.615083
404.474067	4278.694450
404.855705	4304.714366
405.237282	4253.319803
405.618797	4370.980333
406.000250	4416.648146
406.381642	4503.691229
406.762972	4478.041838
407.144240	4502.393132
407.525447	4516.031973
407.906593	4580.344494
408.287677	4629.173110
408.668700	4568.293615
409.049661	4623.300166
409.430560	4671.796066
409.811399	4605.779635
410.192176	4766.877268
410.572891	4710.234864
410.953545	4816.993899
411.334138	4701.304460
411.714669	4771.804996
412.095139	4671.917053
412.475547	4814.438034
412.855894	4792.060352
413.236180	4806.150377
413.616405	4764.293677
413.996568	4852.445814
414.376670	4792.912307
414.756711	4750.871605
415.136691	4781.718425
415.516609	4860.735991
415.896466	4898.363163
416.276262	4927.584212
416.655997	4910.436727
417.035670	5094.453966
417.415283	5184.241957
417.794834	5129.056446
418.174324	5081.442748
418.553753	4989.875229
418.933121	5175.278785
419.312428	5245.270165
419.691674	5184.940157
420.070859	5307.863652
420.449983	5219.658583
420.829045	5335.456408
421.208047	5243.354527
421.586988	5314.104601
421.965867	5328.146735
422.344686	5457.298576
422.723444	5312.594775
423.102141	5130.530983
423.480777	5434.303352
423.859352	5200.555131
424.237866	5457.197752
424.616319	5449.240291
424.994712	5562.323454
425.373044	5435.372077
425.751314	5577.827523
426.129524	5385.394078
426.507673	5576.917595
426.885762	5662.037477
427.263789	5589.207928
427.641756	5477.153160
428.019662	5600.477427
428.397508	5601.122695
428.775292	5546.930291
429.153016	5649.492566
429.530679	5577.751906
429.908282	5661.099823
430.285824	5528.502353
430.663305	5807.573068
431.040726	5543.245207
431.418086	5539.373601
431.795385	5648.323018
432.172624	5656.920706
432.549802	5651.219161
432.926920	5663.126367
433.303977	5674.211864
433.680974	5713.737031
434.057910	5729.077262
434.434786	5736.681842
434.811601	5704.045412
435.188355	5937.493685
435.565050	5815.953987
435.941683	5793.989679
436.318257	6004.294015
436.694770	5993.052242
437.071222	6028.804105
437.447614	5957.010512
437.823946	5873.402976
438.200218	6030.502974
438.576429	5887.843361
438.952580	5989.525955
439.328670	6032.025402
439.704700	5940.034427
440.080670	5926.471202
440.456580	6196.699734
440.832429	6081.862249
441.208218	5923.953146
441.583947	6076.379994
441.959616	6085.718732
442.335224	6010.973544
442.710773	6149.138968
443.086261	6179.847156
443.461689	5973.061546
443.837057	6114.536488
444.212365	6277.587568
444.587612	6166.031874
444.962800	6319.235060
445.337927	6302.342154
445.712995	5915.741106
446.088002	6493.386761
446.462949	6319.973589
446.837837	6248.800059
447.212664	6425.757162
447.587431	6569.601445
447.962139	7110.396265
448.336786	8037.066207
448.711374	7776.564582
449.085901	6850.948242
449.460369	6770.372959
449.834776	6700.926024
450.209124	7096.195335
450.583412	7245.826863
450.957640	7388.678040
451.331808	7157.495766
451.705917	6706.335182
452.079965	6632.772144
452.453954	6844.246027
452.827883	6719.550567
453.201752	6814.765360
453.575562	6616.290092
453.949311	6819.655279
454.323001	6705.652105
454.696632	6781.856708
455.070202	6921.867194
455.443713	7078.664722
455.817164	7173.778693
456.190556	7255.775581
456.563888	7330.795512
456.937160	7374.774538
457.310373	7033.170830
457.683526	7053.595064
458.056619	6949.308715
458.429653	6937.212466
458.802628	6869.431632
459.175542	6978.562531
459.548398	7334.137797
459.921194	7490.043041
460.293930	7497.773650
460.666607	8027.984568
461.039224	8332.137544
461.411782	8458.867111
461.784280	8477.839493
462.156719	8363.357410
462.529099	8244.996159
462.901419	7832.818817
463.273680	7722.374698
463.645882	7740.074189
464.018024	7607.885053
464.390106	7774.621217
464.762130	8168.899941
465.134094	8635.541909
465.505999	9654.820367
465.877845	10874.300688
466.249631	11521.176508
466.621358	11133.131170
466.993026	10506.339307
467.364634	10256.141800
467.736184	9890.769052
468.107674	9560.427282
468.479105	9586.815201
468.850477	9352.668729
469.221790	9124.901836
469.593043	8800.768247
469.964238	8659.126947
470.335373	8673.647991
470.706449	8728.974654
471.077467	8713.054690
471.448425	10023.366522
471.819324	11095.171282
472.190164	11113.563932
472.560945	9863.980360
472.931667	9079.813756
473.302330	8947.274260
473.672934	8589.707738
474.043479	8951.052605
474.413965	8894.972289
474.784393	8773.263711
475.154761	8931.414790
475.525070	9018.964509
475.895321	8841.790636
476.265513	9017.757152
476.635645	9189.894912
477.005719	9194.825161
477.375734	9307.547881
477.745691	9538.866267
478.115588	9669.487604
478.485427	9917.739225
478.855207	10455.300145
479.224928	11272.385484
479.594591	11896.946637
479.964194	11702.751308
480.333739	11651.530664
480.703226	11560.545399
481.072653	11648.977320
481.442022	11893.069989
481.811333	12076.517578
482.180584	11887.963300
482.549777	11591.256108
482.918912	11416.446537
483.287988	11441.289343
483.657005	11448.011722
484.025964	11135.392128
484.394864	11264.758218
484.763706	11237.079763
485.132489	10990.791671
485.501213	10956.554675
485.869879	11027.904646
486.238487	10875.656758
486.607036	10982.314971
486.975527	10766.505695
487.343959	10955.503594
487.712333	11004.803558
488.080648	10933.529204
488.448905	10973.629063
488.817104	10919.537482
489.185244	11178.713283
489.553326	11340.909888
489.921350	11879.302598
490.289315	12932.424842
490.657222	13279.891412
491.025070	13181.631762
491.392861	13054.544274
491.760593	12681.234228
492.128267	12325.268273
492.495883	11997.855413
492.863440	11659.699854
493.230939	11328.526293
493.598380	11266.789803
493.965763	11134.197374
494.333088	11024.917762
494.700354	10955.637185
495.067563	11009.905206
495.434713	10836.363485
495.801805	10974.349948
496.168839	10897.981508
496.535815	10828.829480
496.902733	10829.976343
497.269593	10761.686352
497.636395	10866.350788
498.003139	10848.134579
498.369825	10719.756555
498.736453	10879.165401
499.103023	10810.595627
499.469535	10833.285860
499.835989	10817.675927
500.202385	10785.551174
500.568723	10632.239604
500.935003	10855.953408
501.301226	10659.424026
501.667390	10925.417988
502.033497	11014.666576
502.399546	10881.300330
502.765537	10784.966401
503.131470	10857.034736
503.497345	11033.074349
503.863163	10639.692950
504.228923	10950.268356
504.594625	11014.202789
504.960269	10764.774059
505.325856	10985.281690
505.691385	10781.142685
506.056856	10927.905797
506.422270	10959.455859
506.787625	10849.087357
507.152924	10969.039092
507.518164	10948.617378
507.883347	10871.291119
508.248472	10786.390527
508.613540	11021.711588
508.978550	10906.813610
509.343503	10885.441638
509.708398	10998.613021
510.073236	11111.809610
510.438016	11118.501742
510.802738	11064.400079
511.167403	11119.696495
511.532010	11014.538026
511.896561	11248.233316
512.261053	11315.648666
512.625488	11191.409429
512.989866	11169.543425
513.354186	11162.019502
513.718449	11060.626775
514.082655	11254.592731
514.446803	11147.513582
514.810894	11276.002512
515.174927	11145.560135
515.538904	11159.224183
515.902822	11309.679940
516.266684	11202.676408
516.630488	11140.781121
516.994235	11192.069821
517.357925	11253.834037
517.721558	11346.140085
518.085133	11360.499812
518.448651	11364.436953
518.812112	11249.158367
519.175516	11270.933631
519.538863	11388.783205
519.902152	11304.346399
520.265385	11471.959723
520.628560	11382.580066
520.991678	11353.396826
521.354739	11429.460276
521.717743	11354.437824
522.080690	11328.874133
522.443580	11461.973197
522.806413	11419.859398
523.169189	11458.802312
523.531908	11511.157215
523.894569	11327.883546
524.257174	11337.726399
524.619722	11451.759820
524.982213	11400.992880
525.344647	11456.042280
525.707025	11399.452807
526.069345	11494.506284
526.431608	11420.693709
526.793815	11527.162878
527.155964	11318.196969
527.518057	11369.336954
527.880093	11318.234778
528.242072	11387.386806
528.603995	11292.494646
528.965860	11213.093953
529.327669	11259.097002
529.689421	11209.098838
530.051117	11175.953252
530.412755	11278.949066
530.774337	11176.795124
531.135862	11149.724128
531.497331	11176.502737
531.858743	11031.188957
532.220098	11197.110974
532.581396	11067.825543
532.942638	11050.615044
533.303824	11009.511996
533.664953	11026.677125
534.026025	10943.442633
534.387040	11043.338138
534.747999	11039.504341
535.108902	11099.763773
535.469748	10857.216218
535.830537	10962.697321
536.191270	10939.465163
536.551947	10960.915273
536.912567	10965.308638
537.273131	10889.555219
537.633638	10869.463701
537.994089	10859.565395
538.354483	10806.403907
538.714821	10955.556526
539.075103	10960.229676
539.435328	10926.781620
539.795497	10750.464744
540.155609	10912.167315
540.515665	10993.057670
540.875665	10732.729964
541.235609	10791.983687
541.595496	10799.273195
541.955328	10956.350508
542.315102	10841.092087
542.674821	10787.270208
543.034483	10787.892790
543.394090	10788.243151
543.753640	10714.549043
544.113134	10939.439957
544.472571	10792.084510
544.831953	10937.136150
545.191278	10742.716490
545.550548	10772.804617
545.909761	10906.808568
546.268918	10879.422500
546.628019	10969.137395
546.987064	10824.448718
547.346053	10754.979097
547.704986	10850.803870
548.063863	10842.256593
548.422684	10826.971815
548.781449	10754.021278
549.140158	10853.894097
549.498811	10726.040353
549.857408	10589.256205
550.215949	10809.325256
550.574434	10664.061887
550.932864	10767.080387
551.291237	10825.406537
551.649555	10771.062898
552.007817	10784.323653
552.366022	10750.593293
552.724173	10742.749258
553.082267	10726.302493
553.440305	10864.672084
553.798288	10663.945941
554.156215	10820.231792
554.514086	10792.162648
554.871902	10636.660696
555.229661	10681.214413
555.587365	10654.365228
555.945014	10550.063755
556.302606	10675.520430
556.660143	10564.970447
557.017625	10717.213293
557.375050	10615.684454
557.732421	10752.090516
558.089735	10669.990284
558.446994	10668.561117
558.804197	10707.519154
559.161345	10704.864987
559.518437	10551.611389
559.875474	10636.282609
560.232455	10666.438791
560.589381	10627.258944
560.946251	10622.706782
561.303065	10726.957843
561.659825	10659.615590
562.016528	10595.202246
562.373177	10471.855294
562.729770	10588.109343
563.086307	10501.381332
563.442789	10594.985477
563.799216	10472.437547
564.155587	10522.665084
564.511904	10470.113575
564.868164	10468.384460
565.224370	10481.645215
565.580520	10402.161342
565.936615	10407.217619
566.292654	10285.153641
566.648638	10416.800853
567.004567	10368.554490
567.360441	10349.796357
567.716260	10261.243448
568.072023	10356.715340
568.427732	10310.077105
568.783385	10222.285411
569.138982	10289.751173
569.494525	10308.521909
569.850013	10180.282517
570.205445	10260.270505
570.560823	10165.176700
570.916145	10080.644112
571.271412	10150.070882
571.626625	10088.445297
571.981782	10061.003776
572.336884	10045.056086
572.691931	10051.405419
573.046923	9990.190688
573.401860	9951.744328
573.756743	9885.271674
574.111570	9928.711296
574.466342	9915.647146
574.821059	9945.084964
575.175722	9835.482718
575.530330	9841.690899
575.884882	9835.747378
576.239380	9760.626624
576.593823	9740.693902
576.948211	9756.742415
577.302544	9625.405234
577.656823	9650.800047
578.011047	9656.093258
578.365216	9624.318865
578.719330	9543.998161
579.073389	9559.771932
579.427394	9508.579014
579.781344	9489.422630
580.135239	9433.790976
580.489080	9443.727091
580.842866	9346.339560
581.196597	9346.969704
581.550273	9388.662567
581.903895	9355.466569
582.257463	9429.324514
582.610975	9300.873393
582.964434	9328.884565
583.317837	9255.122402
583.671186	9234.995595
584.024481	9233.095080
584.377721	9150.498295
584.730906	9124.886713
585.084037	9156.315786
585.437113	9089.714582
585.790135	9112.382131
586.143103	9010.243313
586.496016	8983.053849
586.848874	9038.869505
587.201679	9036.071664
587.554428	8915.018437
587.907124	8959.005025
588.259765	8937.111294
588.612352	8935.394781
588.964884	8812.897263
589.317362	8825.956372
589.669786	8825.147267
590.022155	8878.044094
590.374470	8893.419613
590.726731	8829.742278
591.078937	8678.719392
591.431090	8790.053274
591.783188	8666.895365
592.135232	8662.058378
592.487222	8656.775249
592.839157	8713.228610
593.191038	8646.564392
593.542866	8589.831246
593.894639	8492.297522
594.246358	8538.529944
594.598022	8555.385042
594.949633	8451.799413
595.301190	8427.422913
595.652692	8455.973488
596.004141	8577.878671
596.355535	8349.219494
596.706876	8332.261052
597.058162	8261.566431
597.409395	8339.265736
597.760573	8403.421980
598.111698	8306.639388
598.462768	8297.988768
598.813785	8262.776308
599.164748	8226.590906
599.515657	8217.768887
599.866511	8133.432903
600.217312	8257.571317
600.568060	8113.631251
600.918753	8220.067653
601.269392	8185.787807
601.619978	8096.261956
601.970510	8162.124631
602.320988	8159.914085
602.671412	8216.327117
603.021783	8153.910070
603.372100	8120.703990
603.722363	8129.641956
604.072572	8106.790405
604.422728	8113.628731
604.772830	8044.703555
605.122878	8045.386631
605.472872	8040.932772
605.822813	8073.755724
606.172701	8012.939244
606.522534	8087.818023
606.872314	8098.543078
607.222041	8060.477325
607.571714	8116.829863
607.921333	8083.588495
608.270899	8079.540448
608.620411	8175.518976
608.969870	8081.224194
609.319276	8071.277997
609.668627	8089.589988
610.017926	8121.593754
610.367171	8168.237030
610.716362	8143.477402
611.065500	8141.100498
611.414585	8159.921646
611.763616	8152.846387
612.112594	8134.494066
612.461518	8151.515522
612.810389	8215.122281
613.159207	8143.265674
613.507971	8099.228675
613.856682	8220.486069
614.205340	8175.987804
614.553945	8252.938497
614.902496	8152.221284
615.250994	8208.757824
615.599439	8192.709311
615.947830	8205.413019
616.296169	8170.868512
616.644454	8184.242693
616.992686	8181.107095
617.340864	8239.168585
617.688990	8146.494533
618.037063	8236.874860
618.385082	8182.238834
618.733048	8276.084954
619.080961	8209.304789
619.428821	8227.790701
619.776628	8229.660969
620.124382	8179.662805
620.472083	8161.917943
620.819731	8195.222326
621.167326	8084.629493
621.514868	8093.023014
621.862357	7977.469686
622.209793	7999.877615
622.557176	7930.478570
622.904506	7901.587718
623.251783	7834.752100
623.599007	7790.258876
623.946179	7790.498331
624.293297	7748.064418
624.640363	7666.014598
624.987376	7654.717373
625.334336	7598.778209
625.681243	7541.603963
626.028097	7533.056686
626.374899	7517.502206
626.721647	7505.819332
627.068343	7437.158817
627.414987	7406.916935
627.761577	7365.584514
628.108115	7396.244812
628.454600	7295.041128
628.801032	7353.730241
629.147412	7309.776421
629.493739	7297.438197
629.840014	7237.771100
630.186236	7285.624252
630.532405	7174.844897
630.878521	7225.090077
631.224585	7180.614497
631.570597	7107.106913
631.916556	7139.972715
632.262462	7131.448124
632.608316	7091.081084
632.954117	7072.595173
633.299866	7055.372071
633.645562	7052.491052
633.991206	6972.795451
634.336797	6914.670947
634.682336	6872.494133
635.027823	6837.879050
635.373257	6831.141548
635.718639	6762.370127
636.063968	6779.431913
636.409245	6671.309245
636.754470	6670.553072
637.099642	6627.178984
637.444762	6569.185550
637.789829	6579.945893
638.134845	6520.639239
638.479808	6511.292939
638.824719	6513.122878
639.169577	6439.837104
639.514383	6458.713705
639.859137	6390.065792
640.203839	6394.224744
640.548489	6380.606067
640.893086	6357.953642
641.237632	6331.936247
641.582125	6352.332756
641.926566	6320.535678
642.270955	6334.272822
642.615292	6328.619168
642.959576	6345.963258
643.303809	6333.635116
643.647990	6347.135326
643.992118	6335.134859
644.336195	6276.975067
644.680219	6304.855169
645.024192	6292.932840
645.368112	6393.173664
645.711981	6411.384832
646.055797	6487.102963
646.399562	6444.548062
646.743274	6572.321148
647.086935	6626.969776
647.430544	6613.648527
647.774101	6643.444267
648.117606	6640.737167
648.461059	6637.828422
648.804460	6600.165961
649.147810	6508.066601
649.491108	6477.325645
649.834354	6456.137675
650.177548	6368.686259
650.520690	6283.294154
650.863781	6265.743377
651.206820	6279.256190
651.549807	6210.010900
651.892742	6145.794162
652.235626	6158.248333
652.578458	6137.864427
652.921238	6046.496034
653.263967	6087.515903
653.606644	6026.422160
653.949269	6027.964753
654.291843	5971.904601
654.634365	6018.870511
654.976836	5969.326051
655.319255	5971.193799
655.661622	5947.346620
656.003938	5947.001301
656.346203	5909.674078
656.688416	5939.353871
657.030577	5893.302931
657.372687	5859.381006
657.714746	5842.840981
658.056753	5892.103136
658.398708	5834.394527
658.740612	5827.387323
659.082465	5867.086410
659.424266	5858.440831
659.766016	5862.766141
660.107715	5839.599519
660.449362	5849.868349
660.790958	5851.312640
661.132503	5832.728426
661.473996	5871.406679
661.815438	5854.395305
662.156829	5851.332804
662.498168	5845.661506
662.839456	5820.092774
663.180693	5857.704823
663.521879	5858.357652
663.863013	5847.423389
664.204097	5865.793354
664.545129	5907.123254
664.886110	5905.331124
665.227040	5937.808757
665.567918	5902.238376
665.908746	5928.480102
666.249522	5932.346667
666.590248	5918.891828
666.930922	5947.422238
667.271545	5962.066790
667.612118	5963.253981
667.952639	5938.396052
668.293109	5957.529751
668.633528	5919.443834
668.973896	5921.084729
669.314213	5907.685343
669.654480	5896.463734
669.994695	5888.793618
670.334859	5878.542432
670.674973	5867.898036
671.015035	5873.123192
671.355047	5869.402820
671.695008	5859.083578
672.034918	5829.900339
672.374777	5843.100600
672.714585	5819.303833
673.054342	5829.474361
673.394049	5825.769113
673.733705	5857.082240
674.073310	5842.699828
674.412864	5799.991173
674.752368	5790.337363
675.091820	5796.883302
675.431223	5735.348457
675.770574	5736.702007
676.109875	5684.720149
676.449125	5687.833062
676.788324	5661.833311
677.127473	5601.430205
677.466571	5594.034832
677.805619	5581.671403
678.144616	5570.664043
678.483562	5550.015477
678.822458	5515.536505
679.161303	5510.397049
679.500098	5502.757180
679.838842	5483.477287
680.177535	5492.362321
680.516179	5507.417727
680.854771	5519.619840
681.193314	5597.339309
681.531805	5700.186409
681.870247	5856.870512
682.208638	5956.047652
682.546978	5973.452236
682.885268	5950.260407
683.223508	5864.124732
683.561697	5806.096010
683.899836	5776.327997
684.237925	5734.516667
684.575963	5701.056008
684.913951	5654.019522
685.251889	5718.294234
685.589776	5687.202917
685.927614	5658.211242
686.265401	5734.620010
686.603137	5714.762905
686.940824	5788.875429
687.278460	5809.846629
687.616046	5824.032436
687.953582	5891.331839
688.291068	5871.983891
688.628504	5930.917500
688.965889	5896.733436
689.303224	5843.511454
689.640510	5793.480523
689.977745	5718.211055
690.314930	5619.422083
690.652065	5562.860337
690.989150	5469.203260
691.326185	5396.023351
691.663170	5343.754147
692.000105	5266.561479
692.336990	5187.095250
692.673825	5164.455428
693.010610	5095.043781
693.347345	5028.064490
693.684030	5013.561091
694.020665	4969.387980
694.357251	4879.783991
694.693786	4889.528541
695.030272	4858.727091
695.366707	4824.409437
695.703093	4789.186895
696.039429	4808.940656
696.375716	4791.543634
696.711952	4766.647896
697.048139	4758.541720
697.384276	4735.765787
697.720363	4745.374227
698.056400	4754.491153
698.392388	4703.613308
698.728326	4686.422973
699.064214	4663.150487
699.400053	4657.685876
699.735842	4625.074652
700.071581	4597.789407
700.407270	4570.771343
700.742910	4556.958581
701.078501	4501.626876
701.414042	4499.189478
701.749533	4467.445333
702.084974	4405.212288
702.420366	4460.596925
702.755709	4404.352772
703.091002	4343.879090
703.426246	4396.627203
703.761440	4350.760265
704.096584	4314.829441
704.431679	4338.283409
704.766725	4319.288342
705.101721	4306.657731
705.436668	4336.171166
705.771565	4284.461530
706.106413	4315.449503
706.441212	4347.112990
706.775961	4354.868806
707.110661	4335.122606
707.445311	4364.326010
707.779913	4386.373497
708.114465	4397.262389
708.448967	4420.797016
708.783421	4482.031911
709.117825	4524.962378
709.452180	4525.698386
709.786485	4573.664965
710.120742	4658.734436
710.454949	4643.343793
710.789107	4708.001633
711.123216	4784.463333
711.457275	4776.692395
711.791286	4850.489846
712.125247	4866.432495
712.459159	4768.044295
712.793023	4844.513558
713.126837	4802.084687
713.460602	4798.513029
713.794318	4715.901121
714.127985	4725.292790
714.461602	4639.053771
714.795171	4608.827013
715.128691	4537.963513
715.462162	4485.913600
715.795584	4436.381743
716.128957	4419.279628
716.462281	4366.655023
716.795556	4341.411445
717.128782	4305.200837
717.461960	4236.273141
717.795088	4249.244030
718.128167	4202.487328
718.461198	4144.566991
718.794180	4140.163543
719.127113	4120.820635
719.459997	4097.177624
719.792833	4056.679514
720.125619	4049.243812
720.458357	4010.003471
720.791046	4018.036550
721.123686	3987.827435
721.456278	3950.601035
721.788821	3961.774752
722.121315	3940.090229
722.453761	3909.984458
722.786158	3924.124895
723.118506	3943.959314
723.450805	3900.552459
723.783056	3921.206067
724.115259	3938.754323
724.447412	3944.649952
724.779518	3937.325156
725.111574	3939.757513
725.443582	3969.762460
725.775542	3951.364769
726.107453	4006.618336
726.439315	4005.841998
726.771129	4019.924462
727.102895	4054.743711
727.434612	4104.867904
727.766281	4114.390644
728.097901	4118.267291
728.429473	4124.702324
728.760996	4125.319865
729.092471	4127.054022
729.423897	4107.333028
729.755276	4112.043987
730.086606	4115.474492
730.417887	4149.361128
730.749120	4216.511818
731.080305	4275.599182
731.411442	4312.064368
731.742530	4275.858801
732.073570	4281.661169
732.404562	4335.820806
732.735506	4330.656144
733.066401	4290.742808
733.397249	4228.514805
733.728048	4148.219307
734.058798	4063.563210
734.389501	3994.537211
734.720156	3930.968261
735.050762	3883.896487
735.381320	3880.241650
735.711831	3833.013601
736.042293	3800.782983
736.372707	3822.706962
736.703073	3795.023465
737.033391	3786.710602
737.363661	3803.595947
737.693883	3828.453877
738.024056	3835.889579
738.354182	3836.103828
738.684260	3896.116244
739.014290	3913.122576
739.344272	3913.772885
739.674207	3957.938434
740.004093	3960.471614
740.333931	3957.474648
740.663722	3955.385090
740.993464	3952.458700
741.323159	3930.577572
741.652806	3898.180596
741.982405	3869.713201
742.311956	3837.558201
742.641460	3828.708455
742.970915	3806.449240
743.300323	3766.326697
743.629683	3728.235738
743.958996	3722.171230
744.288260	3693.726520
744.617477	3662.927590
744.946647	3652.943585
745.275768	3622.379069
745.604842	3626.573309
745.933869	3574.142789
746.262847	3564.269689
746.591778	3604.147737
746.920662	3571.120617
747.249498	3541.231616
747.578286	3589.609049
747.907027	3608.475567
748.235720	3607.795011
748.564365	3630.525574
748.892963	3630.717138
749.221514	3616.962350
749.550017	3590.173658
749.878473	3588.499995
750.206881	3560.009914
750.535242	3553.332906
750.863555	3556.037485
751.191821	3551.825601
751.520039	3530.650234
751.848210	3507.801204
752.176334	3541.150958
752.504411	3549.199160
752.832440	3511.554343
753.160421	3490.356291
753.488356	3501.393898
753.816243	3513.490146
754.144082	3471.351141
754.471875	3456.204995
754.799620	3477.760968
755.127318	3466.378043
755.454969	3466.438537
755.782572	3471.477170
756.110129	3449.762400
756.437638	3437.661110
756.765100	3452.119139
757.092515	3465.800831
757.419882	3471.966162
757.747203	3441.409208
758.074477	3446.417594
758.401703	3460.235397
758.728882	3481.408243
759.056014	3484.896722
759.383099	3493.012979
759.710138	3488.702793
760.037129	3505.560411
760.364073	3537.841440
760.690970	3523.474152
761.017820	3497.154287
761.344623	3519.083307
761.671379	3562.139802
761.998088	3612.790795
762.324751	3740.972214
762.651366	3984.023885
762.977935	4463.445177
763.304456	4905.309873
763.630931	5002.662116
763.957359	4645.937467
764.283740	4297.742450
764.610074	4101.316411
764.936362	3908.827513
765.262602	3749.418667
765.588796	3637.207623
765.914943	3549.332750
766.241044	3459.481745
766.567097	3431.659617
766.893104	3385.472565
767.219064	3350.481916
767.544978	3324.895540
767.870845	3268.853033
768.196665	3248.950557
768.522438	3258.490941
768.848165	3252.844848
769.173846	3218.648181
769.499479	3200.464739
769.825066	3183.896987
770.150607	3166.323525
770.476101	3181.610824
770.801548	3175.647139
771.126949	3132.913278
771.452303	3115.692696
771.777611	3124.454222
772.102872	3126.097638
772.428087	3103.130141
772.753256	3092.168152
773.078378	3082.927717
773.403453	3052.605177
773.728482	3037.532127
774.053465	3057.205229
774.378401	3048.925134
774.703291	3016.276101
775.028135	3016.881040
775.352932	3012.389372
775.677683	3000.794718
776.002388	2997.210458
776.327046	2998.201044
776.651658	2989.200064
776.976224	2975.934268
777.300743	2976.390492
777.625216	2968.296920
777.949643	2961.488841
778.274024	2964.846250
778.598359	2955.683953
778.922647	2959.681588
779.246889	2957.473562
779.571086	2944.437138
779.895236	2936.429266
780.219339	2948.028961
780.543397	2961.241825
780.867409	2962.287864
781.191374	2955.752008
781.515294	2951.363684
781.839167	2951.522480
782.162995	2943.408743
782.486776	2952.762604
782.810511	2950.063066
783.134201	2936.477157
783.457844	2943.149124
783.781441	2933.825510
784.104993	2912.897159
784.428498	2915.221131
784.751958	2930.722679
785.075372	2923.806216
785.398739	2906.754513
785.722061	2924.680857
786.045337	2937.377003
786.368568	2920.932759
786.691752	2913.529824
787.014891	2958.811989
787.337983	2988.665702
787.661030	3021.498737
787.984031	3087.245465
788.306987	3132.290695
788.629897	3125.628811
788.952760	3107.465533
789.275579	3093.012545
789.598351	3031.213040
789.921078	2988.942965
790.243759	2978.691779
790.566395	2964.299285
790.888984	2938.407918
791.211529	2921.502409
791.534027	2913.418919
791.856480	2902.769481
792.178888	2889.034858
792.501249	2879.469268
792.823566	2877.619165
793.145836	2875.796788
793.468062	2870.743031
793.790241	2865.689274
794.112375	2873.079606
794.434464	2886.988149
794.756507	2890.932852
795.078505	2895.185065
795.400457	2909.040677
795.722364	2947.063580
796.044226	2972.813793
796.366042	2975.140286
796.687812	2964.137968
797.009538	2983.299393
797.331218	2971.722384
797.652852	2958.247379
797.974442	2936.867846
798.295986	2932.295519
798.617484	2928.386105
798.938938	2916.461255
799.260346	2898.000550
799.581709	2894.481824
799.903026	2885.324568
800.224299	2880.167468
800.545526	2870.427959
800.866708	2853.235104
801.187845	2845.343177
801.508936	2848.430884
801.829983	2853.779548
802.150984	2840.720439
802.471940	2826.945486
802.792851	2826.350630
803.113717	2826.791731
803.434538	2833.304902
803.755314	2826.222081
804.076045	2820.964157
804.396731	2817.132880
804.717372	2819.252686
805.037967	2813.344453
805.358518	2818.922490
805.679024	2836.140551
805.999485	2827.749550
806.319901	2833.869511
806.640272	2823.835094
806.960598	2828.840960
807.280879	2839.568536
807.601115	2845.980883
807.921306	2832.742813
808.241453	2828.319201
808.561554	2838.151971
808.881611	2839.838237
809.201623	2832.538647
809.521590	2830.829695
809.841513	2828.606547
810.161390	2829.680312
810.481223	2823.946000
810.801011	2814.897129
811.120755	2811.063331
811.440453	2816.366625
811.760107	2812.820173
812.079716	2814.110709
812.399281	2803.310037
812.718801	2794.644293
813.038276	2791.188582
813.357707	2798.505817
813.677093	2803.350366
813.996434	2797.611012
814.315731	2793.169756
814.634983	2791.513737
814.954191	2790.036678
815.273354	2804.905562
815.592473	2814.052735
815.911547	2814.826552
816.230577	2824.326607
816.549562	2833.176352
816.868502	2831.525375
817.187399	2842.610872
817.506250	2857.484796
817.825058	2851.853827
818.143821	2862.352030
818.462539	2879.045811
818.781213	2904.254101
819.099843	2942.892025
819.418429	3000.368740
819.736970	3064.797207
820.055466	3137.019298
820.373919	3241.960997
820.692327	3385.780075
821.010691	3551.417267
821.329011	3999.996781
821.647286	4908.994957
821.965517	6298.203366
822.283704	7055.624129
822.601847	7036.896242
822.919945	6399.439818
823.237999	5883.926384
823.556010	5296.072393
823.873976	4736.746292
824.191897	4326.192202
824.509775	4026.672046
824.827609	3758.500306
825.145398	3631.889206
825.463144	3617.708440
825.780845	3711.244529
826.098502	3814.986434
826.416116	4099.186524
826.733685	4421.240637
827.051210	4489.018951
827.368692	4369.934294
827.686129	4100.225001
828.003522	3770.813324
828.320872	3511.256915
828.638177	3313.620999
828.955439	3176.468847
829.272656	3092.906681
829.589830	3022.443953
829.906960	2971.795480
830.224046	2929.452309
830.541088	2895.091804
830.858086	2880.727036
831.175041	2859.309694
831.491952	2862.344469
831.808819	2873.412322
832.125642	2898.824778
832.442421	2942.944957
832.759157	3027.404448
833.075849	3204.905996
833.392497	3490.905777
833.709101	3695.816078
834.025662	3647.395795
834.342179	3483.938902
834.658653	3304.315029
834.975083	3154.025630
835.291469	3057.361505
835.607811	2969.075778
835.924110	2912.019999
836.240366	2860.542256
836.556578	2816.558189
836.872746	2793.008439
837.188871	2774.091509
837.504952	2756.041657
837.820990	2748.094278
838.136984	2734.135323
838.452935	2724.955382
838.768842	2723.649723
839.084706	2742.163361
839.400526	2821.561534
839.716303	2953.929631
840.032037	3036.667569
840.347727	3021.332379
840.663373	2962.343317
840.978977	2886.552089
841.294537	2809.949236
841.610054	2766.444078
841.925527	2740.182187
842.240957	2721.124105
842.556344	2696.455219
842.871687	2680.154648
843.186987	2673.008813
843.502244	2667.140909
843.817458	2665.258038
844.132629	2647.679535
844.447756	2644.254071
844.762840	2637.478760
845.077881	2639.669142
845.392879	2636.334418
845.707833	2631.699077
846.022745	2623.388735
846.337613	2628.964251
846.652438	2623.739095
846.967221	2624.303705
847.281960	2625.256483
847.596656	2620.981584
847.911309	2622.514095
848.225919	2620.616101
848.540485	2616.419340
848.855009	2617.830863
849.169490	2615.305245
849.483928	2614.586881
849.798323	2615.085955
850.112675	2613.452621
850.426984	2613.293825
850.741251	2610.455655
851.055474	2612.479678
851.369654	2615.058228
851.683792	2616.830194
851.997887	2614.559154
852.311938	2615.824484
852.625947	2615.685852
852.939914	2616.507560
853.253837	2616.711727
853.567718	2611.877260
853.881555	2612.404061
854.195350	2615.050667
854.509103	2615.668208
854.822812	2613.006479
855.136479	2606.798298
855.450103	2615.295163
855.763685	2614.377673
856.077224	2614.274329
856.390720	2609.233175
856.704173	2612.817436
857.017584	2615.882457
857.330953	2619.718775
857.644278	2620.555607
857.957561	2618.087962
858.270802	2617.059567
858.584000	2615.781634
858.897155	2619.965792
859.210268	2620.875720
859.523339	2613.238372
859.836367	2611.330295
860.149352	2613.555965
860.462295	2612.368773
860.775195	2611.458845
861.088054	2610.664863
861.400869	2608.247630
861.713642	2606.536158
862.026373	2607.551950
862.339062	2612.265429
862.651708	2618.400513
862.964312	2614.599483
863.276873	2615.746346
863.589392	2617.379680
863.901869	2620.144753
864.214303	2628.316463
864.526696	2629.843933
864.839045	2632.392236
865.151353	2632.987092
865.463619	2633.287041
865.775842	2634.000364
866.088023	2630.564818
866.400162	2632.931639
866.712258	2633.770992
867.024313	2632.641773
867.336325	2627.703963
867.648296	2630.411062
867.960224	2636.909110
868.272110	2635.487504
868.583954	2629.352420
868.895755	2631.343676
869.207515	2634.819552
869.519233	2639.696868
869.830909	2637.940026
870.142542	2634.292751
870.454134	2632.911475
870.765684	2641.423463
871.077191	2640.337094
871.388657	2643.437404
871.700081	2643.109729
872.011463	2645.191726
872.322803	2644.927065
872.634101	2649.297745
872.945357	2653.560041
873.256571	2663.324756
873.567744	2657.492141
873.878874	2655.972233
874.189963	2660.116062
874.501010	2665.704181
874.812015	2667.347597
875.122979	2668.711229
875.433900	2657.414003
875.744780	2657.721513
876.055618	2664.897596
876.366415	2667.869356
876.677169	2670.130314
876.987882	2663.208809
877.298554	2662.414828
877.609183	2673.621313
877.919771	2679.953002
878.230317	2685.498271
878.540822	2698.668286
878.851285	2711.883670
879.161707	2737.833010
879.472087	2776.165944
879.782425	2826.847184
880.092722	2940.563012
880.402977	3133.503093
880.713191	3397.407497
881.023363	3699.453271
881.333494	3893.177251
881.643583	4070.184766
881.953631	4062.781831
882.263637	3884.685427
882.573602	3660.349040
882.883526	3529.268958
883.193408	3416.304262
883.503248	3305.572797
883.813048	3190.359747
884.122806	3077.417736
884.432522	2987.481031
884.742197	2920.761359
885.051831	2881.210987
885.361424	2848.385514
885.670975	2811.511994
885.980485	2779.946809
886.289954	2761.029879
886.599382	2744.923393
886.908768	2732.885117
887.218113	2715.225955
887.527417	2701.118286
887.836680	2692.898685
888.145901	2686.811492
888.455082	2679.327899
888.764221	2668.774243
889.073319	2659.165804
889.382376	2657.953407
889.691392	2659.362409
890.000366	2660.194199
890.309300	2657.414003
890.618193	2662.634118
890.927044	2664.264931
891.235855	2662.591268
891.544625	2665.099242
891.853353	2661.184786
892.162041	2670.752896
892.470687	2690.834332
892.779293	2702.418904
893.087858	2714.195039
893.396381	2736.121538
893.704864	2778.041253
894.013306	2851.503467
894.321707	2944.873198
894.630068	2998.599295
894.938387	3019.724251
895.246665	3011.068589
895.554903	2967.341621
895.863100	2921.671288
896.171256	2861.706763
896.479371	2802.493370
896.787446	2763.031217
897.095480	2741.838207
897.403473	2735.662793
897.711425	2720.118395
898.019336	2700.299099
898.327207	2684.333765
898.635038	2687.832325
898.942827	2682.155986
899.250576	2673.777588
899.558284	2659.725372
899.865952	2655.062305
900.173579	2654.971564
900.481165	2649.575009
900.788711	2642.797177
901.096216	2637.866929
901.403681	2631.424334
901.711105	2636.102525
902.018489	2628.649179
902.325832	2636.581435
902.633135	2636.374747
902.940397	2652.188847
903.247619	2689.422809
903.554800	2758.287492
903.861941	2891.242883
904.169041	3022.665764
904.476101	3088.712441
904.783121	3082.710947
905.090100	3020.104858
905.397039	2945.286573
905.703938	2867.196579
906.010796	2805.724749
906.317614	2750.254413
906.624391	2714.189998
906.931129	2685.556244
907.237826	2664.010353
907.544483	2644.241468
907.851099	2629.465846
908.157675	2619.310442
908.464211	2615.416150
908.770707	2601.822679
909.077163	2596.345465
909.383578	2595.246494
909.689954	2592.788931
909.996289	2590.850608
910.302584	2588.836667
910.608839	2585.040678
910.915054	2586.779876
911.221229	2590.177614
911.527363	2593.144333
911.833458	2590.810278
912.139513	2592.826740
912.445527	2592.282295
912.751502	2599.838985
913.057436	2605.369131
913.363331	2611.945316
913.669186	2623.378653
913.975000	2636.296610
914.280775	2653.645741
914.586510	2674.440500
914.892205	2711.848382
915.197859	2777.574946
915.503475	2865.711959
915.809050	2934.246446
916.114585	2951.146914
916.420081	2963.356589
916.725536	2977.396202
917.030952	2947.499639
917.336328	2900.453071
917.641665	2848.627489
917.946961	2797.094294
918.252218	2762.317894
918.557435	2733.512741
918.862612	2712.541541
919.167750	2695.015970
919.472848	2677.981911
919.777906	2660.277378
920.082925	2647.510656
920.387904	2636.626805
920.692843	2629.717904
920.997743	2627.272944
921.302603	2620.623662
921.607423	2609.951540
921.912204	2607.630088
922.216946	2604.728904
922.521647	2604.111363
922.826310	2599.143306
923.130932	2594.371854
923.435516	2587.707448
923.740059	2586.739547
924.044564	2586.968919
924.349028	2582.575554
924.653454	2577.751169
924.957840	2572.810839
925.262186	2569.244222
925.566493	2570.759089
925.870761	2567.482339
926.174989	2567.613409
926.479178	2565.667524
926.783328	2564.104766
927.087438	2560.177707
927.391509	2557.896585
927.695541	2560.777604
927.999533	2557.097562
928.303486	2555.260062
928.607400	2559.204764
928.911275	2557.720145
929.215110	2556.759805
929.518906	2554.642520
929.822663	2556.114537
930.126381	2554.574465
930.430060	2557.097562
930.733699	2559.159394
931.037299	2557.246276
931.340861	2558.486400
931.644383	2558.302398
931.947866	2556.527912
932.251309	2559.378684
932.554714	2557.417675
932.858080	2556.795093
933.161407	2557.342058
933.464694	2554.271995
933.767943	2553.838456
934.071153	2554.491286
934.374323	2554.156049
934.677455	2553.011707
934.980548	2552.512633
935.283602	2554.156049
935.586617	2553.725030
935.889593	2552.822664
936.192530	2555.285267
936.495428	2554.955072
936.798287	2556.043961
937.101108	2554.997922
937.403890	2559.484548
937.706632	2564.258521
938.009336	2567.028635
938.312002	2572.127762
938.614628	2573.325036
938.917216	2575.349060
939.219765	2578.330902
939.522275	2576.569019
939.824747	2576.836200
940.127179	2572.485684
940.429573	2568.364541
940.731929	2567.986454
941.034246	2566.582493
941.336524	2565.659962
941.638763	2569.660117
941.940964	2567.394119
942.243126	2565.082750
942.545250	2565.244067
942.847335	2562.862122
943.149381	2562.196689
943.451389	2561.556463
943.753359	2558.728375
944.055290	2557.586554
944.357182	2559.880279
944.659036	2556.033879
944.960851	2559.902964
945.262628	2554.057746
945.564367	2557.833571
945.866067	2556.301060
946.167729	2557.752912
946.469352	2556.969013
946.770937	2558.781308
947.072484	2556.563200
947.373992	2555.726368
947.675462	2555.295350
947.976893	2556.774928
948.278286	2555.834753
948.579641	2559.600495
948.880958	2553.039433
949.182236	2553.062118
949.483476	2554.645041
949.784678	2556.154866
950.085841	2552.621017
950.386967	2553.651933
950.688054	2553.064639
950.989103	2557.314332
951.290114	2553.523384
951.591087	2558.221739
951.892021	2558.874569
952.192917	2559.439178
952.493776	2563.217523
952.794596	2559.696277
953.095378	2563.817420
953.396122	2562.020249
953.696828	2561.969837
953.997496	2561.614436
954.298126	2555.025648
954.598718	2558.783828
954.899272	2555.665874
955.199788	2556.530432
955.500266	2552.512633
955.800706	2549.518187
956.101108	2545.278577
956.401472	2547.098433
956.701798	2541.873277
957.002087	2545.379400
957.302337	2541.023843
957.602550	2541.961498
957.902724	2543.456200
958.202861	2544.703885
958.502960	2541.641384
958.803022	2543.728422
959.103045	2543.499050
959.403031	2542.364790
959.702979	2539.987886
960.002889	2541.686755
960.302762	2537.605941
960.602596	2539.592155
960.902393	2537.658873
961.202153	2539.682896
961.501875	2541.220448
961.801559	2539.166178
962.101205	2538.946888
962.400814	2539.009902
962.700385	2541.618699
962.999918	2538.664583
963.299414	2537.800025
963.598873	2538.190715
963.898293	2533.381454
964.197677	2540.088709
964.497022	2535.748276
964.796331	2536.169212
965.095601	2536.524613
965.394835	2538.745242
965.694030	2537.978986
965.993189	2536.776671
966.292309	2538.145344
966.591393	2536.207021
966.890439	2536.123842
967.189447	2539.549306
967.488419	2537.575694
967.787353	2537.994110
968.086249	2536.955632
968.385108	2538.659542
968.683930	2535.029911
968.982714	2540.275232
969.281462	2537.931095
969.580172	2537.903369
969.878844	2539.153575
970.177480	2538.236085
970.476078	2539.345139
970.774639	2538.079809
971.073162	2538.162988
971.371649	2539.824048
971.670098	2533.265507
971.968510	2536.413708
972.266885	2535.297092
972.565223	2538.256250
972.863524	2536.975797
973.161788	2540.194573
973.460014	2538.823379
973.758204	2538.394881
974.056356	2539.176260
974.354471	2538.770447
974.652550	2539.559388
974.950591	2539.783719
975.248595	2537.242978
975.546563	2539.347659
975.844493	2537.018646
976.142386	2538.190715
976.440243	2540.108874
976.738062	2539.110725
977.035845	2537.081661
977.333590	2538.165509
977.631299	2535.904551
977.928971	2537.348842
978.226606	2536.249870
978.524204	2536.819521
978.821765	2537.333718
979.119290	2536.058307
979.416777	2537.401774
979.714228	2535.294572
980.011642	2537.018646
980.309020	2540.844882
980.606360	2534.752648
980.903664	2535.869263
981.200931	2539.819007
981.498162	2539.635005
981.795356	2541.417053
982.092513	2543.589790
982.389633	2548.119267
982.686717	2550.284443
982.983764	2550.022303
983.280775	2553.530946
983.577749	2552.573127
983.874686	2549.924000
984.171587	2546.145655
984.468451	2545.636499
984.765279	2543.070552
985.062070	2543.199101
985.358824	2538.901517
985.655543	2537.857998
985.952224	2535.718029
986.248869	2538.087371
986.545478	2534.246012
986.842050	2532.373223
987.138586	2530.560928
987.435086	2534.188038
987.731549	2529.124199
988.027975	2535.929757
988.324366	2533.252904
988.620719	2534.510672
988.917037	2533.663758
989.213318	2535.448327
989.509563	2533.900693
989.805772	2534.200641
990.101944	2532.030425
990.398080	2535.284489
990.694180	2530.926412
990.990244	2534.611495
991.286271	2534.639222
991.582262	2530.465146
991.878217	2532.917668
992.174136	2533.078985
992.470019	2537.142155
992.765865	2535.813811
993.061676	2533.152081
993.357450	2533.878007
993.653188	2535.039993
993.948890	2532.990764
994.244556	2531.584282
994.540186	2536.199459
994.835780	2532.733666
995.131337	2534.866074
995.426859	2536.690971
995.722345	2532.975641
996.017795	2536.446475
996.313208	2539.095602
996.608586	2537.278266
996.903928	2536.640560
997.199234	2535.254243
997.494504	2540.343287
997.789738	2538.079809
998.084936	2536.025539
998.380099	2536.738862
998.675225	2535.702905
998.970316	2537.064017
999.265371	2533.535209
999.560390	2536.454037
999.855373	2532.970600
1000.150320	2529.981196
1000.445232	2534.651825
1000.740108	2535.473533
1001.034948	2534.621578
1001.329752	2533.552853
1001.624521	2530.639066
1001.919254	2528.403314
1002.213951	2530.150074
1002.508613	2529.401463
1002.803239	2529.595547
1003.097829	2524.708149
1003.392384	2530.308871
1003.686903	2533.855322
1003.981386	2529.605630
1004.275834	2529.991278
1004.570246	2533.431865
1004.864623	2532.630322
1005.158964	2532.194262
1005.453270	2532.927750
1005.747540	2529.920702
1006.041775	2533.048738
1006.335974	2535.196269
1006.630138	2529.262831
1006.924266	2532.138809
1007.218359	2532.083357
1007.512416	2532.128727
1007.806438	2531.768285
1008.100425	2532.549663
1008.394376	2533.998995
1008.688292	2532.398429
1008.982172	2531.967410
1009.276017	2531.685106
1009.569827	2531.296937
1009.863602	2532.469005
1010.157341	2532.716022
1010.451045	2531.271731
1010.744714	2528.693181
1011.038347	2531.889272
1011.331945	2530.558408
1011.625508	2532.685775
1011.919036	2530.442461
1012.212528	2530.868439
1012.505986	2530.903727
1012.799408	2532.166536
1013.092795	2529.759385
1013.386147	2531.503624
1013.679464	2531.417924
1013.972745	2532.632843
1014.265992	2528.579755
1014.559204	2529.567821
1014.852380	2530.245856
1015.145521	2532.433717
1015.438628	2526.613705
1015.731699	2532.710980
1016.024736	2528.710825
1016.317737	2533.404139
1016.610703	2531.554036
1016.903635	2526.555732
1017.196531	2529.207378
1017.489393	2528.678057
1017.782219	2524.884589
1018.075011	2529.741741
1018.367768	2530.482790
1018.660490	2531.226361
1018.953177	2531.226361
1019.245829	2531.226361
