Dividing Wavelength (nm)	Counts (n)	Blue Motor Position (mm): 14.800000	Red Motor Position (mm): 0.000000	
326.493990	2136.788840
326.888308	2136.788840
327.282561	2136.788840
327.676750	2101.984713
328.070874	2104.643922
328.464933	2105.770620
328.858929	2110.743718
329.252859	2123.767539
329.646726	2132.823972
330.040528	2143.322175
330.434265	2162.097953
330.827938	2179.207629
331.221547	2197.567511
331.615091	2215.103165
332.008571	2235.189642
332.401986	2257.242170
332.795338	2274.682041
333.188625	2296.578293
333.581847	2312.523463
333.975006	2331.246308
334.368100	2349.840604
334.761129	2366.920033
335.154095	2384.440563
335.546996	2403.959911
335.939833	2426.324990
336.332606	2436.122473
336.725315	2451.576130
337.117960	2455.311625
337.510540	2468.131279
337.903056	2479.625110
338.295508	2487.549804
338.687896	2495.938284
339.080220	2503.031187
339.472480	2509.073010
339.864676	2512.170799
340.256807	2516.561644
340.648875	2521.282685
341.040879	2523.468025
341.432818	2525.343334
341.824694	2522.979033
342.216506	2525.981040
342.608253	2527.712676
342.999937	2524.244363
343.391557	2525.615556
343.783113	2524.715710
344.174605	2523.473066
344.566033	2524.483817
344.957397	2520.975174
345.348697	2521.073477
345.739934	2515.500481
346.131106	2517.877385
346.522215	2515.248423
346.913260	2513.564678
347.304241	2509.400685
347.695159	2509.073010
348.086012	2507.018740
348.476802	2505.690396
348.867528	2504.384737
349.258191	2500.734942
349.648789	2500.674448
350.039324	2497.231340
350.429796	2502.960611
350.820203	2500.848368
351.210548	2496.817965
351.600828	2495.174549
351.991045	2493.700011
352.381198	2493.084991
352.771288	2494.584734
353.161314	2492.893427
353.551276	2492.961482
353.941175	2493.500886
354.331010	2492.139774
354.720782	2492.953921
355.110490	2493.573983
355.500135	2493.067347
355.889717	2492.127171
356.279235	2494.982985
356.668689	2494.889724
357.058080	2493.742861
357.447408	2491.539877
357.836672	2491.885196
358.225873	2492.598519
358.615010	2490.425782
359.004084	2495.358551
359.393095	2496.497852
359.782043	2498.310147
360.170927	2498.922647
360.559748	2499.197390
360.948505	2496.568428
361.337199	2498.239570
361.725830	2498.799138
362.114398	2498.973058
362.502903	2499.605723
362.891344	2503.404232
363.279722	2502.073368
363.668037	2501.962463
364.056289	2500.573625
364.444478	2502.464057
364.832603	2503.000940
365.220665	2505.702999
365.608665	2501.594458
365.996601	2502.917761
366.384474	2503.719305
366.772284	2508.069820
367.160031	2504.611589
367.547715	2505.549243
367.935336	2504.972031
368.322893	2505.776095
368.710388	2505.806342
369.097820	2509.705675
369.485189	2505.173678
369.872495	2507.225427
370.259738	2505.216527
370.646918	2507.802639
371.034035	2505.725684
371.421090	2510.471930
371.808081	2504.898935
372.195010	2507.961436
372.581875	2506.363390
372.968678	2511.717095
373.355418	2509.320027
373.742096	2511.580984
374.128710	2507.880777
374.515262	2512.286746
374.901751	2509.065448
375.288177	2509.599811
375.674540	2510.726508
376.060841	2509.980418
376.447079	2511.132321
376.833254	2512.485871
377.219367	2508.316837
377.605417	2508.508401
377.991404	2506.751559
378.377329	2510.345901
378.763191	2506.726353
379.148991	2513.587363
379.534727	2515.190450
379.920402	2514.146931
380.306013	2513.887312
380.691563	2514.605676
381.077049	2511.215500
381.462474	2517.358146
381.847835	2514.005779
382.233134	2516.322189
382.618371	2515.177847
383.003545	2512.599297
383.388657	2514.366222
383.773706	2514.532580
384.158693	2517.953003
384.543618	2512.790861
384.928480	2514.441839
385.313280	2514.875378
385.698017	2513.514267
386.082692	2516.995183
386.467305	2517.645492
386.851856	2517.726151
387.236344	2518.754546
387.620770	2517.340502
388.005133	2517.032992
388.389435	2517.204391
388.773674	2517.216994
389.157851	2517.325379
389.541965	2519.122550
389.926018	2521.774197
390.310008	2518.464680
390.693936	2515.586181
391.077802	2517.257323
391.461606	2518.646161
391.845348	2518.328568
392.229027	2516.992663
392.612645	2518.973836
392.996200	2518.920904
393.379694	2519.341840
393.763125	2520.287057
394.146494	2522.742099
394.529801	2522.101872
394.913047	2518.079031
395.296230	2522.747140
395.679351	2519.462828
396.062410	2520.342509
396.445408	2522.464835
396.828343	2520.735719
397.211217	2517.811850
397.594028	2519.800585
397.976778	2518.013496
398.359466	2519.261182
398.742092	2516.760770
399.124656	2525.257634
399.507158	2522.064063
399.889598	2522.679084
400.271977	2521.065915
400.654294	2525.439116
401.036549	2522.835360
401.418742	2524.325021
401.800874	2523.767973
402.182944	2524.133457
402.564952	2525.764270
402.946898	2523.720082
403.328783	2527.800897
403.710606	2525.305525
404.092367	2524.970289
404.474067	2522.739578
404.855705	2523.788138
405.237282	2526.956503
405.618797	2526.056657
406.000250	2527.127902
406.381642	2524.796369
406.762972	2526.724610
407.144240	2527.034641
407.525447	2528.562111
407.906593	2527.528674
408.287677	2529.535053
408.668700	2525.020700
409.049661	2525.247552
409.430560	2527.246370
409.811399	2530.026566
410.192176	2528.403314
410.572891	2528.156298
410.953545	2528.115969
411.334138	2526.386853
411.714669	2527.228726
412.095139	2531.168387
412.475547	2528.914992
412.855894	2529.343490
413.236180	2527.574045
413.616405	2530.840712
413.996568	2526.006246
414.376670	2531.604447
414.756711	2528.297450
415.136691	2529.714014
415.516609	2530.444982
415.896466	2529.666123
416.276262	2530.419776
416.655997	2527.674868
417.035670	2525.514733
417.415283	2530.843233
417.794834	2526.454908
418.174324	2531.168387
418.553753	2532.232071
418.933121	2530.253418
419.312428	2530.971782
419.691674	2534.238450
420.070859	2531.964890
420.449983	2529.840043
420.829045	2529.456916
421.208047	2531.412883
421.586988	2531.037317
421.965867	2534.167874
422.344686	2532.126207
422.723444	2532.647966
423.102141	2533.066382
423.480777	2533.751979
423.859352	2530.991947
424.237866	2533.227699
424.616319	2533.356248
424.994712	2532.511855
425.373044	2532.194262
425.751314	2533.421783
426.129524	2531.440610
426.507673	2533.857843
426.885762	2533.711649
427.263789	2533.958666
427.641756	2533.678882
428.019662	2533.567977
428.397508	2534.291382
428.775292	2535.617206
429.153016	2535.097967
429.530679	2535.471012
429.908282	2530.888603
430.285824	2536.539737
430.663305	2531.377595
431.040726	2532.663089
431.418086	2533.993954
431.795385	2536.625436
432.172624	2533.520086
432.549802	2532.610157
432.926920	2535.975128
433.303977	2536.116280
433.680974	2533.205013
434.057910	2536.461599
434.434786	2535.108049
434.811601	2537.807587
435.188355	2534.790456
435.565050	2536.867412
435.941683	2535.481094
436.318257	2533.399098
436.694770	2532.484128
437.071222	2534.810621
437.447614	2532.864736
437.823946	2533.779705
438.200218	2537.696682
438.576429	2538.452855
438.952580	2537.111908
439.328670	2535.397915
439.704700	2539.612320
440.080670	2535.458409
440.456580	2536.844727
440.832429	2536.065868
441.208218	2537.469830
441.583947	2536.083512
441.959616	2540.923020
442.335224	2534.513193
442.710773	2538.099974
443.086261	2538.921682
443.461689	2536.685930
443.837057	2536.340611
444.212365	2537.079140
444.587612	2538.503266
444.962800	2538.717515
445.337927	2538.936805
445.712995	2539.924872
446.088002	2540.892773
446.462949	2537.875643
446.837837	2539.085519
447.212664	2538.125180
447.587431	2541.164995
447.962139	2537.308513
448.336786	2540.892773
448.711374	2539.622402
449.085901	2539.866898
449.460369	2536.779192
449.834776	2542.233720
450.209124	2537.295910
450.583412	2540.280273
450.957640	2536.426311
451.331808	2539.496373
451.705917	2537.696682
452.079965	2540.534851
452.453954	2541.298586
452.827883	2540.350849
453.201752	2539.745911
453.575562	2538.677186
453.949311	2538.795653
454.323001	2541.429656
454.696632	2542.316899
455.070202	2541.444779
455.443713	2539.516538
455.817164	2538.974614
456.190556	2537.810108
456.563888	2540.217258
456.937160	2536.340611
457.310373	2544.187167
457.683526	2540.575180
458.056619	2540.988555
458.429653	2542.808412
458.802628	2541.127187
459.175542	2539.808925
459.548398	2542.523586
459.921194	2542.175747
460.293930	2540.993596
460.666607	2542.876467
461.039224	2545.528114
461.411782	2544.464431
461.784280	2543.221786
462.156719	2544.963505
462.529099	2545.076931
462.901419	2543.453679
463.273680	2543.204142
463.645882	2543.214224
464.018024	2544.875285
464.390106	2544.053577
464.762130	2544.855120
465.134094	2540.663401
465.505999	2542.652136
465.877845	2545.243289
466.249631	2544.043494
466.621358	2544.368649
466.993026	2548.139432
467.364634	2547.042981
467.736184	2542.962167
468.107674	2544.809750
468.479105	2545.087013
468.850477	2546.271684
469.221790	2543.463762
469.593043	2544.333361
469.964238	2542.029553
470.335373	2544.159441
470.706449	2544.998793
471.077467	2545.061807
471.448425	2542.848741
471.819324	2544.923176
472.190164	2545.581046
472.560945	2545.921324
472.931667	2545.487785
473.302330	2545.109698
473.672934	2544.008206
474.043479	2546.296890
474.413965	2545.704554
474.784393	2543.168854
475.154761	2544.328319
475.525070	2541.936292
475.895321	2541.795140
476.265513	2542.326981
476.635645	2547.784030
477.005719	2545.467620
477.375734	2546.054915
477.745691	2548.421736
478.115588	2546.536345
478.485427	2546.453166
478.855207	2549.029195
479.224928	2545.840666
479.594591	2547.668084
479.964194	2544.688762
480.333739	2548.509957
480.703226	2549.208156
481.072653	2549.225800
481.442022	2549.682025
481.811333	2549.687066
482.180584	2546.400234
482.549777	2549.503064
482.918912	2547.973074
483.287988	2549.500543
483.657005	2547.942827
484.025964	2550.740667
484.394864	2550.627241
484.763706	2548.363763
485.132489	2550.458363
485.501213	2548.280584
485.869879	2548.547765
486.238487	2547.743701
486.607036	2549.745039
486.975527	2552.726882
487.343959	2550.299566
487.712333	2548.862837
488.080648	2547.300080
488.448905	2550.428116
488.817104	2549.465255
489.185244	2550.728064
489.553326	2548.421736
489.921350	2550.113043
490.289315	2553.654454
490.657222	2550.912066
491.025070	2550.647406
491.392861	2551.443908
491.760593	2550.231511
492.128267	2550.833928
492.495883	2551.854762
492.863440	2549.006510
493.230939	2551.544731
493.598380	2551.058260
493.965763	2546.964843
494.333088	2548.583053
494.700354	2548.537683
495.067563	2549.871068
495.434713	2544.456869
495.801805	2551.000287
496.168839	2551.219577
496.535815	2553.301573
496.902733	2549.112374
497.269593	2550.864175
497.636395	2548.867878
498.003139	2552.303425
498.369825	2552.036244
498.736453	2551.741336
499.103023	2552.946172
499.469535	2549.540872
499.835989	2551.025492
500.202385	2552.825184
500.568723	2552.696635
500.935003	2552.079093
501.301226	2550.254196
501.667390	2550.067673
502.033497	2552.895760
502.399546	2555.166800
502.765537	2551.393497
503.131470	2556.467418
503.497345	2554.461039
503.863163	2553.901471
504.228923	2551.562375
504.594625	2553.624207
504.960269	2550.498692
505.325856	2555.680998
505.691385	2553.906512
506.056856	2551.060780
506.422270	2550.478527
506.787625	2553.843497
507.152924	2551.859803
507.518164	2553.576316
507.883347	2557.331976
508.248472	2555.068498
508.613540	2556.006152
508.978550	2553.964485
509.343503	2555.809547
509.708398	2557.001780
510.073236	2556.318704
510.438016	2557.369784
510.802738	2554.115720
511.167403	2558.095711
511.532010	2556.797613
511.896561	2556.270813
512.261053	2557.705021
512.625488	2556.555638
512.989866	2553.530946
513.354186	2555.875082
513.718449	2556.555638
514.082655	2555.791903
514.446803	2559.368602
514.810894	2559.562686
515.174927	2563.217523
515.538904	2561.110321
515.902822	2557.069836
516.266684	2559.204764
516.630488	2558.501523
516.994235	2561.470763
517.357925	2561.455640
517.721558	2564.371947
518.085133	2561.405228
518.448651	2562.345403
518.812112	2564.376988
519.175516	2563.676268
519.538863	2564.704663
519.902152	2564.341700
520.265385	2564.286248
520.628560	2565.665003
520.991678	2565.450754
521.354739	2565.750703
521.717743	2566.088460
522.080690	2568.455282
522.443580	2565.039900
522.806413	2568.873697
523.169189	2566.234653
523.531908	2566.857236
523.894569	2567.951166
524.257174	2570.101218
524.619722	2568.762792
524.982213	2570.711198
525.344647	2569.186249
525.707025	2570.088616
526.069345	2569.939902
526.431608	2569.634912
526.793815	2570.615416
527.155964	2570.189439
527.518057	2570.711198
527.880093	2571.618606
528.242072	2573.877043
528.603995	2571.298492
528.965860	2570.912844
529.327669	2571.474933
529.689421	2574.653380
530.051117	2573.640108
530.412755	2574.300500
530.774337	2578.134297
531.135862	2576.158165
531.497331	2572.452917
531.858743	2570.867474
532.220098	2572.798236
532.581396	2574.169430
532.942638	2575.775037
533.303824	2576.420305
533.664953	2579.997003
534.026025	2577.909966
534.387040	2579.528176
534.747999	2581.290059
535.108902	2581.285018
535.469748	2581.506829
535.830537	2582.406675
536.191270	2584.773497
536.551947	2582.888105
536.912567	2582.573033
537.273131	2585.494382
537.633638	2583.286356
537.994089	2587.750298
538.354483	2587.203333
538.714821	2590.676688
539.075103	2588.186358
539.435328	2590.838005
539.795497	2592.567121
540.155609	2593.968561
540.515665	2592.975454
540.875665	2594.674323
541.235609	2596.988212
541.595496	2594.258428
541.955328	2599.629777
542.315102	2599.014756
542.674821	2599.886876
543.034483	2605.154882
543.394090	2604.484408
543.753640	2606.405088
544.113134	2608.081272
544.472571	2610.405243
544.831953	2612.341047
545.191278	2614.070162
545.550548	2616.489916
545.909761	2620.129629
546.268918	2623.633231
546.628019	2623.446708
546.987064	2625.838736
547.346053	2627.378808
547.704986	2632.167905
548.063863	2634.723770
548.422684	2636.503297
548.781449	2637.914820
549.140158	2641.282311
549.498811	2642.913124
549.857408	2642.885398
550.215949	2647.971922
550.574434	2647.747591
550.932864	2655.931904
551.291237	2658.492810
551.649555	2664.829540
552.007817	2667.629901
552.366022	2669.631239
552.724173	2675.206756
553.082267	2677.220697
553.440305	2687.459280
553.798288	2684.172448
554.156215	2695.333562
554.514086	2701.019984
554.871902	2698.809438
555.229661	2706.721529
555.587365	2713.910214
555.945014	2712.707899
556.302606	2724.214333
556.660143	2728.781618
557.017625	2738.682444
557.375050	2739.773854
557.732421	2750.181316
558.089735	2756.926380
558.446994	2763.237905
558.804197	2769.836775
559.161345	2775.956736
559.518437	2777.733742
559.875474	2790.200516
560.232455	2798.362144
560.589381	2802.742907
560.946251	2815.360915
561.303065	2820.618838
561.659825	2829.455981
562.016528	2836.823627
562.373177	2836.112825
562.729770	2856.658047
563.086307	2857.905733
563.442789	2869.288658
563.799216	2880.908518
564.155587	2890.007800
564.511904	2901.249573
564.868164	2911.410019
565.224370	2920.978129
565.580520	2934.470777
565.936615	2934.632094
566.292654	2949.057356
566.648638	2964.894141
567.004567	2978.550627
567.360441	2988.176710
567.716260	2999.549553
568.072023	3013.251409
568.427732	3024.833460
568.783385	3026.164325
569.138982	3053.179868
569.494525	3063.015159
569.850013	3067.413566
570.205445	3094.978595
570.560823	3097.642845
570.916145	3114.172788
571.271412	3136.414359
571.626625	3149.367604
571.981782	3158.106444
572.336884	3176.516738
572.691931	3186.334385
573.046923	3206.791387
573.401860	3218.181875
573.756743	3231.583782
574.111570	3249.638675
574.466342	3264.565531
574.821059	3285.138480
575.175722	3294.802372
575.530330	3314.228458
575.884882	3331.665809
576.239380	3344.550999
576.593823	3356.740509
576.948211	3382.132801
577.302544	3380.597769
577.656823	3408.825710
578.011047	3424.191147
578.365216	3451.783903
578.719330	3458.027372
579.073389	3482.345898
579.427394	3489.322855
579.781344	3510.115094
580.135239	3523.766538
580.489080	3545.035167
580.842866	3556.576888
581.196597	3579.693099
581.550273	3605.841564
581.903895	3628.826705
582.257463	3655.053308
582.610975	3669.120648
582.964434	3685.990869
583.317837	3703.153478
583.671186	3717.979511
584.024481	3742.318202
584.377721	3752.307248
584.730906	3766.911471
585.084037	3803.381698
585.437113	3808.082574
585.790135	3841.490301
586.143103	3843.930219
586.496016	3863.066439
586.848874	3895.586923
587.201679	3919.504677
587.554428	3920.749842
587.907124	3956.572281
588.259765	3970.778253
588.612352	4007.477853
588.964884	3997.624918
589.317362	4028.960730
589.669786	4058.275040
590.022155	4083.556426
590.374470	4118.332826
590.726731	4120.046818
591.078937	4115.671097
591.431090	4169.245959
591.783188	4157.008558
592.135232	4188.596428
592.487222	4200.090259
592.839157	4245.957197
593.191038	4248.578597
593.542866	4256.785596
593.894639	4260.760546
594.246358	4292.653405
594.598022	4322.900328
594.949633	4320.740194
595.301190	4337.199561
595.652692	4363.509343
596.004141	4430.145835
596.355535	4379.830079
596.706876	4397.441350
597.058162	4406.061723
597.409395	4453.231799
597.760573	4502.788862
598.111698	4492.441894
598.462768	4518.918034
598.813785	4522.829969
599.164748	4548.005492
599.515657	4554.168302
599.866511	4563.776742
600.217312	4617.664156
600.568060	4594.787399
600.918753	4656.002131
601.269392	4670.923946
601.619978	4658.744518
601.970510	4714.366089
602.320988	4731.828646
602.671412	4784.377634
603.021783	4778.265235
603.372100	4801.837670
603.722363	4834.297660
604.072572	4840.367209
604.422728	4870.793093
604.772830	4865.184809
605.122878	4893.697576
605.472872	4909.904885
605.822813	4948.507521
606.172701	4948.683961
606.522534	5008.267879
606.872314	5028.026682
607.222041	5047.931678
607.571714	5092.808029
607.921333	5100.316828
608.270899	5129.769769
608.620411	5190.213204
608.969870	5173.322818
609.319276	5193.678997
609.668627	5229.130911
610.017926	5271.395945
610.367171	5322.246064
610.716362	5330.190923
611.065500	5351.278069
611.414585	5389.101846
611.763616	5399.458897
612.112594	5419.600827
612.461518	5450.732473
612.810389	5500.947406
613.159207	5500.990256
613.507971	5495.747456
613.856682	5585.585859
614.205340	5580.174180
614.553945	5644.963089
614.902496	5616.225992
615.250994	5671.282953
615.599439	5689.345408
615.947830	5718.049738
616.296169	5719.375561
616.644454	5751.275983
616.992686	5770.949086
617.340864	5831.717675
617.688990	5797.415143
618.037063	5869.438108
618.385082	5865.604311
618.733048	5938.005362
619.080961	5919.907620
619.428821	5955.016736
619.776628	5979.196630
620.124382	5971.224046
620.472083	5992.742211
620.819731	6024.768661
621.167326	5980.207382
621.514868	6006.602863
621.862357	5958.399350
622.209793	5987.133927
622.557176	5971.312266
622.904506	5975.078008
623.251783	5949.176559
623.599007	5945.357885
623.946179	5967.395289
624.293297	5964.794054
624.640363	5925.944402
624.987376	5940.394869
625.334336	5922.874339
625.681243	5914.659779
626.028097	5923.789308
626.374899	5925.389875
626.721647	5947.192865
627.068343	5905.784828
627.414987	5911.302370
627.761577	5898.298714
628.108115	5939.515188
628.454600	5887.457713
628.801032	5941.962668
629.147412	5920.605820
629.493739	5934.645433
629.840014	5900.383231
630.186236	5956.186284
630.532405	5891.442745
630.878521	5935.814981
631.224585	5922.244195
631.570597	5880.490838
631.916556	5917.422331
632.262462	5933.816163
632.608316	5915.355458
632.954117	5913.134830
633.299866	5915.741106
633.645562	5925.654535
633.991206	5886.494852
634.336797	5853.790367
634.682336	5840.557338
635.027823	5825.539741
635.373257	5829.020657
635.718639	5792.638650
636.063968	5820.748124
636.409245	5748.793214
636.754470	5761.474237
637.099642	5739.704014
637.444762	5710.326690
637.789829	5732.351491
638.134845	5693.650553
638.479808	5697.685997
638.824719	5709.797369
639.169577	5664.510163
639.514383	5692.811201
639.859137	5645.414272
640.203839	5663.443959
640.548489	5665.820863
640.893086	5646.135157
641.237632	5639.725330
641.582125	5664.610986
641.926566	5648.678420
642.270955	5669.682387
642.615292	5676.770249
642.959576	5702.787644
643.303809	5694.389082
643.647990	5711.791145
643.992118	5711.166042
644.336195	5674.655485
644.680219	5710.646803
645.024192	5702.898550
645.368112	5789.745028
645.711981	5821.647970
646.055797	5887.243464
646.399562	5858.516448
646.743274	5972.605322
647.086935	6019.218351
647.430544	6023.112642
647.774101	6048.646086
648.117606	6061.256533
648.461059	6062.910031
648.804460	6043.562083
649.147810	5971.786134
649.491108	5957.985976
649.834354	5940.946876
650.177548	5877.148553
650.520690	5812.457946
650.863781	5803.245238
651.206820	5825.103681
651.549807	5768.849445
651.892742	5721.712136
652.235626	5733.339557
652.578458	5729.775462
652.921238	5648.063399
653.263967	5696.009813
653.606644	5640.143746
653.949269	5653.901055
654.291843	5607.245176
654.634365	5652.134131
654.976836	5618.812104
655.319255	5620.488287
655.661622	5611.565445
656.003938	5612.102328
656.346203	5577.399025
656.688416	5618.058451
657.030577	5577.126802
657.372687	5552.510848
657.714746	5547.124375
658.056753	5589.954018
658.398708	5543.386360
658.740612	5536.724475
659.082465	5586.306744
659.424266	5581.235343
659.766016	5586.369758
660.107715	5572.224280
660.449362	5579.808696
660.790958	5581.656279
661.132503	5572.017593
661.473996	5613.208861
661.815438	5604.089414
662.156829	5603.340802
662.498168	5599.882571
662.839456	5583.279531
663.180693	5622.880315
663.521879	5623.709585
663.863013	5618.454182
664.204097	5638.616277
664.545129	5677.644890
664.886110	5679.878121
665.227040	5713.800045
665.567918	5681.559346
665.908746	5713.613522
666.249522	5713.593358
666.590248	5704.995670
666.930922	5734.060442
667.271545	5747.777422
667.612118	5756.798567
667.952639	5735.073714
668.293109	5758.847796
668.633528	5719.683072
668.973896	5727.156582
669.314213	5724.386468
669.654480	5710.843408
669.994695	5706.255958
670.334859	5697.784299
670.674973	5692.849010
671.015035	5703.327048
671.355047	5700.393096
671.695008	5691.283731
672.034918	5666.755997
672.374777	5683.480025
672.714585	5664.961347
673.054342	5670.801523
673.394049	5668.051574
673.733705	5700.209094
674.073310	5689.305078
674.412864	5649.757227
674.752368	5645.845291
675.091820	5656.013298
675.431223	5593.891160
675.770574	5597.813177
676.109875	5548.034304
676.449125	5560.400254
676.788324	5532.278177
677.127473	5478.153829
677.466571	5471.355833
677.805619	5465.997087
678.144616	5452.207010
678.483562	5433.814360
678.822458	5404.331172
679.161303	5398.100306
679.500098	5387.917175
679.838842	5379.148088
680.177535	5383.944746
680.516179	5399.446294
680.854771	5407.058436
681.193314	5490.381148
681.531805	5598.687817
681.870247	5741.002111
682.208638	5839.763356
682.546978	5855.779102
682.885268	5833.950906
683.223508	5752.445530
683.561697	5702.969126
683.899836	5675.131874
684.237925	5631.362056
684.575963	5595.771510
684.913951	5559.029060
685.251889	5620.216065
685.589776	5589.591055
685.927614	5560.332198
686.265401	5632.831552
686.603137	5617.851764
686.940824	5692.564184
687.278460	5718.384974
687.616046	5723.010233
687.953582	5787.416015
688.291068	5770.092089
688.628504	5835.516184
688.965889	5794.619823
689.303224	5744.861114
689.640510	5703.642120
689.977745	5628.899452
690.314930	5534.319845
690.652065	5478.161391
690.989150	5392.696189
691.326185	5318.550898
691.663170	5268.832518
692.000105	5192.088513
692.336990	5119.997492
692.673825	5095.537814
693.010610	5031.212691
693.347345	4964.127536
693.684030	4949.180515
694.020665	4907.225512
694.357251	4821.427594
694.693786	4834.441333
695.030272	4803.428154
695.366707	4766.302577
695.703093	4734.939038
696.039429	4756.527779
696.375716	4739.012290
696.711952	4717.592428
697.048139	4703.706569
697.384276	4683.385678
697.720363	4697.475703
698.056400	4702.715983
698.392388	4657.002800
698.728326	4637.606960
699.064214	4615.947643
699.400053	4609.898258
699.735842	4578.297785
700.071581	4553.533117
700.407270	4530.200136
700.742910	4517.496429
701.078501	4461.756391
701.414042	4460.357470
701.749533	4431.970733
702.084974	4366.584447
702.420366	4421.928755
702.755709	4361.147563
703.091002	4310.655366
703.426246	4360.177141
703.761440	4313.758196
704.096584	4281.225110
704.431679	4299.801762
704.766725	4285.810039
705.101721	4275.732773
705.436668	4302.647493
705.771565	4252.503136
706.106413	4273.542391
706.441212	4309.667300
706.775961	4319.810101
707.110661	4294.221204
707.445311	4327.346626
707.779913	4351.924772
708.114465	4359.181513
708.448967	4384.283938
708.783421	4443.215027
709.117825	4481.210203
709.452180	4491.073221
709.786485	4538.823030
710.120742	4622.753200
710.454949	4604.466415
710.789107	4668.262217
711.123216	4743.077981
711.457275	4731.299325
711.791286	4803.481086
712.125247	4823.456658
712.459159	4723.856061
712.793023	4800.844563
713.126837	4762.786372
713.460602	4752.706585
713.794318	4676.171787
714.127985	4682.427859
714.461602	4599.362247
714.795171	4565.566351
715.128691	4504.858256
715.462162	4450.764155
715.795584	4402.215322
716.128957	4381.397878
716.462281	4335.173018
716.795556	4305.258811
717.128782	4269.945528
717.461960	4207.364644
717.795088	4213.192218
718.128167	4174.476156
718.461198	4116.447434
718.794180	4110.619861
719.127113	4092.943055
719.459997	4069.287440
719.792833	4027.072818
720.125619	4017.139224
720.458357	3980.409377
720.791046	3987.880367
721.123686	3961.802478
721.456278	3923.940892
721.788821	3938.207358
722.121315	3912.598296
722.453761	3887.909245
722.786158	3900.255031
723.118506	3920.094492
723.450805	3873.705794
723.783056	3896.632962
724.115259	3910.337339
724.447412	3916.777413
724.779518	3907.710898
725.111574	3916.512752
725.443582	3945.060807
725.775542	3929.458435
726.107453	3982.284687
726.439315	3981.248729
726.771129	3992.281295
727.102895	4032.822254
727.434612	4080.793874
727.766281	4087.314606
728.097901	4086.981890
728.429473	4093.023713
728.760996	4102.352368
729.092471	4097.215433
729.423897	4079.939398
729.755276	4089.386521
730.086606	4085.872836
730.417887	4123.628558
730.749120	4187.815049
731.080305	4249.755707
731.411442	4276.211682
731.742530	4245.064913
732.073570	4250.395933
732.404562	4305.941887
732.735506	4295.373108
733.066401	4258.222325
733.397249	4192.450390
733.728048	4118.252167
734.058798	4035.216802
734.389501	3966.747850
734.720156	3906.649735
735.050762	3864.838405
735.381320	3857.024616
735.711831	3804.810865
736.042293	3776.857667
736.372707	3800.107469
736.703073	3770.049589
737.033391	3761.179679
737.363661	3777.674334
737.693883	3804.904127
738.024056	3814.116835
738.354182	3811.878563
738.684260	3876.488511
739.014290	3890.810429
739.344272	3886.986714
739.674207	3929.329886
740.004093	3932.687294
740.333931	3930.292746
740.663722	3933.667799
740.993464	3931.863066
741.323159	3903.274682
741.652806	3871.681771
741.982405	3847.292669
742.311956	3815.490550
742.641460	3810.696413
742.970915	3785.294038
743.300323	3745.015219
743.629683	3708.628171
743.958996	3698.908826
744.288260	3675.192718
744.617477	3643.055362
744.946647	3626.248155
745.275768	3603.099177
745.604842	3601.622118
745.933869	3555.994635
746.262847	3545.199004
746.591778	3586.221393
746.920662	3555.112433
747.249498	3523.902650
747.578286	3570.903847
747.907027	3588.779779
748.235720	3584.066300
748.564365	3606.585134
748.892963	3610.968418
749.221514	3592.427054
749.550017	3569.346131
749.878473	3566.850760
750.206881	3537.319681
750.535242	3534.700801
750.863555	3535.356151
751.191821	3530.410779
751.520039	3512.310516
751.848210	3488.909480
752.176334	3525.699821
752.504411	3532.805327
752.832440	3490.842763
753.160421	3473.753251
753.488356	3484.105261
753.816243	3495.485665
754.144082	3453.437401
754.471875	3439.692695
754.799620	3458.647434
755.127318	3447.123356
755.454969	3450.485806
755.782572	3456.477217
756.110129	3429.070984
756.437638	3422.749377
756.765100	3433.847477
757.092515	3443.090433
757.419882	3451.080662
757.747203	3426.651230
758.074477	3428.818926
758.401703	3443.992799
758.728882	3464.757312
759.056014	3467.711428
759.383099	3473.629743
759.710138	3469.702684
760.037129	3485.562154
760.364073	3519.776465
760.690970	3504.174094
761.017820	3478.068479
761.344623	3496.871983
761.671379	3544.238664
761.998088	3591.557455
762.324751	3719.406158
762.651366	3963.899598
762.977935	4428.646092
763.304456	4865.167165
763.630931	4950.821410
763.957359	4593.257409
764.283740	4260.410185
764.610074	4072.113007
764.936362	3876.402812
765.262602	3724.585943
765.588796	3613.897328
765.914943	3527.199564
766.241044	3440.370730
766.567097	3411.484919
766.893104	3366.558156
767.219064	3334.294771
767.544978	3311.236533
767.870845	3252.663367
768.196665	3236.826582
768.522438	3244.978128
768.848165	3240.637694
769.173846	3203.242415
769.499479	3188.345806
769.825066	3172.448527
770.150607	3155.747184
770.476101	3171.654545
770.801548	3163.621467
771.126949	3117.663787
771.452303	3103.984617
771.777611	3110.422170
772.102872	3117.094137
772.428087	3090.600353
772.753256	3082.292532
773.078378	3074.950091
773.403453	3041.176881
773.728482	3027.475025
774.053465	3049.787172
774.378401	3036.891900
774.703291	3006.927282
775.028135	3008.913496
775.352932	3000.003257
775.677683	2993.570744
776.002388	2989.376504
776.327046	2988.033037
776.651658	2978.348980
776.976224	2965.486476
777.300743	2966.988740
777.625216	2958.270065
777.949643	2953.496092
778.274024	2955.222687
778.598359	2943.784309
778.922647	2953.097841
779.246889	2947.648353
779.571086	2934.279213
779.895236	2926.687236
780.219339	2939.879935
780.543397	2949.906790
780.867409	2955.326031
781.191374	2946.148610
781.515294	2940.651232
781.839167	2946.085596
782.162995	2936.628391
782.486776	2945.765483
782.810511	2943.779268
783.134201	2929.976589
783.457844	2935.763833
783.781441	2930.218564
784.104993	2906.588155
784.428498	2908.324833
784.751958	2921.394024
785.075372	2916.753642
785.398739	2896.531053
785.722061	2918.709610
786.045337	2928.224788
786.368568	2910.739546
786.691752	2904.523803
787.014891	2952.387038
787.337983	2981.610607
787.661030	3007.733866
787.984031	3076.984197
788.306987	3119.690331
788.629897	3112.282356
788.952760	3093.438523
789.275579	3081.433015
789.598351	3020.354395
789.921078	2978.835452
790.243759	2969.589976
790.566395	2952.840742
790.888984	2929.122113
791.211529	2913.522263
791.534027	2905.075809
791.856480	2896.059706
792.178888	2879.650750
792.501249	2871.993237
792.823566	2868.716487
793.145836	2863.831609
793.468062	2862.026876
793.790241	2859.836495
794.112375	2862.967051
794.434464	2877.765358
794.756507	2882.025133
795.078505	2888.021586
795.400457	2902.855181
795.722364	2939.920265
796.044226	2960.190744
796.366042	2963.583441
796.687812	2956.084724
797.009538	2973.879998
797.331218	2960.024386
797.652852	2945.770524
797.974442	2929.941301
798.295986	2927.156063
798.617484	2921.283119
798.938938	2901.988103
799.260346	2887.951010
799.581709	2884.817933
799.903026	2879.204608
800.224299	2873.855943
800.545526	2863.566948
800.866708	2848.022551
801.187845	2839.437466
801.508936	2840.569205
801.829983	2843.702282
802.150984	2831.802638
802.471940	2820.303766
802.792851	2820.442398
803.113717	2821.453149
803.434538	2825.917091
803.755314	2819.424085
804.076045	2813.480564
804.396731	2812.021150
804.717372	2810.957467
805.037967	2812.091727
805.358518	2816.633806
805.679024	2823.920794
805.999485	2819.890392
806.319901	2826.469097
806.640272	2817.684887
806.960598	2823.532625
807.280879	2832.659634
807.601115	2839.008967
807.921306	2826.703511
808.241453	2819.610607
808.561554	2827.714262
808.881611	2831.243070
809.201623	2825.871721
809.521590	2823.635969
809.841513	2820.132367
810.161390	2825.223932
810.481223	2818.683035
810.801011	2810.458393
811.120755	2804.366158
811.440453	2806.715336
811.760107	2807.663073
812.079716	2808.101653
812.399281	2794.533388
812.718801	2790.876031
813.038276	2784.284722
813.357707	2792.743778
813.677093	2798.737710
813.996434	2794.147739
814.315731	2789.174641
814.634983	2782.429577
814.954191	2783.936882
815.273354	2797.913481
815.592473	2807.355562
815.911547	2805.984369
816.230577	2817.006852
816.549562	2824.981957
816.868502	2823.913232
817.187399	2833.675427
817.506250	2849.565144
817.825058	2843.684638
818.143821	2855.417923
818.462539	2868.668596
818.781213	2894.290261
819.099843	2932.459357
819.418429	2990.868686
819.736970	3051.859086
820.055466	3120.002883
820.373919	3225.395766
820.692327	3360.642362
821.010691	3524.142104
821.329011	3956.287456
821.647286	4840.440306
821.965517	6187.358476
822.283704	6895.872484
822.601847	6871.004472
822.919945	6247.378453
823.237999	5760.125728
823.556010	5192.895097
823.873976	4654.333509
824.191897	4256.460441
824.509775	3972.235146
824.827609	3705.394270
825.145398	3589.261209
825.463144	3583.572267
825.780845	3671.399249
826.098502	3772.665948
826.416116	4051.477044
826.733685	4359.431050
827.051210	4409.812341
827.368692	4305.949449
827.686129	4042.362637
828.003522	3725.326993
828.320872	3473.375165
828.638177	3284.566309
828.955439	3153.186278
829.272656	3071.083526
829.589830	3003.280007
829.906960	2956.898871
830.224046	2913.897828
830.541088	2880.570760
830.858086	2867.927547
831.175041	2850.157479
831.491952	2853.323324
831.808819	2862.868749
832.125642	2881.037067
832.442421	2929.898451
832.759157	3009.077334
833.075849	3186.732636
833.392497	3460.686580
833.709101	3655.285201
834.025662	3605.161008
834.342179	3446.848613
834.658653	3278.378293
834.975083	3132.363792
835.291469	3038.124462
835.607811	2955.971298
835.924110	2897.680437
836.240366	2846.802591
836.556578	2806.874132
836.872746	2786.039043
837.188871	2761.380239
837.504952	2747.703589
837.820990	2740.391395
838.136984	2724.289950
838.452935	2719.626883
838.768842	2716.942468
839.084706	2735.312433
839.400526	2815.963333
839.716303	2942.269442
840.032037	3016.233252
840.347727	3003.418638
840.663373	2944.979063
840.978977	2872.129348
841.294537	2800.809624
841.610054	2758.484097
841.925527	2733.028790
842.240957	2715.505739
842.556344	2692.394570
842.871687	2677.071983
843.186987	2667.672751
843.502244	2662.656803
843.817458	2659.984992
844.132629	2647.069555
844.447756	2639.359111
844.762840	2633.095477
845.077881	2634.907772
845.392879	2633.874335
845.707833	2631.363841
846.022745	2621.780607
846.337613	2624.495268
846.652438	2624.563324
846.967221	2622.773714
847.281960	2620.169958
847.596656	2618.619804
847.911309	2620.429578
848.225919	2616.036212
848.540485	2613.140069
848.855009	2611.776437
849.169490	2615.635441
849.483928	2613.288783
849.798323	2613.147631
850.112675	2613.084617
850.426984	2610.047322
850.741251	2610.614451
851.055474	2611.242075
851.369654	2616.295832
851.683792	2616.938579
851.997887	2608.688731
852.311938	2610.329626
852.625947	2612.681324
852.939914	2614.150821
853.253837	2616.169803
853.567718	2611.816767
853.881555	2611.559668
854.195350	2616.847838
854.509103	2614.770883
854.822812	2609.270984
855.136479	2607.667897
855.450103	2612.088989
855.763685	2615.050667
856.077224	2611.476489
856.390720	2605.628750
856.704173	2612.018413
857.017584	2614.927158
857.330953	2619.640637
857.644278	2619.295318
857.957561	2619.633076
858.270802	2614.435646
858.584000	2614.682662
858.897155	2615.816922
859.210268	2619.401182
859.523339	2614.284411
859.836367	2609.041611
860.149352	2608.915582
860.462295	2611.168978
860.775195	2607.930037
861.088054	2606.329471
861.400869	2608.509770
861.713642	2601.820158
862.026373	2607.360387
862.339062	2609.069338
862.651708	2613.689555
862.964312	2614.591922
863.276873	2613.583691
863.589392	2614.400358
863.901869	2617.954371
864.214303	2624.114661
864.526696	2626.534415
864.839045	2627.814868
865.151353	2630.632873
865.463619	2628.306381
865.775842	2630.499283
866.088023	2628.830661
866.400162	2630.892493
866.712258	2631.270579
867.024313	2629.924591
867.336325	2624.948972
867.648296	2630.607667
867.960224	2632.077164
868.272110	2632.049437
868.583954	2625.871503
868.895755	2625.485855
869.207515	2632.545991
869.519233	2636.833492
869.830909	2633.415590
870.142542	2628.273613
870.454134	2631.457102
870.765684	2636.558750
871.077191	2638.726446
871.388657	2640.480767
871.700081	2640.924389
872.011463	2639.230561
872.322803	2640.034625
872.634101	2642.771972
872.945357	2650.368991
873.256571	2655.755463
873.567744	2651.848569
873.878874	2650.200112
874.189963	2654.076759
874.501010	2658.480207
874.812015	2664.441372
875.122979	2666.001609
875.433900	2655.233704
875.744780	2654.316214
876.055618	2659.191010
876.366415	2662.276196
876.677169	2662.959272
876.987882	2657.446771
877.298554	2656.231852
877.609183	2665.487411
877.919771	2672.615602
878.230317	2677.951664
878.540822	2688.911132
878.851285	2702.829758
879.161707	2723.475804
879.472087	2762.181783
879.782425	2806.856488
880.092722	2919.445618
880.402977	3100.276848
880.713191	3348.346988
881.023363	3632.171511
881.333494	3811.442503
881.643583	3978.236640
881.953631	3976.605827
882.263637	3799.557983
882.573602	3589.178030
882.883526	3465.828557
883.193408	3354.535004
883.503248	3259.295005
883.813048	3149.223931
884.122806	3040.703012
884.432522	2957.985239
884.742197	2895.553070
885.051831	2860.257431
885.361424	2827.338696
885.670975	2794.208233
885.980485	2764.646907
886.289954	2746.811305
886.599382	2730.669530
886.908768	2719.909187
887.218113	2700.657021
887.527417	2690.307532
887.836680	2685.309228
888.145901	2680.245389
888.455082	2669.404387
888.764221	2659.155722
889.073319	2651.306645
889.382376	2653.585247
889.691392	2652.289670
890.000366	2656.370484
890.309300	2649.650626
890.618193	2653.386121
890.927044	2657.570279
891.235855	2657.832419
891.544625	2655.584064
891.853353	2656.287305
892.162041	2663.307112
892.470687	2683.675894
892.779293	2695.383974
893.087858	2703.389326
893.396381	2723.947152
893.704864	2762.948038
894.013306	2833.125941
894.321707	2918.714651
894.630068	2967.013946
894.938387	2982.896101
895.246665	2977.232365
895.554903	2936.704008
895.863100	2895.716907
896.171256	2840.095336
896.479371	2779.959412
896.787446	2743.978176
897.095480	2729.772205
897.403473	2722.936400
897.711425	2708.344780
898.019336	2690.771318
898.327207	2676.071313
898.635038	2675.478978
898.942827	2671.902279
899.250576	2663.299550
899.558284	2653.852428
899.865952	2649.343116
900.173579	2646.976294
900.481165	2644.652322
900.788711	2640.770634
901.096216	2631.515075
901.403681	2627.928294
901.711105	2630.179169
902.018489	2621.279012
902.325832	2628.384519
902.633135	2629.594396
902.940397	2645.867240
903.247619	2680.547858
903.554800	2745.901377
903.861941	2869.518031
904.169041	2988.287615
904.476101	3044.022612
904.783121	3038.008516
905.090100	2983.115391
905.397039	2910.497570
905.703938	2841.703464
906.010796	2782.769855
906.317614	2737.714543
906.624391	2699.260621
906.931129	2674.226251
907.237826	2651.505771
907.544483	2638.023205
907.851099	2625.569034
908.157675	2614.939761
908.464211	2611.000100
908.770707	2596.655496
909.077163	2596.655496
909.383578	2589.060998
909.689954	2592.254569
909.996289	2588.483786
910.302584	2586.971440
910.608839	2584.619742
910.915054	2586.915987
911.221229	2586.477407
911.527363	2591.248859
911.833458	2588.440936
912.139513	2587.140318
912.445527	2593.862697
912.751502	2595.407811
913.057436	2601.247987
913.363331	2605.243102
913.669186	2614.838938
913.975000	2630.393418
914.280775	2646.124339
914.586510	2660.045485
914.892205	2696.808100
915.197859	2760.760177
915.503475	2841.847137
915.809050	2905.489184
916.114585	2914.815318
916.420081	2923.370157
916.725536	2938.513783
917.030952	2914.046543
917.336328	2866.931919
917.641665	2821.135557
917.946961	2774.988834
918.252218	2741.339132
918.557435	2717.365925
918.862612	2695.653676
919.167750	2680.777231
919.472848	2666.054541
919.777906	2648.085348
920.082925	2636.057155
920.387904	2627.855197
920.692843	2623.706328
920.997743	2619.885133
921.302603	2612.580501
921.607423	2606.949532
921.912204	2603.226640
922.216946	2597.492328
922.521647	2598.394694
922.826310	2593.494693
923.130932	2588.947572
923.435516	2580.249061
923.740059	2582.510019
924.044564	2581.768969
924.349028	2581.448856
924.653454	2571.711867
924.957840	2569.518965
925.262186	2567.759603
925.566493	2570.179356
925.870761	2564.825651
926.174989	2564.860939
926.479178	2565.034859
926.783328	2562.378171
927.087438	2560.510423
927.391509	2562.065619
927.695541	2561.269117
927.999533	2557.861297
928.303486	2555.703683
928.607400	2556.588406
928.911275	2555.552448
929.215110	2556.348951
929.518906	2555.544887
929.822663	2555.602860
930.126381	2555.812068
930.430060	2555.693601
930.733699	2556.984136
931.037299	2555.935576
931.340861	2558.027655
931.644383	2555.859959
931.947866	2556.764846
932.251309	2556.590926
932.554714	2554.796275
932.858080	2558.415824
933.161407	2555.625545
933.464694	2556.648899
933.767943	2553.687222
934.071153	2554.730740
934.374323	2554.907181
934.677455	2556.059084
934.980548	2551.932900
935.283602	2553.861141
935.586617	2552.230328
935.889593	2556.459856
936.192530	2553.808209
936.495428	2554.594629
936.798287	2553.709907
937.101108	2554.612273
937.403890	2558.647717
937.706632	2562.516802
938.009336	2566.083419
938.312002	2567.505024
938.614628	2572.583987
938.917216	2573.781261
939.219765	2573.377968
939.522275	2575.800243
939.824747	2574.544996
940.127179	2570.582649
940.429573	2568.956877
940.731929	2570.754048
941.034246	2565.198696
941.336524	2566.660631
941.638763	2565.589386
941.940964	2564.992009
942.243126	2564.397153
942.545250	2561.324570
942.847335	2560.994374
943.149381	2561.385063
943.451389	2559.552604
943.753359	2558.282233
944.055290	2558.909857
944.357182	2557.856256
944.659036	2557.026986
944.960851	2555.849877
945.262628	2557.331976
945.564367	2556.601008
945.866067	2556.222922
946.167729	2555.461708
946.469352	2555.907850
946.770937	2558.877089
947.072484	2556.064126
947.373992	2558.057902
947.675462	2554.030020
947.976893	2556.401883
948.278286	2552.137067
948.579641	2554.856769
948.880958	2554.922304
949.182236	2552.845349
949.483476	2554.866852
949.784678	2553.745195
950.085841	2554.839125
950.386967	2555.804506
950.688054	2553.198230
950.989103	2555.701162
951.290114	2553.374670
951.591087	2559.282902
951.892021	2557.074877
952.192917	2557.153015
952.493776	2559.887841
952.794596	2563.925805
953.095378	2561.024621
953.396122	2560.409600
953.696828	2560.011349
953.997496	2561.160732
954.298126	2556.411965
954.598718	2555.829712
954.899272	2553.921635
955.199788	2554.967675
955.500266	2552.061449
955.800706	2549.838301
956.101108	2544.724050
956.401472	2547.524411
956.701798	2542.619368
957.002087	2544.250182
957.302337	2545.427291
957.602550	2547.965512
957.902724	2545.127342
958.202861	2544.764379
958.502960	2546.062476
958.803022	2544.661036
959.103045	2542.556354
959.403031	2541.230530
959.702979	2545.520552
960.002889	2544.202291
960.302762	2539.826569
960.602596	2541.926210
960.902393	2542.042156
961.202153	2542.200952
961.501875	2542.183308
961.801559	2542.558874
962.101205	2541.217927
962.400814	2541.870757
962.700385	2544.189688
962.999918	2541.028884
963.299414	2539.874460
963.598873	2540.776827
963.898293	2540.917979
964.197677	2544.091385
964.497022	2539.577032
964.796331	2541.837989
965.095601	2540.708771
965.394835	2539.191384
965.694030	2539.632485
965.993189	2539.292207
966.292309	2539.009902
966.591393	2542.881508
966.890439	2538.339429
967.189447	2541.578370
967.488419	2540.633154
967.787353	2540.670962
968.086249	2540.822197
968.385108	2539.725746
968.683930	2541.724563
968.982714	2540.670962
969.281462	2539.594676
969.580172	2539.962680
969.878844	2540.166847
970.177480	2541.588452
970.476078	2540.933102
970.774639	2543.456200
971.073162	2537.313554
971.371649	2537.421939
971.670098	2535.644932
971.968510	2536.801877
972.266885	2536.711136
972.565223	2541.129707
972.863524	2542.919317
973.161788	2542.639533
973.460014	2540.247505
973.758204	2543.158772
974.056356	2541.820345
974.354471	2541.777496
974.652550	2541.492670
974.950591	2541.906045
975.248595	2541.774975
975.546563	2543.136087
975.844493	2541.840510
976.142386	2540.789429
976.440243	2538.220962
976.738062	2544.141797
977.035845	2539.695499
977.333590	2540.118956
977.631299	2541.255736
977.928971	2539.791281
978.226606	2541.999306
978.524204	2542.669780
978.821765	2541.028884
979.119290	2538.841023
979.416777	2539.246836
979.714228	2540.126518
980.011642	2540.691127
980.309020	2540.774306
980.606360	2540.688606
980.903664	2539.836651
981.200931	2542.725233
981.498162	2539.899666
981.795356	2542.387475
982.092513	2544.623227
982.389633	2549.180430
982.686717	2549.429967
982.983764	2551.892571
983.280775	2553.810730
983.577749	2552.568085
983.874686	2554.461039
984.171587	2549.132539
984.468451	2549.830739
984.765279	2549.210677
985.062070	2542.705068
985.358824	2545.669266
985.655543	2540.945705
985.952224	2540.993596
986.248869	2541.780016
986.545478	2536.658204
986.842050	2536.950591
987.138586	2533.958666
987.435086	2533.363810
987.731549	2533.704088
988.027975	2540.844882
988.324366	2538.946888
988.620719	2537.724408
988.917037	2537.999151
989.213318	2537.353883
989.509563	2538.316743
989.805772	2536.554860
990.101944	2537.623585
990.398080	2535.909592
990.694180	2537.464788
990.990244	2539.214069
991.286271	2538.122659
991.582262	2535.302133
991.878217	2537.966383
992.174136	2538.173071
992.470019	2537.033770
992.765865	2538.299099
993.061676	2534.170394
993.357450	2539.980324
993.653188	2537.053934
993.948890	2536.817000
994.244556	2538.024357
994.540186	2539.602238
994.835780	2539.897145
995.131337	2538.168029
995.426859	2538.611651
995.722345	2538.674665
996.017795	2539.428318
996.313208	2543.239430
996.608586	2539.730787
996.903928	2542.805891
997.199234	2537.880684
997.494504	2539.191384
997.789738	2541.291024
998.084936	2541.195242
998.380099	2540.416384
998.675225	2538.099974
998.970316	2538.944367
999.265371	2537.222813
999.560390	2539.698020
999.855373	2541.948895
1000.150320	2537.903369
1000.445232	2534.883718
1000.740108	2532.605116
1001.034948	2536.191897
1001.329752	2534.470343
1001.624521	2537.079140
1001.919254	2531.639735
1002.213951	2536.171733
1002.508613	2534.566125
1002.803239	2533.205013
1003.097829	2532.249715
1003.392384	2535.468492
1003.686903	2533.119314
1003.981386	2534.288862
1004.275834	2535.082843
1004.570246	2537.981507
1004.864623	2536.854809
1005.158964	2535.851619
1005.453270	2535.027391
1005.747540	2537.129552
1006.041775	2535.629808
1006.335974	2538.714995
1006.630138	2535.518903
1006.924266	2537.994110
1007.218359	2535.103008
1007.512416	2536.363296
1007.806438	2536.496887
1008.100425	2535.223996
1008.394376	2535.377751
1008.688292	2536.196938
1008.982172	2535.007226
1009.276017	2537.270704
1009.569827	2534.067051
1009.863602	2537.137113
1010.157341	2536.083512
1010.451045	2535.203831
1010.744714	2533.802390
1011.038347	2532.940353
1011.331945	2537.500077
1011.625508	2534.976979
1011.919036	2535.564273
1012.212528	2535.980169
1012.505986	2535.725590
1012.799408	2538.193235
1013.092795	2533.963707
1013.386147	2534.848430
1013.679464	2534.719880
1013.972745	2533.424304
1014.265992	2533.472195
1014.559204	2536.980838
1014.852380	2536.096115
1015.145521	2535.314736
1015.438628	2535.902031
1015.731699	2537.421939
1016.024736	2537.421939
1016.317737	2536.948070
1016.610703	2536.690971
1016.903635	2531.584283
1017.196531	2534.583769
1017.489393	2535.602082
1017.782219	2533.061341
1018.075011	2534.873635
1018.367768	2534.936650
1018.660490	2536.948070
1018.953177	2536.948070
1019.245829	2536.948070
