Dividing Wavelength (nm)	Counts (n)	Blue Motor Position (mm): 30.000000	Red Motor Position (mm): 0.000000	
326.493990	2127.808024
326.888308	2127.808024
327.282561	2127.808024
327.676750	2097.326687
328.070874	2095.935329
328.464933	2101.783067
328.858929	2105.213573
329.252859	2116.548607
329.646726	2127.402211
330.040528	2139.269087
330.434265	2157.318939
330.827938	2173.924499
331.221547	2195.034331
331.615091	2209.835159
332.008571	2231.945660
332.401986	2252.387538
332.795338	2267.395053
333.188625	2289.800462
333.581847	2308.266208
333.975006	2328.219095
334.368100	2344.227279
334.761129	2364.275948
335.154095	2379.520397
335.546996	2395.657131
335.939833	2423.217119
336.332606	2439.578184
336.725315	2451.268619
337.117960	2460.279682
337.510540	2467.657411
337.903056	2479.219297
338.295508	2486.539052
338.687896	2496.386946
339.080220	2505.123266
339.472480	2510.829852
339.864676	2515.293794
340.256807	2521.154135
340.648875	2521.254958
341.040879	2528.778880
341.432818	2528.526823
341.824694	2529.446833
342.216506	2527.929446
342.608253	2529.739220
342.999937	2529.840043
343.391557	2527.339631
343.783113	2528.478932
344.174605	2526.258303
344.566033	2523.510875
344.957397	2525.237470
345.348697	2521.844773
345.739934	2519.185565
346.131106	2517.179185
346.522215	2516.612056
346.913260	2515.485358
347.304241	2512.344719
347.695159	2510.492095
348.086012	2509.579646
348.476802	2507.326250
348.867528	2506.476816
349.258191	2504.914058
349.648789	2504.742659
350.039324	2500.611433
350.429796	2499.903151
350.820203	2500.349293
351.210548	2499.159581
351.600828	2494.826709
351.991045	2495.613129
352.381198	2497.916937
352.771288	2498.211844
353.161314	2496.306288
353.551276	2493.828561
353.941175	2494.990547
354.331010	2493.763026
354.720782	2495.701349
355.110490	2495.482059
355.500135	2493.052223
355.889717	2496.349138
356.279235	2493.808396
356.668689	2495.398880
357.058080	2496.749909
357.447408	2494.557007
357.836672	2494.839312
358.225873	2495.373674
358.615010	2493.160608
359.004084	2498.017760
359.393095	2498.025321
359.782043	2500.422390
360.170927	2499.726711
360.559748	2500.601351
360.948505	2500.707215
361.337199	2502.335508
361.725830	2502.068327
362.114398	2502.539675
362.502903	2503.225272
362.891344	2503.454644
363.279722	2504.215858
363.668037	2505.123266
364.056289	2504.167967
364.444478	2505.960098
364.832603	2504.667042
365.220665	2505.435818
365.608665	2505.541682
365.996601	2506.091167
366.384474	2505.408091
366.772284	2507.606034
367.160031	2506.023112
367.547715	2507.885818
367.935336	2507.222907
368.322893	2511.550737
368.710388	2509.234327
369.097820	2511.442352
369.485189	2507.154851
369.872495	2509.987979
370.259738	2505.831548
370.646918	2511.601149
371.034035	2509.720798
371.421090	2512.858917
371.808081	2510.623165
372.195010	2509.957733
372.581875	2510.850017
372.968678	2510.731550
373.355418	2507.169974
373.742096	2511.540655
374.128710	2514.093999
374.515262	2512.659791
374.901751	2509.922444
375.288177	2513.405882
375.674540	2511.424708
376.060841	2509.594769
376.447079	2515.006448
376.833254	2515.392096
377.219367	2511.636437
377.605417	2512.753052
377.991404	2511.628875
378.377329	2510.623165
378.763191	2510.207270
379.148991	2516.785975
379.534727	2513.035357
379.920402	2516.619617
380.306013	2515.596263
380.691563	2516.801099
381.077049	2516.566685
381.462474	2517.398476
381.847835	2515.560975
382.233134	2518.313445
382.618371	2517.900070
383.003545	2517.577437
383.388657	2517.209432
383.773706	2517.388393
384.158693	2517.975688
384.543618	2519.230935
384.928480	2520.644979
385.313280	2519.603980
385.698017	2520.370236
386.082692	2521.751512
386.467305	2518.658764
386.851856	2521.232273
387.236344	2520.849145
387.620770	2519.987108
388.005133	2522.968951
388.389435	2524.287212
388.773674	2521.640607
389.157851	2521.065915
389.541965	2520.902077
389.926018	2522.253107
390.310008	2523.954496
390.693936	2522.490041
391.077802	2525.222346
391.461606	2524.720752
391.845348	2522.936183
392.229027	2523.578930
392.612645	2523.984743
392.996200	2521.438960
393.379694	2522.059022
393.763125	2526.328880
394.146494	2525.678571
394.529801	2524.173786
394.913047	2525.282840
395.296230	2526.681760
395.679351	2526.172604
396.062410	2525.731503
396.445408	2527.889117
396.828343	2527.195958
397.211217	2521.892664
397.594028	2525.761750
397.976778	2523.513395
398.359466	2524.042716
398.742092	2523.692356
399.124656	2528.617563
399.507158	2524.650175
399.889598	2529.474560
400.271977	2526.543129
400.654294	2529.232584
401.036549	2527.921884
401.418742	2528.758716
401.800874	2526.986750
402.182944	2529.550177
402.564952	2529.635877
402.946898	2530.596216
403.328783	2529.048582
403.710606	2527.125382
404.092367	2532.153933
404.474067	2529.086391
404.855705	2530.061854
405.237282	2530.447502
405.618797	2530.298788
406.000250	2532.877338
406.381642	2532.128727
406.762972	2530.908768
407.144240	2535.788605
407.525447	2534.437576
407.906593	2535.491177
408.287677	2534.964376
408.668700	2534.049407
409.049661	2536.517052
409.430560	2534.707277
409.811399	2534.140148
410.192176	2534.109901
410.572891	2537.449665
410.953545	2535.402957
411.334138	2535.549150
411.714669	2535.607123
412.095139	2537.132072
412.475547	2537.807587
412.855894	2534.810621
413.236180	2539.458565
413.616405	2540.305479
413.996568	2540.512166
414.376670	2538.788091
414.756711	2535.581917
415.136691	2541.311189
415.516609	2536.963194
415.896466	2539.335057
416.276262	2541.759852
416.655997	2537.220292
417.035670	2537.842875
417.415283	2538.278935
417.794834	2534.737524
418.174324	2542.228679
418.553753	2541.500232
418.933121	2538.367155
419.312428	2543.017619
419.691674	2543.350336
420.070859	2544.217414
420.449983	2545.661705
420.829045	2544.739173
421.208047	2544.774462
421.586988	2547.100954
421.965867	2546.354863
422.344686	2548.288146
422.723444	2546.584236
423.102141	2553.929197
423.480777	2553.840977
423.859352	2554.841646
424.237866	2562.521844
424.616319	2562.882286
424.994712	2568.190621
425.373044	2570.801939
425.751314	2580.725450
426.129524	2581.446335
426.507673	2591.536205
426.885762	2597.847729
427.263789	2605.036415
427.641756	2610.972373
428.019662	2621.047119
428.397508	2628.727317
428.775292	2641.214255
429.153016	2652.329999
429.530679	2666.692247
429.908282	2677.480316
430.285824	2682.274453
430.663305	2711.576160
431.040726	2711.084647
431.418086	2725.068808
431.795385	2749.105030
432.172624	2764.664551
432.549802	2781.504526
432.926920	2799.516568
433.303977	2823.378870
433.680974	2842.598269
434.057910	2867.869573
434.434786	2889.002090
434.811601	2910.822725
435.188355	2958.086063
435.565050	2969.317753
435.941683	2996.116527
436.318257	3055.029972
436.694770	3079.759352
437.071222	3115.816205
437.447614	3137.223464
437.823946	3151.104282
438.200218	3213.760783
438.576429	3224.765622
438.952580	3281.954991
439.328670	3331.229750
439.704700	3349.161134
440.080670	3379.022409
440.456580	3490.315962
440.832429	3508.154085
441.208218	3507.786081
441.583947	3589.664502
441.959616	3633.255359
442.335224	3659.580264
442.710773	3744.359869
443.086261	3806.905465
443.461689	3777.230713
443.837057	3881.154099
444.212365	3993.579392
444.587612	3994.149042
444.962800	4106.997792
445.337927	4154.039319
445.712995	4036.560269
446.088002	4343.001929
446.462949	4322.376048
446.837837	4344.534440
447.212664	4468.602277
447.587431	4611.138382
447.962139	4948.865443
448.336786	5487.487525
448.711374	5413.173356
449.085901	4981.239733
449.460369	4999.375284
449.834776	5018.118294
450.209124	5308.703004
450.583412	5467.453980
450.957640	5601.742757
451.331808	5520.842320
451.705917	5293.372855
452.079965	5294.928051
452.453954	5493.088247
452.827883	5456.517197
453.201752	5577.094035
453.575562	5483.323532
453.949311	5678.995919
454.323001	5638.195340
454.696632	5737.914404
455.070202	5896.108333
455.443713	6051.199431
455.817164	6177.122413
456.190556	6291.387726
456.563888	6394.867491
456.937160	6468.932124
457.310373	6241.059367
457.683526	6301.832997
458.056619	6252.623774
458.429653	6282.961438
458.802628	6257.622078
459.175542	6381.526078
459.548398	6726.610703
459.921194	6888.943418
460.293930	6919.578510
460.666607	7409.061946
461.039224	7717.822536
461.411782	7863.426183
461.784280	7925.747447
462.156719	7864.661266
462.529099	7786.029348
462.901419	7444.728109
463.273680	7373.645319
463.645882	7408.991369
464.018024	7310.966133
464.390106	7488.233267
464.762130	7872.570836
465.134094	8333.770878
465.505999	9309.975197
465.877845	10481.335184
466.249631	11135.276181
466.621358	10808.682509
466.993026	10235.548687
467.364634	10012.810345
467.736184	9676.552781
468.107674	9373.634887
468.479105	9418.165920
468.850477	9198.588382
469.221790	8989.433429
469.593043	8678.333743
469.964238	8557.199858
470.335373	8571.927588
470.706449	8635.718349
471.077467	8627.090414
471.448425	9925.323641
471.819324	10992.987093
472.190164	11003.437405
472.560945	9782.346436
472.931667	9009.787088
473.302330	8882.724805
473.672934	8530.307822
474.043479	8889.774859
474.413965	8833.981889
474.784393	8720.165238
475.154761	8878.898570
475.525070	8965.992064
475.895321	8800.324625
476.265513	8981.085279
476.635645	9145.021081
477.005719	9146.687182
477.375734	9256.516281
477.745691	9495.086366
478.115588	9634.827151
478.485427	9881.097598
478.855207	10414.688609
479.224928	11221.860519
479.594591	11842.000580
479.964194	11658.328660
480.333739	11596.728281
480.703226	11522.409070
481.072653	11612.076074
481.442022	11843.389418
481.811333	12037.194057
482.180584	11841.612411
482.549777	11549.969058
482.918912	11381.042514
483.287988	11398.600852
483.657005	11415.826475
484.025964	11101.392066
484.394864	11229.828063
484.763706	11198.139370
485.132489	10952.456217
485.501213	10916.807697
485.869879	11001.186530
486.238487	10841.394556
486.607036	10951.410177
486.975527	10735.152239
487.343959	10922.247102
487.712333	10973.497993
488.080648	10895.090406
488.448905	10941.952973
488.817104	10881.791843
489.185244	11147.382512
489.553326	11303.121399
489.921350	11847.414779
490.289315	12896.075603
490.657222	13234.883991
491.025070	13135.553095
491.392861	13017.882482
491.760593	12638.054225
492.128267	12292.231071
492.495883	11968.062194
492.863440	11633.339661
493.230939	11299.075873
493.598380	11229.956612
493.965763	11100.368712
494.333088	11000.715182
494.700354	10916.437172
495.067563	10983.219858
495.434713	10812.486059
495.801805	10940.672519
496.168839	10864.717454
496.535815	10799.880654
496.902733	10800.951899
497.269593	10737.357744
497.636395	10834.231077
498.003139	10827.743112
498.369825	10696.852073
498.736453	10849.493170
499.103023	10778.422983
499.469535	10806.547580
499.835989	10794.131218
500.202385	10759.926989
500.568723	10614.381316
500.935003	10828.738739
501.301226	10640.844853
501.667390	10899.700542
502.033497	10994.297793
502.399546	10855.303100
502.765537	10764.663153
503.131470	10833.613535
503.497345	11011.223468
503.863163	10619.848447
504.228923	10931.858062
504.594625	10996.583957
504.960269	10740.838660
505.325856	10964.005500
505.691385	10752.700495
506.056856	10907.884855
506.422270	10936.188413
506.787625	10825.925776
507.152924	10940.828795
507.518164	10922.410940
507.883347	10844.530154
508.248472	10760.307597
508.613540	11002.275419
508.978550	10888.771320
509.343503	10857.672442
509.708398	10977.893879
510.073236	11080.584703
510.438016	11089.946126
510.802738	11045.873838
511.167403	11098.405182
511.532010	10993.876857
511.896561	11223.713143
512.261053	11286.041969
512.625488	11167.920173
512.989866	11151.039869
513.354186	11134.925821
513.718449	11037.331603
514.082655	11230.337219
514.446803	11122.196908
514.810894	11241.780639
515.174927	11112.074271
515.538904	11135.954217
515.902822	11283.405446
516.266684	11171.305308
516.630488	11111.960845
516.994235	11173.858652
517.357925	11229.321427
517.721558	11320.604120
518.085133	11338.021307
518.448651	11351.027484
518.812112	11235.431305
519.175516	11246.446227
519.538863	11363.199350
519.902152	11280.970569
520.265385	11442.194230
520.628560	11352.963287
520.991678	11329.413537
521.354739	11397.864844
521.717743	11327.122332
522.080690	11307.308077
522.443580	11445.344952
522.806413	11396.062632
523.169189	11428.928434
523.531908	11488.366158
523.894569	11310.791514
524.257174	11309.856380
524.619722	11423.131107
524.982213	11384.203317
525.344647	11429.886253
525.707025	11376.276103
526.069345	11464.650050
526.431608	11391.195397
526.793815	11499.716316
527.155964	11286.964501
527.518057	11342.815444
527.880093	11286.420056
528.242072	11353.943791
528.603995	11259.888463
528.965860	11180.928871
529.327669	11236.784855
529.689421	11179.550115
530.051117	11154.888790
530.412755	11262.530028
530.774337	11147.712708
531.135862	11126.983483
531.497331	11150.573563
531.858743	11004.990081
532.220098	11173.999805
532.581396	11039.348065
532.942638	11025.444563
533.303824	10990.325364
533.664953	11005.068219
534.026025	10917.621843
534.387040	11016.448623
534.747999	11018.598676
535.108902	11079.251318
535.469748	10830.132618
535.830537	10940.135637
536.191270	10912.956256
536.551947	10938.779566
536.912567	10939.122365
537.273131	10865.957578
537.633638	10846.019815
537.994089	10832.645634
538.354483	10780.084043
538.714821	10925.796074
539.075103	10934.794534
539.435328	10900.343289
539.795497	10727.966074
540.155609	10886.475074
540.515665	10969.447426
540.875665	10707.554442
541.235609	10772.411407
541.595496	10769.230439
541.955328	10924.974366
542.315102	10806.313167
542.674821	10758.265929
543.034483	10756.960270
543.394090	10762.687021
543.753640	10693.328306
544.113134	10905.959134
544.472571	10766.301528
544.831953	10906.622046
545.191278	10718.929806
545.550548	10743.936449
545.909761	10876.851512
546.268918	10852.996772
546.628019	10942.257962
546.987064	10804.216047
547.346053	10728.172761
547.704986	10829.366363
548.063863	10818.437142
548.422684	10803.409462
548.781449	10719.912831
549.140158	10826.354274
549.498811	10700.063288
549.857408	10562.134798
550.215949	10785.462954
550.574434	10639.637497
550.932864	10740.821016
551.291237	10800.994749
551.649555	10741.340255
552.007817	10755.889025
552.366022	10718.289579
552.724173	10712.232633
553.082267	10696.882319
553.440305	10829.646147
553.798288	10639.942487
554.156215	10786.997986
554.514086	10764.146435
554.871902	10613.093301
555.229661	10654.755917
555.587365	10630.235745
555.945014	10519.158961
556.302606	10641.122117
556.660143	10539.066478
557.017625	10689.497029
557.375050	10591.401216
557.732421	10727.121681
558.089735	10643.541871
558.446994	10640.023145
558.804197	10674.297950
559.161345	10681.247181
559.518437	10528.401917
559.875474	10618.419280
560.232455	10645.954063
560.589381	10601.309604
560.946251	10590.299724
561.303065	10696.983143
561.659825	10640.166818
562.016528	10563.904243
562.373177	10444.993506
562.729770	10558.449714
563.086307	10469.985026
563.442789	10570.026724
563.799216	10442.722466
564.155587	10499.248924
564.511904	10446.369741
564.868164	10441.457136
565.224370	10460.227873
565.580520	10374.770233
565.936615	10386.869002
566.292654	10256.736657
566.648638	10386.624506
567.004567	10343.568011
567.360441	10333.750364
567.716260	10236.912319
568.072023	10330.140898
568.427732	10281.324884
568.783385	10190.969763
569.138982	10259.602552
569.494525	10277.002095
569.850013	10154.769238
570.205445	10233.706145
570.560823	10136.671495
570.916145	10057.391789
571.271412	10122.256316
571.626625	10064.560310
571.981782	10042.028873
572.336884	10015.525007
572.691931	10023.028764
573.046923	9965.884765
573.401860	9926.954454
573.756743	9861.053971
574.111570	9898.088807
574.466342	9887.424246
574.821059	9917.363659
575.175722	9805.508017
575.530330	9818.352877
575.884882	9808.696547
576.239380	9741.795394
576.593823	9715.783040
576.948211	9734.571421
577.302544	9612.378892
577.656823	9625.498495
578.011047	9627.479669
578.365216	9601.134599
578.719330	9530.707159
579.073389	9538.135299
579.427394	9481.076999
579.781344	9463.090162
580.135239	9414.934540
580.489080	9419.085931
580.842866	9323.203184
581.196597	9328.587137
581.550273	9366.627684
581.903895	9333.769443
582.257463	9401.638497
582.610975	9280.673490
582.964434	9303.651069
583.317837	9226.639883
583.671186	9208.131286
584.024481	9202.402015
584.377721	9123.497875
584.730906	9104.167570
585.084037	9134.590934
585.437113	9064.879338
585.790135	9087.231814
586.143103	8989.267071
586.496016	8964.625911
586.848874	9021.457359
587.201679	9008.120987
587.554428	8887.256803
587.907124	8935.798073
588.259765	8917.402903
588.612352	8916.787882
588.964884	8791.865569
589.317362	8805.322929
589.669786	8810.560688
590.022155	8847.078807
590.374470	8865.163946
590.726731	8805.436355
591.078937	8660.409921
591.431090	8768.335983
591.783188	8641.235892
592.135232	8637.906210
592.487222	8635.390674
592.839157	8688.733644
593.191038	8625.212585
593.542866	8570.120335
593.894639	8470.003019
594.246358	8520.790124
594.598022	8534.978451
594.949633	8433.336187
595.301190	8410.446828
595.652692	8437.923637
596.004141	8546.714258
596.355535	8325.768046
596.706876	8303.241650
597.058162	8243.788802
597.409395	8321.185637
597.760573	8378.092703
598.111698	8293.391236
598.462768	8276.064790
598.813785	8244.141683
599.164748	8208.291517
599.515657	8195.721400
599.866511	8108.942978
600.217312	8235.944767
600.568060	8092.397911
600.918753	8195.474384
601.269392	8166.328953
601.619978	8081.307373
601.970510	8142.809450
602.320988	8138.453893
602.671412	8200.437400
603.021783	8129.578941
603.372100	8109.031198
603.722363	8109.626054
604.072572	8081.677897
604.422728	8095.173066
604.772830	8021.960389
605.122878	8027.684619
605.472872	8024.725462
605.822813	8056.804844
606.172701	8000.021287
606.522534	8070.814211
606.872314	8077.183709
607.222041	8047.534162
607.571714	8100.327646
607.921333	8052.771921
608.270899	8060.618477
608.620411	8151.485275
608.969870	8060.973879
609.319276	8056.444402
609.668627	8069.117863
610.017926	8101.661031
610.367171	8150.212384
610.716362	8119.627704
611.065500	8120.993856
611.414585	8139.845251
611.763616	8137.158316
612.112594	8112.693597
612.461518	8128.845453
612.810389	8184.285543
613.159207	8126.665154
613.507971	8071.709016
613.856682	8205.110549
614.205340	8148.901684
614.553945	8229.983602
614.902496	8129.329404
615.250994	8185.490379
615.599439	8161.459198
615.947830	8179.501488
616.296169	8149.544431
616.644454	8162.822830
616.992686	8163.715115
617.340864	8215.891057
617.688990	8125.987119
618.037063	8216.836273
618.385082	8162.538005
618.733048	8247.998166
619.080961	8183.791510
619.428821	8205.760858
619.776628	8210.827218
620.124382	8163.725197
620.472083	8142.474213
620.819731	8171.692741
621.167326	8068.109632
621.514868	8073.256650
621.862357	7960.980072
622.209793	7978.556054
622.557176	7917.346364
622.904506	7880.911425
623.251783	7816.021693
623.599007	7768.496215
623.946179	7775.785723
624.293297	7734.135710
624.640363	7649.656054
624.987376	7637.121225
625.334336	7581.895385
625.681243	7527.529061
626.028097	7516.922473
626.374899	7497.874473
626.721647	7485.750498
627.068343	7422.035355
627.414987	7391.286837
627.761577	7347.564910
628.108115	7382.895837
628.454600	7282.491175
628.801032	7330.246026
629.147412	7289.379912
629.493739	7283.310363
629.840014	7217.341824
630.186236	7277.255937
630.532405	7154.133316
630.878521	7204.532252
631.224585	7160.132289
631.570597	7092.714418
631.916556	7122.285827
632.262462	7120.483614
632.608316	7076.144146
632.954117	7060.647639
633.299866	7046.882768
633.645562	7030.481374
633.991206	6955.577390
634.336797	6900.782568
634.682336	6852.911771
635.027823	6825.382030
635.373257	6814.810730
635.718639	6746.495534
636.063968	6764.358863
636.409245	6654.169322
636.754470	6655.711915
637.099642	6610.936386
637.444762	6550.750051
637.789829	6562.760600
638.134845	6507.002918
638.479808	6491.221585
638.824719	6491.708057
639.169577	6427.413181
639.514383	6444.994205
639.859137	6375.401076
640.203839	6383.759309
640.548489	6368.177102
640.893086	6343.772877
641.237632	6317.639535
641.582125	6332.952040
641.926566	6303.894829
642.270955	6323.804866
642.615292	6320.001316
642.959576	6328.851061
643.303809	6322.405946
643.647990	6325.392830
643.992118	6313.258772
644.336195	6264.316730
644.680219	6295.065248
645.024192	6280.173680
645.368112	6378.332507
645.711981	6399.437297
646.055797	6471.346836
646.399562	6428.607934
646.743274	6557.931174
647.086935	6613.151973
647.430544	6604.624862
647.774101	6627.678058
648.117606	6629.112267
648.461059	6623.703108
648.804460	6586.015442
649.147810	6495.191494
649.491108	6470.978832
649.834354	6437.634120
650.177548	6355.992633
650.520690	6269.065497
650.863781	6251.139154
651.206820	6268.959633
651.549807	6194.181677
651.892742	6134.887626
652.235626	6139.001207
652.578458	6126.594928
652.921238	6035.420619
653.263967	6074.469397
653.606644	6013.635273
653.949269	6015.286251
654.291843	5955.372137
654.634365	6004.223439
654.976836	5960.423373
655.319255	5957.824659
655.661622	5937.944868
656.003938	5936.309014
656.346203	5890.837806
656.688416	5928.414567
657.030577	5880.241301
657.372687	5848.061095
657.714746	5833.918138
658.056753	5877.723245
658.398708	5819.782743
658.740612	5810.930477
659.082465	5856.835224
659.424266	5848.844995
659.766016	5846.798286
660.107715	5821.035470
660.449362	5840.126319
660.790958	5830.608621
661.132503	5820.801056
661.473996	5858.385378
661.815438	5843.463563
662.156829	5837.625907
662.498168	5833.950906
662.839456	5815.921219
663.180693	5844.282751
663.521879	5843.960117
663.863013	5831.329506
664.204097	5851.577300
664.545129	5894.036418
664.886110	5891.195728
665.227040	5918.788484
665.567918	5887.792949
665.908746	5921.200676
666.249522	5923.330563
666.590248	5907.710548
666.930922	5934.456390
667.271545	5946.000632
667.612118	5950.247804
667.952639	5926.932468
668.293109	5946.350993
668.633528	5905.043778
668.973896	5903.599487
669.314213	5899.586729
669.654480	5878.502103
669.994695	5870.952975
670.334859	5865.506008
670.674973	5852.459502
671.015035	5861.614238
671.355047	5856.820100
671.695008	5835.705227
672.034918	5810.184386
672.374777	5826.477395
672.714585	5815.553215
673.054342	5814.277803
673.394049	5808.326721
673.733705	5841.058933
674.073310	5829.847407
674.412864	5792.333660
674.752368	5776.769098
675.091820	5780.514675
675.431223	5722.090222
675.770574	5718.495880
676.109875	5672.296225
676.449125	5678.615312
676.788324	5643.357482
677.127473	5586.052165
677.466571	5582.845992
677.805619	5569.242438
678.144616	5559.434873
678.483562	5534.024937
678.822458	5501.028065
679.161303	5496.745604
679.500098	5488.077340
679.838842	5469.359536
680.177535	5482.564839
680.516179	5490.829810
680.854771	5502.028734
681.193314	5581.144602
681.531805	5690.512435
681.870247	5843.239232
682.208638	5945.057937
682.546978	5955.679648
682.885268	5932.717192
683.223508	5848.436661
683.561697	5795.315503
683.899836	5763.914155
684.237925	5720.993772
684.575963	5683.422052
684.913951	5648.902751
685.251889	5702.926276
685.589776	5674.327810
685.927614	5646.951824
686.265401	5713.263162
686.603137	5700.841759
686.940824	5777.200116
687.278460	5795.557478
687.616046	5810.312935
687.953582	5874.249890
688.291068	5857.621644
688.628504	5924.394247
688.965889	5881.627618
689.303224	5826.379093
689.640510	5783.662876
689.977745	5703.281677
690.314930	5607.015804
690.652065	5549.027411
690.989150	5462.821160
691.326185	5382.369385
691.663170	5327.065407
692.000105	5252.443727
692.336990	5175.886244
692.673825	5149.815917
693.010610	5086.393161
693.347345	5012.651162
693.684030	5002.304194
694.020665	4957.044715
694.357251	4871.740830
694.693786	4877.752406
695.030272	4845.211758
695.366707	4812.227488
695.703093	4778.214823
696.039429	4797.908091
696.375716	4780.659783
696.711952	4753.286317
697.048139	4743.940018
697.384276	4725.799426
697.720363	4734.775201
698.056400	4741.522785
698.392388	4691.970763
698.728326	4676.781767
699.064214	4656.236544
699.400053	4648.931912
699.735842	4614.463023
700.071581	4592.377728
700.407270	4564.784972
700.742910	4546.679668
701.078501	4496.489941
701.414042	4491.196729
701.749533	4461.683294
702.084974	4394.015886
702.420366	4451.691727
702.755709	4393.993201
703.091002	4338.356506
703.426246	4387.621182
703.761440	4347.082743
704.096584	4306.617402
704.431679	4328.528777
704.766725	4314.141324
705.101721	4302.564314
705.436668	4325.297397
705.771565	4274.401908
706.106413	4301.581289
706.441212	4336.768543
706.775961	4345.804811
707.110661	4324.069876
707.445311	4350.603989
707.779913	4373.029562
708.114465	4387.880802
708.448967	4407.788318
708.783421	4470.437258
709.117825	4514.925440
709.452180	4518.973487
709.786485	4563.577616
710.120742	4652.105319
710.454949	4633.773163
710.789107	4695.605435
711.123216	4771.308442
711.457275	4765.100262
711.791286	4840.762940
712.125247	4853.111246
712.459159	4758.813943
712.793023	4832.898740
713.126837	4791.238644
713.460602	4786.968787
713.794318	4701.952248
714.127985	4714.038414
714.461602	4630.728306
714.795171	4597.161783
715.128691	4533.446639
715.462162	4477.875480
715.795584	4426.916976
716.128957	4413.482301
716.462281	4358.816029
716.795556	4332.107996
717.128782	4295.289929
717.461960	4224.098754
717.795088	4236.668871
718.128167	4197.809137
718.461198	4131.477635
718.794180	4130.660968
719.127113	4115.207311
719.459997	4088.915173
719.792833	4049.730284
720.125619	4036.083880
720.458357	4005.426103
720.791046	4009.522041
721.123686	3984.187722
721.456278	3943.336732
721.788821	3961.041264
722.121315	3932.462963
722.453761	3904.638314
722.786158	3916.608534
723.118506	3943.674489
723.450805	3892.461407
723.783056	3913.314140
724.115259	3932.977161
724.447412	3936.145526
724.779518	3927.772169
725.111574	3930.784259
725.443582	3960.925318
725.775542	3948.750931
726.107453	3999.805217
726.439315	3997.728261
726.771129	4014.013709
727.102895	4049.337074
727.434612	4095.960185
727.766281	4108.109366
728.097901	4105.989561
728.429473	4112.792598
728.760996	4120.626551
729.092471	4110.486270
729.423897	4101.202985
729.755276	4108.230354
730.086606	4107.219602
730.417887	4142.694202
730.749120	4208.261969
731.080305	4278.323926
731.411442	4295.194147
731.742530	4264.773304
732.073570	4273.043317
732.404562	4325.163807
732.735506	4316.692148
733.066401	4280.335346
733.397249	4216.907548
733.728048	4136.062564
734.058798	4055.260430
734.389501	3987.272908
734.720156	3926.705965
735.050762	3878.918348
735.381320	3874.827451
735.711831	3823.049760
736.042293	3792.500368
736.372707	3813.249757
736.703073	3788.109523
737.033391	3779.463944
737.363661	3795.958599
737.693883	3819.709996
738.024056	3831.881862
738.354182	3823.344667
738.684260	3890.671798
739.014290	3908.754417
739.344272	3902.526071
739.674207	3945.252370
740.004093	3954.896098
740.333931	3946.505097
740.663722	3948.173719
740.993464	3943.830765
741.323159	3919.635747
741.652806	3893.802354
741.982405	3865.725648
742.311956	3832.872448
742.641460	3823.717713
742.970915	3797.707880
743.300323	3757.391252
743.629683	3725.286663
743.958996	3714.422977
744.288260	3687.316693
744.617477	3657.886437
744.946647	3639.897079
745.275768	3615.374386
745.604842	3613.446145
745.933869	3568.327818
746.262847	3561.363464
746.591778	3597.926953
746.920662	3572.635484
747.249498	3536.697098
747.578286	3579.461206
747.907027	3600.490379
748.235720	3598.078187
748.564365	3621.544758
748.892963	3621.446456
749.221514	3604.488014
749.550017	3582.697627
749.878473	3581.550764
750.206881	3551.893656
750.535242	3547.253274
750.863555	3548.626989
751.191821	3545.171278
751.520039	3526.692928
751.848210	3504.660565
752.176334	3535.535112
752.504411	3546.033315
752.832440	3507.758354
753.160421	3485.766321
753.488356	3494.976509
753.816243	3506.447654
754.144082	3463.693629
754.471875	3447.957667
754.799620	3469.649752
755.127318	3462.151036
755.454969	3460.550469
755.782572	3467.784525
756.110129	3444.307872
756.437638	3431.253804
756.765100	3447.705609
757.092515	3455.741208
757.419882	3460.207671
757.747203	3433.736572
758.074477	3437.401491
758.401703	3452.693831
758.728882	3470.468939
759.056014	3480.087461
759.383099	3483.586022
759.710138	3483.727174
760.037129	3499.233763
760.364073	3533.024618
760.690970	3514.112729
761.017820	3490.152125
761.344623	3511.075434
761.671379	3558.641241
761.998088	3607.442131
762.324751	3731.754464
762.651366	3983.131600
762.977935	4450.769196
763.304456	4891.539962
763.630931	4987.064786
763.957359	4624.961226
764.283740	4286.775420
764.610074	4095.723251
764.936362	3893.610790
765.262602	3740.611771
765.588796	3630.046664
765.914943	3539.517624
766.241044	3455.784058
766.567097	3424.289450
766.893104	3373.076368
767.219064	3345.082840
767.544978	3318.430260
767.870845	3259.037906
768.196665	3244.695823
768.522438	3254.417688
768.848165	3251.045157
769.173846	3210.778940
769.499479	3196.068853
769.825066	3178.971780
770.150607	3162.545180
770.476101	3178.026564
770.801548	3174.986748
771.126949	3127.390694
771.452303	3110.359156
771.777611	3118.911473
772.102872	3122.349540
772.428087	3096.185952
772.753256	3086.945517
773.078378	3079.466965
773.403453	3049.290618
773.728482	3034.545243
774.053465	3056.887637
774.378401	3044.284752
774.703291	3013.606810
775.028135	3012.444824
775.352932	3008.971469
775.677683	2994.894047
776.002388	2994.200889
776.327046	2994.510920
776.651658	2986.931545
776.976224	2973.670790
777.300743	2974.704226
777.625216	2966.189717
777.949643	2957.602112
778.274024	2960.652010
778.598359	2948.959053
778.922647	2957.430713
779.246889	2954.887450
779.571086	2938.057558
779.895236	2933.770057
780.219339	2946.420833
780.543397	2957.082873
780.867409	2960.062195
781.191374	2951.509877
781.515294	2946.463682
781.839167	2947.398816
782.162995	2942.052673
782.486776	2951.066256
782.810511	2948.061728
783.134201	2935.126127
783.457844	2940.220213
783.781441	2933.157557
784.104993	2910.986562
784.428498	2913.136614
784.751958	2926.911567
785.075372	2921.855290
785.398739	2905.653021
785.722061	2920.103489
786.045337	2931.703184
786.368568	2916.047881
786.691752	2907.493043
787.014891	2956.261165
787.337983	2985.489775
787.661030	3014.942716
787.984031	3080.636512
788.306987	3126.763070
788.629897	3121.600929
788.952760	3101.786673
789.275579	3088.558686
789.598351	3029.577186
789.921078	2983.412819
790.243759	2977.618013
790.566395	2961.009932
790.888984	2935.184101
791.211529	2918.886050
791.534027	2910.608476
791.856480	2897.166239
792.178888	2884.427243
792.501249	2877.407436
792.823566	2872.915768
793.145836	2869.029039
793.468062	2866.586600
793.790241	2863.740868
794.112375	2870.410315
794.434464	2884.059239
794.756507	2890.045609
795.078505	2889.065105
795.400457	2903.472722
795.722364	2942.387909
796.044226	2967.175263
796.366042	2969.519399
796.687812	2959.053964
797.009538	2977.892756
797.331218	2966.169553
797.652852	2953.785958
797.974442	2935.383226
798.295986	2930.883996
798.617484	2925.255548
798.938938	2909.721233
799.260346	2894.869993
799.581709	2887.643499
799.903026	2884.097048
800.224299	2878.062786
800.545526	2866.911754
800.866708	2851.977336
801.187845	2842.177333
801.508936	2841.753876
801.829983	2851.836183
802.150984	2837.330263
802.471940	2823.020948
802.792851	2824.820640
803.113717	2824.147646
803.434538	2830.570076
803.755314	2823.641010
804.076045	2816.653971
804.396731	2813.954433
804.717372	2818.499033
805.037967	2812.129535
805.358518	2819.040957
805.679024	2828.498162
805.999485	2823.764518
806.319901	2831.157370
806.640272	2820.515495
806.960598	2826.519509
807.280879	2836.173318
807.601115	2844.014833
807.921306	2829.400528
808.241453	2824.994560
808.561554	2832.702484
808.881611	2834.902948
809.201623	2828.256186
809.521590	2830.174345
809.841513	2822.143787
810.161390	2827.265600
810.481223	2820.795279
810.801011	2811.799340
811.120755	2810.864206
811.440453	2813.336892
811.760107	2812.958805
812.079716	2809.886222
812.399281	2798.586475
812.718801	2792.584982
813.038276	2785.887809
813.357707	2794.258645
813.677093	2803.035294
813.996434	2795.206382
814.315731	2791.922070
814.634983	2783.909156
814.954191	2788.970474
815.273354	2801.028914
815.592473	2808.784730
815.911547	2811.519556
816.230577	2820.762511
816.549562	2830.630570
816.868502	2828.470435
817.187399	2841.141376
817.506250	2856.189220
817.825058	2847.662108
818.143821	2858.644262
818.462539	2877.805688
818.781213	2902.686302
819.099843	2938.029832
819.418429	2996.159377
819.736970	3060.794531
820.055466	3131.017804
820.373919	3234.316087
820.692327	3377.381513
821.010691	3543.515259
821.329011	3987.494719
821.647286	4884.575608
821.965517	6261.970073
822.283704	6999.155644
822.601847	6981.355330
822.919945	6346.757240
823.237999	5843.032544
823.556010	5262.614255
823.873976	4707.497517
824.191897	4299.451401
824.509775	4004.627080
824.827609	3738.252511
825.145398	3614.477061
825.463144	3601.763271
825.780845	3696.133671
826.098502	3798.128816
826.416116	4081.819749
826.733685	4397.184251
827.051210	4458.676246
827.368692	4344.625181
827.686129	4078.018719
828.003522	3750.724326
828.320872	3497.532374
828.638177	3301.305460
828.955439	3167.157836
829.272656	3084.203129
829.589830	3014.975484
829.906960	2965.877166
830.224046	2920.748757
830.541088	2889.881772
830.858086	2872.053731
831.175041	2852.824250
831.491952	2855.236442
831.808819	2869.956611
832.125642	2891.794889
832.442421	2934.218720
832.759157	3019.555372
833.075849	3199.501879
833.392497	3479.144765
833.709101	3681.728574
834.025662	3632.337869
834.342179	3472.326605
834.658653	3295.079635
834.975083	3143.519866
835.291469	3048.771379
835.607811	2964.866414
835.924110	2906.852816
836.240366	2854.639065
836.556578	2813.021819
836.872746	2789.802265
837.188871	2769.700664
837.504952	2752.603591
837.820990	2744.028588
838.136984	2731.387895
838.452935	2721.313149
838.768842	2719.974722
839.084706	2739.541961
839.400526	2818.854434
839.716303	2950.650361
840.032037	3028.442926
840.347727	3016.276101
840.663373	2956.321659
840.978977	2876.923486
841.294537	2805.666776
841.610054	2759.383942
841.925527	2735.645149
842.240957	2716.458517
842.556344	2693.102852
842.871687	2677.387055
843.186987	2668.486897
843.502244	2666.462874
843.817458	2662.319046
844.132629	2649.464103
844.447756	2638.161837
844.762840	2631.326032
845.077881	2635.404325
845.392879	2634.360807
845.707833	2631.782256
846.022745	2622.627521
846.337613	2625.952162
846.652438	2621.876389
846.967221	2624.684312
847.281960	2620.905967
847.596656	2619.252468
847.911309	2618.060236
848.225919	2619.706172
848.540485	2611.665532
848.855009	2614.372632
849.169490	2610.536313
849.483928	2615.340533
849.798323	2617.213322
850.112675	2611.030347
850.426984	2613.603856
850.741251	2610.732918
851.055474	2611.179061
851.369654	2615.340533
851.683792	2612.855244
851.997887	2611.922631
852.311938	2609.931375
852.625947	2615.156531
852.939914	2617.440174
853.253837	2616.913373
853.567718	2609.850717
853.881555	2610.082610
854.195350	2615.007817
854.509103	2615.736264
854.822812	2609.170161
855.136479	2611.599997
855.450103	2612.270470
855.763685	2614.309617
856.077224	2611.715943
856.390720	2609.114708
856.704173	2613.397168
857.017584	2616.348764
857.330953	2617.460338
857.644278	2617.162910
857.957561	2620.616101
858.270802	2614.304576
858.584000	2612.693927
858.897155	2618.982767
859.210268	2622.584671
859.523339	2611.935234
859.836367	2611.783999
860.149352	2611.015223
860.462295	2611.703341
860.775195	2607.776282
861.088054	2609.472630
861.400869	2606.904162
861.713642	2605.696806
862.026373	2607.042794
862.339062	2611.910028
862.651708	2614.425564
862.964312	2614.932200
863.276873	2613.051849
863.589392	2616.963785
863.901869	2618.042592
864.214303	2625.758077
864.526696	2627.792183
864.839045	2628.087091
865.151353	2631.860394
865.463619	2632.145219
865.775842	2632.621608
866.088023	2630.461474
866.400162	2631.535240
866.712258	2630.922740
867.024313	2630.353089
867.336325	2625.422841
867.648296	2628.412245
867.960224	2633.665127
868.272110	2632.112452
868.583954	2625.974847
868.895755	2626.834364
869.207515	2632.183028
869.519233	2637.831641
869.830909	2636.079840
870.142542	2629.196144
870.454134	2633.874335
870.765684	2639.391878
871.077191	2642.288021
871.388657	2643.913793
871.700081	2641.617547
872.011463	2638.975983
872.322803	2644.455717
872.634101	2648.105512
872.945357	2654.900988
873.256571	2659.072543
873.567744	2657.933242
873.878874	2653.549959
874.189963	2655.480721
874.501010	2662.031700
874.812015	2667.788698
875.122979	2666.387257
875.433900	2656.635145
875.744780	2654.419558
876.055618	2662.288799
876.366415	2664.607730
876.677169	2668.338183
876.987882	2659.559014
877.298554	2658.114723
877.609183	2670.677279
877.919771	2676.172137
878.230317	2681.407375
878.540822	2694.494210
878.851285	2708.959801
879.161707	2729.878069
879.472087	2770.512290
879.782425	2817.470638
880.092722	2931.413318
880.402977	3121.283336
880.713191	3377.678941
881.023363	3672.019311
881.333494	3861.508723
881.643583	4032.204712
881.953631	4031.181358
882.263637	3855.562682
882.573602	3633.083960
882.883526	3503.092767
883.193408	3391.902557
883.503248	3288.445477
883.813048	3174.039011
884.122806	3061.517937
884.432522	2974.779843
884.742197	2909.600245
885.051831	2873.319061
885.361424	2839.099708
885.670975	2803.304995
885.980485	2770.910541
886.289954	2754.549476
886.599382	2740.693865
886.908768	2728.408573
887.218113	2710.086499
887.527417	2696.729962
887.836680	2688.235618
888.145901	2681.054494
888.455082	2673.084430
888.764221	2663.629746
889.073319	2658.586071
889.382376	2655.334527
889.691392	2656.831750
890.000366	2657.061122
890.309300	2654.777480
890.618193	2658.429796
890.927044	2657.880310
891.235855	2661.305774
891.544625	2660.368119
891.853353	2660.168994
892.162041	2667.992864
892.470687	2687.744105
892.779293	2700.311702
893.087858	2705.793957
893.396381	2731.241701
893.704864	2770.497166
894.013306	2842.807477
894.321707	2934.349790
894.630068	2984.801657
894.938387	3004.346211
895.246665	2996.202227
895.554903	2955.542800
895.863100	2913.524783
896.171256	2852.970443
896.479371	2790.613891
896.787446	2754.433529
897.095480	2731.395456
897.403473	2728.010322
897.711425	2712.581870
898.019336	2695.106710
898.327207	2682.949968
898.635038	2679.393434
898.942827	2678.039884
899.250576	2669.550581
899.558284	2655.604229
899.865952	2652.214053
900.173579	2650.802530
900.481165	2648.453352
900.788711	2639.926240
901.096216	2634.496918
901.403681	2629.390229
901.711105	2628.019035
902.018489	2628.389560
902.325832	2632.576238
902.633135	2632.994654
902.940397	2648.085348
903.247619	2686.715710
903.554800	2752.951430
903.861941	2883.139228
904.169041	3006.430728
904.476101	3070.415573
904.783121	3062.392577
905.090100	3005.165398
905.397039	2931.811569
905.703938	2858.629138
906.010796	2797.018677
906.317614	2742.155799
906.624391	2708.128011
906.931129	2679.605162
907.237826	2658.591112
907.544483	2640.437917
907.851099	2626.136164
908.157675	2618.831532
908.464211	2608.126642
908.770707	2597.149529
909.077163	2594.712132
909.383578	2590.391863
909.689954	2593.961000
909.996289	2590.207861
910.302584	2588.216605
910.608839	2586.207705
910.915054	2585.033116
911.221229	2589.325659
911.527363	2591.390011
911.833458	2590.235587
912.139513	2590.354054
912.445527	2594.081987
912.751502	2596.766402
913.057436	2604.862495
913.363331	2608.759307
913.669186	2618.829012
913.975000	2632.498100
914.280775	2649.632982
914.586510	2668.053358
914.892205	2704.972248
915.197859	2771.810387
915.503475	2857.482276
915.809050	2923.055084
916.114585	2935.539502
916.420081	2947.696244
916.725536	2955.489868
917.030952	2932.229984
917.336328	2887.335989
917.641665	2835.283555
917.946961	2786.618776
918.252218	2753.896647
918.557435	2728.494272
918.862612	2702.945705
919.167750	2685.694876
919.472848	2671.773730
919.777906	2655.256389
920.082925	2641.713329
920.387904	2630.027935
920.692843	2626.476442
920.997743	2624.097017
921.302603	2614.783486
921.607423	2610.412805
921.912204	2603.171188
922.216946	2599.488625
922.521647	2600.305292
922.826310	2592.456215
923.130932	2592.148705
923.435516	2583.500605
923.740059	2586.048909
924.044564	2583.619073
924.349028	2580.773341
924.653454	2572.130283
924.957840	2567.827658
925.262186	2567.159705
925.566493	2569.566856
925.870761	2565.266752
926.174989	2565.027297
926.479178	2564.651731
926.783328	2563.141906
927.087438	2562.307595
927.391509	2559.439178
927.695541	2557.531101
927.999533	2557.775597
928.303486	2554.682849
928.607400	2557.563869
928.911275	2557.024465
929.215110	2556.540515
929.518906	2556.119578
929.822663	2554.488765
930.126381	2555.872562
930.430060	2554.922304
930.733699	2554.251831
931.037299	2554.090514
931.340861	2558.138560
931.644383	2556.134702
931.947866	2555.736451
932.251309	2556.164949
932.554714	2556.263251
932.858080	2557.936914
933.161407	2554.403065
933.464694	2555.489434
933.767943	2554.203940
934.071153	2554.216543
934.374323	2552.321069
934.677455	2556.323745
934.980548	2551.774104
935.283602	2553.357026
935.586617	2552.825184
935.889593	2550.715461
936.192530	2551.683363
936.495428	2552.537838
936.798287	2552.368960
937.101108	2557.026986
937.403890	2558.975392
937.706632	2562.400856
938.009336	2561.758109
938.312002	2565.864129
938.614628	2570.552402
938.917216	2574.867629
939.219765	2573.713205
939.522275	2577.015161
939.824747	2575.896025
940.127179	2571.056517
940.429573	2567.472257
940.731929	2567.510065
941.034246	2564.936556
941.336524	2566.297668
941.638763	2567.416804
941.940964	2564.825651
942.243126	2561.954714
942.545250	2564.833213
942.847335	2560.124775
943.149381	2558.299877
943.451389	2558.244425
943.753359	2558.909857
944.055290	2556.429609
944.357182	2556.212840
944.659036	2556.270813
944.960851	2556.406924
945.262628	2554.478683
945.564367	2557.541184
945.866067	2555.910370
946.167729	2556.631255
946.469352	2558.204095
946.770937	2556.641338
947.072484	2555.406255
947.373992	2555.691080
947.675462	2554.307283
947.976893	2554.055226
948.278286	2554.385421
948.579641	2551.948023
948.880958	2552.656306
949.182236	2552.903322
949.483476	2552.555482
949.784678	2552.744526
950.085841	2552.502550
950.386967	2555.759136
950.688054	2550.607077
950.989103	2552.341233
951.290114	2553.074721
951.591087	2559.734086
951.892021	2557.528581
952.192917	2558.254507
952.493776	2558.685526
952.794596	2559.555125
953.095378	2561.821123
953.396122	2561.863973
953.696828	2559.454302
953.997496	2557.087480
954.298126	2553.646892
954.598718	2555.058415
954.899272	2554.413148
955.199788	2555.421378
955.500266	2552.676470
955.800706	2547.521890
956.101108	2542.684903
956.401472	2544.897970
956.701798	2543.365459
957.002087	2542.634492
957.302337	2545.843186
957.602550	2541.457382
957.902724	2544.066179
958.202861	2542.266488
958.502960	2542.329502
958.803022	2540.481919
959.103045	2542.868905
959.403031	2541.875798
959.702979	2541.984183
960.002889	2542.558874
960.302762	2539.909748
960.602596	2544.507280
960.902393	2538.059645
961.202153	2538.730118
961.501875	2541.253216
961.801559	2538.054603
962.101205	2538.460416
962.400814	2537.348842
962.700385	2539.357742
962.999918	2539.229192
963.299414	2535.985210
963.598873	2536.244829
963.898293	2537.492515
964.197677	2537.452186
964.497022	2537.737011
964.796331	2539.957639
965.095601	2537.500077
965.394835	2538.674665
965.694030	2539.614841
965.993189	2538.382278
966.292309	2536.305323
966.591393	2538.611651
966.890439	2536.169212
967.189447	2539.035108
967.488419	2540.592824
967.787353	2537.101825
968.086249	2540.073586
968.385108	2537.268183
968.683930	2537.507638
968.982714	2535.869263
969.281462	2537.805066
969.580172	2538.430169
969.878844	2536.418749
970.177480	2535.017308
970.476078	2537.835313
970.774639	2537.847916
971.073162	2540.514687
971.371649	2534.132586
971.670098	2535.249201
971.968510	2537.757175
972.266885	2534.435055
972.565223	2539.314892
972.863524	2540.620551
973.161788	2538.644418
973.460014	2535.569315
973.758204	2539.090561
974.056356	2535.045035
974.354471	2539.758513
974.652550	2538.815818
974.950591	2540.043339
975.248595	2536.948070
975.546563	2539.526620
975.844493	2536.852288
976.142386	2538.987217
976.440243	2534.243491
976.738062	2535.846578
977.035845	2538.286497
977.333590	2532.869777
977.631299	2535.632329
977.928971	2538.500746
978.226606	2537.174922
978.524204	2537.782381
978.821765	2535.599562
979.119290	2535.163502
979.416777	2537.384130
979.714228	2536.451517
980.011642	2536.038142
980.309020	2539.221631
980.606360	2537.978986
980.903664	2537.348842
981.200931	2537.245498
981.498162	2538.283976
981.795356	2543.375541
982.092513	2545.283618
982.389633	2545.843186
982.686717	2546.727909
982.983764	2548.182282
983.280775	2551.552293
983.577749	2552.900802
983.874686	2551.194371
984.171587	2547.146324
984.468451	2546.309493
984.765279	2539.889583
985.062070	2540.512166
985.358824	2541.182639
985.655543	2538.130221
985.952224	2538.407484
986.248869	2537.358924
986.545478	2532.103521
986.842050	2534.583769
987.138586	2528.788963
987.435086	2533.573018
987.731549	2531.692667
988.027975	2534.477905
988.324366	2535.460930
988.620719	2533.182328
988.917037	2534.155271
989.213318	2533.749458
989.509563	2532.781557
989.805772	2534.689633
990.101944	2534.261135
990.398080	2534.624098
990.694180	2532.600075
990.990244	2533.888090
991.286271	2534.498069
991.582262	2533.129396
991.878217	2533.149561
992.174136	2532.605116
992.470019	2532.370702
992.765865	2535.244160
993.061676	2532.915147
993.357450	2535.410518
993.653188	2532.297606
993.948890	2532.542102
994.244556	2536.998482
994.540186	2535.430683
994.835780	2536.973276
995.131337	2535.647452
995.426859	2537.676517
995.722345	2535.879346
996.017795	2537.794984
996.313208	2536.254912
996.608586	2536.862371
996.903928	2539.791281
997.199234	2537.074099
997.494504	2536.491846
997.789738	2536.643080
998.084936	2537.182484
998.380099	2535.975127
998.675225	2536.736342
998.970316	2536.212062
999.265371	2533.893131
999.560390	2534.049407
999.855373	2535.473533
1000.150320	2534.901362
1000.445232	2535.292051
1000.740108	2533.628470
1001.034948	2533.021011
1001.329752	2531.894313
1001.624521	2535.715508
1001.919254	2527.778211
1002.213951	2530.543284
1002.508613	2527.730320
1002.803239	2531.511186
1003.097829	2527.629497
1003.392384	2533.215096
1003.686903	2531.221319
1003.981386	2532.673172
1004.275834	2532.829448
1004.570246	2533.116793
1004.864623	2532.400949
1005.158964	2532.395908
1005.453270	2532.859694
1005.747540	2531.899355
1006.041775	2531.445651
1006.335974	2532.940353
1006.630138	2534.077133
1006.924266	2532.446320
1007.218359	2528.703263
1007.512416	2534.213244
1007.806438	2531.843902
1008.100425	2530.361803
1008.394376	2532.050589
1008.688292	2532.035466
1008.982172	2530.462626
1009.276017	2528.851977
1009.569827	2532.831968
1009.863602	2532.963038
1010.157341	2530.394570
1010.451045	2532.526978
1010.744714	2530.444982
1011.038347	2531.475898
1011.331945	2530.618902
1011.625508	2531.662420
1011.919036	2530.518078
1012.212528	2532.083357
1012.505986	2530.046731
1012.799408	2532.312729
1013.092795	2530.170239
1013.386147	2530.132430
1013.679464	2532.799201
1013.972745	2530.170239
1014.265992	2531.614529
1014.559204	2532.509334
1014.852380	2533.230219
1015.145521	2532.040507
1015.438628	2528.123530
1015.731699	2531.770805
1016.024736	2531.722914
1016.317737	2532.942873
1016.610703	2531.566638
1016.903635	2529.577903
1017.196531	2529.739220
1017.489393	2528.010104
1017.782219	2529.562780
1018.075011	2530.288706
1018.367768	2529.711494
1018.660490	2531.024714
1018.953177	2531.024714
1019.245829	2531.024714
