Dividing Wavelength (nm)	Counts (n)	Blue Motor Position (mm): 27.600000	Red Motor Position (mm): 0.000000	
326.493990	2133.680968
326.888308	2133.680968
327.282561	2133.680968
327.676750	2099.232243
328.070874	2097.346852
328.464933	2102.135948
328.858929	2107.351022
329.252859	2117.874430
329.646726	2128.700308
330.040528	2142.828142
330.434265	2160.336069
330.827938	2176.525735
331.221547	2194.704136
331.615091	2212.489326
332.008571	2232.132182
332.401986	2254.363671
332.795338	2270.649118
333.188625	2291.895061
333.581847	2309.511373
333.975006	2329.247491
334.368100	2344.711230
334.761129	2365.881556
335.154095	2382.242620
335.546996	2401.303223
335.939833	2427.310536
336.332606	2438.897628
336.725315	2453.053188
337.117960	2462.192800
337.510540	2471.574387
337.903056	2483.297590
338.295508	2491.567603
338.687896	2495.086329
339.080220	2505.735766
339.472480	2509.163751
339.864676	2517.161541
340.256807	2522.323683
340.648875	2522.842922
341.040879	2528.151257
341.432818	2527.563962
341.824694	2530.366844
342.216506	2530.419776
342.608253	2531.980013
342.999937	2532.287523
343.391557	2529.741741
343.783113	2527.551359
344.174605	2527.649662
344.566033	2527.027079
344.957397	2525.091276
345.348697	2524.274609
345.739934	2520.493744
346.131106	2519.533404
346.522215	2519.440143
346.913260	2513.907477
347.304241	2516.967457
347.695159	2511.986797
348.086012	2511.142404
348.476802	2509.763648
348.867528	2508.127794
349.258191	2502.995899
349.648789	2506.345746
350.039324	2501.201248
350.429796	2504.604027
350.820203	2500.805518
351.210548	2501.667555
351.600828	2501.284427
351.991045	2499.159581
352.381198	2496.810403
352.771288	2494.806545
353.161314	2498.484066
353.551276	2495.214878
353.941175	2497.369971
354.331010	2495.194713
354.720782	2496.220588
355.110490	2497.735455
355.500135	2495.419045
355.889717	2495.966010
356.279235	2496.865856
356.668689	2498.605054
357.058080	2498.804180
357.447408	2493.427789
357.836672	2494.927532
358.225873	2496.258397
358.615010	2495.315701
359.004084	2497.710249
359.393095	2500.951711
359.782043	2501.055055
360.170927	2500.016577
360.559748	2502.375837
360.948505	2501.483553
361.337199	2502.388440
361.725830	2501.758296
362.114398	2504.462875
362.502903	2505.637464
362.891344	2506.943122
363.279722	2502.390961
363.668037	2505.420694
364.056289	2504.730056
364.444478	2505.612258
364.832603	2508.147958
365.220665	2507.127125
365.608665	2507.641322
365.996601	2507.515293
366.384474	2508.490757
366.772284	2511.583505
367.160031	2509.100736
367.547715	2510.887825
367.935336	2507.878257
368.322893	2511.767507
368.710388	2510.396313
369.097820	2512.684997
369.485189	2507.419512
369.872495	2512.564009
370.259738	2511.409585
370.646918	2512.148114
371.034035	2511.031498
371.421090	2513.562157
371.808081	2512.692558
372.195010	2512.536283
372.581875	2512.753052
372.968678	2512.541324
373.355418	2511.296159
373.742096	2513.557116
374.128710	2514.454442
374.515262	2515.734895
374.901751	2513.723474
375.288177	2516.634741
375.674540	2514.036026
376.060841	2515.271109
376.447079	2517.043074
376.833254	2515.601304
377.219367	2510.930675
377.605417	2512.730367
377.991404	2511.515449
378.377329	2512.410254
378.763191	2511.548217
379.148991	2518.918383
379.534727	2516.932169
379.920402	2518.010976
380.306013	2517.794206
380.691563	2518.250431
381.077049	2516.107940
381.462474	2517.819412
381.847835	2517.753877
382.233134	2517.630369
382.618371	2519.258661
383.003545	2519.162879
383.388657	2516.856552
383.773706	2520.216481
384.158693	2519.225894
384.543618	2524.191430
384.928480	2521.827129
385.313280	2520.266892
385.698017	2520.768487
386.082692	2519.924094
386.467305	2522.933663
386.851856	2521.295288
387.236344	2522.293436
387.620770	2522.832839
388.005133	2522.855525
388.389435	2524.035155
388.773674	2517.814371
389.157851	2520.024917
389.541965	2522.898374
389.926018	2523.904085
390.310008	2522.495082
390.693936	2525.481966
391.077802	2522.651358
391.461606	2525.469363
391.845348	2520.997859
392.229027	2522.295957
392.612645	2525.464322
392.996200	2526.898530
393.379694	2526.840557
393.763125	2524.602284
394.146494	2525.315608
394.529801	2528.171421
394.913047	2526.470032
395.296230	2526.840557
395.679351	2527.634538
396.062410	2525.910464
396.445408	2528.115969
396.828343	2527.132944
397.211217	2522.515247
397.594028	2527.253931
397.976778	2523.084897
398.359466	2528.829292
398.742092	2524.201513
399.124656	2529.401463
399.507158	2528.126051
399.889598	2531.017153
400.271977	2529.633356
400.654294	2530.933974
401.036549	2527.664785
401.418742	2526.694363
401.800874	2528.640249
402.182944	2528.163860
402.564952	2530.553367
402.946898	2530.316432
403.328783	2529.875331
403.710606	2531.301978
404.092367	2532.305168
404.474067	2530.588655
404.855705	2533.099149
405.237282	2530.712163
405.618797	2529.966072
406.000250	2534.258615
406.381642	2534.384643
406.762972	2531.685106
407.144240	2531.785929
407.525447	2536.048224
407.906593	2530.076978
408.287677	2533.951104
408.668700	2533.099149
409.049661	2532.282482
409.430560	2531.440610
409.811399	2534.026722
410.192176	2533.799870
410.572891	2534.656866
410.953545	2533.162164
411.334138	2536.489325
411.714669	2536.383461
412.095139	2534.780374
412.475547	2533.772143
412.855894	2535.042514
413.236180	2539.821528
413.616405	2535.730632
413.996568	2533.555374
414.376670	2537.096784
414.756711	2534.598892
415.136691	2538.412525
415.516609	2537.285827
415.896466	2539.541744
416.276262	2539.516538
416.655997	2533.157122
417.035670	2535.322298
417.415283	2540.794471
417.794834	2535.155940
418.174324	2536.663245
418.553753	2540.459234
418.933121	2541.744728
419.312428	2540.582742
419.691674	2540.189532
420.070859	2539.115766
420.449983	2537.812628
420.829045	2539.052752
421.208047	2539.370345
421.586988	2540.696168
421.965867	2541.066693
422.344686	2543.519214
422.723444	2541.696837
423.102141	2543.491488
423.480777	2543.662887
423.859352	2542.221117
424.237866	2543.496529
424.616319	2542.097609
424.994712	2543.010058
425.373044	2544.008206
425.751314	2544.741694
426.129524	2543.960315
426.507673	2544.310675
426.885762	2545.694472
427.263789	2544.955943
427.641756	2544.277908
428.019662	2548.144473
428.397508	2546.617003
428.775292	2547.383259
429.153016	2547.983156
429.530679	2547.584905
429.908282	2546.664894
430.285824	2548.567930
430.663305	2546.977446
431.040726	2549.510626
431.418086	2550.390307
431.795385	2548.245296
432.172624	2548.262940
432.549802	2551.534649
432.926920	2551.491799
433.303977	2554.183775
433.680974	2556.069167
434.057910	2556.911039
434.434786	2557.500854
434.811601	2556.747202
435.188355	2560.008828
435.565050	2563.822461
435.941683	2563.343552
436.318257	2568.906465
436.694770	2564.639128
437.071222	2572.485684
437.447614	2573.120870
437.823946	2579.674370
438.200218	2584.491192
438.576429	2589.524784
438.952580	2593.177100
439.328670	2602.079778
439.704700	2607.579677
440.080670	2612.988835
440.456580	2628.268572
440.832429	2634.159160
441.208218	2638.055972
441.583947	2649.486789
441.959616	2660.950372
442.335224	2667.551763
442.710773	2683.794361
443.086261	2697.004705
443.461689	2699.263142
443.837057	2717.237376
444.212365	2739.884759
444.587612	2744.787282
444.962800	2770.955911
445.337927	2785.779424
445.712995	2775.825666
446.088002	2831.921105
446.462949	2838.943432
446.837837	2854.376925
447.212664	2882.584701
447.587431	2924.010383
447.962139	3005.256139
448.336786	3122.626803
448.711374	3126.296763
449.085901	3048.912531
449.460369	3065.795356
449.834776	3089.173707
450.209124	3173.146727
450.583412	3240.257087
450.957640	3283.860548
451.331808	3284.805764
451.705917	3252.968357
452.079965	3275.318312
452.453954	3345.849096
452.827883	3363.546066
453.201752	3416.314344
453.575562	3414.217224
453.949311	3500.415914
454.323001	3513.807739
454.696632	3571.183632
455.070202	3655.471724
455.443713	3737.072881
455.817164	3809.960404
456.190556	3891.269174
456.563888	3962.767859
456.937160	4018.026467
457.310373	3968.103921
457.683526	4030.399979
458.056619	4048.958987
458.429653	4096.703755
458.802628	4124.346923
459.175542	4210.076785
459.548398	4406.429727
459.921194	4527.487996
460.293930	4587.422274
460.666607	4872.018093
461.039224	5068.996139
461.411782	5191.395354
461.784280	5267.022744
462.156719	5288.687103
462.529099	5304.208816
462.901419	5179.780536
463.273680	5188.637843
463.645882	5252.758799
464.018024	5265.255820
464.390106	5408.364095
464.762130	5683.298544
465.134094	6005.816443
465.505999	6641.395038
465.877845	7414.372801
466.249631	7884.505768
466.621358	7779.533821
466.993026	7514.938779
467.364634	7448.080476
467.736184	7307.991852
468.107674	7175.033940
468.479105	7276.940865
468.850477	7188.491300
469.221790	7114.608149
469.593043	6964.527958
469.964238	6938.613907
470.335373	7004.847107
470.706449	7112.450536
471.077467	7163.207393
471.448425	8200.699540
471.819324	9064.599554
472.190164	9151.012493
472.560945	8278.177033
472.931667	7724.887713
473.302330	7674.516504
473.672934	7439.392048
474.043479	7780.726054
474.413965	7780.640354
474.784393	7740.104436
475.154761	7916.093638
475.525070	8039.669962
475.895321	7934.526617
476.265513	8132.399467
476.635645	8321.420051
477.005719	8369.913430
477.375734	8507.236982
477.745691	8749.469465
478.115588	8913.982480
478.485427	9175.706585
478.855207	9687.237507
479.224928	10447.604823
479.594591	11063.855634
479.964194	10944.347521
480.333739	10929.929821
480.703226	10906.042313
481.072653	11020.461382
481.442022	11270.903384
481.811333	11480.403656
482.180584	11342.699497
482.549777	11104.983888
482.918912	10956.768924
483.287988	11010.079126
483.657005	11043.035669
484.025964	10770.253793
484.394864	10911.557335
484.763706	10917.868860
485.132489	10706.238701
485.501213	10681.889928
485.869879	10784.172419
486.238487	10636.519543
486.607036	10763.596949
486.975527	10569.744419
487.343959	10754.054045
487.712333	10812.528909
488.080648	10755.757955
488.448905	10809.920112
488.817104	10760.473955
489.185244	11036.751871
489.553326	11191.512773
489.921350	11735.012172
490.289315	12778.838529
490.657222	13130.890028
491.025070	13043.839383
491.392861	12923.270107
491.760593	12550.953169
492.128267	12221.080226
492.495883	11898.375804
492.863440	11571.262892
493.230939	11243.570248
493.598380	11181.700167
493.965763	11052.654190
494.333088	10957.320930
494.700354	10883.462985
495.067563	10943.782911
495.434713	10780.089084
495.801805	10905.651624
496.168839	10834.417599
496.535815	10760.584860
496.902733	10766.039388
497.269593	10714.493590
497.636395	10810.298199
498.003139	10789.695003
498.369825	10668.246045
498.736453	10824.814201
499.103023	10752.289641
499.469535	10780.504979
499.835989	10783.580083
500.202385	10741.788918
500.568723	10593.160579
500.935003	10808.513630
501.301226	10628.133584
501.667390	10881.648170
502.033497	10972.525050
502.399546	10837.989257
502.765537	10747.813097
503.131470	10818.686679
503.497345	10988.979376
503.863163	10607.558114
504.228923	10915.996071
504.594625	10980.626184
504.960269	10732.931611
505.325856	10949.854981
505.691385	10745.201779
506.056856	10899.456046
506.422270	10925.299521
506.787625	10812.768364
507.152924	10935.633886
507.518164	10910.400391
507.883347	10834.183186
508.248472	10754.026319
508.613540	10986.625157
508.978550	10870.925635
509.343503	10849.528458
509.708398	10966.377363
510.073236	11075.987171
510.438016	11090.238513
510.802738	11037.840760
511.167403	11087.208779
511.532010	10982.065434
511.896561	11209.519775
512.261053	11286.200766
512.625488	11155.181177
512.989866	11136.014710
513.354186	11132.508588
513.718449	11030.329441
514.082655	11222.394882
514.446803	11116.414704
514.810894	11238.476162
515.174927	11107.060843
515.538904	11133.375666
515.902822	11287.249326
516.266684	11163.851962
516.630488	11108.744589
516.994235	11166.198619
517.357925	11224.721374
517.721558	11317.347535
518.085133	11332.733136
518.448651	11346.780312
518.812112	11225.812784
519.175516	11237.649413
519.538863	11366.551717
519.902152	11276.483942
520.265385	11439.645927
520.628560	11345.643531
520.991678	11325.587301
521.354739	11386.441589
521.717743	11324.919348
522.080690	11303.930504
522.443580	11438.022676
522.806413	11399.795606
523.169189	11427.673187
523.531908	11480.564973
523.894569	11301.661985
524.257174	11305.410082
524.619722	11431.970770
524.982213	11365.833352
525.344647	11428.207549
525.707025	11378.045548
526.069345	11466.996707
526.431608	11385.665252
526.793815	11495.814463
527.155964	11290.639502
527.518057	11338.497696
527.880093	11285.926023
528.242072	11351.955056
528.603995	11263.588670
528.965860	11181.644714
529.327669	11236.444577
529.689421	11178.733448
530.051117	11161.321303
530.412755	11261.332754
530.774337	11146.757409
531.135862	11130.008176
531.497331	11149.827472
531.858743	11002.179638
532.220098	11169.366984
532.581396	11041.147757
532.942638	11027.445901
533.303824	10990.728657
533.664953	11001.920018
534.026025	10917.216031
534.387040	11018.500373
534.747999	11014.817810
535.108902	11073.774104
535.469748	10833.880716
535.830537	10934.489544
536.191270	10918.957749
536.551947	10941.489186
536.912567	10937.236973
537.273131	10854.423418
537.633638	10838.947076
537.994089	10831.647485
538.354483	10784.106884
538.714821	10928.914028
539.075103	10934.436612
539.435328	10892.683255
539.795497	10724.840559
540.155609	10879.109949
540.515665	10972.300719
540.875665	10707.798938
541.235609	10774.785790
541.595496	10772.711356
541.955328	10929.932341
542.315102	10811.687037
542.674821	10761.797258
543.034483	10762.077042
543.394090	10770.291602
543.753640	10692.602380
544.113134	10920.916238
544.472571	10770.999884
544.831953	10906.304453
545.191278	10721.543644
545.550548	10746.610782
545.909761	10886.747297
546.268918	10856.727226
546.628019	10938.827457
546.987064	10803.490120
547.346053	10730.267361
547.704986	10828.985756
548.063863	10814.308437
548.422684	10806.391304
548.781449	10719.537265
549.140158	10822.951495
549.498811	10703.191323
549.857408	10560.456093
550.215949	10791.315734
550.574434	10634.959306
550.932864	10741.080636
551.291237	10796.863524
551.649555	10750.260577
552.007817	10755.213511
552.366022	10717.026770
552.724173	10715.821934
553.082267	10699.082783
553.440305	10835.572023
553.798288	10639.539194
554.156215	10795.126846
554.514086	10770.049626
554.871902	10610.542477
555.229661	10648.078909
555.587365	10628.950251
555.945014	10526.629951
556.302606	10640.950717
556.660143	10538.537157
557.017625	10696.710920
557.375050	10596.069325
557.732421	10725.435415
558.089735	10642.674792
558.446994	10635.407969
558.804197	10682.840185
559.161345	10674.277786
559.518437	10522.314723
559.875474	10610.154309
560.232455	10650.475978
560.589381	10597.148132
560.946251	10590.640002
561.303065	10702.694770
561.659825	10635.463422
562.016528	10563.420292
562.373177	10444.118866
562.729770	10561.439118
563.086307	10475.847888
563.442789	10569.366333
563.799216	10445.737076
564.155587	10499.886630
564.511904	10448.658425
564.868164	10449.971645
565.224370	10448.713877
565.580520	10381.386747
565.936615	10385.724660
566.292654	10249.096788
566.648638	10381.028825
567.004567	10338.725983
567.360441	10324.696452
567.716260	10237.214788
568.072023	10334.801444
568.427732	10283.361511
568.783385	10191.110916
569.138982	10261.281257
569.494525	10285.403178
569.850013	10154.917952
570.205445	10234.026258
570.560823	10136.852977
570.916145	10052.103619
571.271412	10118.624165
571.626625	10063.214322
571.981782	10037.217092
572.336884	10017.042394
572.691931	10018.315285
573.046923	9969.774015
573.401860	9921.683928
573.756743	9855.735553
574.111570	9904.745651
574.466342	9891.832735
574.821059	9912.440972
575.175722	9805.959200
575.530330	9821.811108
575.884882	9810.975148
576.239380	9733.779959
576.593823	9714.946209
576.948211	9728.121264
577.302544	9608.484601
577.656823	9628.808013
578.011047	9624.301221
578.365216	9602.377243
578.719330	9526.767497
579.073389	9537.515237
579.427394	9486.350046
579.781344	9460.960275
580.135239	9407.884487
580.489080	9417.109798
580.842866	9319.457607
581.196597	9324.879368
581.550273	9368.402170
581.903895	9333.219957
582.257463	9401.028517
582.610975	9279.254405
582.964434	9301.856418
583.317837	9226.702897
583.671186	9206.656749
584.024481	9201.411428
584.377721	9124.319583
584.730906	9101.170604
585.084037	9131.750244
585.437113	9069.277745
585.790135	9091.501671
586.143103	8989.342689
586.496016	8966.949883
586.848874	9018.656998
587.201679	9004.635029
587.554428	8895.151250
587.907124	8938.235471
588.259765	8912.144979
588.612352	8909.163137
588.964884	8788.180486
589.317362	8800.735479
589.669786	8803.684554
590.022155	8852.117440
590.374470	8871.210810
590.726731	8799.422259
591.078937	8661.808841
591.431090	8769.712218
591.783188	8642.130697
592.135232	8636.058627
592.487222	8633.913616
592.839157	8687.317079
593.191038	8620.521791
593.542866	8565.979027
593.894639	8464.364489
594.246358	8518.085545
594.598022	8536.568935
594.949633	8431.604551
595.301190	8410.870285
595.652692	8437.399357
596.004141	8547.346922
596.355535	8323.189496
596.706876	8307.589645
597.058162	8240.486847
597.409395	8320.497520
597.760573	8380.273002
598.111698	8287.868652
598.462768	8274.396168
598.813785	8236.721105
599.164748	8210.481899
599.515657	8196.157460
599.866511	8108.373328
600.217312	8233.131803
600.568060	8089.239628
600.918753	8194.808952
601.269392	8165.348448
601.619978	8075.477278
601.970510	8141.821383
602.320988	8138.524469
602.671412	8195.446657
603.021783	8127.685988
603.372100	8101.371165
603.722363	8104.973069
604.072572	8082.628155
604.422728	8091.021676
604.772830	8021.579782
605.122878	8031.939353
605.472872	8026.988940
605.822813	8053.545738
606.172701	7997.301585
606.522534	8073.423008
606.872314	8065.150475
607.222041	8041.028553
607.571714	8093.905216
607.921333	8056.348620
608.270899	8057.316522
608.620411	8151.323958
608.969870	8054.266623
609.319276	8056.131850
609.668627	8069.642143
610.017926	8101.280424
610.367171	8144.563771
610.716362	8122.367571
611.065500	8113.616128
611.414585	8140.808112
611.763616	8133.468192
612.112594	8108.030529
612.461518	8127.426369
612.810389	8185.618928
613.159207	8130.241853
613.507971	8079.744615
613.856682	8199.290537
614.205340	8146.580233
614.553945	8228.821617
614.902496	8124.459650
615.250994	8183.461314
615.599439	8168.781474
615.947830	8176.242382
616.296169	8150.381263
616.644454	8158.623549
616.992686	8159.934249
617.340864	8216.430460
617.688990	8121.132488
618.037063	8211.212866
618.385082	8163.372316
618.733048	8246.475737
619.080961	8188.139505
619.428821	8199.779529
619.776628	8199.255249
620.124382	8153.731109
620.472083	8139.683934
620.819731	8163.962131
621.167326	8065.132831
621.514868	8068.200373
621.862357	7963.621636
622.209793	7974.157648
622.557176	7908.970487
622.904506	7879.968729
623.251783	7817.619738
623.599007	7771.271370
623.946179	7772.173737
624.293297	7730.518682
624.640363	7652.980695
624.987376	7635.901266
625.334336	7577.807009
625.681243	7527.667693
626.028097	7515.921804
626.374899	7492.379616
626.721647	7485.488358
627.068343	7422.610047
627.414987	7394.399750
627.761577	7346.990218
628.108115	7385.965899
628.454600	7279.068232
628.801032	7330.392219
629.147412	7287.849922
629.493739	7278.982532
629.840014	7213.132460
630.186236	7272.484485
630.532405	7149.571072
630.878521	7205.356480
631.224585	7163.096488
631.570597	7089.535971
631.916556	7123.906558
632.262462	7117.872297
632.608316	7077.976605
632.954117	7052.110445
633.299866	7041.670215
633.645562	7033.947167
633.991206	6950.964734
634.336797	6894.473564
634.682336	6853.292378
635.027823	6820.600495
635.373257	6814.906512
635.718639	6744.675677
636.063968	6758.639673
636.409245	6655.313664
636.754470	6650.113713
637.099642	6615.768332
637.444762	6554.077212
637.789829	6563.713378
638.134845	6503.522001
638.479808	6492.005485
638.824719	6494.760475
639.169577	6419.249032
639.514383	6445.135357
639.859137	6371.887392
640.203839	6376.666405
640.548489	6369.170210
640.893086	6348.294792
641.237632	6318.345297
641.582125	6339.472772
641.926566	6308.439429
642.270955	6321.148178
642.615292	6317.604247
642.959576	6330.733932
643.303809	6322.534495
643.647990	6331.064128
643.992118	6315.406304
644.336195	6267.318737
644.680219	6293.855371
645.024192	6277.516992
645.368112	6370.354881
645.711981	6397.083078
646.055797	6474.434543
646.399562	6428.020640
646.743274	6556.197017
647.086935	6608.219204
647.430544	6605.635613
647.774101	6628.356093
648.117606	6630.060003
648.461059	6617.810000
648.804460	6581.977478
649.147810	6493.762327
649.491108	6464.896680
649.834354	6438.228976
650.177548	6353.023394
650.520690	6270.063646
650.863781	6247.335603
651.206820	6268.730260
651.549807	6195.005906
651.892742	6132.593901
652.235626	6141.214274
652.578458	6121.523527
652.921238	6027.027098
653.263967	6072.604170
653.606644	6012.574110
653.949269	6016.879255
654.291843	5954.268125
654.634365	6005.186299
654.976836	5957.348270
655.319255	5955.170491
655.661622	5931.398930
656.003938	5929.561430
656.346203	5892.876953
656.688416	5925.074803
657.030577	5875.036310
657.372687	5847.748544
657.714746	5835.322100
658.056753	5880.306836
658.398708	5817.375592
658.740612	5807.837729
659.082465	5855.350604
659.424266	5848.529923
659.766016	5847.990519
660.107715	5826.028733
660.449362	5839.249158
660.790958	5829.953271
661.132503	5821.554708
661.473996	5855.713567
661.815438	5843.670250
662.156829	5838.480383
662.498168	5834.293704
662.839456	5803.734230
663.180693	5844.118913
663.521879	5841.563048
663.863013	5833.542572
664.204097	5852.348597
664.545129	5895.493312
664.886110	5888.072733
665.227040	5921.409884
665.567918	5883.644080
665.908746	5913.717083
666.249522	5921.999699
666.590248	5908.905302
666.930922	5935.020999
667.271545	5947.432320
667.612118	5948.664882
667.952639	5923.819555
668.293109	5951.122445
668.633528	5899.443056
668.973896	5908.832205
669.314213	5894.505246
669.654480	5877.226691
669.994695	5871.315938
670.334859	5861.097519
670.674973	5852.353638
671.015035	5859.514597
671.355047	5857.140213
671.695008	5845.356516
672.034918	5817.723432
672.374777	5827.205842
672.714585	5808.823274
673.054342	5815.694367
673.394049	5810.892668
673.733705	5838.462738
674.073310	5831.364794
674.412864	5788.081447
674.752368	5777.968892
675.091820	5782.480725
675.431223	5720.298092
675.770574	5720.953442
676.109875	5672.941493
676.449125	5679.086660
676.788324	5646.309077
677.127473	5590.826138
677.466571	5576.196710
677.805619	5570.192695
678.144616	5558.890428
678.483562	5533.760277
678.822458	5504.324979
679.161303	5495.986911
679.500098	5491.878370
679.838842	5468.023630
680.177535	5474.098221
680.516179	5492.284183
680.854771	5504.677860
681.193314	5580.978244
681.531805	5692.135686
681.870247	5840.978274
682.208638	5944.997443
682.546978	5954.711746
682.885268	5935.630979
683.223508	5851.302557
683.561697	5792.976407
683.899836	5762.084217
684.237925	5721.507969
684.575963	5682.892731
684.913951	5642.119878
685.251889	5700.546852
685.589776	5673.576678
685.927614	5643.904447
686.265401	5718.407660
686.603137	5700.345205
686.940824	5778.427637
687.278460	5798.294825
687.616046	5809.803779
687.953582	5873.859200
688.291068	5854.513772
688.628504	5924.411891
688.965889	5883.197938
689.303224	5823.586293
689.640510	5781.817813
689.977745	5708.121185
690.314930	5611.021000
690.652065	5551.933636
690.989150	5457.220438
691.326185	5382.757554
691.663170	5329.094472
692.000105	5252.680662
692.336990	5180.335063
692.673825	5150.158716
693.010610	5082.289662
693.347345	5019.673490
693.684030	4997.986446
694.020665	4960.470179
694.357251	4870.097414
694.693786	4883.385895
695.030272	4846.746789
695.366707	4811.461233
695.703093	4777.385553
696.039429	4804.988391
696.375716	4785.464002
696.711952	4755.088530
697.048139	4748.560236
697.384276	4724.526535
697.720363	4736.854677
698.056400	4746.894134
698.392388	4696.774983
698.728326	4675.574410
699.064214	4653.554650
699.400053	4649.567098
699.735842	4612.393629
700.071581	4589.199280
700.407270	4563.136515
700.742910	4547.645049
701.078501	4491.244620
701.414042	4492.121781
701.749533	4461.295125
702.084974	4394.620824
702.420366	4450.123928
702.755709	4397.975712
703.091002	4338.230477
703.426246	4386.527252
703.761440	4344.385726
704.096584	4308.487670
704.431679	4326.214887
704.766725	4312.823062
705.101721	4300.971309
705.436668	4333.605219
705.771565	4280.635295
706.106413	4304.565652
706.441212	4337.481866
706.775961	4345.860264
707.110661	4327.810412
707.445311	4354.241182
707.779913	4377.692630
708.114465	4390.174527
708.448967	4414.356942
708.783421	4473.711487
709.117825	4517.423332
709.452180	4523.296276
709.786485	4562.541659
710.120742	4650.804701
710.454949	4631.756701
710.789107	4700.515519
711.123216	4772.760295
711.457275	4765.811064
711.791286	4841.902240
712.125247	4854.858006
712.459159	4758.662708
712.793023	4830.897402
713.126837	4794.989263
713.460602	4785.385865
713.794318	4706.063309
714.127985	4715.255853
714.461602	4630.405672
714.795171	4595.397379
715.128691	4534.374212
715.462162	4481.590810
715.795584	4432.565589
716.128957	4411.034821
716.462281	4359.700752
716.795556	4333.557328
717.128782	4295.940238
717.461960	4228.718972
717.795088	4237.835898
718.128167	4194.635731
718.461198	4135.727327
718.794180	4134.391422
719.127113	4113.594141
719.459997	4093.404320
719.792833	4049.246333
720.125619	4040.913306
720.458357	4004.798480
720.791046	4010.525230
721.123686	3983.907938
721.456278	3938.595527
721.788821	3955.571612
722.121315	3931.295936
722.453761	3902.725197
722.786158	3916.180036
723.118506	3943.435034
723.450805	3890.588619
723.783056	3914.435797
724.115259	3931.605967
724.447412	3934.857511
724.779518	3928.170421
725.111574	3935.926236
725.443582	3964.234835
725.775542	3950.457362
726.107453	3999.520392
726.439315	3999.888396
726.771129	4017.025798
727.102895	4051.726581
727.434612	4097.139815
727.766281	4106.712966
728.097901	4108.384109
728.429473	4113.415180
728.760996	4122.648054
729.092471	4120.266108
729.423897	4097.583437
729.755276	4106.889407
730.086606	4104.830095
730.417887	4142.371568
730.749120	4208.534192
731.080305	4273.638173
731.411442	4299.547183
731.742530	4269.209519
732.073570	4270.535343
732.404562	4328.294363
732.735506	4319.474864
733.066401	4279.687558
733.397249	4218.261098
733.728048	4142.288389
734.058798	4055.583063
734.389501	3988.702075
734.720156	3922.569699
735.050762	3877.937843
735.381320	3873.037842
735.711831	3826.450018
736.042293	3796.850883
736.372707	3817.832166
736.703073	3790.093217
737.033391	3779.882360
737.363661	3797.561686
737.693883	3822.336437
738.024056	3831.730627
738.354182	3820.992969
738.684260	3891.047364
739.014290	3909.954211
739.344272	3905.444899
739.674207	3947.296558
740.004093	3952.990542
740.333931	3947.901497
740.663722	3951.049697
740.993464	3945.277576
741.323159	3921.064914
741.652806	3894.412334
741.982405	3866.121378
742.311956	3832.295236
742.641460	3823.921880
742.970915	3801.176193
743.300323	3758.472579
743.629683	3725.594174
743.958996	3713.591187
744.288260	3687.140252
744.617477	3654.261847
744.946647	3644.149292
745.275768	3616.770786
745.604842	3616.115436
745.933869	3567.972417
746.262847	3559.841035
746.591778	3600.747478
746.920662	3567.957293
747.249498	3537.347407
747.578286	3583.771393
747.907027	3603.348714
748.235720	3598.461315
748.564365	3622.278246
748.892963	3623.732619
749.221514	3606.300309
749.550017	3583.988162
749.878473	3578.866350
750.206881	3551.412226
750.535242	3550.509860
750.863555	3553.121177
751.191821	3544.168088
751.520039	3523.953061
751.848210	3503.788446
752.176334	3537.775905
752.504411	3542.781771
752.832440	3503.712828
753.160421	3488.659943
753.488356	3497.587827
753.816243	3507.743231
754.144082	3464.195223
754.471875	3450.568985
754.799620	3472.319043
755.127318	3460.447126
755.454969	3463.973413
755.782572	3466.304946
756.110129	3442.062038
756.437638	3431.674740
756.765100	3446.029426
757.092515	3456.406641
757.419882	3463.600367
757.747203	3433.938218
758.074477	3437.784618
758.401703	3452.751804
758.728882	3476.354487
759.056014	3483.931341
759.383099	3485.988132
759.710138	3483.785147
760.037129	3501.656038
760.364073	3529.957075
760.690970	3516.471989
761.017820	3492.907115
761.344623	3513.119622
761.671379	3556.685273
761.998088	3605.992799
762.324751	3734.499372
762.651366	3981.896518
762.977935	4455.447387
763.304456	4891.890322
763.630931	4987.919262
763.957359	4628.631186
764.283740	4283.249133
764.610074	4091.103033
764.936362	3895.977612
765.262602	3740.642018
765.588796	3630.371819
765.914943	3540.241029
766.241044	3455.252217
766.567097	3422.146959
766.893104	3378.762789
767.219064	3347.830269
767.544978	3321.389417
767.870845	3262.927156
768.196665	3246.818149
768.522438	3254.478182
768.848165	3253.424581
769.173846	3211.550237
769.499479	3196.729244
769.825066	3183.539065
770.150607	3164.589368
770.476101	3177.522448
770.801548	3175.921882
771.126949	3129.119810
771.452303	3112.703292
771.777611	3120.993470
772.102872	3125.195271
772.428087	3100.518823
772.753256	3087.802513
773.078378	3078.473858
773.403453	3048.693241
773.728482	3035.404760
774.053465	3057.162380
774.378401	3044.756100
774.703291	3013.909280
775.028135	3016.308869
775.352932	3011.860051
775.677683	2996.184583
776.002388	2995.715755
776.327046	2998.921929
776.651658	2988.625373
776.976224	2973.605255
777.300743	2974.535348
777.625216	2965.620067
777.949643	2960.740230
778.274024	2963.548153
778.598359	2952.321503
778.922647	2956.298973
779.246889	2954.768983
779.571086	2943.877570
779.895236	2936.154523
780.219339	2944.537962
780.543397	2956.074642
780.867409	2963.089408
781.191374	2951.714044
781.515294	2950.320165
781.839167	2951.721606
782.162995	2944.028805
782.486776	2952.364353
782.810511	2949.145576
783.134201	2935.383226
783.457844	2942.564350
783.781441	2933.676796
784.104993	2915.818508
784.428498	2915.866399
784.751958	2931.030190
785.075372	2922.729930
785.398739	2906.812487
785.722061	2922.336720
786.045337	2935.181580
786.368568	2921.225146
786.691752	2910.106881
787.014891	2959.116978
787.337983	2988.948006
787.661030	3016.593694
787.984031	3083.426791
788.306987	3128.804738
788.629897	3118.863582
788.952760	3106.056531
789.275579	3088.939293
789.598351	3030.915612
789.921078	2988.653099
790.243759	2976.735811
790.566395	2962.197123
790.888984	2935.017743
791.211529	2921.081473
791.534027	2909.900193
791.856480	2901.915006
792.178888	2885.899260
792.501249	2877.843496
792.823566	2875.693444
793.145836	2871.708412
793.468062	2867.408308
793.790241	2866.243801
794.112375	2868.356045
794.434464	2883.746687
794.756507	2888.119888
795.078505	2892.956875
795.400457	2908.014802
795.722364	2947.991152
796.044226	2970.862867
796.366042	2968.498566
796.687812	2961.284675
797.009538	2982.613797
797.331218	2965.496559
797.652852	2953.917028
797.974442	2936.439348
798.295986	2931.592278
798.617484	2929.192689
798.938938	2911.294073
799.260346	2895.270765
799.581709	2891.061402
799.903026	2885.241389
800.224299	2876.684031
800.545526	2869.712115
800.866708	2854.021524
801.187845	2845.736387
801.508936	2848.090606
801.829983	2855.140660
802.150984	2838.799760
802.471940	2825.667554
802.792851	2825.836432
803.113717	2824.775270
803.434538	2830.396156
803.755314	2826.096052
804.076045	2822.773932
804.396731	2816.313693
804.717372	2817.185812
805.037967	2812.633651
805.358518	2822.050526
805.679024	2829.042606
805.999485	2824.886175
806.319901	2830.628049
806.640272	2819.915597
806.960598	2827.028665
807.280879	2837.705829
807.601115	2846.326202
807.921306	2834.272803
808.241453	2830.451609
808.561554	2833.682988
808.881611	2836.385047
809.201623	2830.275168
809.521590	2830.527226
809.841513	2825.738130
810.161390	2830.491938
810.481223	2823.746874
810.801011	2811.832107
811.120755	2808.653660
811.440453	2814.135914
811.760107	2812.734474
812.079716	2816.031388
812.399281	2799.771147
812.718801	2797.517751
813.038276	2788.390742
813.357707	2797.177473
813.677093	2801.996816
813.996434	2796.106228
814.315731	2796.559932
814.634983	2790.868469
814.954191	2789.809827
815.273354	2805.225675
815.592473	2810.619710
815.911547	2813.815801
816.230577	2823.464570
816.549562	2831.026300
816.868502	2830.451609
817.187399	2838.950994
817.506250	2854.381966
817.825058	2848.198991
818.143821	2860.834643
818.462539	2877.558671
818.781213	2902.993813
819.099843	2941.389761
819.418429	2995.602329
819.736970	3057.053995
820.055466	3128.429172
820.373919	3235.651993
820.692327	3376.970659
821.010691	3544.316802
821.329011	3982.413236
821.647286	4875.942632
821.965517	6247.834678
822.283704	6979.245607
822.601847	6948.671009
822.919945	6324.021636
823.237999	5830.336398
823.556010	5249.388788
823.873976	4700.361764
824.191897	4298.294457
824.509775	4003.639014
824.827609	3737.423241
825.145398	3614.053604
825.463144	3604.351903
825.780845	3694.719627
826.098502	3796.147643
826.416116	4082.906117
826.733685	4394.618304
827.051210	4454.723981
827.368692	4341.280375
827.686129	4077.607865
828.003522	3755.495778
828.320872	3495.157990
828.638177	3300.932415
828.955439	3168.508865
829.272656	3084.009044
829.589830	3018.620238
829.906960	2967.873463
830.224046	2924.902667
830.541088	2891.121895
830.858086	2875.953063
831.175041	2858.001515
831.491952	2858.424972
831.808819	2869.225644
832.125642	2894.590209
832.442421	2939.675769
832.759157	3019.399096
833.075849	3199.688402
833.392497	3478.625526
833.709101	3681.484078
834.025662	3626.631283
834.342179	3467.734113
834.658653	3294.411682
834.975083	3148.508087
835.291469	3045.976059
835.607811	2965.670478
835.924110	2905.262332
836.240366	2856.380784
836.556578	2812.457210
836.872746	2789.071297
837.188871	2769.410797
837.504952	2754.010072
837.820990	2745.765265
838.136984	2733.474932
838.452935	2723.160732
838.768842	2720.985474
839.084706	2738.637074
839.400526	2819.439208
839.716303	2952.994497
840.032037	3028.062319
840.347727	3015.295597
840.663373	2956.611525
840.978977	2882.030174
841.294537	2808.399081
841.610054	2762.685898
841.925527	2737.880901
842.240957	2716.279557
842.556344	2695.840198
842.871687	2680.321006
843.186987	2673.311282
843.502244	2667.806342
843.817458	2661.696463
844.132629	2651.989722
844.447756	2641.312558
844.762840	2635.628657
845.077881	2638.920530
845.392879	2633.803759
845.707833	2635.477422
846.022745	2625.221195
846.337613	2628.349231
846.652438	2624.263375
846.967221	2627.724127
847.281960	2622.809002
847.596656	2624.286061
847.911309	2622.715741
848.225919	2618.700462
848.540485	2615.887498
848.855009	2618.927314
849.169490	2616.043774
849.483928	2616.439505
849.798323	2614.609566
850.112675	2613.286263
850.426984	2614.846500
850.741251	2613.442539
851.055474	2614.370111
851.369654	2617.288939
851.683792	2616.051336
851.997887	2613.235851
852.311938	2612.540172
852.625947	2616.167282
852.939914	2617.500667
853.253837	2618.914711
853.567718	2615.781634
853.881555	2610.841303
854.195350	2618.042592
854.509103	2614.128136
854.822812	2612.706530
855.136479	2610.622013
855.450103	2614.559154
855.763685	2616.058897
856.077224	2610.813577
856.390720	2610.765686
856.704173	2613.135028
857.017584	2618.279526
857.330953	2619.403703
857.644278	2621.417644
857.957561	2624.434775
858.270802	2614.460852
858.584000	2617.848507
858.897155	2622.181379
859.210268	2621.389918
859.523339	2616.741974
859.836367	2611.610079
860.149352	2614.218876
860.462295	2614.899432
860.775195	2609.649070
861.088054	2607.940119
861.400869	2608.237547
861.713642	2605.585900
862.026373	2607.057917
862.339062	2609.233175
862.651708	2617.160390
862.964312	2619.484362
863.276873	2614.763321
863.589392	2617.493106
863.901869	2624.727162
864.214303	2627.492234
864.526696	2631.179838
864.839045	2631.925929
865.151353	2635.154788
865.463619	2633.529016
865.775842	2635.641260
866.088023	2634.312916
866.400162	2633.869294
866.712258	2634.375930
867.024313	2633.778553
867.336325	2629.382667
867.648296	2629.702780
867.960224	2635.820221
868.272110	2632.760240
868.583954	2627.530043
868.895755	2628.563480
869.207515	2636.006743
869.519233	2641.287352
869.830909	2637.773668
870.142542	2634.597741
870.454134	2635.444655
870.765684	2640.042187
871.077191	2641.216776
871.388657	2644.140645
871.700081	2641.700727
872.011463	2645.773979
872.322803	2646.192395
872.634101	2648.758342
872.945357	2657.711431
873.256571	2661.333500
873.567744	2657.015752
873.878874	2655.573982
874.189963	2656.738488
874.501010	2660.111020
874.812015	2667.682833
875.122979	2667.294665
875.433900	2657.499703
875.744780	2658.439878
876.055618	2663.115548
876.366415	2668.801970
876.677169	2665.862977
876.987882	2661.383912
877.298554	2660.317708
877.609183	2672.174502
877.919771	2675.400840
878.230317	2686.647654
878.540822	2697.561752
878.851285	2708.702702
879.161707	2732.547360
879.472087	2770.512290
879.782425	2817.858807
880.092722	2931.428441
880.402977	3117.439456
880.713191	3373.222561
881.023363	3662.501613
881.333494	3850.110674
881.643583	4022.276160
881.953631	4019.604348
882.263637	3841.328984
882.573602	3625.348309
882.883526	3499.926922
883.193408	3383.990466
883.503248	3287.308697
883.813048	3169.638084
884.122806	3059.299829
884.432522	2973.736325
884.742197	2907.422466
885.051831	2873.155223
885.361424	2837.852023
885.670975	2803.531847
885.980485	2771.702002
886.289954	2756.694487
886.599382	2740.673700
886.908768	2729.368912
887.218113	2712.533979
887.527417	2701.231712
887.836680	2689.727799
888.145901	2685.094979
888.455082	2676.041067
888.764221	2664.973213
889.073319	2657.902995
889.382376	2655.571461
889.691392	2656.047850
890.000366	2659.279230
890.309300	2657.303098
890.618193	2659.755619
890.927044	2663.927174
891.235855	2661.066319
891.544625	2657.570279
891.853353	2662.001453
892.162041	2669.059068
892.470687	2686.882068
892.779293	2699.154757
893.087858	2709.126159
893.396381	2728.761453
893.704864	2771.724687
894.013306	2843.094823
894.321707	2935.428597
894.630068	2985.041112
894.938387	3002.112980
895.246665	2994.127792
895.554903	2952.318983
895.863100	2907.903897
896.171256	2853.179651
896.479371	2789.353602
896.787446	2753.357243
897.095480	2738.236302
897.403473	2728.128789
897.711425	2712.660008
898.019336	2696.591330
898.327207	2683.141532
898.635038	2682.342509
898.942827	2680.157169
899.250576	2669.742145
899.558284	2658.104641
899.865952	2652.781183
900.173579	2649.285142
900.481165	2651.674649
900.788711	2639.885911
901.096216	2635.147227
901.403681	2629.138171
901.711105	2634.244860
902.018489	2627.126751
902.325832	2634.517082
902.633135	2634.199490
902.940397	2651.583909
903.247619	2687.076152
903.554800	2754.310021
903.861941	2883.071173
904.169041	3005.954339
904.476101	3067.471539
904.783121	3058.200857
905.090100	3001.845798
905.397039	2928.360899
905.703938	2856.378263
906.010796	2793.600774
906.317614	2744.837693
906.624391	2709.350491
906.931129	2682.458455
907.237826	2656.861997
907.544483	2641.615027
907.851099	2626.705814
908.157675	2618.327417
908.464211	2613.868516
908.770707	2600.645570
909.077163	2597.832606
909.383578	2596.279930
909.689954	2592.688108
909.996289	2590.054105
910.302584	2589.736513
910.608839	2587.223498
910.915054	2589.091245
911.221229	2589.867583
911.527363	2594.838160
911.833458	2591.505958
912.139513	2591.168200
912.445527	2594.278592
912.751502	2597.777153
913.057436	2603.705550
913.363331	2609.641509
913.669186	2621.082407
913.975000	2634.433903
914.280775	2649.108702
914.586510	2667.937412
914.892205	2705.032742
915.197859	2774.015892
915.503475	2853.678725
915.809050	2918.971750
916.114585	2933.548246
916.420081	2944.172478
916.725536	2955.366360
917.030952	2927.856783
917.336328	2884.684342
917.641665	2835.134841
917.946961	2786.094496
918.252218	2753.188364
918.557435	2724.093345
918.862612	2706.424101
919.167750	2688.129753
919.472848	2671.307423
919.777906	2656.360402
920.082925	2642.812301
920.387904	2632.510703
920.692843	2629.115486
920.997743	2626.350413
921.302603	2618.266923
921.607423	2611.869699
921.912204	2605.457351
922.216946	2602.309150
922.521647	2602.750251
922.826310	2595.317070
923.130932	2589.116451
923.435516	2586.971440
923.740059	2586.873137
924.044564	2583.412385
924.349028	2583.495564
924.653454	2571.447207
924.957840	2573.652711
925.262186	2570.922927
925.566493	2569.108111
925.870761	2566.927812
926.174989	2567.807493
926.479178	2564.601320
926.783328	2562.789025
927.087438	2562.988150
927.391509	2567.033676
927.695541	2558.781307
927.999533	2560.374312
928.303486	2561.339693
928.607400	2559.361040
928.911275	2559.819785
929.215110	2557.810885
929.518906	2555.892726
929.822663	2558.249466
930.126381	2556.243087
930.430060	2556.117058
930.733699	2556.351471
931.037299	2557.465566
931.340861	2558.395659
931.644383	2560.386915
931.947866	2559.620660
932.251309	2559.540001
932.554714	2558.188972
932.858080	2556.943807
933.161407	2557.659651
933.464694	2556.827860
933.767943	2556.893395
934.071153	2559.219888
934.374323	2552.890719
934.677455	2556.527912
934.980548	2556.633776
935.283602	2553.026830
935.586617	2553.646892
935.889593	2555.441543
936.192530	2555.365926
936.495428	2558.156204
936.798287	2554.226625
937.101108	2556.054043
937.403890	2561.846329
937.706632	2564.245918
938.009336	2565.433110
938.312002	2570.915365
938.614628	2573.133473
938.917216	2574.769327
939.219765	2576.246385
939.522275	2576.442990
939.824747	2577.703278
940.127179	2573.831672
940.429573	2568.568708
940.731929	2569.095508
941.034246	2565.745662
941.336524	2567.774726
941.638763	2567.913358
941.940964	2566.779098
942.243126	2565.924622
942.545250	2565.193655
942.847335	2564.198027
943.149381	2561.327090
943.451389	2560.880948
943.753359	2559.194682
944.055290	2561.521175
944.357182	2558.045299
944.659036	2557.662171
944.960851	2560.477656
945.262628	2558.562017
945.564367	2558.067984
945.866067	2559.880279
946.167729	2561.574107
946.469352	2558.476318
946.770937	2557.558828
947.072484	2557.337017
947.373992	2561.276679
947.675462	2557.276523
947.976893	2558.554456
948.278286	2553.533466
948.579641	2554.579506
948.880958	2557.841132
949.182236	2557.173179
949.483476	2553.359547
949.784678	2556.364074
950.085841	2554.420709
950.386967	2557.016904
950.688054	2555.156718
950.989103	2555.413817
951.290114	2556.958930
951.591087	2560.099569
951.892021	2557.062274
952.192917	2564.135013
952.493776	2561.629559
952.794596	2561.347255
953.095378	2563.315825
953.396122	2563.701474
953.696828	2560.606205
953.997496	2560.177707
954.298126	2556.036399
954.598718	2558.186451
954.899272	2554.322407
955.199788	2554.811399
955.500266	2554.254351
955.800706	2549.684545
956.101108	2544.971067
956.401472	2548.429298
956.701798	2545.480223
957.002087	2546.506098
957.302337	2548.099102
957.602550	2546.433001
957.902724	2545.830583
958.202861	2542.488298
958.502960	2546.720347
958.803022	2543.657846
959.103045	2545.230686
959.403031	2544.174564
959.702979	2547.479041
960.002889	2541.653987
960.302762	2541.180119
960.602596	2542.463093
960.902393	2544.116591
961.202153	2542.158103
961.501875	2541.717002
961.801559	2540.368493
962.101205	2543.589790
962.400814	2541.916127
962.700385	2540.141641
962.999918	2541.616179
963.299414	2539.309851
963.598873	2540.023174
963.898293	2541.717002
964.197677	2541.810263
964.497022	2540.822197
964.796331	2537.474871
965.095601	2541.301107
965.394835	2541.215407
965.694030	2539.007382
965.993189	2540.978473
966.292309	2540.091230
966.591393	2542.236241
966.890439	2540.565098
967.189447	2537.288348
967.488419	2541.439738
967.787353	2540.252547
968.086249	2537.671476
968.385108	2540.406302
968.683930	2539.511497
968.982714	2541.253216
969.281462	2540.469316
969.580172	2540.446631
969.878844	2540.781868
970.177480	2540.033256
970.476078	2540.348328
970.774639	2540.696168
971.073162	2539.861857
971.371649	2537.174922
971.670098	2536.824562
971.968510	2540.000489
972.266885	2534.314067
972.565223	2541.790098
972.863524	2541.074255
973.161788	2538.994779
973.460014	2542.269008
973.758204	2542.536189
974.056356	2540.408822
974.354471	2540.267670
974.652550	2542.253885
974.950591	2539.612320
975.248595	2542.516025
975.546563	2540.320602
975.844493	2538.944367
976.142386	2540.728936
976.440243	2540.008051
976.738062	2540.239944
977.035845	2538.586445
977.333590	2540.161806
977.631299	2539.783719
977.928971	2537.850437
978.226606	2542.178267
978.524204	2539.040149
978.821765	2538.546116
979.119290	2539.355221
979.416777	2538.175591
979.714228	2539.302289
980.011642	2536.466640
980.309020	2539.390509
980.606360	2537.230375
980.903664	2541.321271
981.200931	2537.439583
981.498162	2540.514687
981.795356	2543.791437
982.092513	2543.854451
982.389633	2544.897970
982.686717	2550.014741
982.983764	2551.993394
983.280775	2554.871893
983.577749	2555.179403
983.874686	2552.842828
984.171587	2550.917108
984.468451	2545.424770
984.765279	2546.962322
985.062070	2544.116591
985.358824	2542.470654
985.655543	2540.549975
985.952224	2540.406302
986.248869	2541.452341
986.545478	2534.853471
986.842050	2534.394726
987.138586	2533.981351
987.435086	2534.641742
987.731549	2533.326001
988.027975	2539.362783
988.324366	2538.024357
988.620719	2537.457227
988.917037	2536.887576
989.213318	2536.716177
989.509563	2534.377082
989.805772	2534.119983
990.101944	2535.450848
990.398080	2535.975127
990.694180	2537.124511
990.990244	2537.510159
991.286271	2535.289531
991.582262	2538.674665
991.878217	2537.021167
992.174136	2536.562422
992.470019	2535.155940
992.765865	2535.160981
993.061676	2538.074768
993.357450	2539.493853
993.653188	2534.107380
993.948890	2535.957483
994.244556	2535.029911
994.540186	2539.478729
994.835780	2537.530323
995.131337	2537.875642
995.426859	2537.691640
995.722345	2537.714326
996.017795	2539.541744
996.313208	2538.669624
996.608586	2540.741538
996.903928	2541.013761
997.199234	2538.346990
997.494504	2541.414533
997.789738	2537.394212
998.084936	2541.898483
998.380099	2540.232382
998.675225	2537.598379
998.970316	2540.701209
999.265371	2538.886394
999.560390	2537.404295
999.855373	2536.035621
1000.150320	2538.714995
1000.445232	2534.949253
1000.740108	2537.013605
1001.034948	2535.728111
1001.329752	2533.961187
1001.624521	2535.017308
1001.919254	2532.678213
1002.213951	2533.736855
1002.508613	2530.727286
1002.803239	2533.391536
1003.097829	2530.253418
1003.392384	2537.681558
1003.686903	2532.408511
1003.981386	2533.550332
1004.275834	2535.539068
1004.570246	2531.937163
1004.864623	2533.459592
1005.158964	2533.565456
1005.453270	2533.535209
1005.747540	2535.382792
1006.041775	2535.884387
1006.335974	2537.573173
1006.630138	2534.525796
1006.924266	2536.194418
1007.218359	2534.107380
1007.512416	2534.235929
1007.806438	2532.786598
1008.100425	2534.924047
1008.394376	2532.504293
1008.688292	2534.709798
1008.982172	2533.779705
1009.276017	2534.109901
1009.569827	2531.848943
1009.863602	2538.188194
1010.157341	2534.248532
1010.451045	2533.613347
1010.744714	2532.736186
1011.038347	2535.087884
1011.331945	2533.099149
1011.625508	2534.205683
1011.919036	2535.518903
1012.212528	2535.350024
1012.505986	2534.646783
1012.799408	2536.184335
1013.092795	2534.268697
1013.386147	2532.249715
1013.679464	2533.227699
1013.972745	2532.804242
1014.265992	2533.003367
1014.559204	2534.485467
1014.852380	2535.551671
1015.145521	2534.714839
1015.438628	2534.082174
1015.731699	2532.658048
1016.024736	2535.072761
1016.317737	2533.968748
1016.610703	2533.893131
1016.903635	2532.917668
1017.196531	2529.174611
1017.489393	2531.120496
1017.782219	2529.403983
1018.075011	2534.634181
1018.367768	2532.174098
1018.660490	2534.755168
1018.953177	2534.755168
1019.245829	2534.755168
