Dividing Wavelength (nm)	Counts (n)	Blue Motor Position (mm): 43.100000	Red Motor Position (mm): 0.000000	
326.493990	2128.881790
326.888308	2128.881790
327.282561	2128.881790
327.676750	2096.666296
328.070874	2097.044383
328.464933	2098.239136
328.858929	2102.788778
329.252859	2115.671446
329.646726	2125.917591
330.040528	2139.490898
330.434265	2154.644607
330.827938	2174.105981
331.221547	2188.148115
331.615091	2210.929089
332.008571	2229.241081
332.401986	2249.322517
332.795338	2268.604930
333.188625	2287.201747
333.581847	2308.331743
333.975006	2326.056440
334.368100	2345.086796
334.761129	2362.592203
335.154095	2377.529142
335.546996	2398.762482
335.939833	2420.880544
336.332606	2437.975097
336.725315	2452.254165
337.117960	2461.111472
337.510540	2470.435086
337.903056	2481.729792
338.295508	2488.689104
338.687896	2497.243942
339.080220	2505.236692
339.472480	2510.519821
339.864676	2515.767662
340.256807	2519.150277
340.648875	2522.003570
341.040879	2525.744106
341.432818	2528.451205
341.824694	2530.762574
342.216506	2531.216278
342.608253	2528.332738
342.999937	2532.189221
343.391557	2528.418438
343.783113	2526.709487
344.174605	2526.986750
344.566033	2525.222346
344.957397	2525.373581
345.348697	2521.570030
345.739934	2518.230266
346.131106	2518.787313
346.522215	2517.748836
346.913260	2515.134998
347.304241	2514.159534
347.695159	2509.637619
348.086012	2508.964625
348.476802	2508.273987
348.867528	2506.355828
349.258191	2503.779798
349.648789	2505.594614
350.039324	2497.831237
350.429796	2503.817607
350.820203	2500.727380
351.210548	2499.683861
351.600828	2499.071361
351.991045	2500.049345
352.381198	2498.441217
352.771288	2494.514158
353.161314	2496.051710
353.551276	2496.908706
353.941175	2496.452481
354.331010	2496.369302
354.720782	2495.585403
355.110490	2499.192348
355.500135	2495.164467
355.889717	2498.663027
356.279235	2496.616319
356.668689	2498.436175
357.058080	2495.913078
357.447408	2495.356030
357.836672	2494.304950
358.225873	2495.146823
358.615010	2495.668582
359.004084	2498.418531
359.393095	2502.733759
359.782043	2501.206289
360.170927	2498.726042
360.559748	2502.481701
360.948505	2503.081599
361.337199	2501.092863
361.725830	2507.666528
362.114398	2506.910355
362.502903	2505.350118
362.891344	2504.793070
363.279722	2505.955056
363.668037	2506.872546
364.056289	2504.122597
364.444478	2509.322547
364.832603	2508.694923
365.220665	2509.143586
365.608665	2508.329440
365.996601	2508.851199
366.384474	2511.596107
366.772284	2513.872188
367.160031	2512.304390
367.547715	2511.124760
367.935336	2514.114164
368.322893	2513.536952
368.710388	2511.795233
369.097820	2517.406037
369.485189	2513.237003
369.872495	2515.472755
370.259738	2515.659278
370.646918	2515.331602
371.034035	2514.373783
371.421090	2517.456449
371.808081	2517.635410
372.195010	2518.762108
372.581875	2514.527538
372.968678	2518.076511
373.355418	2519.036851
373.742096	2517.612725
374.128710	2517.814371
374.515262	2521.469207
374.901751	2518.346212
375.288177	2517.554751
375.674540	2521.257479
376.060841	2522.656399
376.447079	2522.598426
376.833254	2522.248066
377.219367	2518.999042
377.605417	2521.812006
377.991404	2518.845287
378.377329	2523.004239
378.763191	2525.156811
379.148991	2530.530681
379.534727	2533.774664
379.920402	2541.248174
380.306013	2542.949564
380.691563	2547.978115
381.077049	2559.081256
381.462474	2563.116700
381.847835	2575.890984
382.233134	2587.669640
382.618371	2592.176431
383.003545	2611.053032
383.388657	2622.990484
383.773706	2640.911786
384.158693	2653.562562
384.543618	2671.957732
384.928480	2692.155115
385.313280	2716.796275
385.698017	2732.423852
386.082692	2763.484921
386.467305	2781.582663
386.851856	2811.141469
387.236344	2832.299192
387.620770	2868.643390
388.005133	2897.612381
388.389435	2932.000612
388.773674	2957.229066
389.157851	2995.940087
389.541965	3029.967875
389.926018	3035.901313
390.310008	3096.710232
390.693936	3132.693988
391.077802	3179.533869
391.461606	3203.547405
391.845348	3266.660131
392.229027	3289.158800
392.612645	3326.856549
392.996200	3399.207189
393.379694	3454.375056
393.763125	3521.737474
394.146494	3530.796427
394.529801	3602.789146
394.913047	3667.688960
395.296230	3669.329856
395.679351	3737.675299
396.062410	3779.030405
396.445408	3787.928041
396.828343	3838.276565
397.211217	3882.250550
397.594028	3838.853777
397.976778	3916.308586
398.359466	3961.207622
398.742092	4003.681864
399.124656	3950.250674
399.507158	4038.438099
399.889598	4074.507555
400.271977	4146.240654
400.654294	4133.589878
401.036549	4154.644257
401.418742	4133.105927
401.800874	4241.110128
402.182944	4274.323770
402.564952	4339.682330
402.946898	4335.062112
403.328783	4338.109490
403.710606	4260.679887
404.092367	4456.531235
404.474067	4428.852779
404.855705	4437.485755
405.237282	4371.350858
405.618797	4480.827076
406.000250	4515.608517
406.381642	4601.575313
406.762972	4564.747164
407.144240	4576.513217
407.525447	4580.009257
407.906593	4639.494872
408.287677	4680.597920
408.668700	4612.318012
409.049661	4661.484385
409.430560	4703.681364
409.811399	4632.495230
410.192176	4791.886432
410.572891	4734.160180
410.953545	4834.930325
411.334138	4716.629567
411.714669	4786.515083
412.095139	4681.515410
412.475547	4823.408767
412.855894	4805.542918
413.236180	4814.914423
413.616405	4770.837095
413.996568	4854.772306
414.376670	4795.427843
414.756711	4753.858488
415.136691	4783.954177
415.516609	4861.368656
415.896466	4898.156476
416.276262	4936.249955
416.655997	4914.762037
417.035670	5097.171148
417.415283	5188.269839
417.794834	5131.279595
418.174324	5081.122634
418.553753	4994.581146
418.933121	5173.584958
419.312428	5243.044496
419.691674	5183.785732
420.070859	5310.222912
420.449983	5219.860229
420.829045	5335.322817
421.208047	5239.117437
421.586988	5313.033355
421.965867	5325.926106
422.344686	5457.580880
422.723444	5315.294313
423.102141	5132.151714
423.480777	5431.329072
423.859352	5199.932548
424.237866	5460.522393
424.616319	5452.519562
424.994712	5557.572167
425.373044	5437.887613
425.751314	5578.452626
426.129524	5385.071444
426.507673	5572.372994
426.885762	5657.830634
427.263789	5590.291776
427.641756	5471.643179
428.019662	5594.954843
428.397508	5603.860041
428.775292	5550.970776
429.153016	5648.708667
429.530679	5573.580351
429.908282	5657.518083
430.285824	5530.241551
430.663305	5804.359333
431.040726	5538.531729
431.418086	5538.657757
431.795385	5644.159025
432.172624	5655.841899
432.549802	5652.620602
432.926920	5664.681562
433.303977	5666.584598
433.680974	5709.706628
434.057910	5730.279577
434.434786	5731.139094
434.811601	5700.030133
435.188355	5934.617707
435.565050	5807.010980
435.941683	5792.636129
436.318257	6004.651937
436.694770	5989.735163
437.071222	6025.812180
437.447614	5956.234175
437.823946	5869.463314
438.200218	6022.749679
438.576429	5885.426128
438.952580	5986.334904
439.328670	6028.811667
439.704700	5937.095434
440.080670	5926.539258
440.456580	6194.743766
440.832429	6073.897226
441.208218	5926.814001
441.583947	6080.206230
441.959616	6083.477939
442.335224	6005.398028
442.710773	6145.436240
443.086261	6173.313821
443.461689	5972.330579
443.837057	6116.479852
444.212365	6275.006497
444.587612	6166.326782
444.962800	6318.393187
445.337927	6298.586494
445.712995	5913.376805
446.088002	6488.247305
446.462949	6317.793290
446.837837	6245.082208
447.212664	6422.074599
447.587431	6565.182874
447.962139	7106.103723
448.336786	8029.345679
448.711374	7770.553006
449.085901	6843.472210
449.460369	6766.390448
449.834776	6699.454007
450.209124	7094.609892
450.583412	7245.728561
450.957640	7390.616364
451.331808	7151.751371
451.705917	6706.607404
452.079965	6629.903728
452.453954	6838.509194
452.827883	6719.628704
453.201752	6815.952552
453.575562	6615.145750
453.949311	6814.435164
454.323001	6703.209666
454.696632	6778.673219
455.070202	6917.110865
455.443713	7072.333033
455.817164	7174.837335
456.190556	7249.005311
456.563888	7329.520100
456.937160	7370.151800
457.310373	7028.248143
457.683526	7055.886269
458.056619	6945.237983
458.429653	6931.009326
458.802628	6868.259564
459.175542	6975.747046
459.548398	7332.040677
459.921194	7494.441448
460.293930	7493.652507
460.666607	8027.256121
461.039224	8329.957245
461.411782	8454.075494
461.784280	8473.403278
462.156719	8369.598358
462.529099	8239.808811
462.901419	7831.964342
463.273680	7723.811427
463.645882	7739.083603
464.018024	7609.420085
464.390106	7773.968387
464.762130	8162.517841
465.134094	8632.789439
465.505999	9653.391200
465.877845	10873.027797
466.249631	11515.447237
466.621358	11130.348453
466.993026	10507.161015
467.364634	10241.139327
467.736184	9881.964677
468.107674	9552.527793
468.479105	9590.535573
468.850477	9352.187298
469.221790	9121.131053
469.593043	8794.340776
469.964238	8653.276688
470.335373	8669.592382
470.706449	8727.863080
471.077467	8705.233340
471.448425	10016.077013
471.819324	11087.133162
472.190164	11111.643252
472.560945	9859.299649
472.931667	9079.171009
473.302330	8940.698075
473.672934	8587.923170
474.043479	8943.654711
474.413965	8880.849496
474.784393	8767.821786
475.154761	8925.181403
475.525070	9013.038632
475.895321	8836.711674
476.265513	9020.479375
476.635645	9185.357874
477.005719	9185.761166
477.375734	9301.579155
477.745691	9542.405157
478.115588	9668.877624
478.485427	9912.826621
478.855207	10455.070772
479.224928	11264.985070
479.594591	11895.562840
479.964194	11702.489168
480.333739	11642.338120
480.703226	11552.845037
481.072653	11641.692853
481.442022	11889.891542
481.811333	12073.490365
482.180584	11882.458360
482.549777	11586.940881
482.918912	11411.140723
483.287988	11432.951275
483.657005	11445.037441
484.025964	11129.988011
484.394864	11260.480799
484.763706	11227.922507
485.132489	10993.879378
485.501213	10948.151071
485.869879	11025.605879
486.238487	10868.226098
486.607036	10980.905968
486.975527	10758.986814
487.343959	10948.390526
487.712333	10992.906435
488.080648	10926.826990
488.448905	10979.343211
488.817104	10909.999619
489.185244	11179.570280
489.553326	11333.398569
489.921350	11869.225332
490.289315	12935.187395
490.657222	13265.420780
491.025070	13178.249148
491.392861	13060.392012
491.760593	12676.177951
492.128267	12321.797439
492.495883	11996.597645
492.863440	11655.447641
493.230939	11321.415746
493.598380	11256.967115
493.965763	11129.894750
494.333088	11023.629747
494.700354	10944.907089
495.067563	11000.349699
495.434713	10840.225008
495.801805	10959.385282
496.168839	10883.795701
496.535815	10821.335805
496.902733	10828.126239
497.269593	10762.702145
497.636395	10858.226969
498.003139	10845.089722
498.369825	10720.966432
498.736453	10869.897240
499.103023	10793.526280
499.469535	10825.588018
499.835989	10813.343056
500.202385	10775.325194
500.568723	10626.369180
500.935003	10854.730929
501.301226	10660.548203
501.667390	10916.878273
502.033497	11015.175732
502.399546	10875.276151
502.765537	10780.958683
503.131470	10856.182781
503.497345	11033.182734
503.863163	10637.071550
504.228923	10946.570669
504.594625	11006.658703
504.960269	10760.839438
505.325856	10984.396967
505.691385	10770.526015
506.056856	10928.178020
506.422270	10952.108377
506.787625	10841.218116
507.152924	10967.047836
507.518164	10938.590523
507.883347	10863.744512
508.248472	10785.021853
508.613540	11016.516679
508.978550	10899.206508
509.343503	10871.838084
509.708398	10990.640436
510.073236	11107.199475
510.438016	11111.802048
510.802738	11065.846890
511.167403	11118.214396
511.532010	11018.467606
511.896561	11236.961296
512.261053	11312.686988
512.625488	11180.318891
512.989866	11164.782055
513.354186	11155.581949
513.718449	11050.955322
514.082655	11242.930022
514.446803	11148.370578
514.810894	11266.288208
515.174927	11131.495316
515.538904	11152.879891
515.902822	11305.168107
516.266684	11192.112670
516.630488	11135.253496
516.994235	11191.379183
517.357925	11252.992165
517.721558	11342.903664
518.085133	11353.560663
518.448651	11364.121881
518.812112	11239.859959
519.175516	11266.847776
519.538863	11383.517720
519.902152	11302.027468
520.265385	11461.743825
520.628560	11373.750485
520.991678	11347.985147
521.354739	11407.412789
521.717743	11343.122954
522.080690	11327.024030
522.443580	11456.160747
522.806413	11418.047103
523.169189	11446.746392
523.531908	11505.624549
523.894569	11324.042187
524.257174	11331.024185
524.619722	11449.254366
524.982213	11395.891232
525.344647	11450.837289
525.707025	11402.192675
526.069345	11489.931437
526.431608	11415.171125
526.793815	11510.660661
527.155964	11306.889661
527.518057	11359.879750
527.880093	11304.575772
528.242072	11381.201310
528.603995	11281.630960
528.965860	11201.900071
529.327669	11257.524162
529.689421	11200.055008
530.051117	11177.664723
530.412755	11277.121648
530.774337	11175.711276
531.135862	11147.201031
531.497331	11179.252687
531.858743	11025.827690
532.220098	11183.283089
532.581396	11061.617362
532.942638	11044.817717
533.303824	11006.457057
533.664953	11023.912052
534.026025	10932.631879
534.387040	11033.190295
534.747999	11036.978722
535.108902	11093.303534
535.469748	10857.269150
535.830537	10962.082300
536.191270	10934.252610
536.551947	10957.578029
536.912567	10958.286311
537.273131	10883.107584
537.633638	10863.842814
537.994089	10857.009530
538.354483	10811.891203
538.714821	10945.973293
539.075103	10951.765578
539.435328	10916.643860
539.795497	10749.958108
540.155609	10902.132898
540.515665	10992.427525
540.875665	10727.837525
541.235609	10794.710951
541.595496	10793.596856
541.955328	10940.594382
542.315102	10831.811323
542.674821	10781.853488
543.034483	10782.876842
543.394090	10783.764085
543.753640	10714.775895
544.113134	10928.694738
544.472571	10792.233224
544.831953	10932.533577
545.191278	10737.100645
545.550548	10768.333113
545.909761	10906.879145
546.268918	10878.673889
546.628019	10958.273708
546.987064	10826.787813
547.346053	10746.704043
547.704986	10846.274393
548.063863	10830.412403
548.422684	10824.274798
548.781449	10741.166335
549.140158	10844.575524
549.498811	10723.791999
549.857408	10581.699516
550.215949	10804.909205
550.574434	10661.024592
550.932864	10760.191650
551.291237	10812.589403
551.649555	10765.086610
552.007817	10783.479260
552.366022	10738.454195
552.724173	10737.324976
553.082267	10719.323016
553.440305	10861.276867
553.798288	10653.520835
554.156215	10811.543364
554.514086	10793.911928
554.871902	10634.099789
555.229661	10674.701242
555.587365	10649.487912
555.945014	10541.340038
556.302606	10675.830461
556.660143	10556.362677
557.017625	10713.462674
557.375050	10611.243198
557.732421	10746.031049
558.089735	10663.081383
558.446994	10655.194498
558.804197	10696.864675
559.161345	10701.842815
559.518437	10554.061390
559.875474	10636.655654
560.232455	10667.636065
560.589381	10612.939546
560.946251	10608.919226
561.303065	10721.193284
561.659825	10658.425877
562.016528	10591.562533
562.373177	10462.738367
562.729770	10579.841851
563.086307	10496.055353
563.442789	10591.338202
563.799216	10470.806734
564.155587	10517.036635
564.511904	10465.828595
564.868164	10470.463936
565.224370	10479.091870
565.580520	10397.883923
565.936615	10406.761395
566.292654	10277.574266
566.648638	10408.924050
567.004567	10365.912925
567.360441	10350.212252
567.716260	10259.698334
568.072023	10354.446821
568.427732	10307.372526
568.783385	10209.642197
569.138982	10283.984093
569.494525	10298.961361
569.850013	10172.463688
570.205445	10252.612993
570.560823	10154.721347
570.916145	10071.965765
571.271412	10139.343307
571.626625	10087.832797
571.981782	10060.877747
572.336884	10036.407987
572.691931	10039.372185
573.046923	9980.617537
573.401860	9945.374830
573.756743	9877.699861
574.111570	9921.250389
574.466342	9910.212782
574.821059	9934.223798
575.175722	9827.926028
575.530330	9840.652421
575.884882	9831.361574
576.239380	9760.520760
576.593823	9732.817099
576.948211	9749.846117
577.302544	9627.673753
577.656823	9643.767637
578.011047	9644.342328
578.365216	9621.810891
578.719330	9543.713336
579.073389	9558.249503
579.427394	9507.492646
579.781344	9480.850147
580.135239	9433.072612
580.489080	9437.181152
580.842866	9343.768572
581.196597	9349.737298
581.550273	9393.149194
581.903895	9358.506385
582.257463	9419.350591
582.610975	9296.883320
582.964434	9326.449688
583.317837	9246.431453
583.671186	9232.074246
584.024481	9223.345488
584.377721	9146.845979
584.730906	9119.270867
585.084037	9146.369590
585.437113	9088.164427
585.790135	9113.471020
586.143103	9006.389350
586.496016	8980.929003
586.848874	9037.422693
587.201679	9029.805510
587.554428	8912.407119
587.907124	8959.471332
588.259765	8930.502341
588.612352	8936.783619
588.964884	8807.949370
589.317362	8823.317328
589.669786	8818.296339
590.022155	8867.218216
590.374470	8886.621617
590.726731	8825.638779
591.078937	8672.314606
591.431090	8788.117471
591.783188	8665.559459
592.135232	8657.791041
592.487222	8652.260896
592.839157	8705.566056
593.191038	8641.044328
593.542866	8582.244310
593.894639	8487.949527
594.246358	8537.546919
594.598022	8554.074342
594.949633	8451.408723
595.301190	8429.391484
595.652692	8456.031462
596.004141	8566.374757
596.355535	8343.812856
596.706876	8327.335845
597.058162	8250.357426
597.409395	8332.860950
597.760573	8400.175477
598.111698	8309.412023
598.462768	8289.418806
598.813785	8252.961182
599.164748	8226.396822
599.515657	8214.668577
599.866511	8128.638766
600.217312	8253.818178
600.568060	8115.536807
600.918753	8218.875420
601.269392	8183.289915
601.619978	8093.068385
601.970510	8156.297057
602.320988	8154.802355
602.671412	8211.885860
603.021783	8148.271540
603.372100	8114.112681
603.722363	8122.753219
604.072572	8097.827234
604.422728	8109.018595
604.772830	8039.186012
605.122878	8041.565436
605.472872	8043.498719
605.822813	8072.613903
606.172701	8014.731374
606.522534	8089.012776
606.872314	8093.685926
607.222041	8056.126809
607.571714	8115.483875
607.921333	8073.773368
608.270899	8083.054132
608.620411	8170.369438
608.969870	8074.700941
609.319276	8059.625370
609.668627	8084.979853
610.017926	8114.034543
610.367171	8162.795104
610.716362	8143.913462
611.065500	8132.205382
611.414585	8159.641862
611.763616	8145.897156
612.112594	8128.389229
612.461518	8145.566961
612.810389	8209.708082
613.159207	8144.604100
613.507971	8093.229702
613.856682	8214.262764
614.205340	8170.150147
614.553945	8247.398268
614.902496	8150.862693
615.250994	8199.996299
615.599439	8179.050305
615.947830	8198.536885
616.296169	8166.016401
616.644454	8184.822426
616.992686	8175.730705
617.340864	8236.138851
617.688990	8143.200139
618.037063	8230.654076
618.385082	8180.776900
618.733048	8266.789067
619.080961	8200.407153
619.428821	8225.784321
619.776628	8225.716266
620.124382	8177.689193
620.472083	8159.127665
620.819731	8190.445833
621.167326	8079.573216
621.514868	8091.215761
621.862357	7982.220973
622.209793	7995.320412
622.557176	7927.428672
622.904506	7896.234012
623.251783	7833.811925
623.599007	7791.602343
623.946179	7793.182745
624.293297	7744.764983
624.640363	7669.737490
624.987376	7646.180178
625.334336	7596.955832
625.681243	7538.354939
626.028097	7533.560802
626.374899	7507.326637
626.721647	7501.105853
627.068343	7437.985566
627.414987	7406.753097
627.761577	7358.665531
628.108115	7401.359063
628.454600	7292.182794
628.801032	7343.630289
629.147412	7302.108826
629.493739	7289.392515
629.840014	7229.780871
630.186236	7286.483769
630.532405	7174.323137
630.878521	7221.231074
631.224585	7179.749939
631.570597	7100.203052
631.916556	7137.754607
632.262462	7130.238247
632.608316	7088.615960
632.954117	7065.391364
633.299866	7056.919705
633.645562	7051.192955
633.991206	6973.400389
634.336797	6907.031078
634.682336	6871.546396
635.027823	6835.136663
635.373257	6831.491908
635.718639	6756.187152
636.063968	6774.478979
636.409245	6664.972514
636.754470	6661.037894
637.099642	6620.464167
637.444762	6566.541465
637.789829	6576.006231
638.134845	6519.386512
638.479808	6504.535273
638.824719	6505.198184
639.169577	6437.649243
639.514383	6457.143385
639.859137	6381.175717
640.203839	6391.837758
640.548489	6374.324789
640.893086	6354.818045
641.237632	6330.703685
641.582125	6349.746644
641.926566	6319.948383
642.270955	6329.944992
642.615292	6326.138920
642.959576	6339.621486
643.303809	6330.890208
643.647990	6332.463048
643.992118	6334.466907
644.336195	6274.308297
644.680219	6300.381145
645.024192	6293.651204
645.368112	6389.528909
645.711981	6412.123361
646.055797	6485.625905
646.399562	6441.858607
646.743274	6567.206897
647.086935	6622.765454
647.430544	6617.270596
647.774101	6636.908411
648.117606	6642.922508
648.461059	6634.695344
648.804460	6598.749397
649.147810	6503.539645
649.491108	6475.276416
649.834354	6453.480987
650.177548	6368.736670
650.520690	6280.478669
650.863781	6256.800370
651.206820	6281.063443
651.549807	6197.783582
651.892742	6141.733513
652.235626	6148.604605
652.578458	6136.669674
652.921238	6043.471342
653.263967	6081.108597
653.606644	6022.134658
653.949269	6025.355956
654.291843	5969.767152
654.634365	6013.582341
654.976836	5967.667512
655.319255	5967.624662
655.661622	5948.100273
656.003938	5944.284119
656.346203	5907.035034
656.688416	5939.744560
657.030577	5886.325974
657.372687	5856.815059
657.714746	5841.676474
658.056753	5884.415376
658.398708	5830.522921
658.740612	5821.965563
659.082465	5870.942893
659.424266	5858.413105
659.766016	5859.365883
660.107715	5832.161296
660.449362	5852.945973
660.790958	5841.865517
661.132503	5830.507798
661.473996	5864.407037
661.815438	5856.346232
662.156829	5846.505899
662.498168	5841.852914
662.839456	5818.590510
663.180693	5853.513103
663.521879	5856.452096
663.863013	5841.376525
664.204097	5864.427201
664.545129	5900.438684
664.886110	5897.202263
665.227040	5935.452018
665.567918	5897.182098
665.908746	5931.877840
666.249522	5928.346512
666.590248	5916.149440
666.930922	5947.263441
667.271545	5961.139217
667.612118	5958.754752
667.952639	5934.358088
668.293109	5956.377848
668.633528	5910.586527
668.973896	5917.142547
669.314213	5906.762811
669.654480	5892.869391
669.994695	5886.726745
670.334859	5875.598398
670.674973	5864.969125
671.015035	5872.238469
671.355047	5868.961719
671.695008	5854.579307
672.034918	5828.750956
672.374777	5843.609757
672.714585	5821.529503
673.054342	5828.577036
673.394049	5818.532537
673.733705	5854.465881
674.073310	5837.441905
674.412864	5802.912522
674.752368	5791.796777
675.091820	5795.484381
675.431223	5732.931224
675.770574	5734.753601
676.109875	5682.615467
676.449125	5687.611251
676.788324	5657.424822
677.127473	5594.412919
677.466571	5590.621971
677.805619	5578.797945
678.144616	5565.617848
678.483562	5543.489703
678.822458	5514.747565
679.161303	5507.959651
679.500098	5504.045195
679.838842	5479.900589
680.177535	5482.426207
680.516179	5505.159290
680.854771	5512.373181
681.193314	5595.799236
681.531805	5706.487851
681.870247	5856.719277
682.208638	5954.699143
682.546978	5965.605680
682.885268	5941.574499
683.223508	5859.547364
683.561697	5804.946627
683.899836	5777.621053
684.237925	5726.274380
684.575963	5697.862437
684.913951	5655.138658
685.251889	5718.100149
685.589776	5686.643349
685.927614	5652.325694
686.265401	5723.365634
686.603137	5711.327359
686.940824	5783.874604
687.278460	5812.352082
687.616046	5820.909441
687.953582	5889.080964
688.291068	5871.691504
688.628504	5934.806750
688.965889	5894.913579
689.303224	5841.058933
689.640510	5790.591942
689.977745	5710.097317
690.314930	5617.017453
690.652065	5561.567281
690.989150	5468.631089
691.326185	5395.128546
691.663170	5337.911450
692.000105	5259.929841
692.336990	5185.509807
692.673825	5164.221014
693.010610	5095.636116
693.347345	5021.659704
693.684030	5008.192262
694.020665	4969.879493
694.357251	4876.615626
694.693786	4892.691865
695.030272	4855.147872
695.366707	4816.280576
695.703093	4785.612717
696.039429	4808.723886
696.375716	4791.314262
696.711952	4767.139408
697.048139	4752.288169
697.384276	4729.189602
697.720363	4743.425821
698.056400	4754.634826
698.392388	4706.360737
698.728326	4683.390719
699.064214	4660.355167
699.400053	4657.514477
699.735842	4621.671873
700.071581	4593.542234
700.407270	4570.337803
700.742910	4553.843148
701.078501	4497.414992
701.414042	4497.001618
701.749533	4467.248728
702.084974	4401.454108
702.420366	4457.368066
702.755709	4403.268924
703.091002	4342.414635
703.426246	4394.348602
703.761440	4350.699771
704.096584	4314.423628
704.431679	4332.745702
704.766725	4315.799863
705.101721	4304.379129
705.436668	4332.334848
705.771565	4278.817959
706.106413	4309.072443
706.441212	4339.636959
706.775961	4352.323023
707.110661	4332.907019
707.445311	4361.276112
707.779913	4383.878125
708.114465	4398.270620
708.448967	4417.182508
708.783421	4478.069564
709.117825	4522.719064
709.452180	4525.295094
709.786485	4573.662444
710.120742	4657.917769
710.454949	4643.459740
710.789107	4704.198082
711.123216	4782.048621
711.457275	4774.933032
711.791286	4848.516234
712.125247	4865.116754
712.459159	4764.240745
712.793023	4842.842416
713.126837	4796.864572
713.460602	4793.219818
713.794318	4714.151840
714.127985	4723.914035
714.461602	4635.900530
714.795171	4609.260552
715.128691	4538.881003
715.462162	4483.577025
715.795584	4437.389973
716.128957	4417.283331
716.462281	4366.206361
716.795556	4341.537474
717.128782	4302.818892
717.461960	4231.922625
717.795088	4240.754727
718.128167	4202.315928
718.461198	4140.801249
718.794180	4136.236484
719.127113	4119.247795
719.459997	4096.739043
719.792833	4049.710119
720.125619	4044.091753
720.458357	4011.503214
720.791046	4016.209131
721.123686	3988.898680
721.456278	3947.783030
721.788821	3963.249290
722.121315	3937.998150
722.453761	3912.860436
722.786158	3922.834359
723.118506	3948.536682
723.450805	3899.231677
723.783056	3921.289246
724.115259	3935.170063
724.447412	3941.088377
724.779518	3937.209209
725.111574	3938.351031
725.443582	3966.906647
725.775542	3953.562712
726.107453	4001.511647
726.439315	4004.294364
726.771129	4016.768699
727.102895	4057.997776
727.434612	4099.615022
727.766281	4114.872074
728.097901	4113.659676
728.429473	4122.416161
728.760996	4128.972181
729.092471	4126.670894
729.423897	4108.167339
729.755276	4112.696816
730.086606	4113.934419
730.417887	4150.177795
730.749120	4213.449317
731.080305	4281.373824
731.411442	4310.365499
731.742530	4274.348976
732.073570	4279.127990
732.404562	4335.241073
732.735506	4326.517356
733.066401	4286.936737
733.397249	4227.491451
733.728048	4143.866270
734.058798	4061.960123
734.389501	3992.306500
734.720156	3927.338630
735.050762	3886.112074
735.381320	3881.544789
735.711831	3827.153259
736.042293	3797.077735
736.372707	3819.430212
736.703073	3791.353505
737.033391	3785.263791
737.363661	3801.592089
737.693883	3826.268537
738.024056	3835.314887
738.354182	3830.140143
738.684260	3892.592477
739.014290	3912.689037
739.344272	3907.839447
739.674207	3951.667239
740.004093	3959.067652
740.333931	3954.124801
740.663722	3951.160603
740.993464	3950.727063
741.323159	3926.045574
741.652806	3897.784866
741.982405	3870.033314
742.311956	3839.718335
742.641460	3827.669977
742.970915	3804.833551
743.300323	3763.707818
743.629683	3728.107189
743.958996	3718.947413
744.288260	3695.838763
744.617477	3662.930111
744.946647	3651.685817
745.275768	3622.429481
745.604842	3620.380252
745.933869	3574.351997
746.262847	3560.130902
746.591778	3602.902572
746.920662	3574.432655
747.249498	3538.980741
747.578286	3585.709716
747.907027	3602.264866
748.235720	3603.323508
748.564365	3627.342085
748.892963	3629.721510
749.221514	3609.718212
749.550017	3589.793051
749.878473	3586.838935
750.206881	3554.999007
750.535242	3551.402144
750.863555	3554.905746
751.191821	3547.308727
751.520039	3532.240718
751.848210	3510.881349
752.176334	3542.643139
752.504411	3547.686813
752.832440	3507.818848
753.160421	3487.639109
753.488356	3498.984226
753.816243	3511.819004
754.144082	3470.300061
754.471875	3452.940848
754.799620	3474.673262
755.127318	3464.638845
755.454969	3463.618011
755.782572	3467.338383
756.110129	3445.424487
756.437638	3436.592386
756.765100	3447.773665
757.092515	3461.626756
757.419882	3465.084987
757.747203	3441.275617
758.074477	3443.009774
758.401703	3457.397228
758.728882	3481.052842
759.056014	3487.782782
759.383099	3489.998369
759.710138	3484.858913
760.037129	3504.411028
760.364073	3536.480328
760.690970	3519.683204
761.017820	3499.203516
761.344623	3514.947040
761.671379	3562.369174
761.998088	3612.558902
762.324751	3739.769898
762.651366	3987.401458
762.977935	4461.814364
763.304456	4906.376078
763.630931	5001.953834
763.957359	4642.388495
764.283740	4289.900935
764.610074	4099.688118
764.936362	3903.582193
765.262602	3745.990682
765.588796	3628.501551
765.914943	3548.531207
766.241044	3458.566775
766.567097	3429.587702
766.893104	3379.629868
767.219064	3348.105012
767.544978	3320.363543
767.870845	3266.143412
768.196665	3251.947523
768.522438	3257.364243
768.848165	3252.620517
769.173846	3215.978890
769.499479	3198.690253
769.825066	3180.653005
770.150607	3166.739420
770.476101	3184.075948
770.801548	3175.876512
771.126949	3130.617032
771.452303	3114.397120
771.777611	3119.818881
772.102872	3124.784417
772.428087	3101.640480
772.753256	3090.423913
773.078378	3085.057604
773.403453	3048.680638
773.728482	3037.567415
774.053465	3060.164387
774.378401	3049.469579
774.703291	3015.656039
775.028135	3015.250227
775.352932	3010.544309
775.677683	2997.530571
776.002388	2997.986795
776.327046	2995.811537
776.651658	2986.687049
776.976224	2974.437045
777.300743	2975.805718
777.625216	2966.593010
777.949643	2961.322483
778.274024	2962.870118
778.598359	2953.511215
778.922647	2957.161011
779.246889	2956.878706
779.571086	2943.638116
779.895236	2935.826848
780.219339	2944.232972
780.543397	2960.425158
780.867409	2960.921712
781.191374	2955.220167
781.515294	2953.246555
781.839167	2954.032975
782.162995	2942.478650
782.486776	2952.016513
782.810511	2947.635751
783.134201	2935.526899
783.457844	2942.302210
783.781441	2933.865839
784.104993	2912.972777
784.428498	2914.359094
784.751958	2927.120775
785.075372	2923.125661
785.398739	2909.411202
785.722061	2923.455856
786.045337	2936.550253
786.368568	2920.136256
786.691752	2911.475554
787.014891	2959.031279
787.337983	2991.680312
787.661030	3019.484796
787.984031	3085.448294
788.306987	3131.703401
788.629897	3122.087400
788.952760	3107.944443
789.275579	3089.997935
789.598351	3033.005170
789.921078	2990.029334
790.243759	2978.348980
790.566395	2961.783749
790.888984	2938.849019
791.211529	2921.827563
791.534027	2910.676531
791.856480	2902.766961
792.178888	2886.857079
792.501249	2877.029350
792.823566	2873.815614
793.145836	2870.972403
793.468062	2867.728421
793.790241	2865.631301
794.112375	2870.979965
794.434464	2886.216853
794.756507	2889.259189
795.078505	2896.132802
795.400457	2909.154103
795.722364	2945.480657
796.044226	2969.242136
796.366042	2973.706078
796.687812	2961.693008
797.009538	2983.125474
797.331218	2968.788432
797.652852	2955.583130
797.974442	2937.936571
798.295986	2931.683019
798.617484	2929.233018
798.938938	2912.937489
799.260346	2894.444016
799.581709	2892.661968
799.903026	2886.524363
800.224299	2878.881974
800.545526	2870.140613
800.866708	2852.882223
801.187845	2843.762776
801.508936	2846.646316
801.829983	2853.555217
802.150984	2839.825634
802.471940	2823.313335
802.792851	2830.731393
803.113717	2826.063284
803.434538	2832.584017
803.755314	2823.227635
804.076045	2818.115905
804.396731	2818.733447
804.717372	2818.861996
805.037967	2816.134732
805.358518	2820.936431
805.679024	2835.175170
805.999485	2828.404900
806.319901	2832.906651
806.640272	2822.347954
806.960598	2828.306598
807.280879	2837.519307
807.601115	2847.019361
807.921306	2833.156188
808.241453	2828.377174
808.561554	2835.243226
808.881611	2837.173987
809.201623	2831.197700
809.521590	2831.855570
809.841513	2826.819457
810.161390	2830.774243
810.481223	2822.310145
810.801011	2816.006182
811.120755	2811.222127
811.440453	2813.767910
811.760107	2810.569298
812.079716	2810.755821
812.399281	2800.744089
812.718801	2796.554890
813.038276	2788.050464
813.357707	2798.336938
813.677093	2805.172743
813.996434	2795.841567
814.315731	2793.701597
814.634983	2786.104578
814.954191	2791.594395
815.273354	2802.828606
815.592473	2813.392344
815.911547	2814.753456
816.230577	2822.201761
816.549562	2830.043275
816.868502	2829.266938
817.187399	2840.216324
817.506250	2855.977491
817.825058	2851.422809
818.143821	2862.530991
818.462539	2876.384082
818.781213	2905.360634
819.099843	2943.244906
819.418429	2997.860766
819.736970	3065.823082
820.055466	3137.629277
820.373919	3239.725246
820.692327	3382.349570
821.010691	3554.288204
821.329011	4000.727748
821.647286	4907.873300
821.965517	6295.556761
822.283704	7045.544342
822.601847	7034.022785
822.919945	6389.581842
823.237999	5877.561928
823.556010	5290.731291
823.873976	4735.443153
824.191897	4321.365297
824.509775	4020.761293
824.827609	3750.734408
825.145398	3624.934934
825.463144	3617.753811
825.780845	3707.871998
826.098502	3810.220023
826.416116	4095.423302
826.733685	4413.633536
827.051210	4483.221624
827.368692	4365.160321
827.686129	4094.689814
828.003522	3768.002881
828.320872	3510.841020
828.638177	3313.414312
828.955439	3171.163033
829.272656	3086.753953
829.589830	3022.365815
829.906960	2971.016622
830.224046	2924.562389
830.541088	2893.158522
830.858086	2878.473640
831.175041	2859.118130
831.491952	2859.995291
831.808819	2873.261087
832.125642	2897.403173
832.442421	2943.406223
832.759157	3023.041330
833.075849	3207.466902
833.392497	3483.785147
833.709101	3696.088300
834.025662	3646.606855
834.342179	3480.221052
834.658653	3303.619350
834.975083	3155.051505
835.291469	3057.873182
835.607811	2971.873618
835.924110	2908.511356
836.240366	2860.632997
836.556578	2816.797644
836.872746	2793.683953
837.188871	2770.187135
837.504952	2752.457397
837.820990	2747.693507
838.136984	2730.384705
838.452935	2725.003273
838.768842	2721.668550
839.084706	2741.936509
839.400526	2818.509115
839.716303	2952.565999
840.032037	3039.243598
840.347727	3020.319107
840.663373	2956.820733
840.978977	2883.459342
841.294537	2810.327323
841.610054	2762.708583
841.925527	2738.387537
842.240957	2720.035216
842.556344	2693.939683
842.871687	2679.849658
843.186987	2668.786846
843.502244	2664.547236
843.817458	2660.494148
844.132629	2649.295225
844.447756	2640.314409
844.762840	2633.024901
845.077881	2638.497073
845.392879	2633.917185
845.707833	2628.500465
846.022745	2624.205402
846.337613	2625.521143
846.652438	2624.139867
846.967221	2626.451236
847.281960	2623.308077
847.596656	2618.985287
847.911309	2624.094497
848.225919	2618.130812
848.540485	2615.917745
848.855009	2614.763321
849.169490	2615.098558
849.483928	2612.015892
849.798323	2615.743825
850.112675	2612.436828
850.426984	2614.758280
850.741251	2609.374327
851.055474	2611.743670
851.369654	2617.558641
851.683792	2617.447735
851.997887	2612.134359
852.311938	2612.411623
852.625947	2613.114864
852.939914	2617.089813
853.253837	2617.520832
853.567718	2611.302569
853.881555	2610.790892
854.195350	2614.357508
854.509103	2615.635441
854.822812	2608.088833
855.136479	2611.473968
855.450103	2613.124946
855.763685	2613.913887
856.077224	2613.114864
856.390720	2612.633433
856.704173	2612.797271
857.017584	2614.533948
857.330953	2615.784155
857.644278	2618.937396
857.957561	2618.801285
858.270802	2615.821963
858.584000	2613.881119
858.897155	2619.043261
859.210268	2621.037037
859.523339	2616.895729
859.836367	2609.981787
860.149352	2608.119080
860.462295	2612.857765
860.775195	2608.300562
861.088054	2606.989862
861.400869	2603.803852
861.713642	2603.513986
862.026373	2606.311827
862.339062	2608.509770
862.651708	2614.365070
862.964312	2616.784824
863.276873	2615.327930
863.589392	2618.292129
863.901869	2620.767335
864.214303	2626.562142
864.526696	2629.753192
864.839045	2629.342338
865.151353	2633.914664
865.463619	2631.482308
865.775842	2633.287041
866.088023	2633.188738
866.400162	2632.813172
866.712258	2633.380302
867.024313	2629.670013
867.336325	2627.277985
867.648296	2631.263017
867.960224	2636.951960
868.272110	2632.465333
868.583954	2627.149436
868.895755	2628.611371
869.207515	2632.790487
869.519233	2640.548823
869.830909	2636.122690
870.142542	2631.898203
870.454134	2634.612864
870.765684	2641.851961
871.077191	2640.568987
871.388657	2643.936478
871.700081	2644.317085
872.011463	2644.899339
872.322803	2645.779020
872.634101	2649.214566
872.945357	2656.526760
873.256571	2659.768222
873.567744	2657.512306
873.878874	2657.287974
874.189963	2658.049188
874.501010	2663.962462
874.812015	2666.430107
875.122979	2665.071516
875.433900	2659.521205
875.744780	2656.841832
876.055618	2664.842143
876.366415	2666.311640
876.677169	2668.025632
876.987882	2662.621515
877.298554	2660.446257
877.609183	2674.425377
877.919771	2679.272446
878.230317	2686.690504
878.540822	2698.035621
878.851285	2711.288814
879.161707	2734.828482
879.472087	2772.606889
879.782425	2822.196719
880.092722	2939.980758
880.402977	3129.260962
880.713191	3396.598392
881.023363	3696.874720
881.333494	3892.751274
881.643583	4063.646389
881.953631	4062.444074
882.263637	3886.371693
882.573602	3658.330058
882.883526	3525.296529
883.193408	3408.414856
883.503248	3305.174546
883.813048	3188.310517
884.122806	3073.165523
884.432522	2985.172182
884.742197	2915.848755
885.051831	2879.597818
885.361424	2843.062055
885.670975	2808.305820
885.980485	2775.770213
886.289954	2758.355547
886.599382	2745.218300
886.908768	2732.166753
887.218113	2714.810060
887.527417	2700.039479
887.836680	2691.114117
888.145901	2684.295956
888.455082	2677.566016
888.764221	2666.578821
889.073319	2659.644714
889.382376	2659.201092
889.691392	2657.955927
890.000366	2662.334169
890.309300	2657.512306
890.618193	2658.457522
890.927044	2663.486073
891.235855	2664.516989
891.544625	2660.249652
891.853353	2663.511279
892.162041	2668.156702
892.470687	2689.521112
892.779293	2702.527289
893.087858	2711.354349
893.396381	2735.347721
893.704864	2775.787857
894.013306	2848.665298
894.321707	2943.398661
894.630068	2994.952021
894.938387	3017.372552
895.246665	3008.540451
895.554903	2965.700725
895.863100	2917.315731
896.171256	2862.271372
896.479371	2799.390539
896.787446	2761.516351
897.095480	2741.611355
897.403473	2731.939901
897.711425	2718.631255
898.019336	2696.777853
898.327207	2682.707992
898.635038	2681.530883
898.942827	2680.789833
899.250576	2672.660973
899.558284	2659.624549
899.865952	2653.562562
900.173579	2654.149856
900.481165	2648.957467
900.788711	2643.051756
901.096216	2635.613533
901.403681	2632.732514
901.711105	2632.304016
902.018489	2629.430558
902.325832	2635.391722
902.633135	2633.791156
902.940397	2652.040133
903.247619	2688.661595
903.554800	2759.913264
903.861941	2891.762122
904.169041	3022.575023
904.476101	3087.258068
904.783121	3081.387644
905.090100	3020.039323
905.397039	2943.592745
905.703938	2867.123483
906.010796	2799.947587
906.317614	2750.743405
906.624391	2712.065152
906.931129	2687.368539
907.237826	2661.225115
907.544483	2642.981180
907.851099	2628.729838
908.157675	2617.646861
908.464211	2611.519338
908.770707	2601.368975
909.077163	2593.676174
909.383578	2593.688777
909.689954	2593.633325
909.996289	2588.556883
910.302584	2590.217943
910.608839	2585.300297
910.915054	2586.260637
911.221229	2588.211564
911.527363	2590.706935
911.833458	2589.943200
912.139513	2590.540577
912.445527	2593.129209
912.751502	2600.721187
913.057436	2606.029522
913.363331	2609.606221
913.669186	2619.106275
913.975000	2636.853657
914.280775	2653.713796
914.586510	2672.144255
914.892205	2710.293186
915.197859	2781.401182
915.503475	2865.318749
915.809050	2936.008329
916.114585	2948.752366
916.420081	2965.446147
916.725536	2974.152220
917.030952	2946.834207
917.336328	2895.548028
917.641665	2844.917200
917.946961	2796.081022
918.252218	2763.069026
918.557435	2735.009964
918.862612	2711.913917
919.167750	2692.528160
919.472848	2674.483350
919.777906	2657.436688
920.082925	2644.460758
920.387904	2634.708646
920.692843	2632.311577
920.997743	2627.749333
921.302603	2617.936727
921.607423	2609.301231
921.912204	2606.120263
922.216946	2604.086157
922.521647	2600.259921
922.826310	2599.198758
923.130932	2593.114086
923.435516	2585.660740
923.740059	2586.064032
924.044564	2583.558579
924.349028	2582.411716
924.653454	2573.929975
924.957840	2568.354459
925.262186	2568.785477
925.566493	2567.762123
925.870761	2565.362534
926.174989	2569.796229
926.479178	2562.088304
926.783328	2561.591751
927.087438	2557.891544
927.391509	2562.660475
927.695541	2561.027142
927.999533	2558.370453
928.303486	2557.440361
928.607400	2557.833571
928.911275	2555.867521
929.215110	2554.854249
929.518906	2554.246790
929.822663	2554.950031
930.126381	2554.297201
930.430060	2556.427089
930.733699	2555.449105
931.037299	2557.732747
931.340861	2557.916750
931.644383	2557.059753
931.947866	2556.313663
932.251309	2556.069167
932.554714	2556.522871
932.858080	2557.107644
933.161407	2555.519681
933.464694	2554.816440
933.767943	2554.511450
934.071153	2553.140256
934.374323	2551.736295
934.677455	2553.586398
934.980548	2553.669577
935.283602	2551.315359
935.586617	2553.835936
935.889593	2551.867365
936.192530	2548.895605
936.495428	2549.795451
936.798287	2552.288301
937.101108	2557.011862
937.403890	2557.054712
937.706632	2562.536967
938.009336	2561.851370
938.312002	2567.739438
938.614628	2571.863102
938.917216	2574.857547
939.219765	2577.398289
939.522275	2576.435428
939.824747	2576.866447
940.127179	2571.358986
940.429573	2570.070972
940.731929	2567.731876
941.034246	2566.446382
941.336524	2568.072154
941.638763	2567.812535
941.940964	2565.102914
942.243126	2565.491083
942.545250	2560.434806
942.847335	2560.084446
943.149381	2557.319373
943.451389	2561.528736
943.753359	2558.335165
944.055290	2557.100083
944.357182	2556.535473
944.659036	2556.868190
944.960851	2558.186451
945.262628	2557.820968
945.564367	2556.601008
945.866067	2556.036399
946.167729	2559.298026
946.469352	2556.437171
946.770937	2555.859959
947.072484	2554.763508
947.373992	2554.513971
947.675462	2556.180072
947.976893	2556.321224
948.278286	2552.966337
948.579641	2551.506922
948.880958	2552.346275
949.182236	2551.748898
949.483476	2552.958775
949.784678	2554.266954
950.085841	2554.100596
950.386967	2554.387942
950.688054	2554.203940
950.989103	2553.094886
951.290114	2552.578168
951.591087	2559.366081
951.892021	2556.162428
952.192917	2559.913047
952.493776	2560.686864
952.794596	2559.000598
953.095378	2561.664848
953.396122	2563.628377
953.696828	2559.350958
953.997496	2557.873900
954.298126	2557.934394
954.598718	2554.277037
954.899272	2554.009855
955.199788	2554.171172
955.500266	2551.577499
955.800706	2548.129349
956.101108	2541.729605
956.401472	2545.334030
956.701798	2540.980993
957.002087	2543.420912
957.302337	2542.644574
957.602550	2545.442414
957.902724	2541.996786
958.202861	2540.877650
958.502960	2539.745911
958.803022	2541.507794
959.103045	2539.939995
959.403031	2540.267670
959.702979	2540.224820
960.002889	2540.789429
960.302762	2541.787578
960.602596	2540.025695
960.902393	2540.048380
961.202153	2538.319264
961.501875	2541.419574
961.801559	2540.381096
962.101205	2537.371527
962.400814	2538.127700
962.700385	2536.809438
962.999918	2540.234902
963.299414	2538.089892
963.598873	2536.852288
963.898293	2535.455889
964.197677	2536.562422
964.497022	2537.805066
964.796331	2541.076775
965.095601	2537.822710
965.394835	2536.587628
965.694030	2537.948739
965.993189	2537.089223
966.292309	2534.936650
966.591393	2536.756506
966.890439	2535.859181
967.189447	2533.772143
967.488419	2538.236085
967.787353	2538.034439
968.086249	2538.087371
968.385108	2537.182484
968.683930	2536.612833
968.982714	2538.992258
969.281462	2536.963194
969.580172	2536.789274
969.878844	2538.147865
970.177480	2538.031918
970.476078	2536.365817
970.774639	2539.773637
971.073162	2539.748431
971.371649	2534.177956
971.670098	2532.963038
971.968510	2537.275745
972.266885	2534.689633
972.565223	2539.115766
972.863524	2539.282124
973.161788	2540.416384
973.460014	2536.764068
973.758204	2539.894625
974.056356	2539.629964
974.354471	2537.406815
974.652550	2540.771785
974.950591	2538.099974
975.248595	2537.691640
975.546563	2537.336239
975.844493	2535.123172
976.142386	2535.750796
976.440243	2536.207021
976.738062	2537.021167
977.035845	2535.307175
977.333590	2535.128214
977.631299	2534.956814
977.928971	2536.582587
978.226606	2539.798843
978.524204	2535.203831
978.821765	2532.965559
979.119290	2536.156609
979.416777	2534.097298
979.714228	2538.316743
980.011642	2536.610313
980.309020	2538.289017
980.606360	2535.019829
980.903664	2536.040662
981.200931	2535.861702
981.498162	2536.171732
981.795356	2540.023174
982.092513	2543.062990
982.389633	2544.368649
982.686717	2549.608928
982.983764	2551.539690
983.280775	2555.202088
983.577749	2552.794937
983.874686	2553.021789
984.171587	2547.988197
984.468451	2543.146169
984.765279	2545.255892
985.062070	2542.637012
985.358824	2539.776158
985.655543	2537.961342
985.952224	2537.038811
986.248869	2538.273894
986.545478	2530.906247
986.842050	2534.301464
987.138586	2530.402132
987.435086	2532.458923
987.731549	2528.811648
988.027975	2533.641073
988.324366	2531.148223
988.620719	2531.715352
988.917037	2532.761392
989.213318	2534.669469
989.509563	2535.697864
989.805772	2532.141330
990.101944	2534.107380
990.398080	2531.818696
990.694180	2533.048738
990.990244	2533.532688
991.286271	2534.190559
991.582262	2529.673685
991.878217	2531.417924
992.174136	2531.042358
992.470019	2530.888603
992.765865	2534.273738
993.061676	2532.058151
993.357450	2535.740714
993.653188	2533.071423
993.948890	2532.015301
994.244556	2529.731658
994.540186	2532.653007
994.835780	2532.791639
995.131337	2534.853471
995.426859	2533.510003
995.722345	2535.773481
996.017795	2535.584438
996.313208	2534.813142
996.608586	2536.867412
996.903928	2538.198276
997.199234	2537.429500
997.494504	2536.607792
997.789738	2535.193749
998.084936	2538.162988
998.380099	2532.335414
998.675225	2535.360107
998.970316	2534.248532
999.265371	2535.178625
999.560390	2531.801052
999.855373	2531.841381
1000.150320	2533.973789
1000.445232	2535.465971
1000.740108	2529.751823
1001.034948	2533.547812
1001.329752	2530.361803
1001.624521	2531.788449
1001.919254	2528.884745
1002.213951	2529.729138
1002.508613	2530.387008
1002.803239	2528.584796
1003.097829	2529.832482
1003.392384	2532.552184
1003.686903	2529.096473
1003.981386	2532.607637
1004.275834	2528.294930
1004.570246	2532.436237
1004.864623	2530.792821
1005.158964	2532.232071
1005.453270	2530.702081
1005.747540	2530.336597
1006.041775	2531.249046
1006.335974	2529.240146
1006.630138	2531.178470
1006.924266	2530.321473
1007.218359	2533.086546
1007.512416	2532.592513
1007.806438	2532.032945
1008.100425	2529.948428
1008.394376	2529.817358
1008.688292	2533.222658
1008.982172	2530.679395
1009.276017	2529.194776
1009.569827	2533.378933
1009.863602	2531.690147
1010.157341	2531.543953
1010.451045	2530.969262
1010.744714	2530.243336
1011.038347	2531.463295
1011.331945	2529.429189
1011.625508	2532.675692
1011.919036	2531.667462
1012.212528	2527.082532
1012.505986	2531.269210
1012.799408	2532.751310
1013.092795	2528.708304
1013.386147	2530.548325
1013.679464	2531.264169
1013.972745	2530.812986
1014.265992	2530.818027
1014.559204	2527.813499
1014.852380	2528.030269
1015.145521	2531.249046
1015.438628	2530.200486
1015.731699	2532.703419
1016.024736	2529.565300
1016.317737	2530.671834
1016.610703	2532.448840
1016.903635	2527.145547
1017.196531	2526.414579
1017.489393	2527.957172
1017.782219	2525.187058
1018.075011	2528.438602
1018.367768	2528.730989
1018.660490	2531.039838
1018.953177	2531.039838
1019.245829	2531.039838
