Dividing Wavelength (nm)	Counts (n)	Blue Motor Position (mm): 21.900000	Red Motor Position (mm): 0.000000	
326.493990	2133.764147
326.888308	2133.764147
327.282561	2133.764147
327.676750	2101.132758
328.070874	2099.638056
328.464933	2104.001175
328.858929	2110.781527
329.252859	2119.084307
329.646726	2128.793570
330.040528	2144.350570
330.434265	2159.174083
330.827938	2176.550941
331.221547	2197.300330
331.615091	2213.190047
332.008571	2236.046638
332.401986	2254.598084
332.795338	2273.416712
333.188625	2291.882458
333.581847	2309.927268
333.975006	2328.781184
334.368100	2345.414471
334.761129	2363.839888
335.154095	2385.108516
335.546996	2401.572925
335.939833	2426.975299
336.332606	2438.562391
336.725315	2452.546552
337.117960	2460.483849
337.510540	2471.511373
337.903056	2482.034781
338.295508	2488.091728
338.687896	2497.755620
339.080220	2509.040243
339.472480	2510.340860
339.864676	2516.002076
340.256807	2520.642458
340.648875	2524.161183
341.040879	2527.488345
341.432818	2528.541946
341.824694	2530.397091
342.216506	2526.568334
342.608253	2530.258459
342.999937	2531.213758
343.391557	2528.720907
343.783113	2527.390043
344.174605	2526.903571
344.566033	2524.579599
344.957397	2521.144053
345.348697	2522.243024
345.739934	2520.213960
346.131106	2518.757067
346.522215	2516.818743
346.913260	2514.605676
347.304241	2517.128774
347.695159	2510.832373
348.086012	2511.071828
348.476802	2509.070489
348.867528	2506.499501
349.258191	2503.938595
349.648789	2506.247443
350.039324	2498.995743
350.429796	2503.129490
350.820203	2498.680671
351.210548	2498.065651
351.600828	2498.078253
351.991045	2497.135558
352.381198	2495.154384
352.771288	2497.105311
353.161314	2497.238901
353.551276	2495.885352
353.941175	2496.260917
354.331010	2496.389467
354.720782	2494.637666
355.110490	2496.545743
355.500135	2495.091370
355.889717	2496.021463
356.279235	2496.099601
356.668689	2496.918788
357.058080	2495.086329
357.447408	2491.733961
357.836672	2496.621360
358.225873	2495.219919
358.615010	2494.945176
359.004084	2498.418531
359.393095	2499.933398
359.782043	2497.743017
360.170927	2499.469612
360.559748	2502.254849
360.948505	2501.659993
361.337199	2503.255518
361.725830	2500.545898
362.114398	2504.994717
362.502903	2501.977586
362.891344	2504.725015
363.279722	2503.313492
363.668037	2504.246105
364.056289	2505.496311
364.444478	2503.389109
364.832603	2505.486229
365.220665	2509.650222
365.608665	2506.751559
365.996601	2508.402537
366.384474	2506.355828
366.772284	2506.539830
367.160031	2508.810870
367.547715	2506.373472
367.935336	2507.948833
368.322893	2510.550068
368.710388	2507.084275
369.097820	2510.860099
369.485189	2511.109636
369.872495	2507.636281
370.259738	2507.848010
370.646918	2511.112157
371.034035	2510.229955
371.421090	2512.480830
371.808081	2508.596621
372.195010	2510.550068
372.581875	2512.274143
372.968678	2511.114677
373.355418	2509.073010
373.742096	2515.213135
374.128710	2511.417147
374.515262	2513.426046
374.901751	2511.157527
375.288177	2512.546365
375.674540	2513.453773
376.060841	2515.255985
376.447079	2512.362363
376.833254	2513.206756
377.219367	2507.616117
377.605417	2513.214318
377.991404	2510.418998
378.377329	2511.540655
378.763191	2507.064110
379.148991	2516.465862
379.534727	2514.056191
379.920402	2516.629700
380.306013	2513.998217
380.691563	2516.329751
381.077049	2515.278670
381.462474	2519.283867
381.847835	2516.014679
382.233134	2517.698424
382.618371	2517.516943
383.003545	2517.746315
383.388657	2516.244051
383.773706	2517.950482
384.158693	2514.368742
384.543618	2518.167252
384.928480	2519.334279
385.313280	2518.021058
385.698017	2517.791686
386.082692	2521.817047
386.467305	2518.580626
386.851856	2520.327386
387.236344	2522.013652
387.620770	2521.310411
388.005133	2519.790503
388.389435	2520.438291
388.773674	2518.643641
389.157851	2518.817560
389.541965	2521.101203
389.926018	2521.033147
390.310008	2521.446522
390.693936	2520.299660
391.077802	2520.549197
391.461606	2523.891482
391.845348	2522.137160
392.229027	2524.196472
392.612645	2521.454084
392.996200	2519.072139
393.379694	2523.094979
393.763125	2522.122037
394.146494	2520.876872
394.529801	2521.764115
394.913047	2524.877027
395.296230	2524.060360
395.679351	2521.086080
396.062410	2525.207223
396.445408	2525.519774
396.828343	2526.013807
397.211217	2522.149763
397.594028	2523.838550
397.976778	2522.706811
398.359466	2521.484331
398.742092	2518.915863
399.124656	2526.838036
399.507158	2524.937521
399.889598	2526.520443
400.271977	2526.255783
400.654294	2528.025228
401.036549	2526.467511
401.418742	2528.592358
401.800874	2526.951462
402.182944	2526.805269
402.564952	2527.150588
402.946898	2528.320135
403.328783	2525.227388
403.710606	2529.154446
404.092367	2525.892820
404.474067	2528.675537
404.855705	2528.166380
405.237282	2527.153108
405.618797	2529.119158
406.000250	2525.802079
406.381642	2528.723428
406.762972	2527.594209
407.144240	2531.538912
407.525447	2529.305681
407.906593	2532.589993
408.287677	2531.755682
408.668700	2528.811648
409.049661	2528.922553
409.430560	2530.490352
409.811399	2531.201155
410.192176	2531.208717
410.572891	2533.285672
410.953545	2531.717873
411.334138	2528.277286
411.714669	2530.654190
412.095139	2531.710311
412.475547	2530.878521
412.855894	2532.332894
413.236180	2533.547812
413.616405	2532.685775
413.996568	2531.738038
414.376670	2532.831968
414.756711	2533.343645
415.136691	2534.049407
415.516609	2533.376413
415.896466	2533.686444
416.276262	2532.988244
416.655997	2532.872297
417.035670	2528.057995
417.415283	2531.730476
417.794834	2530.951618
418.174324	2531.425486
418.553753	2535.304654
418.933121	2535.909593
419.312428	2534.377082
419.691674	2534.805580
420.070859	2533.890610
420.449983	2532.995806
420.829045	2535.347504
421.208047	2535.876825
421.586988	2533.787267
421.965867	2534.946732
422.344686	2535.140817
422.723444	2536.880015
423.102141	2534.639222
423.480777	2536.267514
423.859352	2535.649973
424.237866	2537.716846
424.616319	2535.818852
424.994712	2534.243491
425.373044	2538.404964
425.751314	2537.064017
426.129524	2537.837834
426.507673	2538.881353
426.885762	2536.108718
427.263789	2536.630477
427.641756	2537.527803
428.019662	2540.328164
428.397508	2535.052596
428.775292	2541.391847
429.153016	2540.602907
429.530679	2539.355221
429.908282	2538.180632
430.285824	2538.732639
430.663305	2541.769934
431.040726	2538.077289
431.418086	2540.413863
431.795385	2539.514018
432.172624	2542.228679
432.549802	2539.992927
432.926920	2540.348328
433.303977	2540.045859
433.680974	2537.875642
434.057910	2538.846065
434.434786	2539.491332
434.811601	2541.631302
435.188355	2541.691796
435.565050	2541.913607
435.941683	2542.453010
436.318257	2538.871270
436.694770	2536.259953
437.071222	2540.517207
437.447614	2536.943029
437.823946	2536.630478
438.200218	2540.645757
438.576429	2540.827238
438.952580	2543.252033
439.328670	2543.073072
439.704700	2543.683052
440.080670	2540.996117
440.456580	2541.162475
440.832429	2544.978628
441.208218	2542.286652
441.583947	2543.972918
441.959616	2542.984852
442.335224	2541.573329
442.710773	2540.963349
443.086261	2543.957795
443.461689	2543.914945
443.837057	2544.222455
444.212365	2544.542568
444.587612	2545.296221
444.962800	2544.671118
445.337927	2545.444935
445.712995	2543.698175
446.088002	2542.296734
446.462949	2545.442414
446.837837	2546.309493
447.212664	2545.205480
447.587431	2545.397044
447.962139	2545.931406
448.336786	2549.868547
448.711374	2546.301931
449.085901	2549.215718
449.460369	2544.396375
449.834776	2547.353012
450.209124	2545.240768
450.583412	2548.875440
450.957640	2546.780841
451.331808	2547.138763
451.705917	2546.465769
452.079965	2547.458876
452.453954	2547.451314
452.827883	2549.886192
453.201752	2547.688248
453.575562	2546.710265
453.949311	2549.437529
454.323001	2549.185471
454.696632	2549.283774
455.070202	2549.019113
455.443713	2548.872920
455.817164	2543.751107
456.190556	2545.313865
456.563888	2548.146993
456.937160	2545.109698
457.310373	2551.406099
457.683526	2550.165976
458.056619	2550.155893
458.429653	2549.661860
458.802628	2550.216387
459.175542	2549.974412
459.548398	2549.944165
459.921194	2550.234031
460.293930	2551.864844
460.666607	2550.919628
461.039224	2552.384083
461.411782	2551.118754
461.784280	2555.033210
462.156719	2550.899463
462.529099	2554.645041
462.901419	2552.041285
463.273680	2555.754095
463.645882	2553.777962
464.018024	2554.607232
464.390106	2553.535987
464.762130	2557.503375
465.134094	2554.093034
465.505999	2556.785011
465.877845	2558.771225
466.249631	2561.198541
466.621358	2559.701318
466.993026	2565.065106
467.364634	2563.744323
467.736184	2559.575289
468.107674	2561.090156
468.479105	2562.937739
468.850477	2561.952193
469.221790	2564.886145
469.593043	2562.181566
469.964238	2561.511092
470.335373	2564.704663
470.706449	2568.495611
471.077467	2568.515776
471.448425	2578.545151
471.819324	2583.545976
472.190164	2583.994638
472.560945	2581.847107
472.931667	2581.837025
473.302330	2583.571182
473.672934	2585.968250
474.043479	2593.393870
474.413965	2591.906729
474.784393	2592.320104
475.154761	2600.491814
475.525070	2606.790736
475.895321	2607.778802
476.265513	2615.993362
476.635645	2624.782614
477.005719	2629.075157
477.375734	2636.120169
477.745691	2645.673156
478.115588	2657.502223
478.485427	2667.854233
478.855207	2689.745443
479.224928	2715.919114
479.594591	2738.140520
479.964194	2740.116652
480.333739	2744.804926
480.703226	2762.668254
481.072653	2776.642333
481.442022	2802.473205
481.811333	2822.594971
482.180584	2834.769357
482.549777	2840.395285
482.918912	2849.219825
483.287988	2868.996271
483.657005	2888.659292
484.025964	2897.365364
484.394864	2914.638878
484.763706	2935.625202
485.132489	2944.757252
485.501213	2965.587299
485.869879	2984.307624
486.238487	3007.728825
486.607036	3031.724717
486.975527	3051.417985
487.343959	3081.591811
487.712333	3111.513580
488.080648	3133.021663
488.448905	3167.190603
488.817104	3187.604756
489.185244	3241.318250
489.553326	3288.629479
489.921350	3376.466544
490.289315	3520.502391
490.657222	3590.055191
491.025070	3627.909215
491.392861	3654.728154
491.760593	3657.916683
492.128267	3658.897188
492.495883	3657.982218
492.863440	3657.702434
493.230939	3667.494876
493.598380	3701.263045
493.965763	3735.641193
494.333088	3756.836725
494.700354	3798.774084
495.067563	3847.234696
495.434713	3875.835682
495.801805	3945.698512
496.168839	3985.135459
496.535815	4029.979043
496.902733	4071.447575
497.269593	4123.106799
497.636395	4181.392619
498.003139	4249.833845
498.369825	4265.426133
498.736453	4363.209395
499.103023	4398.356319
499.469535	4469.073625
499.835989	4515.893342
500.202385	4570.093307
500.568723	4598.573306
500.935003	4700.873441
501.301226	4742.215944
501.667390	4855.178119
502.033497	4953.284014
502.399546	4971.225481
502.765537	5009.470194
503.131470	5091.794757
503.497345	5216.104570
503.863163	5160.926620
504.228923	5328.000541
504.594625	5407.297891
504.960269	5396.562754
505.325856	5537.470566
505.691385	5543.552718
506.056856	5661.482950
506.422270	5743.338686
506.787625	5758.739411
507.152924	5881.579727
507.518164	5938.877482
507.883347	5984.487321
508.248472	6021.340677
508.613540	6188.855698
508.978550	6213.701025
509.343503	6272.942144
509.708398	6399.901083
510.073236	6520.082191
510.438016	6592.281597
510.802738	6649.697818
511.167403	6744.211891
511.532010	6774.569720
511.896561	6946.246214
512.261053	7064.736014
512.625488	7071.365132
512.989866	7134.263608
513.354186	7199.337343
513.718449	7226.415901
514.082655	7385.116465
514.446803	7414.077894
514.810894	7548.225518
515.174927	7554.355561
515.538904	7628.770554
515.902822	7792.338352
516.266684	7786.057074
516.630488	7834.338725
516.994235	7928.179804
517.357925	8042.780354
517.721558	8162.285948
518.085133	8250.927076
518.448651	8313.535686
518.812112	8305.999161
519.175516	8389.150473
519.538863	8535.081795
519.902152	8536.021970
520.265385	8721.566679
520.628560	8707.673259
520.991678	8777.326881
521.354739	8873.617961
521.717743	8881.303200
522.080690	8928.795910
522.443580	9099.260007
522.806413	9121.551989
523.169189	9206.555926
523.531908	9306.388416
523.894569	9224.499913
524.257174	9289.435015
524.619722	9441.607285
524.982213	9444.074930
525.344647	9542.886587
525.707025	9557.992404
526.069345	9683.116363
526.431608	9674.180918
526.793815	9808.668820
527.155964	9684.858082
527.518057	9776.428121
527.880093	9774.247822
528.242072	9881.969718
528.603995	9853.497281
528.965860	9829.468621
529.327669	9919.982538
529.689421	9907.724973
530.051117	9926.664588
530.412755	10056.854907
530.774337	9995.798972
531.135862	10025.693014
531.497331	10077.637063
531.858743	9991.937448
532.220098	10162.459518
532.581396	10084.510677
532.942638	10109.078740
533.303824	10106.658986
533.664953	10151.053907
534.026025	10099.089693
534.387040	10221.536800
534.747999	10250.752807
535.108902	10327.395989
535.469748	10136.038831
535.830537	10253.464948
536.191270	10263.902657
536.551947	10310.399739
536.912567	10327.569909
537.273131	10289.461307
537.633638	10279.280697
537.994089	10295.919025
538.354483	10271.431620
538.714821	10429.330641
539.075103	10456.149579
539.435328	10441.396642
539.795497	10297.539756
540.155609	10464.099479
540.515665	10559.077338
540.875665	10325.286267
541.235609	10406.705942
541.595496	10413.335060
541.955328	10580.482077
542.315102	10480.357200
542.674821	10451.547006
543.034483	10465.155601
543.394090	10474.232198
543.753640	10419.218086
544.113134	10643.509103
544.472571	10517.331543
544.831953	10664.066928
545.191278	10488.236523
545.550548	10530.315035
545.909761	10671.399287
546.268918	10648.366255
546.628019	10743.283620
546.987064	10619.672007
547.346053	10539.648731
547.704986	10654.917234
548.063863	10648.953549
548.422684	10642.218568
548.781449	10573.447147
549.140158	10672.939359
549.498811	10561.492051
549.857408	10427.518346
550.215949	10654.352625
550.574434	10508.975830
550.932864	10613.307550
551.291237	10673.942549
551.649555	10626.974118
552.007817	10642.795780
552.366022	10609.897210
552.724173	10617.174115
553.082267	10591.998593
553.440305	10738.295398
553.798288	10543.071674
554.156215	10695.959788
554.514086	10683.878663
554.871902	10530.234376
555.229661	10572.655686
555.587365	10553.211955
555.945014	10447.945101
556.302606	10571.453371
556.660143	10470.920160
557.017625	10625.547472
557.375050	10517.961687
557.732421	10661.528707
558.089735	10574.132744
558.446994	10579.161295
558.804197	10614.766964
559.161345	10620.077820
559.518437	10464.795158
559.875474	10552.397809
560.232455	10584.756976
560.589381	10540.644359
560.946251	10538.297702
561.303065	10639.309822
561.659825	10581.313868
562.016528	10513.459937
562.373177	10388.746832
562.729770	10505.283185
563.086307	10423.606411
563.442789	10513.482622
563.799216	10396.726978
564.155587	10443.614750
564.511904	10402.415920
564.868164	10392.467203
565.224370	10411.827755
565.580520	10327.562347
565.936615	10341.594399
566.292654	10209.097753
566.648638	10344.719915
567.004567	10300.332555
567.360441	10281.980234
567.716260	10200.421927
568.072023	10293.559765
568.427732	10246.835830
568.783385	10151.457200
569.138982	10226.794723
569.494525	10238.268389
569.850013	10120.635585
570.205445	10196.804899
570.560823	10097.970557
570.916145	10014.902424
571.271412	10082.194266
571.626625	10034.033603
571.981782	10007.098718
572.336884	9986.072065
572.691931	9988.985852
573.046923	9932.088869
573.401860	9890.030523
573.756743	9827.106841
574.111570	9872.177277
574.466342	9850.492753
574.821059	9885.924503
575.175722	9779.357031
575.530330	9786.654102
575.884882	9780.491291
576.239380	9701.264517
576.593823	9683.587711
576.948211	9695.716727
577.302544	9582.968801
577.656823	9596.002704
578.011047	9593.739226
578.365216	9574.393798
578.719330	9506.759158
579.073389	9506.169343
579.427394	9463.380029
579.781344	9435.099156
580.135239	9384.206187
580.489080	9390.817660
580.842866	9294.050192
581.196597	9303.083939
581.550273	9338.830761
581.903895	9303.441861
582.257463	9372.543478
582.610975	9250.499664
582.964434	9275.276935
583.317837	9199.069812
583.671186	9188.639665
584.024481	9178.262450
584.377721	9101.526006
584.730906	9074.210514
585.084037	9106.945246
585.437113	9041.536275
585.790135	9063.677023
586.143103	8959.955282
586.496016	8937.058362
586.848874	8995.530705
587.201679	8984.740115
587.554428	8870.802477
587.907124	8911.794619
588.259765	8885.063901
588.612352	8891.221670
588.964884	8763.476311
589.317362	8784.984394
589.669786	8779.991131
590.022155	8829.205396
590.374470	8839.874998
590.726731	8778.675390
591.078937	8633.921178
591.431090	8750.838138
591.783188	8618.691852
592.135232	8611.462837
592.487222	8614.752190
592.839157	8661.715580
593.191038	8596.442720
593.542866	8541.325264
593.894639	8446.659957
594.246358	8497.898244
594.598022	8512.215121
594.949633	8413.405985
595.301190	8385.788024
595.652692	8415.881192
596.004141	8521.246348
596.355535	8304.138976
596.706876	8285.098538
597.058162	8218.958599
597.409395	8290.815206
597.760573	8357.363478
598.111698	8264.066844
598.462768	8247.514215
598.813785	8220.196202
599.164748	8186.213784
599.515657	8178.674739
599.866511	8085.511695
600.217312	8211.570788
600.568060	8071.736742
600.918753	8176.244903
601.269392	8144.828432
601.619978	8055.864669
601.970510	8117.437322
602.320988	8118.770707
602.671412	8174.425046
603.021783	8108.448945
603.372100	8084.203516
603.722363	8086.363650
604.072572	8056.416676
604.422728	8073.196156
604.772830	7999.771750
605.122878	8005.987493
605.472872	8006.481526
605.822813	8036.622585
606.172701	7977.820046
606.522534	8055.151346
606.872314	8050.836118
607.222041	8024.138167
607.571714	8078.822084
607.921333	8033.441617
608.270899	8046.735140
608.620411	8130.350238
608.969870	8037.265332
609.319276	8033.524796
609.668627	8046.102475
610.017926	8076.765293
610.367171	8125.808158
610.716362	8103.160775
611.065500	8091.440092
611.414585	8119.940255
611.763616	8111.909697
612.112594	8090.651151
612.461518	8107.657484
612.810389	8165.713932
613.159207	8107.319727
613.507971	8052.189668
613.856682	8177.888319
614.205340	8129.513406
614.553945	8208.846044
614.902496	8105.499870
615.250994	8161.025659
615.599439	8141.496229
615.947830	8156.110534
616.296169	8125.288919
616.644454	8142.524624
616.992686	8138.859706
617.340864	8201.967390
617.688990	8102.109694
618.037063	8197.294240
618.385082	8141.939851
618.733048	8228.317501
619.080961	8162.011205
619.428821	8181.850666
619.776628	8194.700567
620.124382	8137.821228
620.472083	8118.228783
620.819731	8151.210533
621.167326	8046.447794
621.514868	8047.677835
621.862357	7941.513656
622.209793	7956.803476
622.557176	7895.961790
622.904506	7861.296295
623.251783	7796.865308
623.599007	7758.993640
623.946179	7756.762929
624.293297	7710.782565
624.640363	7632.901779
624.987376	7609.730116
625.334336	7564.190852
625.681243	7513.580188
626.028097	7495.527816
626.374899	7482.798903
626.721647	7476.237841
627.068343	7399.753455
627.414987	7376.682614
627.761577	7331.644946
628.108115	7367.376644
628.454600	7259.659790
628.801032	7316.884447
629.147412	7270.125225
629.493739	7261.963597
629.840014	7195.024636
630.186236	7257.368585
630.532405	7136.320399
630.878521	7188.667741
631.224585	7143.103272
631.570597	7066.719708
631.916556	7103.963753
632.262462	7093.742814
632.608316	7063.369862
632.954117	7040.273815
633.299866	7025.142792
633.645562	7017.618870
633.991206	6936.010151
634.336797	6883.864456
634.682336	6838.776376
635.027823	6804.433515
635.373257	6798.845396
635.718639	6729.942905
636.063968	6738.180151
636.409245	6638.992928
636.754470	6634.130735
637.099642	6591.152378
637.444762	6536.586929
637.789829	6547.669906
638.134845	6490.770402
638.479808	6476.324976
638.824719	6479.972251
639.169577	6409.688484
639.514383	6431.299910
639.859137	6357.653694
640.203839	6366.692482
640.548489	6351.062385
640.893086	6332.158058
641.237632	6302.276619
641.582125	6319.971069
641.926566	6292.882428
642.270955	6303.723430
642.615292	6304.983718
642.959576	6310.561755
643.303809	6306.881713
643.647990	6311.859852
643.992118	6302.770652
644.336195	6247.285192
644.680219	6274.701507
645.024192	6269.441063
645.368112	6363.186360
645.711981	6381.110182
646.055797	6456.916533
646.399562	6413.880203
646.743274	6541.184461
647.086935	6594.774447
647.430544	6586.771615
647.774101	6610.863290
648.117606	6611.349761
648.461059	6605.668381
648.804460	6563.899900
649.147810	6473.045705
649.491108	6447.222395
649.834354	6421.729280
650.177548	6338.373801
650.520690	6251.555049
650.863781	6233.742132
651.206820	6249.513382
651.549807	6176.202402
651.892742	6116.507579
652.235626	6124.260873
652.578458	6109.618842
652.921238	6019.979565
653.263967	6055.978445
653.606644	5995.973590
653.949269	5999.164641
654.291843	5939.994098
654.634365	5990.042673
654.976836	5945.405776
655.319255	5941.932421
655.661622	5922.518938
656.003938	5917.888638
656.346203	5883.102156
656.688416	5912.134161
657.030577	5865.672366
657.372687	5833.310679
657.714746	5821.456406
658.056753	5864.344022
658.398708	5802.194157
658.740612	5796.298528
659.082465	5840.522050
659.424266	5832.854455
659.766016	5831.284135
660.107715	5807.298325
660.449362	5826.106870
660.790958	5817.683102
661.132503	5805.284384
661.473996	5841.709242
661.815438	5831.392520
662.156829	5826.608465
662.498168	5819.291230
662.839456	5793.619154
663.180693	5830.903528
663.521879	5832.708261
663.863013	5815.838040
664.204097	5838.245969
664.545129	5882.966045
664.886110	5873.619745
665.227040	5909.177524
665.567918	5877.544284
665.908746	5901.530094
666.249522	5903.062604
666.590248	5894.906018
666.930922	5919.579945
667.271545	5934.199291
667.612118	5932.114774
667.952639	5905.704169
668.293109	5930.877171
668.633528	5887.611468
668.973896	5889.161623
669.314213	5879.792638
669.654480	5862.529207
669.994695	5861.989803
670.334859	5847.511610
670.674973	5841.356361
671.015035	5840.017934
671.355047	5841.812585
671.695008	5828.241799
672.034918	5802.058046
672.374777	5813.998019
672.714585	5796.109484
673.054342	5801.700124
673.394049	5795.050842
673.733705	5828.456048
674.073310	5812.520961
674.412864	5773.888078
674.752368	5767.208549
675.091820	5768.612511
675.431223	5703.231266
675.770574	5704.272264
676.109875	5658.871633
676.449125	5663.950595
676.788324	5629.922807
677.127473	5573.098921
677.466571	5561.945368
677.805619	5555.908586
678.144616	5537.546183
678.483562	5519.173698
678.822458	5488.992310
679.161303	5483.764633
679.500098	5471.859948
679.838842	5456.819666
680.177535	5462.806036
680.516179	5474.526719
680.854771	5487.353935
681.193314	5568.703034
681.531805	5676.019117
681.870247	5828.042673
682.208638	5926.105719
682.546978	5939.003511
682.885268	5917.634060
683.223508	5833.156924
683.561697	5780.555004
683.899836	5748.760447
684.237925	5708.262337
684.575963	5671.739178
684.913951	5629.937930
685.251889	5688.740469
685.589776	5655.088247
685.927614	5633.623014
686.265401	5701.923087
686.603137	5686.822310
686.940824	5758.376448
687.278460	5788.323422
687.616046	5792.868023
687.953582	5858.072827
688.291068	5841.895764
688.628504	5906.505713
688.965889	5867.693869
689.303224	5811.545498
689.640510	5764.201501
689.977745	5684.604202
690.314930	5590.669862
690.652065	5533.130132
690.989150	5442.858190
691.326185	5365.889853
691.663170	5314.812883
692.000105	5238.593157
692.336990	5159.305889
692.673825	5137.296212
693.010610	5072.721552
693.347345	5005.331407
693.684030	4988.882122
694.020665	4946.531388
694.357251	4857.882698
694.693786	4865.061301
695.030272	4835.061395
695.366707	4800.148884
695.703093	4764.611270
696.039429	4787.845948
696.375716	4772.488072
696.711952	4749.621399
697.048139	4735.460797
697.384276	4711.633784
697.720363	4724.818922
698.056400	4735.730499
698.392388	4685.538251
698.728326	4669.383873
699.064214	4641.390346
699.400053	4631.350888
699.735842	4601.033389
700.071581	4581.488836
700.407270	4552.194691
700.742910	4533.310528
701.078501	4480.988393
701.414042	4483.662725
701.749533	4453.405719
702.084974	4387.134711
702.420366	4440.419707
702.755709	4385.287128
703.091002	4332.770908
703.426246	4377.571642
703.761440	4334.399200
704.096584	4299.642965
704.431679	4316.334226
704.766725	4301.331752
705.101721	4290.591573
705.436668	4319.353877
705.771565	4270.938635
706.106413	4294.561482
706.441212	4329.499199
706.775961	4334.797452
707.110661	4316.072086
707.445311	4339.931867
707.779913	4365.306515
708.114465	4381.796129
708.448967	4399.420003
708.783421	4457.879743
709.117825	4503.426568
709.452180	4508.039224
709.786485	4553.064290
710.120742	4637.133092
710.454949	4624.759580
710.789107	4686.130587
711.123216	4765.087659
711.457275	4747.418414
711.791286	4828.737267
712.125247	4839.086756
712.459159	4745.638887
712.793023	4819.010361
713.126837	4782.537613
713.460602	4771.379019
713.794318	4690.534034
714.127985	4701.276733
714.461602	4615.952684
714.795171	4586.232561
715.128691	4517.473743
715.462162	4466.263182
715.795584	4416.718722
716.128957	4400.234149
716.462281	4348.945450
716.795556	4325.025175
717.128782	4282.422384
717.461960	4213.643401
717.795088	4227.171338
718.128167	4185.861602
718.461198	4126.754073
718.794180	4125.466059
719.127113	4103.330352
719.459997	4078.913523
719.792833	4039.693347
720.125619	4031.342675
720.458357	3995.515195
720.791046	4000.160618
721.123686	3970.586689
721.456278	3932.178138
721.788821	3947.276394
722.121315	3921.044750
722.453761	3893.991397
722.786158	3910.541506
723.118506	3933.425823
723.450805	3882.931106
723.783056	3906.979930
724.115259	3920.843103
724.447412	3928.243517
724.779518	3917.382351
725.111574	3923.439298
725.443582	3953.991211
725.775542	3939.117286
726.107453	3994.146522
726.439315	3992.430009
726.771129	4001.819158
727.102895	4039.887431
727.434612	4089.021037
727.766281	4100.219960
728.097901	4101.699539
728.429473	4103.332873
728.760996	4113.788226
729.092471	4108.845374
729.423897	4092.431378
729.755276	4099.436061
730.086606	4093.512705
730.417887	4130.852532
730.749120	4195.263354
731.080305	4263.210546
731.411442	4283.483547
731.742530	4259.036471
732.073570	4262.504785
732.404562	4313.443124
732.735506	4305.566321
733.066401	4270.691619
733.397249	4203.606464
733.728048	4127.081748
734.058798	4047.451682
734.389501	3975.738748
734.720156	3912.013522
735.050762	3872.117831
735.381320	3862.247252
735.711831	3815.649346
736.042293	3786.110705
736.372707	3806.507214
736.703073	3777.767596
737.033391	3769.391718
737.363661	3790.965336
737.693883	3810.373779
738.024056	3819.964574
738.354182	3818.323678
738.684260	3879.853482
739.014290	3899.541708
739.344272	3894.119947
739.674207	3938.744241
740.004093	3942.378913
740.333931	3935.780042
740.663722	3937.705763
740.993464	3939.180301
741.323159	3912.502514
741.652806	3879.215776
741.982405	3852.134697
742.311956	3824.489009
742.641460	3815.316630
742.970915	3792.598670
743.300323	3748.970004
743.629683	3715.456413
743.958996	3703.345041
744.288260	3681.970549
744.617477	3647.799088
744.946647	3634.611429
745.275768	3612.132924
745.604842	3606.093622
745.933869	3560.342630
746.262847	3552.372566
746.591778	3586.047474
746.920662	3560.919842
747.249498	3529.420192
747.578286	3575.821493
747.907027	3592.527877
748.235720	3593.221036
748.564365	3618.134418
748.892963	3615.195425
749.221514	3600.881069
749.550017	3573.552974
749.878473	3571.992737
750.206881	3541.481153
750.535242	3539.099208
750.863555	3539.459650
751.191821	3536.954197
751.520039	3518.753111
751.848210	3492.813854
752.176334	3529.813403
752.504411	3537.153322
752.832440	3495.011797
753.160421	3480.077379
753.488356	3488.112978
753.816243	3500.252076
754.144082	3458.450829
754.471875	3442.714867
754.799620	3461.435192
755.127318	3455.040488
755.454969	3455.695838
755.782572	3460.835294
756.110129	3435.846295
756.437638	3424.811209
756.765100	3439.148251
757.092515	3449.838017
757.419882	3454.677525
757.747203	3433.466870
758.074477	3431.384874
758.401703	3445.769806
758.728882	3469.553970
759.056014	3477.776092
759.383099	3476.861123
759.710138	3478.159220
760.037129	3491.104903
760.364073	3523.035571
760.690970	3508.270032
761.017820	3485.103409
761.344623	3504.368178
761.671379	3548.964746
761.998088	3598.909978
762.324751	3723.181982
762.651366	3970.201041
762.977935	4439.734110
763.304456	4875.725862
763.630931	4963.099141
763.957359	4607.231488
764.283740	4266.285650
764.610074	4078.416970
764.936362	3884.577043
765.262602	3727.633321
765.588796	3620.597022
765.914943	3534.935215
766.241044	3444.859878
766.567097	3416.397523
766.893104	3372.037890
767.219064	3337.531192
767.544978	3312.695948
767.870845	3258.632093
768.196665	3242.018971
768.522438	3248.297728
768.848165	3241.177098
769.173846	3207.416491
769.499479	3189.374201
769.825066	3174.996830
770.150607	3160.495951
770.476101	3172.801408
770.801548	3171.785615
771.126949	3123.730816
771.452303	3106.479988
771.777611	3113.340998
772.102872	3118.886267
772.428087	3093.947679
772.753256	3082.894949
773.078378	3076.361614
773.403453	3043.707540
773.728482	3031.051723
774.053465	3054.911504
774.378401	3039.273845
774.703291	3007.063393
775.028135	3007.068434
775.352932	3007.060872
775.677683	2994.498317
776.002388	2993.192658
776.327046	2994.904130
776.651658	2981.819815
776.976224	2970.595686
777.300743	2969.968062
777.625216	2959.931125
777.949643	2956.944241
778.274024	2957.972637
778.598359	2946.579629
778.922647	2953.296966
779.246889	2953.203705
779.571086	2936.053700
779.895236	2931.030190
780.219339	2940.442024
780.543397	2952.296297
780.867409	2957.463480
781.191374	2950.466358
781.515294	2946.567026
781.839167	2946.914866
782.162995	2939.847168
782.486776	2948.636420
782.810511	2945.271449
783.134201	2932.098914
783.457844	2940.356324
783.781441	2929.706887
784.104993	2911.793147
784.428498	2914.172571
784.751958	2924.847215
785.075372	2918.913777
785.398739	2899.830489
785.722061	2919.042326
786.045337	2930.233688
786.368568	2912.622417
786.691752	2904.143196
787.014891	2953.223870
787.337983	2981.955926
787.661030	3008.384175
787.984031	3076.230544
788.306987	3124.388687
788.629897	3112.647839
788.952760	3099.959255
789.275579	3084.266143
789.598351	3022.229704
789.921078	2980.551965
790.243759	2974.074082
790.566395	2954.955506
790.888984	2931.292330
791.211529	2917.265319
791.534027	2904.324677
791.856480	2895.154818
792.178888	2880.593446
792.501249	2872.399050
792.823566	2872.668752
793.145836	2870.274204
793.468062	2864.164325
793.790241	2863.453523
794.112375	2869.850747
794.434464	2880.331306
794.756507	2885.773231
795.078505	2889.118037
795.400457	2903.069430
795.722364	2940.230296
796.044226	2963.976651
796.366042	2962.358440
796.687812	2956.314097
797.009538	2975.266315
797.331218	2963.283492
797.652852	2946.478806
797.974442	2932.290478
798.295986	2926.687236
798.617484	2919.223808
798.938938	2908.415574
799.260346	2891.225239
799.581709	2886.287429
799.903026	2880.391799
800.224299	2874.541540
800.545526	2865.777494
800.866708	2851.387521
801.187845	2838.935871
801.508936	2841.380830
801.829983	2850.855679
802.150984	2835.210458
802.471940	2824.238387
802.792851	2820.870896
803.113717	2823.341061
803.434538	2827.371464
803.755314	2823.220074
804.076045	2817.306800
804.396731	2817.347129
804.717372	2813.200780
805.037967	2811.688434
805.358518	2814.004844
805.679024	2826.738799
805.999485	2823.222594
806.319901	2826.471618
806.640272	2819.837459
806.960598	2823.081442
807.280879	2835.182732
807.601115	2841.343022
807.921306	2828.291474
808.241453	2823.479693
808.561554	2831.371619
808.881611	2833.040241
809.201623	2826.055723
809.521590	2826.890034
809.841513	2821.276709
810.161390	2824.092193
810.481223	2818.980463
810.801011	2811.038125
811.120755	2806.087712
811.440453	2809.261119
811.760107	2813.772951
812.079716	2807.617702
812.399281	2798.168060
812.718801	2791.642286
813.038276	2786.608694
813.357707	2795.828964
813.677093	2801.490180
813.996434	2792.889972
814.315731	2790.263530
814.634983	2786.059208
814.954191	2788.723458
815.273354	2800.902886
815.592473	2810.513845
815.911547	2810.836479
816.230577	2819.023313
816.549562	2827.613439
816.868502	2824.631597
817.187399	2836.261539
817.506250	2852.708303
817.825058	2846.104392
818.143821	2856.869776
818.462539	2874.072713
818.781213	2900.979872
819.099843	2933.661672
819.418429	2988.837101
819.736970	3051.854045
820.055466	3121.187554
820.373919	3228.546487
820.692327	3363.384749
821.010691	3527.426416
821.329011	3965.583344
821.647286	4846.051110
821.965517	6193.871646
822.283704	6915.653972
822.601847	6888.393932
822.919945	6272.795951
823.237999	5781.227998
823.556010	5206.962437
823.873976	4666.548224
824.191897	4269.930404
824.509775	3979.965756
824.827609	3715.761403
825.145398	3595.229935
825.463144	3585.823142
825.780845	3678.235054
826.098502	3781.858492
826.416116	4061.730751
826.733685	4365.183006
827.051210	4424.862706
827.368692	4313.022187
827.686129	4054.103485
828.003522	3730.516861
828.320872	3481.073007
828.638177	3288.014458
828.955439	3155.442194
829.272656	3073.160481
829.589830	3009.301665
829.906960	2960.392390
830.224046	2920.027872
830.541088	2884.669218
830.858086	2869.187835
831.175041	2850.898529
831.491952	2854.886082
831.808819	2865.623739
832.125642	2889.496123
832.442421	2933.200407
832.759157	3012.376769
833.075849	3185.595856
833.392497	3464.207826
833.709101	3665.301974
834.025662	3611.679220
834.342179	3456.401600
834.658653	3280.984569
834.975083	3137.329329
835.291469	3044.476316
835.607811	2959.868110
835.924110	2904.576735
836.240366	2850.593539
836.556578	2809.331695
836.872746	2787.286729
837.188871	2766.693616
837.504952	2752.056625
837.820990	2743.809298
838.136984	2730.167935
838.452935	2720.927500
838.768842	2720.695607
839.084706	2737.157495
839.400526	2812.898311
839.716303	2945.203394
840.032037	3023.384128
840.347727	3008.805111
840.663373	2948.817901
840.978977	2874.102960
841.294537	2805.092084
841.610054	2756.714652
841.925527	2738.488360
842.240957	2715.026830
842.556344	2694.083356
842.871687	2677.777744
843.186987	2669.946312
843.502244	2666.178049
843.817458	2660.894920
844.132629	2649.741367
844.447756	2641.728453
844.762840	2632.316619
845.077881	2639.333905
845.392879	2633.332411
845.707833	2631.003398
846.022745	2625.450567
846.337613	2625.760598
846.652438	2625.599281
846.967221	2625.064919
847.281960	2621.503344
847.596656	2622.246914
847.911309	2620.459825
848.225919	2619.146604
848.540485	2617.220883
848.855009	2617.430091
849.169490	2615.522015
849.483928	2616.076542
849.798323	2615.683332
850.112675	2612.237703
850.426984	2613.135028
850.741251	2611.317692
851.055474	2611.499174
851.369654	2617.341871
851.683792	2615.980760
851.997887	2613.860954
852.311938	2614.596963
852.625947	2614.405399
852.939914	2617.311624
853.253837	2616.918414
853.567718	2614.115533
853.881555	2613.639144
854.195350	2617.183075
854.509103	2613.762652
854.822812	2610.659822
855.136479	2611.315172
855.450103	2616.026130
855.763685	2616.510081
856.077224	2614.463372
856.390720	2610.087651
856.704173	2612.570419
857.017584	2620.303549
857.330953	2615.564864
857.644278	2619.025617
857.957561	2620.958899
858.270802	2616.774741
858.584000	2615.441356
858.897155	2617.157869
859.210268	2619.083590
859.523339	2615.912704
859.836367	2611.668053
860.149352	2612.736777
860.462295	2612.701489
860.775195	2609.283587
861.088054	2609.056735
861.400869	2607.057917
861.713642	2607.904831
862.026373	2608.560181
862.339062	2609.704523
862.651708	2616.593260
862.964312	2614.657457
863.276873	2615.864813
863.589392	2616.195009
863.901869	2622.370422
864.214303	2627.305712
864.526696	2626.912502
864.839045	2630.050620
865.151353	2635.232926
865.463619	2632.107411
865.775842	2632.883748
866.088023	2632.278810
866.400162	2631.419293
866.712258	2633.513893
867.024313	2630.393418
867.336325	2628.427368
867.648296	2627.842595
867.960224	2633.841568
868.272110	2634.751496
868.583954	2625.616925
868.895755	2629.453243
869.207515	2633.574387
869.519233	2640.614358
869.830909	2635.623616
870.142542	2631.033645
870.454134	2632.777884
870.765684	2636.740231
871.077191	2640.599234
871.388657	2644.276756
871.700081	2640.574029
872.011463	2641.909934
872.322803	2642.948412
872.634101	2646.409164
872.945357	2653.517191
873.256571	2661.409117
873.567744	2654.716986
873.878874	2653.829743
874.189963	2656.856956
874.501010	2661.688902
874.812015	2662.641680
875.122979	2665.643687
875.433900	2656.236894
875.744780	2652.698004
876.055618	2660.889879
876.366415	2666.387257
876.677169	2666.301557
876.987882	2658.719662
877.298554	2655.878972
877.609183	2671.098215
877.919771	2673.412105
878.230317	2679.479133
878.540822	2691.978674
878.851285	2706.252702
879.161707	2727.755743
879.472087	2766.280241
879.782425	2809.734987
880.092722	2919.347316
880.402977	3101.882455
880.713191	3356.864017
881.023363	3639.138385
881.333494	3821.129080
881.643583	3986.725943
881.953631	3987.557733
882.263637	3813.343018
882.573602	3599.230091
882.883526	3473.027325
883.193408	3365.008001
883.503248	3266.806324
883.813048	3156.984787
884.122806	3042.132179
884.432522	2963.011270
884.742197	2901.297464
885.051831	2866.382433
885.361424	2833.078050
885.670975	2796.461629
885.980485	2764.571290
886.289954	2750.972777
886.599382	2736.189594
886.908768	2725.436812
887.218113	2707.273535
887.527417	2691.469518
887.836680	2687.086235
888.145901	2682.266892
888.455082	2674.891683
888.764221	2661.250321
889.073319	2654.623724
889.382376	2654.245638
889.691392	2657.978612
890.000366	2656.829229
890.309300	2652.680360
890.618193	2654.064156
890.927044	2658.215547
891.235855	2659.556493
891.544625	2659.052378
891.853353	2657.817295
892.162041	2663.723007
892.470687	2685.785617
892.779293	2696.714838
893.087858	2703.873277
893.396381	2727.889334
893.704864	2768.455499
894.013306	2833.125941
894.321707	2927.035075
894.630068	2973.229689
894.938387	2991.987822
895.246665	2983.049856
895.554903	2940.747014
895.863100	2901.519275
896.171256	2844.619772
896.479371	2785.262706
896.787446	2747.113774
897.095480	2730.115003
897.403473	2726.263562
897.711425	2709.741180
898.019336	2690.655372
898.327207	2676.582991
898.635038	2678.667508
898.942827	2677.868485
899.250576	2665.318532
899.558284	2655.442912
899.865952	2650.772283
900.173579	2651.193219
900.481165	2644.871612
900.788711	2636.404994
901.096216	2631.774695
901.403681	2630.481639
901.711105	2632.989613
902.018489	2626.695732
902.325832	2633.244191
902.633135	2634.970786
902.940397	2647.104843
903.247619	2683.486851
903.554800	2747.554875
903.861941	2873.366952
904.169041	2993.001094
904.476101	3052.153993
904.783121	3046.412119
905.090100	2989.142091
905.397039	2917.814805
905.703938	2845.628002
906.010796	2789.454425
906.317614	2737.885942
906.624391	2701.690457
906.931129	2677.548372
907.237826	2655.896616
907.544483	2639.321302
907.851099	2626.380660
908.157675	2613.326592
908.464211	2611.163937
908.770707	2597.441916
909.077163	2594.449992
909.383578	2592.983016
909.689954	2591.896647
909.996289	2588.085535
910.302584	2589.413879
910.608839	2587.573858
910.915054	2585.595205
911.221229	2590.701894
911.527363	2591.695001
911.833458	2590.147367
912.139513	2592.698191
912.445527	2592.257090
912.751502	2596.816813
913.057436	2600.635487
913.363331	2608.028339
913.669186	2618.473610
913.975000	2631.603295
914.280775	2648.102992
914.586510	2664.577483
914.892205	2698.759026
915.197859	2765.019952
915.503475	2842.623475
915.809050	2907.235944
916.114585	2920.569796
916.420081	2927.145981
916.725536	2943.960749
917.030952	2917.945875
917.336328	2872.608258
917.641665	2825.183603
917.946961	2776.458331
918.252218	2746.907087
918.557435	2718.991697
918.862612	2699.457226
919.167750	2686.438446
919.472848	2665.636125
919.777906	2652.788744
920.082925	2641.335243
920.387904	2630.438789
920.692843	2626.355454
920.997743	2623.837398
921.302603	2614.929679
921.607423	2607.826693
921.912204	2603.657659
922.216946	2602.039449
922.521647	2602.616661
922.826310	2597.716659
923.130932	2592.773808
923.435516	2586.101841
923.740059	2586.547983
924.044564	2581.874833
924.349028	2580.226376
924.653454	2571.711867
924.957840	2567.958728
925.262186	2568.281362
925.566493	2571.137176
925.870761	2566.073337
926.174989	2567.797411
926.479178	2564.316494
926.783328	2562.171483
927.087438	2564.898748
927.391509	2563.817420
927.695541	2561.148129
927.999533	2557.183262
928.303486	2560.525547
928.607400	2558.037737
928.911275	2558.688046
929.215110	2558.408262
929.518906	2557.021945
929.822663	2555.728889
930.126381	2557.770556
930.430060	2557.828529
930.733699	2558.733417
931.037299	2558.367933
931.340861	2560.230639
931.644383	2560.384394
931.947866	2558.110834
932.251309	2556.853066
932.554714	2557.785680
932.858080	2557.004301
933.161407	2556.938766
933.464694	2554.226625
933.767943	2556.898437
934.071153	2555.139074
934.374323	2554.629917
934.677455	2556.729558
934.980548	2553.823333
935.283602	2556.122099
935.586617	2556.951369
935.889593	2551.842159
936.192530	2554.239228
936.495428	2556.162428
936.798287	2554.667726
937.101108	2557.548745
937.403890	2561.954714
937.706632	2562.874724
938.009336	2566.993347
938.312002	2568.672051
938.614628	2571.835375
938.917216	2575.928792
939.219765	2575.613720
939.522275	2574.842424
939.824747	2576.085068
940.127179	2569.632391
940.429573	2569.108111
940.731929	2567.711712
941.034246	2567.202555
941.336524	2571.444686
941.638763	2568.120045
941.940964	2567.631053
942.243126	2563.910682
942.545250	2564.077040
942.847335	2565.964952
943.149381	2561.004456
943.451389	2558.574620
943.753359	2556.709393
944.055290	2558.945145
944.357182	2558.723334
944.659036	2557.949517
944.960851	2557.984805
945.262628	2555.822150
945.564367	2557.642007
945.866067	2558.859445
946.167729	2558.463715
946.469352	2559.091338
946.770937	2558.171328
947.072484	2557.904147
947.373992	2557.856256
947.675462	2557.992367
947.976893	2556.719476
948.278286	2556.842984
948.579641	2554.997922
948.880958	2554.924825
949.182236	2556.379198
949.483476	2556.779969
949.784678	2558.383056
950.085841	2554.077911
950.386967	2553.157900
950.688054	2553.956923
950.989103	2555.736451
951.290114	2557.049671
951.591087	2557.914229
951.892021	2561.034703
952.192917	2558.607388
952.493776	2560.258366
952.794596	2560.245763
953.095378	2563.232646
953.396122	2563.963614
953.696828	2561.546380
953.997496	2561.127965
954.298126	2558.004970
954.598718	2555.537325
954.899272	2556.590926
955.199788	2553.606563
955.500266	2554.942469
955.800706	2552.074052
956.101108	2547.988197
956.401472	2547.668084
956.701798	2546.314534
957.002087	2545.447456
957.302337	2546.891746
957.602550	2547.053063
957.902724	2548.086500
958.202861	2544.401416
958.502960	2546.251520
958.803022	2545.762528
959.103045	2544.149358
959.403031	2544.595501
959.702979	2544.666077
960.002889	2545.510470
960.302762	2542.238761
960.602596	2545.170192
960.902393	2544.890408
961.202153	2544.996272
961.501875	2539.945036
961.801559	2541.737166
962.101205	2543.141128
962.400814	2540.625592
962.700385	2542.649615
962.999918	2544.361087
963.299414	2541.137269
963.598873	2540.812115
963.898293	2544.633309
964.197677	2541.500232
964.497022	2541.308668
964.796331	2541.795140
965.095601	2542.531148
965.394835	2541.608617
965.694030	2543.841848
965.993189	2541.303627
966.292309	2539.297248
966.591393	2542.657177
966.890439	2540.421425
967.189447	2538.835982
967.488419	2540.973432
967.787353	2537.797505
968.086249	2539.796322
968.385108	2541.545602
968.683930	2539.859337
968.982714	2541.094419
969.281462	2540.262629
969.580172	2541.210366
969.878844	2541.359080
970.177480	2542.226158
970.476078	2541.976621
970.774639	2541.679193
971.073162	2542.972249
971.371649	2540.171888
971.670098	2536.070909
971.968510	2538.415046
972.266885	2536.759027
972.565223	2541.913607
972.863524	2539.453524
973.161788	2541.603576
973.460014	2541.790098
973.758204	2540.910417
974.056356	2540.388658
974.354471	2541.590973
974.652550	2542.563916
974.950591	2541.853113
975.248595	2541.477547
975.546563	2544.287990
975.844493	2541.555685
976.142386	2541.659028
976.440243	2538.657021
976.738062	2541.273380
977.035845	2538.387320
977.333590	2540.512166
977.631299	2540.081147
977.928971	2541.245654
978.226606	2538.828421
978.524204	2541.144831
978.821765	2541.623740
979.119290	2542.495860
979.416777	2538.417567
979.714228	2539.062834
980.011642	2540.139121
980.309020	2542.924358
980.606360	2541.099460
980.903664	2543.249513
981.200931	2542.576518
981.498162	2541.162475
981.795356	2546.838814
982.092513	2547.940306
982.389633	2545.495347
982.686717	2554.216543
982.983764	2550.586912
983.280775	2557.397511
983.577749	2556.565720
983.874686	2554.962633
984.171587	2550.685214
984.468451	2546.695141
984.765279	2546.775800
985.062070	2545.515511
985.358824	2544.416540
985.655543	2543.375541
985.952224	2542.294214
986.248869	2541.810263
986.545478	2536.307844
986.842050	2536.804397
987.138586	2533.683923
987.435086	2534.636701
987.731549	2535.539068
988.027975	2539.211548
988.324366	2539.970242
988.620719	2539.451003
988.917037	2537.053934
989.213318	2535.536547
989.509563	2537.792463
989.805772	2538.402443
990.101944	2537.424459
990.398080	2536.602751
990.694180	2536.539737
990.990244	2539.077958
991.286271	2539.692978
991.582262	2540.789429
991.878217	2539.229192
992.174136	2539.735828
992.470019	2537.999151
992.765865	2537.016126
993.061676	2537.016126
993.357450	2538.437731
993.653188	2534.742565
993.948890	2536.857329
994.244556	2535.776002
994.540186	2539.987886
994.835780	2538.352032
995.131337	2538.886394
995.426859	2539.819007
995.722345	2535.884387
996.017795	2541.522917
996.313208	2544.388813
996.608586	2539.524100
996.903928	2542.284132
997.199234	2540.834800
997.494504	2541.164995
997.789738	2540.635674
998.084936	2541.316230
998.380099	2539.592155
998.675225	2539.125849
998.970316	2538.248688
999.265371	2536.587628
999.560390	2541.822866
999.855373	2537.540406
1000.150320	2539.496373
1000.445232	2539.337577
1000.740108	2539.168698
1001.034948	2536.282638
1001.329752	2535.763399
1001.624521	2534.248532
1001.919254	2529.754344
1002.213951	2534.961856
1002.508613	2532.484128
1002.803239	2533.923378
1003.097829	2531.732997
1003.392384	2535.992772
1003.686903	2533.426824
1003.981386	2537.961342
1004.275834	2535.730632
1004.570246	2537.356404
1004.864623	2534.641742
1005.158964	2533.353728
1005.453270	2533.101670
1005.747540	2533.452030
1006.041775	2535.589479
1006.335974	2536.121321
1006.630138	2537.076620
1006.924266	2536.592669
1007.218359	2534.677030
1007.512416	2535.274407
1007.806438	2534.712318
1008.100425	2538.926723
1008.394376	2534.903882
1008.688292	2534.576207
1008.982172	2534.924047
1009.276017	2537.091743
1009.569827	2532.864736
1009.863602	2534.742565
1010.157341	2535.783564
1010.451045	2536.615354
1010.744714	2532.655528
1011.038347	2536.847247
1011.331945	2534.407329
1011.625508	2534.372041
1011.919036	2532.448840
1012.212528	2534.823224
1012.505986	2539.312371
1012.799408	2534.364479
1013.092795	2534.228368
1013.386147	2535.100487
1013.679464	2538.500746
1013.972745	2537.043852
1014.265992	2537.948739
1014.559204	2538.513348
1014.852380	2534.024201
1015.145521	2536.330529
1015.438628	2532.479087
1015.731699	2533.326001
1016.024736	2534.155271
1016.317737	2535.896990
1016.610703	2535.939839
1016.903635	2533.053779
1017.196531	2532.161495
1017.489393	2531.591844
1017.782219	2530.260980
1018.075011	2533.630991
1018.367768	2534.573687
1018.660490	2536.106197
1018.953177	2536.106197
1019.245829	2536.106197
