Dividing Wavelength (nm)	Counts (n)	Blue Motor Position (mm): 43.400000	Red Motor Position (mm): 0.000000	
326.493990	2131.488066
326.888308	2131.488066
327.282561	2131.488066
327.676750	2097.785432
328.070874	2096.479773
328.464933	2100.389188
328.858929	2103.391195
329.252859	2115.989039
329.646726	2124.138064
330.040528	2139.289252
330.434265	2156.048568
330.827938	2173.866526
331.221547	2188.647189
331.615091	2210.160313
332.008571	2229.873745
332.401986	2251.442322
332.795338	2268.095774
333.188625	2289.447581
333.581847	2306.393420
333.975006	2324.849084
334.368100	2342.384738
334.761129	2362.947604
335.154095	2377.143493
335.546996	2400.196690
335.939833	2424.449681
336.332606	2438.978286
336.725315	2452.970009
337.117960	2462.071812
337.510540	2469.172277
337.903056	2480.676190
338.295508	2488.747078
338.687896	2496.782677
339.080220	2502.345590
339.472480	2511.787671
339.864676	2516.811181
340.256807	2520.702952
340.648875	2523.107582
341.040879	2527.561442
341.432818	2529.124199
341.824694	2530.273583
342.216506	2531.080167
342.608253	2532.615198
342.999937	2529.035979
343.391557	2528.746113
343.783113	2528.962883
344.174605	2527.659744
344.566033	2528.022707
344.957397	2525.376102
345.348697	2519.924094
345.739934	2519.593898
346.131106	2520.549197
346.522215	2518.898219
346.913260	2519.873682
347.304241	2518.570544
347.695159	2512.634585
348.086012	2512.316993
348.476802	2508.357166
348.867528	2508.047135
349.258191	2505.788698
349.648789	2506.706188
350.039324	2502.597648
350.429796	2505.511435
350.820203	2502.161588
351.210548	2502.577483
351.600828	2500.203100
351.991045	2498.380723
352.381198	2499.451968
352.771288	2496.495331
353.161314	2498.816783
353.551276	2497.193531
353.941175	2498.126144
354.331010	2496.979282
354.720782	2496.124806
355.110490	2495.756802
355.500135	2499.678820
355.889717	2497.990033
356.279235	2496.326453
356.668689	2499.590600
357.058080	2498.572287
357.447408	2496.651607
357.836672	2494.801503
358.225873	2499.406597
358.615010	2495.280413
359.004084	2498.053048
359.393095	2498.126144
359.782043	2504.440190
360.170927	2501.314674
360.559748	2501.833913
360.948505	2501.022287
361.337199	2506.731394
361.725830	2506.035715
362.114398	2505.418173
362.502903	2507.028822
362.891344	2507.336332
363.279722	2506.441528
363.668037	2509.375479
364.056289	2508.682321
364.444478	2508.614265
364.832603	2507.500170
365.220665	2509.413288
365.608665	2510.749194
365.996601	2511.742301
366.384474	2513.363032
366.772284	2512.221211
367.160031	2513.751201
367.547715	2512.500995
367.935336	2513.337826
368.322893	2513.796571
368.710388	2514.164575
369.097820	2518.094155
369.485189	2512.939575
369.872495	2516.264216
370.259738	2516.158352
370.646918	2514.915707
371.034035	2517.935358
371.421090	2517.774042
371.808081	2516.024761
372.195010	2517.489216
372.581875	2516.070132
372.968678	2519.362005
373.355418	2519.971985
373.742096	2519.669515
374.128710	2517.978208
374.515262	2519.107427
374.901751	2520.236645
375.288177	2520.415606
375.674540	2521.804444
376.060841	2521.106244
376.447079	2521.426358
376.833254	2524.841739
377.219367	2519.104906
377.605417	2523.215967
377.991404	2525.391225
378.377329	2529.129241
378.763191	2527.725279
379.148991	2537.106867
379.534727	2543.249513
379.920402	2549.692107
380.306013	2554.377860
380.691563	2562.728531
381.077049	2571.739593
381.462474	2581.348033
381.847835	2596.141299
382.233134	2607.990531
382.618371	2616.114350
383.003545	2640.448000
383.388657	2654.885864
383.773706	2672.040911
384.158693	2687.655885
384.543618	2707.949050
384.928480	2732.317987
385.313280	2759.262955
385.698017	2772.685027
386.082692	2806.531334
386.467305	2826.872390
386.851856	2859.501258
387.236344	2887.862789
387.620770	2921.691452
388.005133	2953.153293
388.389435	2987.778459
388.773674	3015.890453
389.157851	3061.492731
389.541965	3095.069336
389.926018	3097.128647
390.310008	3163.984430
390.693936	3198.158412
391.077802	3249.973911
391.461606	3270.443517
391.845348	3332.663958
392.229027	3358.119264
392.612645	3392.532701
392.996200	3472.709732
393.379694	3524.880633
393.763125	3596.820419
394.146494	3602.088425
394.529801	3672.241122
394.913047	3736.687233
395.296230	3733.733117
395.679351	3801.042603
396.062410	3844.817462
396.445408	3852.185109
396.828343	3900.955752
397.211217	3940.377575
397.594028	3890.651633
397.976778	3966.410093
398.359466	4006.683871
398.742092	4047.320612
399.124656	3988.729802
399.507158	4078.795056
399.889598	4112.855612
400.271977	4183.378834
400.654294	4165.568438
401.036549	4181.695089
401.418742	4162.861338
401.800874	4270.215230
402.182944	4295.219353
402.564952	4367.668295
402.946898	4360.046071
403.328783	4358.087582
403.710606	4281.522538
404.092367	4471.306857
404.474067	4439.948359
404.855705	4452.689875
405.237282	4382.650604
405.618797	4491.995752
406.000250	4528.869272
406.381642	4609.449595
406.762972	4573.662444
407.144240	4587.460082
407.525447	4588.208694
407.906593	4645.350172
408.287677	4688.595711
408.668700	4622.959888
409.049661	4671.153318
409.430560	4710.718814
409.811399	4638.194255
410.192176	4800.950427
410.572891	4739.972630
410.953545	4839.285882
411.334138	4723.815732
411.714669	4792.377945
412.095139	4686.944733
412.475547	4832.492927
412.855894	4808.703722
413.236180	4824.061597
413.616405	4775.326242
413.996568	4861.020816
414.376670	4801.081497
414.756711	4759.164303
415.136691	4789.383500
415.516609	4868.557341
415.896466	4904.062188
416.276262	4940.610553
416.655997	4917.857305
417.035670	5101.942600
417.415283	5192.622875
417.794834	5139.922653
418.174324	5090.259726
418.553753	4998.266230
418.933121	5182.704405
419.312428	5249.197224
419.691674	5191.753276
420.070859	5317.814890
420.449983	5228.662084
420.829045	5347.121638
421.208047	5251.095219
421.586988	5318.490404
421.965867	5334.644782
422.344686	5461.757476
422.723444	5318.581145
423.102141	5140.101614
423.480777	5438.752171
423.859352	5206.589392
424.237866	5466.385255
424.616319	5456.557526
424.994712	5565.073404
425.373044	5442.737203
425.751314	5585.134675
426.129524	5387.100508
426.507673	5585.031332
426.885762	5664.633672
427.263789	5598.586994
427.641756	5479.199868
428.019662	5605.140494
428.397508	5608.628973
428.775292	5551.689140
429.153016	5652.842413
429.530679	5581.268110
429.908282	5665.047046
430.285824	5538.035175
430.663305	5810.814530
431.040726	5543.832502
431.418086	5546.020363
431.795385	5651.534233
432.172624	5666.123332
432.549802	5660.565460
432.926920	5670.078118
433.303977	5678.958110
433.680974	5716.562597
434.057910	5729.742694
434.434786	5740.271144
434.811601	5706.245876
435.188355	5944.664727
435.565050	5813.322504
435.941683	5802.778931
436.318257	6015.127454
436.694770	5995.681203
437.071222	6032.847110
437.447614	5964.564681
437.823946	5882.852619
438.200218	6032.705958
438.576429	5896.183950
438.952580	5992.079299
439.328670	6039.957658
439.704700	5947.664213
440.080670	5934.400937
440.456580	6202.250044
440.832429	6093.197283
441.208218	5933.233910
441.583947	6090.918682
441.959616	6093.020843
442.335224	6019.881263
442.710773	6156.930071
443.086261	6181.833371
443.461689	5980.479604
443.837057	6129.004599
444.212365	6280.037568
444.587612	6175.194171
444.962800	6328.578839
445.337927	6309.351878
445.712995	5919.201858
446.088002	6499.209294
446.462949	6326.108673
446.837837	6258.857161
447.212664	6427.304796
447.587431	6576.449853
447.962139	7117.726103
448.336786	8038.152575
448.711374	7783.286960
449.085901	6851.774991
449.460369	6777.702797
449.834776	6708.976746
450.209124	7108.813343
450.583412	7251.881289
450.957640	7399.196408
451.331808	7165.004564
451.705917	6713.309618
452.079965	6638.849255
452.453954	6849.715679
452.827883	6732.072793
453.201752	6824.845147
453.575562	6618.298992
453.949311	6821.530588
454.323001	6711.164607
454.696632	6781.783611
455.070202	6928.801301
455.443713	7083.347954
455.817164	7184.765887
456.190556	7266.296469
456.563888	7339.080648
456.937160	7383.319293
457.310373	7040.606532
457.683526	7065.333391
458.056619	6956.837678
458.429653	6940.963085
458.802628	6875.334823
459.175542	6985.506720
459.548398	7341.339085
459.921194	7504.286821
460.293930	7508.314703
460.666607	8033.804580
461.039224	8348.609514
461.411782	8464.861043
461.784280	8487.410124
462.156719	8375.677990
462.529099	8256.404290
462.901419	7848.033020
463.273680	7731.683189
463.645882	7747.446877
464.018024	7612.094417
464.390106	7783.213863
464.762130	8170.238368
465.134094	8638.700192
465.505999	9663.965020
465.877845	10886.706968
466.249631	11533.711337
466.621358	11152.579942
466.993026	10524.051401
467.364634	10265.498182
467.736184	9900.934539
468.107674	9565.959948
468.479105	9608.353531
468.850477	9363.739103
469.221790	9141.956060
469.593043	8810.361562
469.964238	8668.054831
470.335373	8687.680042
470.706449	8739.934123
471.077467	8725.831495
471.448425	10031.873469
471.819324	11107.791811
472.190164	11122.169181
472.560945	9878.473678
472.931667	9088.776928
473.302330	8955.100651
473.672934	8599.777443
474.043479	8962.312022
474.413965	8903.643073
474.784393	8776.646326
475.154761	8932.107948
475.525070	9021.739664
475.895321	8857.516516
476.265513	9027.138740
476.635645	9205.686327
477.005719	9204.340338
477.375734	9320.087751
477.745691	9548.446979
478.115588	9685.402527
478.485427	9937.215723
478.855207	10470.020314
479.224928	11285.152206
479.594591	11913.552197
479.964194	11721.244781
480.333739	11661.418888
480.703226	11580.697412
481.072653	11664.783858
481.442022	11909.073132
481.811333	12097.576998
482.180584	11898.915207
482.549777	11603.871596
482.918912	11433.715010
483.287988	11455.797784
483.657005	11467.931841
484.025964	11145.608026
484.394864	11271.722572
484.763706	11241.818447
485.132489	11003.923877
485.501213	10972.653599
485.869879	11047.822244
486.238487	10889.507328
486.607036	11006.512509
486.975527	10779.670668
487.343959	10975.161573
487.712333	11007.724907
488.080648	10949.925557
488.448905	10991.242854
488.817104	10932.344533
489.185244	11196.069976
489.553326	11347.856598
489.921350	11889.460523
490.289315	12950.578037
490.657222	13289.857773
491.025070	13198.993496
491.392861	13076.531266
491.760593	12695.823328
492.128267	12345.488341
492.495883	12012.124399
492.863440	11681.651559
493.230939	11343.450629
493.598380	11279.760692
493.965763	11147.117852
494.333088	11045.125227
494.700354	10965.898453
495.067563	11023.614624
495.434713	10856.119767
495.801805	10981.969652
496.168839	10909.258569
496.535815	10843.451347
496.902733	10842.453198
497.269593	10775.199165
497.636395	10877.733714
498.003139	10864.767866
498.369825	10731.557896
498.736453	10894.939172
499.103023	10816.897069
499.469535	10852.974087
499.835989	10833.913484
500.202385	10803.452312
500.568723	10655.736422
500.935003	10873.700791
501.301226	10685.902686
501.667390	10935.694380
502.033497	11028.270129
502.399546	10890.298790
502.765537	10802.189503
503.131470	10870.814730
503.497345	11047.590351
503.863163	10658.526700
504.228923	10968.272837
504.594625	11029.807681
504.960269	10782.496235
505.325856	11002.091417
505.691385	10797.024841
506.056856	10945.980854
506.422270	10972.782149
506.787625	10866.101251
507.152924	10976.386574
507.518164	10956.726074
507.883347	10875.747499
508.248472	10801.624893
508.613540	11037.190451
508.978550	10921.748028
509.343503	10896.751467
509.708398	11012.443427
510.073236	11125.894594
510.438016	11130.608073
510.802738	11078.636297
511.167403	11133.005142
511.532010	11041.601461
511.896561	11262.018351
512.261053	11325.720891
512.625488	11201.113651
512.989866	11184.916423
513.354186	11172.868066
513.718449	11075.604043
514.082655	11268.264340
514.446803	11163.105871
514.810894	11287.811414
515.174927	11152.834520
515.538904	11176.454847
515.902822	11331.740029
516.266684	11210.780063
516.630488	11151.054993
516.994235	11210.845598
517.357925	11272.887078
517.721558	11358.253978
518.085133	11375.131761
518.448651	11384.430169
518.812112	11267.445153
519.175516	11282.659355
519.538863	11406.296174
519.902152	11319.815180
520.265385	11481.578245
520.628560	11392.947198
520.991678	11367.975843
521.354739	11432.706779
521.717743	11369.712520
522.080690	11351.768533
522.443580	11479.491207
522.806413	11439.275402
523.169189	11467.468055
523.531908	11520.896724
523.894569	11343.432985
524.257174	11351.173677
524.619722	11470.684311
524.982213	11415.957545
525.344647	11466.512757
525.707025	11421.119687
526.069345	11509.327276
526.431608	11432.179978
526.793815	11540.247193
527.155964	11327.868423
527.518057	11380.029242
527.880093	11333.045688
528.242072	11396.733105
528.603995	11304.162397
528.965860	11226.299255
529.327669	11272.022521
529.689421	11224.854965
530.051117	11196.231293
530.412755	11308.737244
530.774337	11189.138390
531.135862	11168.207519
531.497331	11191.767351
531.858743	11041.689681
532.220098	11213.230064
532.581396	11078.275855
532.942638	11062.471838
533.303824	11026.765345
533.664953	11040.227746
534.026025	10957.363780
534.387040	11053.982534
534.747999	11057.972608
535.108902	11116.633994
535.469748	10875.528209
535.830537	10980.898407
536.191270	10960.590118
536.551947	10981.273973
536.912567	10981.911678
537.273131	10904.471994
537.633638	10887.047245
537.994089	10865.801303
538.354483	10821.421505
538.714821	10965.926180
539.075103	10976.305915
539.435328	10944.047572
539.795497	10762.253482
540.155609	10924.911352
540.515665	11010.968889
540.875665	10751.528427
541.235609	10812.763323
541.595496	10812.037397
541.955328	10957.043667
542.315102	10845.876142
542.674821	10800.566251
543.034483	10805.753598
543.394090	10807.041613
543.753640	10730.000180
544.113134	10955.652308
544.472571	10806.028341
544.831953	10946.351379
545.191278	10748.455844
545.550548	10780.978848
545.909761	10924.278687
546.268918	10895.569316
546.628019	10976.386574
546.987064	10836.613022
547.346053	10760.811712
547.704986	10864.472958
548.063863	10855.035918
548.422684	10845.689619
548.781449	10762.301373
549.140158	10858.088337
549.498811	10741.425955
549.857408	10597.934552
550.215949	10830.714872
550.574434	10677.877169
550.932864	10772.935687
551.291237	10837.212919
551.649555	10783.673345
552.007817	10793.937134
552.366022	10757.131670
552.724173	10749.156564
553.082267	10736.941848
553.440305	10873.305060
553.798288	10672.301653
554.156215	10824.075672
554.514086	10803.270830
554.871902	10650.274332
555.229661	10685.822028
555.587365	10661.571557
555.945014	10563.780734
556.302606	10684.206338
556.660143	10579.514176
557.017625	10730.859696
557.375050	10630.515529
557.732421	10765.313462
558.089735	10677.249546
558.446994	10679.971769
558.804197	10715.383354
559.161345	10716.147089
559.518437	10567.450694
559.875474	10657.624334
560.232455	10680.463281
560.589381	10633.391507
560.946251	10630.094593
561.303065	10738.076108
561.659825	10667.477269
562.016528	10603.237846
562.373177	10483.182767
562.729770	10597.168296
563.086307	10512.302992
563.442789	10609.882086
563.799216	10480.001799
564.155587	10534.542042
564.511904	10495.069807
564.868164	10478.376027
565.224370	10495.180713
565.580520	10414.502087
565.936615	10418.550133
566.292654	10287.167582
566.648638	10421.645402
567.004567	10380.814576
567.360441	10366.706907
567.716260	10274.569738
568.072023	10370.719666
568.427732	10314.465430
568.783385	10227.598787
569.138982	10295.863572
569.494525	10313.472322
569.850013	10190.437922
570.205445	10272.961610
570.560823	10161.448767
570.916145	10080.046735
571.271412	10153.680348
571.626625	10100.949879
571.981782	10076.880890
572.336884	10048.436180
572.691931	10045.489625
573.046923	10002.123099
573.401860	9957.917221
573.756743	9887.807374
574.111570	9940.384088
574.466342	9915.763093
574.821059	9947.383730
575.175722	9845.499490
575.530330	9845.000416
575.884882	9847.831024
576.239380	9772.337225
576.593823	9747.985931
576.948211	9764.523436
577.302544	9649.156630
577.656823	9655.979832
578.011047	9659.042333
578.365216	9630.330441
578.719330	9555.557527
579.073389	9569.619826
579.427394	9522.810192
579.781344	9493.964709
580.135239	9443.502759
580.489080	9456.219070
580.842866	9353.974388
581.196597	9356.195016
581.550273	9403.228981
581.903895	9367.824958
582.257463	9431.711500
582.610975	9311.147265
582.964434	9340.416204
583.317837	9254.010827
583.671186	9238.010205
584.024481	9236.039114
584.377721	9150.039550
584.730906	9129.718659
585.084037	9168.558228
585.437113	9102.564483
585.790135	9118.852452
586.143103	9019.584571
586.496016	8990.219849
586.848874	9056.500940
587.201679	9036.900934
587.554428	8920.195702
587.907124	8973.906676
588.259765	8936.168598
588.612352	8943.090102
588.964884	8812.461203
589.317362	8833.434924
589.669786	8832.028442
590.022155	8880.471410
590.374470	8900.878000
590.726731	8832.802259
591.078937	8690.172893
591.431090	8799.424779
591.783188	8665.325046
592.135232	8660.770363
592.487222	8660.276330
592.839157	8718.705824
593.191038	8649.563878
593.542866	8594.474149
593.894639	8492.078232
594.246358	8547.208291
594.598022	8562.624139
594.949633	8459.237635
595.301190	8436.025643
595.652692	8471.422104
596.004141	8572.603103
596.355535	8352.917180
596.706876	8335.409253
597.058162	8265.732945
597.409395	8346.714040
597.760573	8405.544306
598.111698	8311.025192
598.462768	8300.887431
598.813785	8268.389633
599.164748	8233.923264
599.515657	8224.551759
599.866511	8133.148078
600.217312	8260.381760
600.568060	8117.770038
600.918753	8219.727375
601.269392	8189.818209
601.619978	8103.541382
601.970510	8166.099580
602.320988	8161.098756
602.671412	8225.335659
603.021783	8151.903691
603.372100	8122.849001
603.722363	8134.541957
604.072572	8103.286803
604.422728	8116.663505
604.772830	8046.437712
605.122878	8053.195378
605.472872	8046.934265
605.822813	8076.777896
606.172701	8021.945266
606.522534	8095.755320
606.872314	8095.036955
607.222041	8064.391781
607.571714	8118.866489
607.921333	8079.893329
608.270899	8089.337931
608.620411	8174.379676
608.969870	8079.016168
609.319276	8074.837052
609.668627	8088.526305
610.017926	8125.528374
610.367171	8174.261208
610.716362	8150.426633
611.065500	8133.359807
611.414585	8169.686361
611.763616	8155.402252
612.112594	8133.463150
612.461518	8153.718507
612.810389	8208.775468
613.159207	8149.090727
613.507971	8100.289837
613.856682	8217.111016
614.205340	8174.525869
614.553945	8251.718537
614.902496	8149.680542
615.250994	8193.813324
615.599439	8186.924587
615.947830	8201.617030
616.296169	8175.990324
616.644454	8189.848456
616.992686	8183.483999
617.340864	8244.144204
617.688990	8150.615676
618.037063	8238.619099
618.385082	8186.475924
618.733048	8272.067155
619.080961	8214.310655
619.428821	8221.809372
619.776628	8230.860763
620.124382	8177.288421
620.472083	8166.157554
620.819731	8193.987243
621.167326	8083.749812
621.514868	8092.526461
621.862357	7982.568813
622.209793	8000.308633
622.557176	7934.151051
622.904506	7906.999396
623.251783	7838.137235
623.599007	7791.902292
623.946179	7795.889845
624.293297	7751.202537
624.640363	7669.293869
624.987376	7650.598750
625.334336	7599.577232
625.681243	7547.176958
626.028097	7537.439969
626.374899	7516.501537
626.721647	7510.971391
627.068343	7435.722088
627.414987	7412.416833
627.761577	7366.164247
628.108115	7401.525421
628.454600	7297.349976
628.801032	7344.240269
629.147412	7307.197870
629.493739	7294.980634
629.840014	7232.946715
630.186236	7290.655324
630.532405	7167.555388
630.878521	7226.753658
631.224585	7179.986874
631.570597	7106.900225
631.916556	7137.724360
632.262462	7134.450131
632.608316	7096.533092
632.954117	7069.469658
633.299866	7057.459109
633.645562	7051.878552
633.991206	6973.561706
634.336797	6914.154228
634.682336	6874.936572
635.027823	6840.457600
635.373257	6829.457803
635.718639	6762.806187
636.063968	6777.007118
636.409245	6673.050963
636.754470	6664.312123
637.099642	6627.730990
637.444762	6564.514921
637.789829	6580.618887
638.134845	6523.676534
638.479808	6508.505181
638.824719	6510.836715
639.169577	6439.574964
639.514383	6457.372758
639.859137	6386.874742
640.203839	6393.360186
640.548489	6383.923146
640.893086	6361.893304
641.237632	6329.597152
641.582125	6349.539957
641.926566	6320.150030
642.270955	6334.413974
642.615292	6329.085475
642.959576	6343.803123
643.303809	6333.751063
643.647990	6342.338668
643.992118	6332.526062
644.336195	6277.753926
644.680219	6299.020033
645.024192	6293.804960
645.368112	6391.522686
645.711981	6413.381129
646.055797	6482.366799
646.399562	6440.696621
646.743274	6569.092289
647.086935	6623.148582
647.430544	6618.949300
647.774101	6645.135574
648.117606	6643.923177
648.461059	6637.266333
648.804460	6601.297700
649.147810	6506.604666
649.491108	6480.627601
649.834354	6453.642304
650.177548	6369.671804
650.520690	6284.115862
650.863781	6260.924034
651.206820	6281.267610
651.549807	6201.481268
651.892742	6146.063864
652.235626	6148.745758
652.578458	6140.054808
652.921238	6046.959820
653.263967	6085.149081
653.606644	6022.013671
653.949269	6025.350914
654.291843	5970.162883
654.634365	6012.269120
654.976836	5969.323531
655.319255	5969.752029
655.661622	5949.630263
656.003938	5940.684736
656.346203	5908.388583
656.688416	5943.089366
657.030577	5892.156068
657.372687	5864.732191
657.714746	5850.067475
658.056753	5893.444083
658.398708	5831.752963
658.740612	5824.612168
659.082465	5867.419126
659.424266	5864.013827
659.766016	5857.457806
660.107715	5839.365105
660.449362	5851.131158
660.790958	5843.879458
661.132503	5835.939641
661.473996	5866.967943
661.815438	5855.504359
662.156829	5854.453278
662.498168	5846.548749
662.839456	5820.034801
663.180693	5857.540985
663.521879	5856.651222
663.863013	5848.749213
664.204097	5862.244382
664.545129	5908.446557
664.886110	5904.038068
665.227040	5935.693993
665.567918	5901.081431
665.908746	5925.906593
666.249522	5931.852634
666.590248	5918.801087
666.930922	5948.785870
667.271545	5959.866326
667.612118	5965.928313
667.952639	5937.085352
668.293109	5960.743487
668.633528	5913.754892
668.973896	5920.429379
669.314213	5910.021917
669.654480	5893.802005
669.994695	5885.211879
670.334859	5877.692998
670.674973	5869.932141
671.015035	5870.247213
671.355047	5869.319641
671.695008	5855.738773
672.034918	5827.853630
672.374777	5841.389128
672.714585	5827.437735
673.054342	5829.802036
673.394049	5826.530327
673.733705	5853.485377
674.073310	5841.840312
674.412864	5799.482016
674.752368	5791.635460
675.091820	5796.669052
675.431223	5733.158076
675.770574	5736.036575
676.109875	5684.478174
676.449125	5688.639646
676.788324	5657.870964
677.127473	5601.079845
677.466571	5595.524493
677.805619	5580.148974
678.144616	5566.280760
678.483562	5549.284510
678.822458	5515.218913
679.161303	5509.192213
679.500098	5496.911962
679.838842	5486.159181
680.177535	5494.288042
680.516179	5505.517212
680.854771	5511.697667
681.193314	5593.679431
681.531805	5707.922060
681.870247	5859.174319
682.208638	5957.585204
682.546978	5970.099868
682.885268	5945.549449
683.223508	5860.815215
683.561697	5807.620959
683.899836	5778.538543
684.237925	5729.914093
684.575963	5697.943096
684.913951	5656.225027
685.251889	5720.265325
685.589776	5687.772568
685.927614	5661.505636
686.265401	5729.523404
686.603137	5710.974478
686.940824	5786.821158
687.278460	5811.358975
687.616046	5824.566798
687.953582	5889.020470
688.291068	5874.391042
688.628504	5936.326658
688.965889	5899.871554
689.303224	5841.336196
689.640510	5795.305420
689.977745	5720.300613
690.314930	5619.510303
690.652065	5564.476027
690.989150	5467.370801
691.326185	5393.543103
691.663170	5340.308518
692.000105	5261.510242
692.336990	5189.051218
692.673825	5162.262526
693.010610	5096.291466
693.347345	5025.140621
693.684030	5012.416749
694.020665	4967.913443
694.357251	4877.812900
694.693786	4891.318151
695.030272	4856.990414
695.366707	4821.152851
695.703093	4787.813180
696.039429	4814.395184
696.375716	4791.881391
696.711952	4767.857773
697.048139	4752.890587
697.384276	4736.416096
697.720363	4749.694495
698.056400	4753.722377
698.392388	4706.758988
698.728326	4684.172098
699.064214	4659.414992
699.400053	4660.168644
699.735842	4622.871668
700.071581	4599.183286
700.407270	4570.864604
700.742910	4552.008168
701.078501	4500.981609
701.414042	4499.502030
701.749533	4469.199654
702.084974	4400.745826
702.420366	4458.903097
702.755709	4407.574069
703.091002	4351.745811
703.426246	4393.126122
703.761440	4354.430225
704.096584	4314.766427
704.431679	4335.651927
704.766725	4321.864371
705.101721	4305.170590
705.436668	4335.674612
705.771565	4284.159061
706.106413	4315.598217
706.441212	4344.358000
706.775961	4356.403837
707.110661	4336.158563
707.445311	4361.621431
707.779913	4384.019278
708.114465	4399.409920
708.448967	4421.207870
708.783421	4480.053258
709.117825	4520.284187
709.452180	4525.990773
709.786485	4575.071447
710.120742	4658.240403
710.454949	4645.085512
710.789107	4706.698494
711.123216	4783.702119
711.457275	4777.690543
711.791286	4853.587635
712.125247	4863.357391
712.459159	4767.961116
712.793023	4837.735727
713.126837	4800.345489
713.460602	4798.812978
713.794318	4714.933219
714.127985	4721.968149
714.461602	4635.373729
714.795171	4611.781129
715.128691	4546.304102
715.462162	4488.164475
715.795584	4440.898617
716.128957	4423.214249
716.462281	4367.743912
716.795556	4338.656455
717.128782	4302.481135
717.461960	4237.185590
717.795088	4245.995006
718.128167	4205.141495
718.461198	4146.099501
718.794180	4141.834685
719.127113	4120.820635
719.459997	4101.260958
719.792833	4055.073907
720.125619	4048.734656
720.458357	4009.726207
720.791046	4014.386754
721.123686	3989.876664
721.456278	3949.333184
721.788821	3968.643324
722.121315	3938.325825
722.453761	3910.826331
722.786158	3923.250254
723.118506	3944.745734
723.450805	3899.670257
723.783056	3923.527518
724.115259	3938.469498
724.447412	3940.778346
724.779518	3935.359106
725.111574	3942.439407
725.443582	3969.676761
725.775542	3954.823001
726.107453	4004.914426
726.439315	4009.272504
726.771129	4022.550903
727.102895	4058.937951
727.434612	4105.493007
727.766281	4116.200418
728.097901	4117.538844
728.429473	4122.486737
728.760996	4129.067963
729.092471	4126.844814
729.423897	4108.242957
729.755276	4115.872743
730.086606	4116.654122
730.417887	4149.522445
730.749120	4217.041139
731.080305	4279.995068
731.411442	4310.791477
731.742530	4277.925674
732.073570	4276.970376
732.404562	4334.946166
732.735506	4325.680525
733.066401	4290.858755
733.397249	4228.993715
733.728048	4148.630161
734.058798	4063.906008
734.389501	3994.824557
734.720156	3933.551852
735.050762	3887.914287
735.381320	3882.679048
735.711831	3827.218794
736.042293	3802.665854
736.372707	3824.274760
736.703073	3794.620173
737.033391	3786.619862
737.363661	3803.003612
737.693883	3832.302798
738.024056	3837.918643
738.354182	3833.825226
738.684260	3896.653127
739.014290	3916.989141
739.344272	3912.636105
739.674207	3953.865182
740.004093	3961.222746
740.333931	3956.720995
740.663722	3959.566727
740.993464	3954.316365
741.323159	3931.979012
741.652806	3899.778642
741.982405	3874.204869
742.311956	3838.813448
742.641460	3828.494206
742.970915	3809.050476
743.300323	3766.858539
743.629683	3733.289495
743.958996	3724.583423
744.288260	3696.819268
744.617477	3663.968589
744.946647	3648.051145
745.275768	3624.186323
745.604842	3620.884367
745.933869	3572.454002
746.262847	3566.132395
746.591778	3603.333590
746.920662	3577.434662
747.249498	3544.215979
747.578286	3585.203080
747.907027	3609.430866
748.235720	3605.861729
748.564365	3631.223774
748.892963	3629.111530
749.221514	3614.373717
749.550017	3588.242896
749.878473	3586.717947
750.206881	3559.651992
750.535242	3553.244686
750.863555	3557.917835
751.191821	3552.836352
751.520039	3530.594781
751.848210	3509.006040
752.176334	3544.306720
752.504411	3550.207390
752.832440	3507.864219
753.160421	3492.702948
753.488356	3501.862725
753.816243	3513.716998
754.144082	3472.397181
754.471875	3456.454532
754.799620	3478.000423
755.127318	3469.342242
755.454969	3469.233857
755.782572	3474.781647
756.110129	3447.992955
756.437638	3439.627160
756.765100	3452.222483
757.092515	3464.101962
757.419882	3465.631952
757.747203	3441.079013
758.074477	3440.627829
758.401703	3459.199440
758.728882	3482.620641
759.056014	3488.617093
759.383099	3492.823936
759.710138	3485.804129
760.037129	3506.084691
760.364073	3533.004453
760.690970	3522.652443
761.017820	3498.480111
761.344623	3517.969212
761.671379	3566.507961
761.998088	3612.455558
762.324751	3744.024632
762.651366	3988.374400
762.977935	4462.658757
763.304456	4908.082508
763.630931	5003.516592
763.957359	4646.371006
764.283740	4301.533398
764.610074	4104.318418
764.936362	3909.366917
765.262602	3749.532093
765.588796	3639.677789
765.914943	3549.085734
766.241044	3460.300932
766.567097	3430.389246
766.893104	3384.991135
767.219064	3351.777493
767.544978	3323.433605
767.870845	3266.841612
768.196665	3250.503232
768.522438	3258.765684
768.848165	3254.158069
769.173846	3218.635578
769.499479	3201.389791
769.825066	3182.402285
770.150607	3165.186745
770.476101	3182.727440
770.801548	3177.262829
771.126949	3133.866056
771.452303	3116.968108
771.777611	3121.661422
772.102872	3126.430354
772.428087	3103.732559
772.753256	3092.528594
773.078378	3084.727409
773.403453	3050.755073
773.728482	3041.968342
774.053465	3062.001887
774.378401	3050.641647
774.703291	3018.600073
775.028135	3017.483458
775.352932	3015.318282
775.677683	3001.210613
776.002388	2998.488390
776.327046	2998.838750
776.651658	2988.842142
776.976224	2978.041470
777.300743	2974.923516
777.625216	2966.260293
777.949643	2960.838533
778.274024	2963.885910
778.598359	2953.559106
778.922647	2958.691001
779.246889	2956.994653
779.571086	2939.993361
779.895236	2935.237033
780.219339	2948.487706
780.543397	2960.921712
780.867409	2962.860035
781.191374	2953.344857
781.515294	2953.901905
781.839167	2953.675053
782.162995	2943.912858
782.486776	2955.588171
782.810511	2953.090279
783.134201	2937.046807
783.457844	2946.342695
783.781441	2936.272990
784.104993	2917.023344
784.428498	2916.070566
784.751958	2929.951383
785.075372	2925.363933
785.398739	2910.139648
785.722061	2924.285126
786.045337	2936.542692
786.368568	2919.458221
786.691752	2912.783733
787.014891	2960.031948
787.337983	2987.728047
787.661030	3015.530011
787.984031	3086.222111
788.306987	3130.675006
788.629897	3122.064715
788.952760	3109.000565
789.275579	3094.119078
789.598351	3034.514996
789.921078	2989.137050
790.243759	2978.288487
790.566395	2964.037145
790.888984	2939.456478
791.211529	2919.780855
791.534027	2913.756676
791.856480	2900.805952
792.178888	2887.454456
792.501249	2879.565050
792.823566	2872.953577
793.145836	2873.944164
793.468062	2865.893441
793.790241	2864.885210
794.112375	2873.974411
794.434464	2887.857748
794.756507	2891.840260
795.078505	2895.674057
795.400457	2908.705440
795.722364	2947.371090
796.044226	2971.435038
796.366042	2973.839668
796.687812	2962.353399
797.009538	2982.427274
797.331218	2968.337249
797.652852	2955.721761
797.974442	2939.955553
798.295986	2934.087650
798.617484	2931.763678
798.938938	2914.820360
799.260346	2900.697567
799.581709	2892.903943
799.903026	2885.914383
800.224299	2880.172509
800.545526	2869.933926
800.866708	2856.592512
801.187845	2845.479288
801.508936	2846.684124
801.829983	2855.138139
802.150984	2839.049297
802.471940	2827.726865
802.792851	2828.972030
803.113717	2826.527071
803.434538	2833.302381
803.755314	2826.448933
804.076045	2819.368632
804.396731	2819.126657
804.717372	2821.677481
805.037967	2814.088023
805.358518	2823.666216
805.679024	2830.665858
805.999485	2827.971361
806.319901	2832.601661
806.640272	2827.162256
806.960598	2830.416321
807.280879	2839.387054
807.601115	2845.229751
807.921306	2829.370281
808.241453	2827.744509
808.561554	2836.586693
808.881611	2836.876559
809.201623	2832.112669
809.521590	2830.071002
809.841513	2825.060095
810.161390	2829.095538
810.481223	2825.455825
810.801011	2814.468631
811.120755	2813.694813
811.440453	2815.227324
811.760107	2813.974597
812.079716	2813.813281
812.399281	2803.857002
812.718801	2796.025569
813.038276	2791.917029
813.357707	2795.695374
813.677093	2802.710139
813.996434	2798.122689
814.315731	2795.324849
814.634983	2788.645320
814.954191	2791.758232
815.273354	2806.044862
815.592473	2812.331181
815.911547	2816.729588
816.230577	2823.930876
816.549562	2832.808348
816.868502	2832.740293
817.187399	2841.408557
817.506250	2859.259282
817.825058	2851.357274
818.143821	2862.911598
818.462539	2879.658312
818.781213	2906.094122
819.099843	2940.966304
819.418429	3002.170953
819.736970	3062.846281
820.055466	3138.514000
820.373919	3243.876636
820.692327	3384.509705
821.010691	3556.181158
821.329011	4002.300588
821.647286	4910.638373
821.965517	6304.530014
822.283704	7057.633029
822.601847	7039.474792
822.919945	6400.921917
823.237999	5884.402773
823.556010	5297.849400
823.873976	4740.620418
824.191897	4324.760514
824.509775	4027.992828
824.827609	3758.366715
825.145398	3626.946355
825.463144	3614.288017
825.780845	3708.766802
826.098502	3815.858554
826.416116	4097.921194
826.733685	4421.623765
827.051210	4490.216225
827.368692	4369.881362
827.686129	4101.107203
828.003522	3773.159981
828.320872	3512.890249
828.638177	3316.156700
828.955439	3174.896007
829.272656	3093.403235
829.589830	3022.698531
829.906960	2974.724391
830.224046	2928.741506
830.541088	2893.791186
830.858086	2877.765358
831.175041	2861.036289
831.491952	2861.787421
831.808819	2873.266128
832.125642	2898.202196
832.442421	2944.485029
832.759157	3028.543749
833.075849	3205.054710
833.392497	3489.758915
833.709101	3695.374977
834.025662	3647.720950
834.342179	3483.457472
834.658653	3307.012047
834.975083	3156.137874
835.291469	3060.171948
835.607811	2971.505614
835.924110	2911.488157
836.240366	2862.510827
836.556578	2817.352171
836.872746	2795.382822
837.188871	2771.971704
837.504952	2756.008890
837.820990	2749.805750
838.136984	2733.411918
838.452935	2722.659137
838.768842	2723.183417
839.084706	2740.721591
839.400526	2820.301246
839.716303	2954.892492
840.032037	3036.602034
840.347727	3023.535363
840.663373	2961.750981
840.978977	2883.038405
841.294537	2815.736481
841.610054	2766.764192
841.925527	2739.594893
842.240957	2719.934393
842.556344	2695.502441
842.871687	2679.758917
843.186987	2671.017557
843.502244	2666.079747
843.817458	2663.173521
844.132629	2650.532828
844.447756	2640.004378
844.762840	2634.169243
845.077881	2637.067906
845.392879	2634.176804
845.707833	2630.655558
846.022745	2625.125413
846.337613	2627.101545
846.652438	2624.381842
846.967221	2624.762450
847.281960	2625.443005
847.596656	2623.010649
847.911309	2621.208436
848.225919	2621.397479
848.540485	2615.809360
848.855009	2613.729884
849.169490	2616.318517
849.483928	2614.715430
849.798323	2615.700976
850.112675	2611.123608
850.426984	2613.003958
850.741251	2611.368104
851.055474	2611.995727
851.369654	2617.364556
851.683792	2617.969495
851.997887	2617.367077
852.311938	2612.567898
852.625947	2613.056890
852.939914	2615.471603
853.253837	2617.737602
853.567718	2612.651077
853.881555	2611.499174
854.195350	2616.852879
854.509103	2615.683332
854.822812	2611.156375
855.136479	2610.528752
855.450103	2612.217538
855.763685	2612.262909
856.077224	2612.721654
856.390720	2610.027157
856.704173	2613.510594
857.017584	2618.710544
857.330953	2618.579474
857.644278	2621.165586
857.957561	2619.938065
858.270802	2616.943620
858.584000	2617.354474
858.897155	2618.236676
859.210268	2621.165586
859.523339	2615.030502
859.836367	2611.746190
860.149352	2612.121756
860.462295	2612.661160
860.775195	2609.613782
861.088054	2609.439862
861.400869	2607.055397
861.713642	2604.744028
862.026373	2610.785851
862.339062	2610.080089
862.651708	2615.101078
862.964312	2616.434463
863.276873	2615.096037
863.589392	2616.477313
863.901869	2621.561317
864.214303	2625.995012
864.526696	2628.006432
864.839045	2631.066413
865.151353	2634.736372
865.463619	2635.963893
865.775842	2633.516413
866.088023	2633.617236
866.400162	2632.177987
866.712258	2636.213431
867.024313	2632.500621
867.336325	2629.032307
867.648296	2632.959366
867.960224	2636.150416
868.272110	2632.999695
868.583954	2629.571710
868.895755	2628.437451
869.207515	2631.366361
869.519233	2641.123514
869.830909	2638.512197
870.142542	2634.234778
870.454134	2637.511528
870.765684	2639.346508
871.077191	2642.598052
871.388657	2646.283135
871.700081	2641.834317
872.011463	2643.127373
872.322803	2645.781541
872.634101	2649.519556
872.945357	2658.366781
873.256571	2660.116062
873.567744	2655.039620
873.878874	2659.780825
874.189963	2659.803510
874.501010	2663.899447
874.812015	2667.067813
875.122979	2666.946825
875.433900	2658.971720
875.744780	2658.739827
876.055618	2665.147133
876.366415	2671.163750
876.677169	2668.113852
876.987882	2664.799293
877.298554	2662.029179
877.609183	2676.703978
877.919771	2680.840245
878.230317	2688.124712
878.540822	2696.430013
878.851285	2711.147662
879.161707	2736.260170
879.472087	2775.404729
879.782425	2825.027327
880.092722	2940.099226
880.402977	3132.109214
880.713191	3395.895151
881.023363	3702.167932
881.333494	3893.305801
881.643583	4069.655444
881.953631	4066.028334
882.263637	3889.590470
882.573602	3667.464629
882.883526	3533.667365
883.193408	3413.922317
883.503248	3309.005823
883.813048	3192.230015
884.122806	3072.820203
884.432522	2987.226452
884.742197	2923.773449
885.051831	2883.164434
885.361424	2845.151613
885.670975	2807.317754
885.980485	2778.041253
886.289954	2759.547780
886.599382	2745.356932
886.908768	2733.908472
887.218113	2714.583208
887.527417	2700.200796
887.836680	2694.257276
888.145901	2688.328879
888.455082	2679.282528
888.764221	2667.874397
889.073319	2660.458860
889.382376	2659.508602
889.691392	2661.366268
890.000366	2659.551452
890.309300	2659.075063
890.618193	2661.154539
890.927044	2663.319715
891.235855	2663.743172
891.544625	2662.480363
891.853353	2662.301402
892.162041	2669.422032
892.470687	2692.051771
892.779293	2700.878832
893.087858	2711.853423
893.396381	2736.716394
893.704864	2778.873043
894.013306	2850.684280
894.321707	2946.733384
894.630068	2998.742968
894.938387	3018.884898
895.246665	3011.522293
895.554903	2966.126703
895.863100	2921.477203
896.171256	2864.270189
896.479371	2802.493370
896.787446	2760.848398
897.095480	2739.383165
897.403473	2733.187587
897.711425	2718.117057
898.019336	2701.196424
898.327207	2683.900225
898.635038	2687.358457
898.942827	2682.435770
899.250576	2671.367917
899.558284	2659.725372
899.865952	2655.568941
900.173579	2652.861841
900.481165	2647.601397
900.788711	2642.953453
901.096216	2636.198307
901.403681	2632.823255
901.711105	2637.604789
902.018489	2631.411732
902.325832	2637.274593
902.633135	2636.042031
902.940397	2654.308652
903.247619	2692.684436
903.554800	2761.400404
903.861941	2890.509395
904.169041	3024.102493
904.476101	3087.926021
904.783121	3082.519383
905.090100	3026.023172
905.397039	2944.752211
905.703938	2867.743544
906.010796	2803.395736
906.317614	2751.272726
906.624391	2713.307796
906.931129	2688.674198
907.237826	2663.065137
907.544483	2642.519914
907.851099	2629.039869
908.157675	2619.058384
908.464211	2612.588063
908.770707	2599.861670
909.077163	2598.467791
909.383578	2591.778180
909.689954	2595.251535
909.996289	2590.419589
910.302584	2591.339600
910.608839	2586.275761
910.915054	2588.791296
911.221229	2587.649475
911.527363	2593.943356
911.833458	2589.383632
912.139513	2590.477562
912.445527	2593.706421
912.751502	2601.845364
913.057436	2604.875098
913.363331	2610.032198
913.669186	2621.107613
913.975000	2636.248719
914.280775	2653.728920
914.586510	2673.391940
914.892205	2709.138762
915.197859	2781.237344
915.503475	2868.048534
915.809050	2934.458174
916.114585	2953.929631
916.420081	2964.735344
916.725536	2977.640698
917.030952	2950.007613
917.336328	2899.996847
917.641665	2849.451718
917.946961	2795.471042
918.252218	2761.806217
918.557435	2735.196486
918.862612	2711.918958
919.167750	2694.733665
919.472848	2677.160203
919.777906	2659.737975
920.082925	2645.070738
920.387904	2637.924902
920.692843	2630.537091
920.997743	2629.168418
921.302603	2617.641820
921.607423	2612.683845
921.912204	2606.531117
922.216946	2604.640684
922.521647	2603.705550
922.826310	2597.653645
923.130932	2593.121647
923.435516	2587.034454
923.740059	2586.036306
924.044564	2584.569330
924.349028	2580.281829
924.653454	2573.292269
924.957840	2574.297979
925.262186	2569.261866
925.566493	2568.674572
925.870761	2566.511917
926.174989	2565.975034
926.479178	2566.325394
926.783328	2560.107131
927.087438	2562.110990
927.391509	2560.908674
927.695541	2563.278017
927.999533	2558.307439
928.303486	2557.011862
928.607400	2558.302398
928.911275	2554.115720
929.215110	2557.291647
929.518906	2556.898437
929.822663	2555.502037
930.126381	2553.687222
930.430060	2558.246945
930.733699	2553.941800
931.037299	2557.344579
931.340861	2557.357182
931.644383	2557.188303
931.947866	2557.337017
932.251309	2557.180741
932.554714	2555.605381
932.858080	2559.333314
933.161407	2554.579506
933.464694	2555.827191
933.767943	2554.521532
934.071153	2554.017417
934.374323	2553.823333
934.677455	2555.081101
934.980548	2553.803168
935.283602	2554.050185
935.586617	2551.965668
935.889593	2552.212684
936.192530	2550.826367
936.495428	2556.353992
936.798287	2552.961295
937.101108	2557.848694
937.403890	2558.136040
937.706632	2564.508058
938.009336	2567.799932
938.312002	2568.457802
938.614628	2571.495098
938.917216	2576.619430
939.219765	2576.810994
939.522275	2576.942064
939.824747	2575.207907
940.127179	2573.060376
940.429573	2569.493759
940.731929	2566.711043
941.034246	2565.859087
941.336524	2567.983934
941.638763	2569.438307
941.940964	2568.956877
942.243126	2565.100394
942.545250	2563.232646
942.847335	2563.973696
943.149381	2562.204251
943.451389	2559.471946
943.753359	2559.691236
944.055290	2557.405072
944.357182	2558.730896
944.659036	2554.675288
944.960851	2557.505896
945.262628	2558.667882
945.564367	2558.065464
945.866067	2557.296688
946.167729	2559.235011
946.469352	2557.810885
946.770937	2557.261400
947.072484	2556.785011
947.373992	2559.114024
947.675462	2556.865669
947.976893	2554.551779
948.278286	2553.319217
948.579641	2554.924825
948.880958	2554.927345
949.182236	2554.277037
949.483476	2554.748384
949.784678	2552.444577
950.085841	2553.752757
950.386967	2550.881819
950.688054	2553.571275
950.989103	2558.188972
951.290114	2557.841132
951.591087	2558.057902
951.892021	2556.895916
952.192917	2560.384394
952.493776	2559.960938
952.794596	2560.485218
953.095378	2560.666699
953.396122	2563.804817
953.696828	2559.671071
953.997496	2558.594785
954.298126	2558.272151
954.598718	2556.293498
954.899272	2556.517829
955.199788	2554.524053
955.500266	2552.076573
955.800706	2547.925183
956.101108	2545.449976
956.401472	2546.228834
956.701798	2543.690613
957.002087	2543.801519
957.302337	2546.475851
957.602550	2544.204811
957.902724	2543.360418
958.202861	2543.504091
958.502960	2541.086858
958.803022	2542.644574
959.103045	2542.059800
959.403031	2540.449152
959.702979	2539.869419
960.002889	2540.885211
960.302762	2538.536034
960.602596	2539.929913
960.902393	2540.960829
961.202153	2538.745242
961.501875	2538.800694
961.801559	2539.766075
962.101205	2540.179450
962.400814	2537.830272
962.700385	2539.098122
962.999918	2538.573842
963.299414	2539.229192
963.598873	2536.234747
963.898293	2537.984027
964.197677	2538.246167
964.497022	2533.489839
964.796331	2538.354552
965.095601	2535.924716
965.394835	2538.906558
965.694030	2536.045704
965.993189	2538.762886
966.292309	2536.096115
966.591393	2539.894625
966.890439	2539.256919
967.189447	2535.191228
967.488419	2537.888245
967.787353	2537.573173
968.086249	2534.752648
968.385108	2539.022505
968.683930	2538.707433
968.982714	2536.872453
969.281462	2534.563604
969.580172	2540.219779
969.878844	2538.616692
970.177480	2536.900179
970.476078	2540.988555
970.774639	2538.962011
971.073162	2540.421425
971.371649	2535.087884
971.670098	2535.934798
971.968510	2535.279448
972.266885	2533.462112
972.565223	2539.501415
972.863524	2538.102494
973.161788	2538.934285
973.460014	2537.545447
973.758204	2537.321116
974.056356	2539.299768
974.354471	2537.878163
974.652550	2538.427649
974.950591	2539.955118
975.248595	2539.788760
975.546563	2538.273894
975.844493	2539.050231
976.142386	2536.345652
976.440243	2539.440921
976.738062	2540.597866
977.035845	2536.111239
977.333590	2535.813811
977.631299	2535.763399
977.928971	2537.099305
978.226606	2536.862371
978.524204	2537.192566
978.821765	2536.912782
979.119290	2533.782226
979.416777	2539.526620
979.714228	2537.588297
980.011642	2535.816331
980.309020	2537.121990
980.606360	2536.625436
980.903664	2536.683410
981.200931	2536.968235
981.498162	2538.241126
981.795356	2539.082999
982.092513	2542.745397
982.389633	2543.839328
982.686717	2548.353681
982.983764	2550.407951
983.280775	2555.416337
983.577749	2551.028013
983.874686	2551.602704
984.171587	2551.867365
984.468451	2546.972405
984.765279	2544.169523
985.062070	2542.251364
985.358824	2538.674665
985.655543	2539.037628
985.952224	2538.397402
986.248869	2536.572504
986.545478	2531.806093
986.842050	2533.567977
987.138586	2530.976823
987.435086	2533.053779
987.731549	2531.841381
988.027975	2535.002185
988.324366	2533.441948
988.620719	2533.562935
988.917037	2535.108049
989.213318	2532.287523
989.509563	2534.898841
989.805772	2533.736855
990.101944	2533.106711
990.398080	2532.524458
990.694180	2532.947915
990.990244	2533.797349
991.286271	2537.013605
991.582262	2534.190559
991.878217	2534.868594
992.174136	2530.366844
992.470019	2534.740045
992.765865	2534.036804
993.061676	2531.569159
993.357450	2531.969931
993.653188	2535.110570
993.948890	2535.047555
994.244556	2534.039324
994.540186	2533.762061
994.835780	2537.242978
995.131337	2535.481094
995.426859	2535.932278
995.722345	2534.873635
996.017795	2539.526620
996.313208	2537.837834
996.608586	2539.655170
996.903928	2537.928575
997.199234	2538.036959
997.494504	2538.311702
997.789738	2537.593338
998.084936	2534.498069
998.380099	2534.361958
998.675225	2537.845396
998.970316	2536.824562
999.265371	2537.827752
999.560390	2534.341794
999.855373	2535.944881
1000.150320	2533.512524
1000.445232	2532.549663
1000.740108	2537.064017
1001.034948	2534.931609
1001.329752	2530.828109
1001.624521	2532.539581
1001.919254	2527.773170
1002.213951	2529.272913
1002.508613	2526.543129
1002.803239	2531.279293
1003.097829	2528.015146
1003.392384	2529.943387
1003.686903	2533.893131
1003.981386	2529.608150
1004.275834	2533.459592
1004.570246	2531.904396
1004.864623	2528.650331
1005.158964	2531.309540
1005.453270	2531.967410
1005.747540	2531.574200
1006.041775	2530.709642
1006.335974	2531.281813
1006.630138	2528.431041
1006.924266	2534.624098
1007.218359	2530.603778
1007.512416	2532.970600
1007.806438	2532.093439
1008.100425	2532.153933
1008.394376	2526.853160
1008.688292	2531.402801
1008.982172	2528.746113
1009.276017	2534.659386
1009.569827	2531.034797
1009.863602	2532.017822
1010.157341	2531.120496
1010.451045	2530.765095
1010.744714	2529.507327
1011.038347	2533.908254
1011.331945	2532.070754
1011.625508	2533.893131
1011.919036	2533.131917
1012.212528	2528.814168
1012.505986	2531.213758
1012.799408	2531.521268
1013.092795	2532.627801
1013.386147	2531.901875
1013.679464	2528.660413
1013.972745	2531.901875
1014.265992	2529.595547
1014.559204	2529.189734
1014.852380	2528.307533
1015.145521	2531.622091
1015.438628	2532.232071
1015.731699	2532.214427
1016.024736	2530.467667
1016.317737	2532.766433
1016.610703	2530.931453
1016.903635	2528.695701
1017.196531	2528.163860
1017.489393	2526.712007
1017.782219	2523.566327
1018.075011	2531.233922
1018.367768	2529.398942
1018.660490	2531.581762
1018.953177	2531.581762
1019.245829	2531.581762
