Dividing Wavelength (nm)	Counts (n)	Blue Motor Position (mm): 2.300000	Red Motor Position (mm): 0.000000	
326.493990	2142.896198
326.888308	2142.896198
327.282561	2142.896198
327.676750	2112.263626
328.070874	2109.158275
328.464933	2113.622217
328.858929	2118.769235
329.252859	2128.922119
329.646726	2138.646505
330.040528	2151.367857
330.434265	2169.793274
330.827938	2186.212312
331.221547	2209.240303
331.615091	2224.288147
332.008571	2242.433780
332.401986	2265.555032
332.795338	2282.150511
333.188625	2303.255301
333.581847	2321.345482
333.975006	2341.767196
334.368100	2357.982068
334.761129	2376.435211
335.154095	2393.260062
335.546996	2411.879564
335.939833	2426.355237
336.332606	2438.368307
336.725315	2453.055708
337.117960	2461.413942
337.510540	2470.359469
337.903056	2482.085193
338.295508	2486.075266
338.687896	2495.086329
339.080220	2504.034377
339.472480	2509.640140
339.864676	2515.747498
340.256807	2519.961902
340.648875	2522.807634
341.040879	2525.618077
341.432818	2528.093283
341.824694	2528.582275
342.216506	2528.985568
342.608253	2527.301822
342.999937	2528.662934
343.391557	2529.671165
343.783113	2525.933149
344.174605	2526.492717
344.566033	2523.427696
344.957397	2522.452232
345.348697	2519.820750
345.739934	2520.241686
346.131106	2518.873013
346.522215	2516.964936
346.913260	2513.075686
347.304241	2512.722805
347.695159	2510.630727
348.086012	2507.573267
348.476802	2509.554440
348.867528	2502.295179
349.258191	2505.372803
349.648789	2504.112515
350.039324	2500.639160
350.429796	2501.891886
350.820203	2495.930722
351.210548	2499.383912
351.600828	2498.037924
351.991045	2495.406442
352.381198	2499.457009
352.771288	2494.647748
353.161314	2495.504744
353.551276	2496.185300
353.941175	2494.683036
354.331010	2496.817965
354.720782	2491.544918
355.110490	2498.332832
355.500135	2492.051554
355.889717	2493.798314
356.279235	2494.385608
356.668689	2495.776967
357.058080	2493.135402
357.447408	2492.888386
357.836672	2490.796307
358.225873	2493.553818
358.615010	2490.902171
359.004084	2498.272338
359.393095	2497.130517
359.782043	2497.886690
360.170927	2499.396515
360.559748	2500.240908
360.948505	2499.406597
361.337199	2499.784684
361.725830	2501.811228
362.114398	2503.431959
362.502903	2504.379696
362.891344	2500.964314
363.279722	2504.493122
363.668037	2501.627226
364.056289	2503.489932
364.444478	2504.500683
364.832603	2506.073523
365.220665	2505.629902
365.608665	2507.154851
365.996601	2508.069820
366.384474	2506.633092
366.772284	2505.856754
367.160031	2505.251815
367.547715	2506.895232
367.935336	2507.043946
368.322893	2508.379851
368.710388	2507.686693
369.097820	2509.899759
369.485189	2508.208452
369.872495	2510.187105
370.259738	2508.026971
370.646918	2510.759276
371.034035	2508.621827
371.421090	2511.069307
371.808081	2509.095695
372.195010	2508.261384
372.581875	2507.873215
372.968678	2511.712054
373.355418	2511.008813
373.742096	2512.614421
374.128710	2510.240037
374.515262	2513.892353
374.901751	2515.656757
375.288177	2512.891684
375.674540	2511.422188
376.060841	2510.797085
376.447079	2513.657939
376.833254	2514.530059
377.219367	2508.962105
377.605417	2508.868843
377.991404	2511.069307
378.377329	2512.783299
378.763191	2511.172651
379.148991	2514.658608
379.534727	2513.567199
379.920402	2514.157014
380.306013	2514.411592
380.691563	2515.689524
381.077049	2515.520646
381.462474	2516.700276
381.847835	2516.599453
382.233134	2516.526356
382.618371	2518.273116
383.003545	2515.954185
383.388657	2516.007117
383.773706	2514.577950
384.158693	2516.634741
384.543618	2517.748836
384.928480	2518.414268
385.313280	2517.055677
385.698017	2516.695235
386.082692	2518.429392
386.467305	2517.302694
386.851856	2518.273116
387.236344	2519.598939
387.620770	2519.820750
388.005133	2518.280678
388.389435	2521.398631
388.773674	2520.884433
389.157851	2519.220853
389.541965	2519.858559
389.926018	2522.921060
390.310008	2521.184382
390.693936	2522.429547
391.077802	2521.025586
391.461606	2519.548528
391.845348	2523.107582
392.229027	2521.469207
392.612645	2521.917870
392.996200	2521.864938
393.379694	2522.270751
393.763125	2523.110103
394.146494	2522.966430
394.529801	2525.189579
394.913047	2522.043899
395.296230	2520.854187
395.679351	2521.519619
396.062410	2524.259486
396.445408	2524.496420
396.828343	2524.352747
397.211217	2518.752025
397.594028	2522.923580
397.976778	2519.445184
398.359466	2522.336286
398.742092	2521.486851
399.124656	2526.807789
399.507158	2525.416431
399.889598	2527.158149
400.271977	2526.533046
400.654294	2527.155629
401.036549	2524.655217
401.418742	2525.287881
401.800874	2528.340300
402.182944	2526.044054
402.564952	2528.368026
402.946898	2525.814682
403.328783	2527.959693
403.710606	2529.192255
404.092367	2523.919208
404.474067	2527.511030
404.855705	2528.640249
405.237282	2527.231246
405.618797	2529.598068
406.000250	2526.691843
406.381642	2525.313087
406.762972	2528.431041
407.144240	2530.245856
407.525447	2529.018335
407.906593	2527.397604
408.287677	2526.878365
408.668700	2528.766277
409.049661	2527.458098
409.430560	2527.606812
409.811399	2529.252749
410.192176	2530.926412
410.572891	2532.411032
410.953545	2528.531864
411.334138	2529.908099
411.714669	2530.195445
412.095139	2531.216278
412.475547	2529.005732
412.855894	2530.230733
413.236180	2531.841381
413.616405	2528.224353
413.996568	2528.234436
414.376670	2531.528830
414.756711	2532.285003
415.136691	2531.523789
415.516609	2529.983716
415.896466	2531.869108
416.276262	2532.302647
416.655997	2527.382481
417.035670	2528.249559
417.415283	2532.993285
417.794834	2526.865763
418.174324	2533.479756
418.553753	2533.341125
418.933121	2530.039169
419.312428	2532.983203
419.691674	2531.193593
420.070859	2532.698378
420.449983	2531.796011
420.829045	2534.450178
421.208047	2533.744417
421.586988	2535.176105
421.965867	2533.194931
422.344686	2533.038655
422.723444	2532.090918
423.102141	2533.540250
423.480777	2535.037473
423.859352	2533.545291
424.237866	2535.884387
424.616319	2535.783564
424.994712	2533.583100
425.373044	2535.367668
425.751314	2536.264994
426.129524	2534.079654
426.507673	2535.551671
426.885762	2536.098636
427.263789	2534.261135
427.641756	2533.419262
428.019662	2535.967566
428.397508	2535.526465
428.775292	2534.407329
429.153016	2535.337422
429.530679	2537.300951
429.908282	2535.476053
430.285824	2538.155427
430.663305	2534.036804
431.040726	2537.479912
431.418086	2537.840354
431.795385	2540.113915
432.172624	2537.331198
432.549802	2537.757175
432.926920	2538.755324
433.303977	2538.304141
433.680974	2537.462268
434.057910	2539.720705
434.434786	2539.685417
434.811601	2538.026877
435.188355	2536.421270
435.565050	2535.760878
435.941683	2538.357073
436.318257	2533.704088
436.694770	2537.016126
437.071222	2536.774150
437.447614	2534.021680
437.823946	2536.764068
438.200218	2538.810777
438.576429	2539.829090
438.952580	2536.161650
439.328670	2539.196425
439.704700	2538.294058
440.080670	2539.221631
440.456580	2538.944367
440.832429	2538.868750
441.208218	2540.058462
441.583947	2539.662732
441.959616	2537.915972
442.335224	2541.419574
442.710773	2539.254398
443.086261	2538.220962
443.461689	2541.560726
443.837057	2538.793132
444.212365	2542.700027
444.587612	2541.583411
444.962800	2542.309337
445.337927	2539.824048
445.712995	2540.449152
446.088002	2542.702547
446.462949	2541.109543
446.837837	2540.035777
447.212664	2540.582742
447.587431	2542.231199
447.962139	2541.873277
448.336786	2542.158103
448.711374	2538.815818
449.085901	2540.459234
449.460369	2541.296065
449.834776	2543.083154
450.209124	2541.437218
450.583412	2541.618699
450.957640	2541.225489
451.331808	2540.890252
451.705917	2541.870757
452.079965	2541.384286
452.453954	2543.738504
452.827883	2540.401261
453.201752	2541.238092
453.575562	2542.573998
453.949311	2542.435366
454.323001	2541.865716
454.696632	2543.872095
455.070202	2542.924358
455.443713	2541.303627
455.817164	2538.410005
456.190556	2540.824718
456.563888	2540.849923
456.937160	2536.267514
457.310373	2542.473175
457.683526	2542.153062
458.056619	2543.325130
458.429653	2544.008206
458.802628	2544.497198
459.175542	2542.558874
459.548398	2541.399409
459.921194	2543.519214
460.293930	2544.504760
460.666607	2542.269008
461.039224	2542.372352
461.411782	2543.549461
461.784280	2544.391334
462.156719	2542.846220
462.529099	2545.144986
462.901419	2545.376879
463.273680	2544.719009
463.645882	2544.903011
464.018024	2543.834286
464.390106	2544.545089
464.762130	2545.460058
465.134094	2545.908721
465.505999	2545.596170
465.877845	2544.938299
466.249631	2546.725388
466.621358	2545.583567
466.993026	2545.555840
467.364634	2546.553989
467.736184	2544.867723
468.107674	2545.530635
468.479105	2545.389482
468.850477	2548.693959
469.221790	2544.202291
469.593043	2544.620706
469.964238	2548.262940
470.335373	2544.623227
470.706449	2545.235727
471.077467	2546.511139
471.448425	2547.544576
471.819324	2545.933927
472.190164	2546.387631
472.560945	2543.224307
472.931667	2547.055584
473.302330	2546.551468
473.672934	2547.690769
474.043479	2544.257743
474.413965	2547.098433
474.784393	2544.267826
475.154761	2542.468134
475.525070	2542.994934
475.895321	2544.492157
476.265513	2542.324461
476.635645	2546.196067
477.005719	2546.730429
477.375734	2545.830583
477.745691	2545.941489
478.115588	2547.660522
478.485427	2545.573484
478.855207	2547.864689
479.224928	2546.677497
479.594591	2547.660522
479.964194	2547.312682
480.333739	2548.628424
480.703226	2545.500388
481.072653	2548.028526
481.442022	2550.675132
481.811333	2551.428785
482.180584	2546.296890
482.549777	2544.968546
482.918912	2547.849565
483.287988	2549.225800
483.657005	2548.615821
484.025964	2546.732950
484.394864	2546.985007
484.763706	2548.172199
485.132489	2547.652960
485.501213	2549.293856
485.869879	2545.447456
486.238487	2546.107847
486.607036	2549.830739
486.975527	2549.424926
487.343959	2548.298228
487.712333	2547.345450
488.080648	2547.907539
488.448905	2548.600697
488.817104	2547.978115
489.185244	2548.797302
489.553326	2547.728578
489.921350	2547.476520
490.289315	2547.327806
490.657222	2547.239586
491.025070	2545.596170
491.392861	2550.294525
491.760593	2549.157745
492.128267	2549.435008
492.495883	2547.398382
492.863440	2548.630944
493.230939	2545.114739
493.598380	2547.461397
493.965763	2545.684390
494.333088	2545.739842
494.700354	2546.697662
495.067563	2545.152548
495.434713	2545.215563
495.801805	2549.896274
496.168839	2551.156562
496.535815	2547.789072
496.902733	2549.918959
497.269593	2548.325954
497.636395	2549.145142
498.003139	2549.717313
498.369825	2548.910728
498.736453	2551.121274
499.103023	2548.630944
499.469535	2548.714123
499.835989	2549.505584
500.202385	2551.607746
500.568723	2550.115564
500.935003	2550.523897
501.301226	2548.182282
501.667390	2549.460214
502.033497	2550.539021
502.399546	2549.639175
502.765537	2546.264123
503.131470	2548.008362
503.497345	2549.049360
503.863163	2553.735113
504.228923	2547.607590
504.594625	2551.854762
504.960269	2550.125646
505.325856	2549.828218
505.691385	2549.296377
506.056856	2550.299566
506.422270	2548.832590
506.787625	2550.163455
507.152924	2548.174720
507.518164	2550.143290
507.883347	2551.406099
508.248472	2548.895605
508.613540	2550.087838
508.978550	2551.907694
509.343503	2550.075235
509.708398	2550.536500
510.073236	2552.583209
510.438016	2549.402241
510.802738	2549.734957
511.167403	2547.970553
511.532010	2549.966850
511.896561	2550.551624
512.261053	2552.363919
512.625488	2546.173382
512.989866	2544.265305
513.354186	2549.006510
513.718449	2545.321427
514.082655	2548.477189
514.446803	2547.957950
514.810894	2549.654298
515.174927	2552.494989
515.538904	2549.523228
515.902822	2550.407951
516.266684	2549.830739
516.630488	2547.849565
516.994235	2552.404248
517.357925	2548.580533
517.721558	2552.074052
518.085133	2546.765717
518.448651	2550.221428
518.812112	2550.400389
519.175516	2549.235883
519.538863	2550.879299
519.902152	2550.370142
520.265385	2553.069680
520.628560	2551.441387
520.991678	2549.966850
521.354739	2552.033723
521.717743	2554.161090
522.080690	2551.572457
522.443580	2551.302756
522.806413	2550.917107
523.169189	2549.714792
523.531908	2552.953734
523.894569	2549.021634
524.257174	2550.614638
524.619722	2550.128167
524.982213	2551.569937
525.344647	2549.971891
525.707025	2552.951213
526.069345	2548.406613
526.431608	2549.046839
526.793815	2551.469114
527.155964	2549.830739
527.518057	2549.792930
527.880093	2554.655123
528.242072	2548.900646
528.603995	2554.556821
528.965860	2551.176727
529.327669	2550.362581
529.689421	2548.204967
530.051117	2552.217725
530.412755	2551.917777
530.774337	2551.582540
531.135862	2552.469783
531.497331	2550.992725
531.858743	2547.042981
532.220098	2549.924000
532.581396	2547.232024
532.942638	2546.395193
533.303824	2549.631613
533.664953	2551.161603
534.026025	2548.709082
534.387040	2551.905174
534.747999	2550.859134
535.108902	2552.787376
535.469748	2552.411810
535.830537	2550.899463
536.191270	2551.723692
536.551947	2553.793086
536.912567	2550.516336
537.273131	2552.971378
537.633638	2549.966850
537.994089	2553.150339
538.354483	2552.479865
538.714821	2550.294525
539.075103	2551.741336
539.435328	2550.987684
539.795497	2550.160934
540.155609	2551.867365
540.515665	2552.981460
540.875665	2555.045812
541.235609	2551.499361
541.595496	2554.808878
541.955328	2554.120761
542.315102	2552.401727
542.674821	2552.391645
543.034483	2551.433826
543.394090	2552.147149
543.753640	2552.431974
544.113134	2549.593805
544.472571	2555.043292
544.831953	2552.986501
545.191278	2551.854762
545.550548	2549.573640
545.909761	2552.555482
546.268918	2552.459701
546.628019	2555.260062
546.987064	2552.686552
547.346053	2553.485575
547.704986	2552.983981
548.063863	2553.349464
548.422684	2550.806202
548.781449	2553.354505
549.140158	2550.697817
549.498811	2553.588919
549.857408	2551.874927
550.215949	2552.018600
550.574434	2550.176058
550.932864	2549.482899
551.291237	2547.045501
551.649555	2551.529608
552.007817	2552.159752
552.366022	2550.090358
552.724173	2556.056564
553.082267	2554.360216
553.440305	2549.866027
553.798288	2553.089845
554.156215	2549.921480
554.514086	2554.569423
554.871902	2549.261088
555.229661	2553.135215
555.587365	2550.423074
555.945014	2551.511964
556.302606	2551.511964
556.660143	2550.740667
557.017625	2552.759649
557.375050	2552.437015
557.732421	2550.972560
558.089735	2553.268806
558.446994	2555.376008
558.804197	2551.038095
559.161345	2554.768549
559.518437	2553.125133
559.875474	2549.971891
560.232455	2553.404917
560.589381	2552.724361
560.946251	2555.479352
561.303065	2554.047664
561.659825	2552.978939
562.016528	2552.510112
562.373177	2549.886192
562.729770	2550.796120
563.086307	2554.037582
563.442789	2553.987170
563.799216	2552.721841
564.155587	2555.325597
564.511904	2552.936090
564.868164	2552.626059
565.224370	2553.397355
565.580520	2553.057077
565.936615	2552.255534
566.292654	2552.305945
566.648638	2551.650595
567.004567	2554.501368
567.360441	2552.323589
567.716260	2553.029351
568.072023	2552.671429
568.427732	2548.572971
568.783385	2551.068342
569.138982	2547.801674
569.494525	2552.989022
569.850013	2547.799154
570.205445	2554.027499
570.560823	2552.210163
570.916145	2554.856769
571.271412	2552.167314
571.626625	2555.169321
571.981782	2552.600853
572.336884	2555.232335
572.691931	2555.789383
573.046923	2552.237890
573.401860	2551.948023
573.756743	2553.044474
574.111570	2553.271326
574.466342	2552.109340
574.821059	2552.862993
575.175722	2554.355174
575.530330	2552.217725
575.884882	2551.796789
576.239380	2551.564896
576.593823	2554.408107
576.948211	2554.680329
577.302544	2552.069011
577.656823	2550.997766
578.011047	2553.888868
578.365216	2551.209494
578.719330	2554.342572
579.073389	2553.178065
579.427394	2551.312838
579.781344	2554.284598
580.135239	2552.729402
580.489080	2553.374670
580.842866	2554.181255
581.196597	2554.632438
581.550273	2555.907850
581.903895	2555.088662
582.257463	2554.261913
582.610975	2551.766542
582.964434	2552.643703
583.317837	2554.037582
583.671186	2554.950031
584.024481	2551.113712
584.377721	2554.375339
584.730906	2551.333003
585.084037	2553.823333
585.437113	2552.757129
585.790135	2553.883827
586.143103	2555.328117
586.496016	2554.990360
586.848874	2547.864689
587.201679	2553.780483
587.554428	2548.497354
587.907124	2552.971378
588.259765	2549.195553
588.612352	2554.294681
588.964884	2551.159083
589.317362	2553.346944
589.669786	2552.431974
590.022155	2553.498178
590.374470	2550.629762
590.726731	2552.351316
591.078937	2555.383570
591.431090	2554.365257
591.783188	2552.464742
592.135232	2555.244938
592.487222	2552.742005
592.839157	2554.239228
593.191038	2555.360885
593.542866	2554.196378
593.894639	2555.297870
594.246358	2551.499361
594.598022	2554.206460
594.949633	2550.803682
595.301190	2552.663867
595.652692	2553.425082
596.004141	2553.588919
596.355535	2554.251831
596.706876	2555.963303
597.058162	2553.170503
597.409395	2553.704866
597.760573	2554.599670
598.111698	2551.156562
598.462768	2554.045143
598.813785	2549.674463
599.164748	2554.821481
599.515657	2551.925338
599.866511	2553.165462
600.217312	2555.829712
600.568060	2552.361398
600.918753	2554.035061
601.269392	2553.029351
601.619978	2554.302242
601.970510	2555.431461
602.320988	2552.522715
602.671412	2553.659495
603.021783	2552.467262
603.372100	2555.189485
603.722363	2551.723692
604.072572	2552.563044
604.422728	2553.276367
604.772830	2552.739485
605.122878	2550.428116
605.472872	2551.895091
605.822813	2548.875440
606.172701	2552.086655
606.522534	2554.322407
606.872314	2552.386604
607.222041	2552.898281
607.571714	2553.407438
607.921333	2554.191337
608.270899	2550.806202
608.620411	2554.788714
608.969870	2555.544887
609.319276	2554.766028
609.668627	2558.829198
610.017926	2558.378015
610.367171	2561.881617
610.716362	2558.320042
611.065500	2559.837429
611.414585	2556.535473
611.763616	2557.452963
612.112594	2556.225442
612.461518	2555.973385
612.810389	2558.438509
613.159207	2554.277037
613.507971	2554.607232
613.856682	2554.019938
614.205340	2553.049516
614.553945	2553.593960
614.902496	2554.156049
615.250994	2553.830894
615.599439	2553.974567
615.947830	2553.591440
616.296169	2554.115720
616.644454	2556.230484
616.992686	2553.538507
617.340864	2553.639331
617.688990	2555.376008
618.037063	2552.505071
618.385082	2552.406768
618.733048	2554.894578
619.080961	2552.298384
619.428821	2553.944320
619.776628	2556.008673
620.124382	2554.637479
620.472083	2553.780483
620.819731	2554.934907
621.167326	2555.658313
621.514868	2555.917932
621.862357	2552.041285
622.209793	2552.351316
622.557176	2553.677139
622.904506	2552.023641
623.251783	2550.982642
623.599007	2551.111192
623.946179	2551.017931
624.293297	2549.273691
624.640363	2553.412479
624.987376	2553.160421
625.334336	2554.592109
625.681243	2554.650082
626.028097	2552.116902
626.374899	2554.062787
626.721647	2549.608928
627.068343	2552.931048
627.414987	2555.985988
627.761577	2554.776111
628.108115	2551.985832
628.454600	2555.547407
628.801032	2550.801161
629.147412	2552.855431
629.493739	2555.910370
629.840014	2552.270657
630.186236	2553.321738
630.532405	2554.027499
630.878521	2552.646223
631.224585	2553.137736
631.570597	2551.330482
631.916556	2553.722510
632.262462	2552.000956
632.608316	2554.730740
632.954117	2553.233518
633.299866	2555.373487
633.645562	2554.801317
633.991206	2554.080432
634.336797	2553.596481
634.682336	2556.028837
635.027823	2552.429454
635.373257	2551.751418
635.718639	2553.215874
636.063968	2552.169834
636.409245	2550.286963
636.754470	2554.299722
637.099642	2550.183620
637.444762	2553.437684
637.789829	2551.295194
638.134845	2555.192006
638.479808	2555.993549
638.824719	2553.029351
639.169577	2554.831563
639.514383	2550.871737
639.859137	2549.893753
640.203839	2554.733261
640.548489	2552.603373
640.893086	2551.847200
641.237632	2549.896274
641.582125	2550.234031
641.926566	2548.769576
642.270955	2552.253013
642.615292	2552.152190
642.959576	2556.933725
643.303809	2556.016235
643.647990	2552.827705
643.992118	2555.686039
644.336195	2553.339382
644.680219	2550.344937
645.024192	2550.118085
645.368112	2553.757798
645.711981	2555.580175
646.055797	2552.063970
646.399562	2553.833415
646.743274	2553.493137
647.086935	2555.018086
647.430544	2554.730740
647.774101	2555.171841
648.117606	2554.541697
648.461059	2551.627910
648.804460	2555.635627
649.147810	2550.652447
649.491108	2551.637992
649.834354	2552.197561
650.177548	2553.402396
650.520690	2549.898794
650.863781	2553.790565
651.206820	2555.703683
651.549807	2553.014228
651.892742	2551.791748
652.235626	2552.177396
652.578458	2551.154042
652.921238	2552.860472
653.263967	2553.634289
653.606644	2553.525905
653.949269	2553.611604
654.291843	2551.171686
654.634365	2551.776624
654.976836	2549.931562
655.319255	2554.957592
655.661622	2551.562375
656.003938	2549.596325
656.346203	2551.796789
656.688416	2549.273691
657.030577	2553.873744
657.372687	2551.469114
657.714746	2551.088507
658.056753	2552.124464
658.398708	2547.703372
658.740612	2549.722354
659.082465	2549.089689
659.424266	2548.451983
659.766016	2546.400234
660.107715	2555.668395
660.449362	2551.106151
660.790958	2553.475493
661.132503	2551.547252
661.473996	2551.605225
661.815438	2551.380894
662.156829	2552.764690
662.498168	2552.159752
662.839456	2551.907694
663.180693	2550.564227
663.521879	2552.570606
663.863013	2551.524567
664.204097	2553.500699
664.545129	2550.312169
664.886110	2552.895760
665.227040	2552.648744
665.567918	2552.164793
665.908746	2551.388455
666.249522	2552.588250
666.590248	2552.951213
666.930922	2551.007848
667.271545	2553.641851
667.612118	2551.605225
667.952639	2553.861141
668.293109	2551.607746
668.633528	2551.607746
668.973896	2550.304607
669.314213	2551.940462
669.654480	2553.175544
669.994695	2548.424257
670.334859	2552.454659
670.674973	2551.214536
671.015035	2553.916594
671.355047	2553.455328
671.695008	2551.300235
672.034918	2551.564896
672.374777	2549.276212
672.714585	2555.411296
673.054342	2554.234187
673.394049	2550.561706
673.733705	2551.625390
674.073310	2552.386604
674.412864	2553.357026
674.752368	2552.043805
675.091820	2551.827036
675.431223	2551.227138
675.770574	2553.230997
676.109875	2548.542724
676.449125	2548.386448
676.788324	2549.412323
677.127473	2550.339895
677.466571	2547.249668
677.805619	2552.648744
678.144616	2552.058929
678.483562	2553.140256
678.822458	2550.453321
679.161303	2551.343085
679.500098	2550.231511
679.838842	2554.287119
680.177535	2553.604043
680.516179	2552.414330
680.854771	2551.358208
681.193314	2551.640513
681.531805	2554.798796
681.870247	2550.987684
682.208638	2551.453990
682.546978	2553.188147
682.885268	2548.502395
683.223508	2550.735626
683.561697	2549.853424
683.899836	2551.562375
684.237925	2550.039947
684.575963	2553.029351
684.913951	2551.113712
685.251889	2552.295863
685.589776	2550.425595
685.927614	2552.121943
686.265401	2549.429967
686.603137	2551.731254
686.940824	2550.697817
687.278460	2551.522046
687.616046	2549.505584
687.953582	2550.163455
688.291068	2548.630944
688.628504	2552.721841
688.965889	2551.509443
689.303224	2553.236038
689.640510	2551.151521
689.977745	2550.982642
690.314930	2552.260575
690.652065	2552.177396
690.989150	2553.110009
691.326185	2552.487427
691.663170	2552.245452
692.000105	2553.994732
692.336990	2550.087838
692.673825	2551.935421
693.010610	2553.467931
693.347345	2547.375697
693.684030	2550.125646
694.020665	2549.946685
694.357251	2545.477702
694.693786	2550.339895
695.030272	2553.225956
695.366707	2548.867878
695.703093	2551.733774
696.039429	2550.062632
696.375716	2551.091027
696.711952	2549.067004
697.048139	2552.374001
697.384276	2549.147662
697.720363	2552.379042
698.056400	2552.570606
698.392388	2549.805533
698.728326	2550.042467
699.064214	2552.333672
699.400053	2549.878630
699.735842	2550.198743
700.071581	2553.694783
700.407270	2554.380380
700.742910	2553.052036
701.078501	2550.712941
701.414042	2554.390463
701.749533	2552.101779
702.084974	2549.974412
702.420366	2551.179247
702.755709	2548.976263
703.091002	2547.927703
703.426246	2552.394166
703.761440	2548.862837
704.096584	2551.685883
704.431679	2551.779145
704.766725	2553.483055
705.101721	2549.316541
705.436668	2552.018600
705.771565	2550.755791
706.106413	2551.995914
706.441212	2550.712941
706.775961	2553.261244
707.110661	2551.650595
707.445311	2552.890719
707.779913	2552.361398
708.114465	2552.437015
708.448967	2553.412479
708.783421	2549.553475
709.117825	2551.885009
709.452180	2550.201264
709.786485	2550.027344
710.120742	2552.840308
710.454949	2552.931048
710.789107	2551.549772
711.123216	2547.211859
711.457275	2546.349822
711.791286	2549.215718
712.125247	2545.613814
712.459159	2552.416851
712.793023	2552.126984
713.126837	2552.779814
713.460602	2550.801161
713.794318	2549.225800
714.127985	2550.249155
714.461602	2551.244782
714.795171	2552.038764
715.128691	2549.349309
715.462162	2550.299566
715.795584	2550.438198
716.128957	2550.844011
716.462281	2551.643034
716.795556	2550.420554
717.128782	2551.509443
717.461960	2549.984494
717.795088	2550.685214
718.128167	2549.583722
718.461198	2549.193033
718.794180	2553.281409
719.127113	2550.909546
719.459997	2550.838970
719.792833	2549.142621
720.125619	2551.517005
720.458357	2552.409289
720.791046	2550.896943
721.123686	2551.411141
721.456278	2550.002138
721.788821	2551.569937
722.121315	2552.638662
722.453761	2551.653116
722.786158	2550.201264
723.118506	2549.656819
723.450805	2551.829556
723.783056	2550.886861
724.115259	2549.414844
724.447412	2551.827036
724.779518	2551.106151
725.111574	2548.603218
725.443582	2551.479196
725.775542	2553.384752
726.107453	2553.525905
726.439315	2549.311500
726.771129	2552.283260
727.102895	2547.476520
727.434612	2551.315359
727.766281	2550.171017
728.097901	2547.531973
728.429473	2550.712941
728.760996	2547.181612
729.092471	2546.329658
729.423897	2551.325441
729.755276	2551.108671
730.086606	2549.455173
730.417887	2550.347457
730.749120	2551.655637
731.080305	2552.189999
731.411442	2551.146480
731.742530	2547.443752
732.073570	2552.182437
732.404562	2549.734957
732.735506	2550.838970
733.066401	2550.717982
733.397249	2551.159083
733.728048	2547.315203
734.058798	2551.829556
734.389501	2548.751932
734.720156	2550.629762
735.050762	2551.892571
735.381320	2550.949875
735.711831	2552.515153
736.042293	2551.559855
736.372707	2549.586243
736.703073	2550.942313
737.033391	2549.130018
737.363661	2550.697817
737.693883	2552.351316
738.024056	2552.484906
738.354182	2552.459701
738.684260	2548.814946
739.014290	2546.369987
739.344272	2547.887374
739.674207	2549.361912
740.004093	2550.528939
740.333931	2551.905174
740.663722	2549.626572
740.993464	2549.351829
741.323159	2550.443239
741.652806	2551.022972
741.982405	2551.295194
742.311956	2551.058260
742.641460	2552.714279
742.970915	2551.756460
743.300323	2548.000800
743.629683	2548.714123
743.958996	2550.874258
744.288260	2549.533311
744.617477	2550.201264
744.946647	2546.672456
745.275768	2548.935934
745.604842	2547.736139
745.933869	2550.115564
746.262847	2545.273536
746.591778	2551.867365
746.920662	2547.574822
747.249498	2551.398538
747.578286	2552.058929
747.907027	2547.635316
748.235720	2548.572971
748.564365	2549.346788
748.892963	2548.812426
749.221514	2550.085317
749.550017	2550.607077
749.878473	2548.260419
750.206881	2550.614638
750.535242	2550.362581
750.863555	2547.907539
751.191821	2548.656150
751.520039	2550.622200
751.848210	2548.459545
752.176334	2552.217725
752.504411	2549.888712
752.832440	2551.227138
753.160421	2548.822508
753.488356	2549.682025
753.816243	2548.225131
754.144082	2549.099772
754.471875	2550.566747
754.799620	2550.637323
755.127318	2547.073228
755.454969	2547.781510
755.782572	2550.481048
756.110129	2550.246634
756.437638	2549.422405
756.765100	2548.273022
757.092515	2548.250337
757.419882	2550.097920
757.747203	2550.922149
758.074477	2547.627755
758.401703	2550.110523
758.728882	2551.844680
759.056014	2548.154555
759.383099	2548.633465
759.710138	2550.871737
760.037129	2550.642365
760.364073	2548.457024
760.690970	2549.840821
761.017820	2547.978115
761.344623	2549.891233
761.671379	2546.783361
761.998088	2544.464431
762.324751	2546.619524
762.651366	2547.075748
762.977935	2545.873433
763.304456	2544.172044
763.630931	2551.224618
763.957359	2547.733619
764.283740	2552.411810
764.610074	2552.104299
764.936362	2550.584391
765.262602	2547.579864
765.588796	2550.473486
765.914943	2550.012220
766.241044	2551.048177
766.567097	2549.508105
766.893104	2551.166645
767.219064	2551.688404
767.544978	2549.850903
767.870845	2549.455173
768.196665	2550.523897
768.522438	2548.845193
768.848165	2548.779658
769.173846	2552.840308
769.499479	2550.002138
769.825066	2549.830739
770.150607	2546.430481
770.476101	2549.465255
770.801548	2551.816953
771.126949	2550.148332
771.452303	2548.139432
771.777611	2547.746222
772.102872	2550.463404
772.428087	2548.502395
772.753256	2550.700338
773.078378	2547.615152
773.403453	2548.595656
773.728482	2548.779658
774.053465	2549.619010
774.378401	2548.550286
774.703291	2548.651109
775.028135	2549.924000
775.352932	2547.839483
775.677683	2550.418033
776.002388	2548.998948
776.327046	2548.235214
776.651658	2551.285112
776.976224	2549.273691
777.300743	2550.014741
777.625216	2548.154555
777.949643	2548.913249
778.274024	2551.390976
778.598359	2546.029709
778.922647	2543.446117
779.246889	2546.657332
779.571086	2545.142466
779.895236	2548.252858
780.219339	2548.872920
780.543397	2549.581202
780.867409	2547.688248
781.191374	2548.033568
781.515294	2548.081458
781.839167	2548.290666
782.162995	2549.258568
782.486776	2551.983312
782.810511	2549.666901
783.134201	2549.092210
783.457844	2550.150852
783.781441	2549.472817
784.104993	2548.860317
784.428498	2549.498023
784.751958	2547.416026
785.075372	2549.727395
785.398739	2549.351829
785.722061	2550.297046
786.045337	2548.835111
786.368568	2550.738147
786.691752	2549.538352
787.014891	2547.922662
787.337983	2545.820501
787.661030	2548.809905
787.984031	2550.102961
788.306987	2550.337375
788.629897	2545.366797
788.952760	2548.583053
789.275579	2547.663043
789.598351	2550.274360
789.921078	2550.274360
790.243759	2549.397200
790.566395	2545.497867
790.888984	2547.070707
791.211529	2548.817467
791.534027	2550.155893
791.856480	2546.498536
792.178888	2549.235883
792.501249	2547.431150
792.823566	2548.431819
793.145836	2549.281253
793.468062	2546.377548
793.790241	2544.449307
794.112375	2550.894422
794.434464	2548.144473
794.756507	2546.420398
795.078505	2551.063301
795.400457	2546.397713
795.722364	2545.656663
796.044226	2543.798998
796.366042	2544.988711
796.687812	2548.341078
797.009538	2547.473999
797.331218	2550.844011
797.652852	2548.578012
797.974442	2549.893753
798.295986	2548.308310
798.617484	2550.536500
798.938938	2550.135729
799.260346	2549.634134
799.581709	2549.682025
799.903026	2548.875440
800.224299	2546.685059
800.545526	2548.076417
800.866708	2545.349153
801.187845	2548.257899
801.508936	2547.600028
801.829983	2547.698331
802.150984	2546.037271
802.471940	2546.869061
802.792851	2549.288815
803.113717	2550.329813
803.434538	2547.852086
803.755314	2549.757642
804.076045	2548.434339
804.396731	2548.139432
804.717372	2550.158414
805.037967	2549.326623
805.358518	2549.210677
805.679024	2547.836963
805.999485	2545.933927
806.319901	2552.563044
806.640272	2549.772766
806.960598	2547.658002
807.280879	2548.464586
807.601115	2549.157745
807.921306	2548.330996
808.241453	2548.898125
808.561554	2547.831921
808.881611	2550.113043
809.201623	2548.668753
809.521590	2550.541542
809.841513	2545.679349
810.161390	2547.201777
810.481223	2549.452652
810.801011	2548.721685
811.120755	2547.340409
811.440453	2551.519525
811.760107	2549.671942
812.079716	2545.853268
812.399281	2543.420912
812.718801	2544.313196
813.038276	2540.454193
813.357707	2548.278063
813.677093	2546.790923
813.996434	2547.839483
814.315731	2548.020965
814.634983	2548.701520
814.954191	2547.836963
815.273354	2544.744215
815.592473	2546.871582
815.911547	2548.578012
816.230577	2548.951057
816.549562	2550.221428
816.868502	2548.885522
817.187399	2546.770758
817.506250	2548.242775
817.825058	2547.181613
818.143821	2547.151366
818.462539	2549.457693
818.781213	2547.816798
819.099843	2547.345450
819.418429	2548.245296
819.736970	2548.661191
820.055466	2547.753783
820.373919	2548.018444
820.692327	2547.347971
821.010691	2547.572302
821.329011	2547.839483
821.647286	2548.696479
821.965517	2547.579864
822.283704	2548.782179
822.601847	2544.613145
822.919945	2547.416026
823.237999	2553.120092
823.556010	2547.337888
823.873976	2549.498023
824.191897	2547.952909
824.509775	2548.446942
824.827609	2549.951727
825.145398	2546.526263
825.463144	2549.145142
825.780845	2546.503577
826.098502	2545.160110
826.416116	2548.855276
826.733685	2548.048691
827.051210	2548.005841
827.368692	2545.979297
827.686129	2545.185316
828.003522	2546.826211
828.320872	2544.403937
828.638177	2546.894267
828.955439	2544.207332
829.272656	2544.507280
829.589830	2544.804708
829.906960	2548.502395
830.224046	2546.969884
830.541088	2546.798485
830.858086	2546.987528
831.175041	2547.814277
831.491952	2546.004503
831.808819	2547.451314
832.125642	2546.100285
832.442421	2549.712272
832.759157	2549.029195
833.075849	2546.140614
833.392497	2546.848896
833.709101	2547.252189
834.025662	2545.462579
834.342179	2545.124822
834.658653	2546.674977
834.975083	2547.042981
835.291469	2551.108671
835.607811	2544.351005
835.924110	2549.671943
836.240366	2548.295708
836.556578	2547.232024
836.872746	2547.925183
837.188871	2545.190357
837.504952	2550.241593
837.820990	2546.334699
838.136984	2547.877292
838.452935	2546.501057
838.768842	2548.303269
839.084706	2547.572302
839.400526	2546.884184
839.716303	2547.814277
840.032037	2547.718495
840.347727	2548.288146
840.663373	2546.440563
840.978977	2548.204967
841.294537	2548.651109
841.610054	2546.420398
841.925527	2545.356715
842.240957	2549.886192
842.556344	2547.279915
842.871687	2545.815460
843.186987	2544.653474
843.502244	2548.204967
843.817458	2545.649102
844.132629	2546.009544
844.447756	2549.608928
844.762840	2543.456200
845.077881	2545.490305
845.392879	2545.984338
845.707833	2543.415871
846.022745	2544.403937
846.337613	2547.158927
846.652438	2547.279915
846.967221	2549.699669
847.281960	2545.099616
847.596656	2549.122457
847.911309	2547.020296
848.225919	2543.826725
848.540485	2546.720347
848.855009	2547.048022
849.169490	2548.111705
849.483928	2547.005172
849.798323	2547.234545
850.112675	2547.078269
850.426984	2547.080789
850.741251	2545.359235
851.055474	2547.274874
851.369654	2547.907539
851.683792	2549.054401
851.997887	2548.449463
852.311938	2546.856458
852.625947	2550.244113
852.939914	2547.065666
853.253837	2550.420554
853.567718	2545.775131
853.881555	2547.746222
854.195350	2548.477189
854.509103	2547.811757
854.822812	2545.321427
855.136479	2549.187992
855.450103	2548.119267
855.763685	2546.213711
856.077224	2545.530635
856.390720	2547.544576
856.704173	2545.560882
857.017584	2546.412837
857.330953	2546.911911
857.644278	2545.308824
857.957561	2551.181768
858.270802	2549.513146
858.584000	2546.453166
858.897155	2544.754297
859.210268	2546.667415
859.523339	2545.712116
859.836367	2544.726571
860.149352	2543.821683
860.462295	2547.509288
860.775195	2544.199770
861.088054	2541.782537
861.400869	2544.779503
861.713642	2541.215407
862.026373	2542.919317
862.339062	2545.475182
862.651708	2546.770758
862.964312	2547.776469
863.276873	2546.342260
863.589392	2548.971222
863.901869	2543.483926
864.214303	2542.558874
864.526696	2547.758825
864.839045	2550.491130
865.151353	2545.681869
865.463619	2544.633309
865.775842	2548.368804
866.088023	2543.919986
866.400162	2545.903680
866.712258	2544.504760
867.024313	2545.220604
867.336325	2545.724719
867.648296	2547.418547
867.960224	2548.578012
868.272110	2547.045501
868.583954	2544.860161
868.895755	2549.107333
869.207515	2544.839997
869.519233	2549.679504
869.830909	2545.447456
870.142542	2544.492157
870.454134	2548.230172
870.765684	2547.937786
871.077191	2543.395706
871.388657	2546.364946
871.700081	2545.933927
872.011463	2544.600542
872.322803	2544.471992
872.634101	2544.577857
872.945357	2543.945192
873.256571	2546.538865
873.567744	2547.816798
873.878874	2549.518187
874.189963	2544.146838
874.501010	2545.888557
874.812015	2546.463248
875.122979	2546.826211
875.433900	2545.437373
875.744780	2549.800492
876.055618	2542.911755
876.366415	2548.207487
876.677169	2547.068187
876.987882	2545.424770
877.298554	2544.338402
877.609183	2543.120963
877.919771	2542.926879
878.230317	2541.875798
878.540822	2545.427291
878.851285	2547.537014
879.161707	2544.615665
879.472087	2547.264792
879.782425	2547.506767
880.092722	2545.923845
880.402977	2547.569781
880.713191	2546.037271
881.023363	2547.161448
881.333494	2547.272353
881.643583	2548.419216
881.953631	2546.904349
882.263637	2544.761859
882.573602	2544.910573
882.883526	2547.141283
883.193408	2544.061138
883.503248	2545.112219
883.813048	2545.553320
884.122806	2543.788916
884.432522	2547.557178
884.742197	2548.552806
885.051831	2546.183464
885.361424	2546.990049
885.670975	2546.672456
885.980485	2545.155069
886.289954	2544.172044
886.599382	2545.828063
886.908768	2545.613814
887.218113	2544.661036
887.527417	2548.194884
887.836680	2543.995603
888.145901	2544.285470
888.455082	2545.381921
888.764221	2545.636499
889.073319	2544.719009
889.382376	2546.463248
889.691392	2545.727240
890.000366	2545.999462
890.309300	2545.883515
890.618193	2548.056253
890.927044	2547.597508
891.235855	2544.421581
891.544625	2545.752445
891.853353	2546.982487
892.162041	2544.731612
892.470687	2546.579195
892.779293	2544.890408
893.087858	2543.549461
893.396381	2541.797660
893.704864	2545.152548
894.013306	2541.477547
894.321707	2545.250851
894.630068	2544.204811
894.938387	2545.361756
895.246665	2545.449976
895.554903	2544.277908
895.863100	2545.994421
896.171256	2545.386962
896.479371	2544.038453
896.787446	2544.678680
897.095480	2543.932589
897.403473	2544.371169
897.711425	2543.609955
898.019336	2545.969215
898.327207	2544.971067
898.635038	2547.325285
898.942827	2546.380069
899.250576	2544.900490
899.558284	2543.917465
899.865952	2546.924514
900.173579	2546.087682
900.481165	2545.455017
900.788711	2543.478885
901.096216	2546.624565
901.403681	2547.531973
901.711105	2545.366797
902.018489	2545.175233
902.325832	2550.428116
902.633135	2542.730274
902.940397	2544.630789
903.247619	2546.843855
903.554800	2545.530635
903.861941	2547.559699
904.169041	2545.964174
904.476101	2545.036602
904.783121	2543.383103
905.090100	2545.802857
905.397039	2542.742877
905.703938	2544.277908
906.010796	2546.075079
906.317614	2544.235058
906.624391	2546.604400
906.931129	2545.805377
907.237826	2547.330327
907.544483	2544.177085
907.851099	2545.296221
908.157675	2545.359235
908.464211	2546.163299
908.770707	2543.804039
909.077163	2545.165151
909.383578	2539.022505
909.689954	2541.003678
909.996289	2539.007382
910.302584	2542.589121
910.608839	2547.940306
910.915054	2541.490150
911.221229	2543.499050
911.527363	2546.299411
911.833458	2545.112219
912.139513	2546.508618
912.445527	2547.821839
912.751502	2545.031560
913.057436	2544.698844
913.363331	2543.925027
913.669186	2546.889226
913.975000	2544.194729
914.280775	2545.356715
914.586510	2543.892260
914.892205	2544.507280
915.197859	2544.361087
915.503475	2546.009544
915.809050	2545.447456
916.114585	2544.272867
916.420081	2543.496529
916.725536	2544.499719
917.030952	2547.443753
917.336328	2545.994421
917.641665	2545.770089
917.946961	2543.436035
918.252218	2545.099616
918.557435	2545.321427
918.862612	2544.547610
919.167750	2546.589277
919.472848	2541.769934
919.777906	2542.475695
920.082925	2546.962322
920.387904	2546.122970
920.692843	2547.915100
920.997743	2548.126829
921.302603	2546.309493
921.607423	2543.715819
921.912204	2547.055584
922.216946	2545.157589
922.521647	2545.412167
922.826310	2543.340253
923.130932	2544.187167
923.435516	2546.564071
923.740059	2545.581046
924.044564	2544.504760
924.349028	2540.494522
924.653454	2539.592155
924.957840	2542.659698
925.262186	2543.085675
925.566493	2542.049718
925.870761	2542.533669
926.174989	2542.997455
926.479178	2543.292362
926.783328	2544.890408
927.087438	2543.002496
927.391509	2544.587939
927.695541	2545.495347
927.999533	2547.572302
928.303486	2544.199770
928.607400	2544.666077
928.911275	2545.568443
929.215110	2544.570295
929.518906	2541.326312
929.822663	2544.726571
930.126381	2545.129863
930.430060	2544.025850
930.733699	2545.555840
931.037299	2546.236396
931.340861	2544.708927
931.644383	2546.468289
931.947866	2545.182795
932.251309	2543.632640
932.554714	2544.068700
932.858080	2544.540048
933.161407	2545.150027
933.464694	2545.397044
933.767943	2545.913762
934.071153	2545.132383
934.374323	2543.998124
934.677455	2543.723381
934.980548	2543.544420
935.283602	2543.315048
935.586617	2542.972249
935.889593	2543.909904
936.192530	2543.511652
936.495428	2543.705737
936.798287	2544.804708
937.101108	2544.257743
937.403890	2544.746735
937.706632	2548.220090
938.009336	2542.790768
938.312002	2541.598535
938.614628	2543.998124
938.917216	2545.644061
939.219765	2540.691127
939.522275	2544.560213
939.824747	2544.663556
940.127179	2542.856302
940.429573	2539.317412
940.731929	2539.816487
941.034246	2540.497042
941.336524	2542.871426
941.638763	2544.124153
941.940964	2544.983669
942.243126	2544.527445
942.545250	2544.449307
942.847335	2543.741025
943.149381	2543.405788
943.451389	2545.583567
943.753359	2544.199770
944.055290	2542.145500
944.357182	2542.190870
944.659036	2545.651622
944.960851	2544.650953
945.262628	2545.593649
945.564367	2544.870243
945.866067	2544.345963
946.167729	2546.904349
946.469352	2546.017106
946.770937	2547.010213
947.072484	2546.155738
947.373992	2542.296734
947.675462	2546.120450
947.976893	2543.786395
948.278286	2545.633978
948.579641	2545.142466
948.880958	2544.676159
949.182236	2544.212373
949.483476	2545.260933
949.784678	2543.738504
950.085841	2541.538041
950.386967	2547.053063
950.688054	2543.867054
950.989103	2543.302445
951.290114	2544.562733
951.591087	2543.680531
951.892021	2543.761190
952.192917	2544.603062
952.493776	2544.030891
952.794596	2543.766231
953.095378	2543.511652
953.396122	2544.343443
953.696828	2542.936961
953.997496	2543.972918
954.298126	2544.287990
954.598718	2542.778165
954.899272	2545.717157
955.199788	2544.940820
955.500266	2543.486447
955.800706	2542.994934
956.101108	2538.959491
956.401472	2540.560057
956.701798	2539.761034
957.002087	2540.698689
957.302337	2544.847558
957.602550	2541.280942
957.902724	2544.260264
958.202861	2542.687424
958.502960	2541.714481
958.803022	2545.233207
959.103045	2541.817825
959.403031	2544.366128
959.702979	2540.219779
960.002889	2544.018288
960.302762	2542.251364
960.602596	2544.489636
960.902393	2543.453679
961.202153	2543.209183
961.501875	2545.147507
961.801559	2544.217414
962.101205	2543.773793
962.400814	2543.539379
962.700385	2544.928217
962.999918	2544.056097
963.299414	2542.523586
963.598873	2544.582898
963.898293	2545.029040
964.197677	2544.172044
964.497022	2542.942002
964.796331	2543.153731
965.095601	2542.662218
965.394835	2545.449976
965.694030	2543.118442
965.993189	2544.683721
966.292309	2540.371014
966.591393	2541.686755
966.890439	2541.696837
967.189447	2539.304810
967.488419	2540.207176
967.787353	2544.305634
968.086249	2541.475026
968.385108	2543.965356
968.683930	2543.796478
968.982714	2544.865202
969.281462	2544.391334
969.580172	2543.307486
969.878844	2544.252702
970.177480	2544.056097
970.476078	2545.954092
970.774639	2542.455531
971.073162	2543.698175
971.371649	2541.452341
971.670098	2541.717002
971.968510	2539.645088
972.266885	2536.748945
972.565223	2541.114584
972.863524	2540.849923
973.161788	2542.510983
973.460014	2540.754141
973.758204	2543.355377
974.056356	2540.754141
974.354471	2541.893442
974.652550	2543.189019
974.950591	2545.512991
975.248595	2542.495860
975.546563	2543.622558
975.844493	2544.061138
976.142386	2542.677342
976.440243	2544.590459
976.738062	2544.146838
977.035845	2543.362938
977.333590	2542.563916
977.631299	2543.141128
977.928971	2543.216745
978.226606	2541.933771
978.524204	2541.104502
978.821765	2541.855633
979.119290	2542.034594
979.416777	2541.880839
979.714228	2544.416540
980.011642	2544.419060
980.309020	2545.006355
980.606360	2541.797660
980.903664	2542.137938
981.200931	2543.105840
981.498162	2540.983514
981.795356	2542.271529
982.092513	2546.014585
982.389633	2543.393185
982.686717	2541.805222
982.983764	2544.633309
983.280775	2541.759852
983.577749	2541.840510
983.874686	2539.385468
984.171587	2543.531817
984.468451	2543.544420
984.765279	2542.183308
985.062070	2542.899152
985.358824	2541.719522
985.655543	2540.872608
985.952224	2543.499050
986.248869	2544.764379
986.545478	2536.890097
986.842050	2540.741538
987.138586	2538.218441
987.435086	2540.179450
987.731549	2537.863040
988.027975	2543.123484
988.324366	2539.660211
988.620719	2540.403781
988.917037	2543.665408
989.213318	2543.037784
989.509563	2541.598535
989.805772	2541.674152
990.101944	2542.092568
990.398080	2545.631458
990.694180	2538.964532
990.990244	2544.224976
991.286271	2544.648433
991.582262	2543.289842
991.878217	2543.257074
992.174136	2545.565923
992.470019	2543.801519
992.765865	2545.293700
993.061676	2542.208514
993.357450	2542.001827
993.653188	2544.545089
993.948890	2540.633154
994.244556	2543.418391
994.540186	2541.931251
994.835780	2543.609955
995.131337	2543.272198
995.426859	2542.226158
995.722345	2540.837320
996.017795	2542.994934
996.313208	2542.198432
996.608586	2542.205994
996.903928	2543.438556
997.199234	2540.018133
997.494504	2541.296065
997.789738	2543.983000
998.084936	2543.589790
998.380099	2540.706250
998.675225	2543.594832
998.970316	2543.567105
999.265371	2541.598535
999.560390	2542.707588
999.855373	2542.410160
1000.150320	2542.916796
1000.445232	2541.752290
1000.740108	2543.614996
1001.034948	2544.746735
1001.329752	2541.621220
1001.624521	2543.166333
1001.919254	2538.273894
1002.213951	2540.998637
1002.508613	2541.225489
1002.803239	2543.572146
1003.097829	2538.026877
1003.392384	2542.032074
1003.686903	2542.296734
1003.981386	2543.738504
1004.275834	2540.247505
1004.570246	2539.745911
1004.864623	2541.139790
1005.158964	2545.021478
1005.453270	2542.856303
1005.747540	2543.791437
1006.041775	2542.112732
1006.335974	2541.167516
1006.630138	2543.430994
1006.924266	2544.287990
1007.218359	2542.102650
1007.512416	2542.521066
1007.806438	2540.242464
1008.100425	2541.099460
1008.394376	2542.742877
1008.688292	2542.195911
1008.982172	2541.038967
1009.276017	2539.788760
1009.569827	2541.757331
1009.863602	2540.207176
1010.157341	2543.594832
1010.451045	2541.361600
1010.744714	2539.496373
1011.038347	2544.028371
1011.331945	2541.278421
1011.625508	2544.149358
1011.919036	2539.637526
1012.212528	2539.466127
1012.505986	2543.060469
1012.799408	2540.630633
1013.092795	2545.639019
1013.386147	2540.799512
1013.679464	2542.876467
1013.972745	2542.029553
1014.265992	2540.799512
1014.559204	2543.912424
1014.852380	2542.299255
1015.145521	2542.987373
1015.438628	2543.514173
1015.731699	2543.862013
1016.024736	2539.435880
1016.317737	2543.705737
1016.610703	2543.282280
1016.903635	2537.860519
1017.196531	2538.679707
1017.489393	2542.430325
1017.782219	2537.351363
1018.075011	2538.473019
1018.367768	2539.163657
1018.660490	2543.294883
1018.953177	2543.294883
1019.245829	2543.294883
