Dividing Wavelength (nm)	Counts (n)	Blue Motor Position (mm): 34.600000	Red Motor Position (mm): 0.000000	
326.493990	2131.152830
326.888308	2131.152830
327.282561	2131.152830
327.676750	2097.603951
328.070874	2095.103538
328.464933	2098.065216
328.858929	2103.660897
329.252859	2114.958123
329.646726	2129.194341
330.040528	2139.052318
330.434265	2155.771304
330.827938	2175.202432
331.221547	2191.823116
331.615091	2212.401106
332.008571	2231.585217
332.401986	2249.393093
332.795338	2271.959818
333.188625	2291.988323
333.581847	2309.536579
333.975006	2327.241111
334.368100	2343.755931
334.761129	2362.826616
335.154095	2377.982845
335.546996	2398.752399
335.939833	2424.379105
336.332606	2439.530293
336.725315	2456.534105
337.117960	2461.093828
337.510540	2472.078502
337.903056	2481.550831
338.295508	2488.046357
338.687896	2496.759992
339.080220	2505.534120
339.472480	2510.572753
339.864676	2518.439474
340.256807	2518.416789
340.648875	2524.718231
341.040879	2527.246370
341.432818	2526.659075
341.824694	2526.984230
342.216506	2530.969262
342.608253	2529.333407
342.999937	2526.631349
343.391557	2531.647297
343.783113	2527.379960
344.174605	2527.737882
344.566033	2525.930628
344.957397	2525.103879
345.348697	2523.284023
345.739934	2521.156656
346.131106	2518.936028
346.522215	2517.781603
346.913260	2514.141890
347.304241	2514.880419
347.695159	2512.674914
348.086012	2512.599297
348.476802	2506.731394
348.867528	2506.761641
349.258191	2503.946157
349.648789	2504.072185
350.039324	2502.509428
350.429796	2501.014726
350.820203	2499.986330
351.210548	2500.364417
351.600828	2497.402739
351.991045	2500.339211
352.381198	2497.748058
352.771288	2497.359889
353.161314	2497.443068
353.551276	2495.555156
353.941175	2495.403921
354.331010	2497.458192
354.720782	2493.347131
355.110490	2497.178408
355.500135	2497.818634
355.889717	2497.304436
356.279235	2498.486587
356.668689	2500.024139
357.058080	2499.628408
357.447408	2496.581031
357.836672	2493.039620
358.225873	2496.029024
358.615010	2496.896103
359.004084	2498.151350
359.393095	2500.596310
359.782043	2499.270486
360.170927	2501.886845
360.559748	2501.682678
360.948505	2504.999758
361.337199	2502.728718
361.725830	2504.871208
362.114398	2503.195025
362.502903	2503.361383
362.891344	2503.658811
363.279722	2503.205107
363.668037	2504.198214
364.056289	2505.506394
364.444478	2506.118894
364.832603	2508.445386
365.220665	2506.958246
365.608665	2508.533607
365.996601	2509.042763
366.384474	2508.279028
366.772284	2508.558812
367.160031	2506.902793
367.547715	2507.459841
367.935336	2510.781961
368.322893	2507.893380
368.710388	2511.407064
369.097820	2511.107116
369.485189	2511.228103
369.872495	2511.739780
370.259738	2509.579646
370.646918	2511.447393
371.034035	2513.315141
371.421090	2512.604338
371.808081	2511.341529
372.195010	2514.426715
372.581875	2513.325223
372.968678	2514.376304
373.355418	2512.770696
373.742096	2514.164575
374.128710	2513.403361
374.515262	2514.474606
374.901751	2513.962929
375.288177	2515.687004
375.674540	2515.008969
376.060841	2515.709689
376.447079	2514.603156
376.833254	2513.269771
377.219367	2513.211797
377.605417	2512.564009
377.991404	2513.184071
378.377329	2511.996879
378.763191	2512.390089
379.148991	2517.771521
379.534727	2514.056191
379.920402	2519.039371
380.306013	2517.330420
380.691563	2519.137674
381.077049	2519.155318
381.462474	2518.192457
381.847835	2518.729340
382.233134	2516.642302
382.618371	2519.992149
383.003545	2517.769000
383.388657	2520.002232
383.773706	2521.675895
384.158693	2521.721265
384.543618	2520.745802
384.928480	2519.609022
385.313280	2520.032478
385.698017	2519.687159
386.082692	2522.641276
386.467305	2521.655730
386.851856	2520.622293
387.236344	2521.885103
387.620770	2526.328880
388.005133	2522.641276
388.389435	2524.070443
388.773674	2524.566996
389.157851	2522.971471
389.541965	2528.794004
389.926018	2526.328880
390.310008	2524.756040
390.693936	2527.722759
391.077802	2525.592871
391.461606	2527.632018
391.845348	2526.558252
392.229027	2527.886596
392.612645	2527.689991
392.996200	2529.209899
393.379694	2527.432892
393.763125	2530.361803
394.146494	2530.981865
394.529801	2531.251566
394.913047	2530.437420
395.296230	2531.806093
395.679351	2530.447502
396.062410	2531.531350
396.445408	2530.984385
396.828343	2530.485311
397.211217	2526.608664
397.594028	2531.564118
397.976778	2530.467667
398.359466	2530.868439
398.742092	2527.609333
399.124656	2537.996630
399.507158	2534.223327
399.889598	2538.596527
400.271977	2537.232895
400.654294	2537.636188
401.036549	2537.971424
401.418742	2537.530323
401.800874	2539.627443
402.182944	2538.165509
402.564952	2540.431507
402.946898	2540.184491
403.328783	2541.427135
403.710606	2543.738504
404.092367	2546.314534
404.474067	2545.586087
404.855705	2549.321582
405.237282	2548.164638
405.618797	2556.931204
406.000250	2564.434962
406.381642	2564.825651
406.762972	2574.814697
407.144240	2581.511870
407.525447	2588.937490
407.906593	2594.361771
408.287677	2608.653442
408.668700	2614.360029
409.049661	2628.079529
409.430560	2643.213073
409.811399	2655.422747
410.192176	2677.129956
410.572891	2687.174455
410.953545	2712.717981
411.334138	2718.848024
411.714669	2744.409195
412.095139	2752.656523
412.475547	2789.426699
412.855894	2807.277425
413.236180	2827.711742
413.616405	2846.648836
413.996568	2882.544372
414.376670	2899.182700
414.756711	2917.482089
415.136691	2951.759414
415.516609	2993.212823
415.896466	3029.476363
416.276262	3067.469019
416.655997	3093.186465
417.035670	3170.840399
417.415283	3230.207547
417.794834	3250.840990
418.174324	3277.927109
418.553753	3292.014614
418.933121	3383.710682
419.312428	3451.126032
419.691674	3475.056389
420.070859	3562.343968
420.449983	3571.236564
420.829045	3665.551511
421.208047	3670.171728
421.586988	3752.415633
421.965867	3800.702325
422.344686	3916.091816
422.723444	3892.529463
423.102141	3848.633616
423.480777	4043.010426
423.859352	3973.510558
424.237866	4160.882685
424.616319	4203.147719
424.994712	4311.983710
425.373044	4291.362870
425.751314	4428.391514
426.129524	4354.803271
426.507673	4524.821225
426.885762	4621.182881
427.263789	4626.947440
427.641756	4588.710288
428.019662	4718.169640
428.397508	4761.067338
428.775292	4774.522178
429.153016	4888.185074
429.530679	4875.836767
429.908282	4976.485925
430.285824	4908.997478
430.663305	5170.673691
431.040726	4996.579964
431.418086	5022.723388
431.795385	5145.195700
432.172624	5189.535168
432.549802	5212.860587
432.926920	5253.184777
433.303977	5286.995796
433.680974	5350.252194
434.057910	5396.681221
434.434786	5425.965284
434.811601	5419.671403
435.188355	5656.101519
435.565050	5561.776489
435.941683	5565.693466
436.318257	5785.505417
436.694770	5786.049862
437.071222	5839.349982
437.447614	5789.949194
437.823946	5724.031067
438.200218	5886.646087
438.576429	5765.459269
438.952580	5875.893306
439.328670	5933.095278
439.704700	5852.182239
440.080670	5844.542370
440.456580	6116.457167
440.832429	6011.384398
441.208218	5870.446339
441.583947	6029.991297
441.959616	6037.931114
442.335224	5966.699610
442.710773	6108.275375
443.086261	6134.668336
443.461689	5942.544921
443.837057	6093.179639
444.212365	6253.868939
444.587612	6144.443133
444.962800	6298.944416
445.337927	6280.145953
445.712995	5898.535648
446.088002	6469.723585
446.462949	6304.774510
446.837837	6233.089303
447.212664	6405.826960
447.587431	6551.236522
447.962139	7095.025787
448.336786	8016.231118
448.711374	7755.724452
449.085901	6839.668660
449.460369	6763.421208
449.834776	6695.126176
450.209124	7086.803665
450.583412	7241.161276
450.957640	7387.695015
451.331808	7149.508057
451.705917	6704.989194
452.079965	6626.503469
452.453954	6837.909297
452.827883	6716.324228
453.201752	6809.157076
453.575562	6610.391942
453.949311	6809.666233
454.323001	6702.360232
454.696632	6777.712879
455.070202	6917.831750
455.443713	7075.788744
455.817164	7171.908425
456.190556	7255.344562
456.563888	7329.462126
456.937160	7375.293777
457.310373	7036.319030
457.683526	7053.075826
458.056619	6946.679753
458.429653	6936.373114
458.802628	6875.402879
459.175542	6979.437171
459.548398	7329.961201
459.921194	7494.083526
460.293930	7492.976993
460.666607	8021.181531
461.039224	8330.226947
461.411782	8452.132129
461.784280	8475.056776
462.156719	8364.499231
462.529099	8243.264522
462.901419	7828.024680
463.273680	7726.185811
463.645882	7739.854899
464.018024	7608.560568
464.390106	7773.900332
464.762130	8162.835433
465.134094	8623.745609
465.505999	9648.891970
465.877845	10864.417506
466.249631	11518.129131
466.621358	11131.381890
466.993026	10500.035344
467.364634	10252.628116
467.736184	9884.356704
468.107674	9548.217607
468.479105	9585.307896
468.850477	9348.756793
469.221790	9120.594170
469.593043	8794.812123
469.964238	8662.764140
470.335373	8667.217999
470.706449	8723.114313
471.077467	8708.784833
471.448425	10015.933340
471.819324	11084.544530
472.190164	11103.521953
472.560945	9860.411223
472.931667	9073.338394
473.302330	8944.466337
473.672934	8591.225125
474.043479	8942.127242
474.413965	8878.459989
474.784393	8767.814224
475.154761	8923.137215
475.525070	9006.379268
475.895321	8839.698557
476.265513	9018.127677
476.635645	9186.915590
477.005719	9183.679169
477.375734	9291.091034
477.745691	9525.323207
478.115588	9669.177573
478.485427	9904.964941
478.855207	10438.361868
479.224928	11258.010633
479.594591	11883.007846
479.964194	11694.884588
480.333739	11632.641461
480.703226	11549.643904
481.072653	11640.354426
481.442022	11876.998791
481.811333	12066.410064
482.180584	11869.936134
482.549777	11579.285889
482.918912	11404.186451
483.287988	11433.155442
483.657005	11437.969743
484.025964	11126.524738
484.394864	11257.723288
484.763706	11221.273225
485.132489	10976.021090
485.501213	10949.023191
485.869879	11013.842347
486.238487	10864.503205
486.607036	10968.761829
486.975527	10757.963460
487.343959	10953.935795
487.712333	10993.687814
488.080648	10920.202914
488.448905	10966.100099
488.817104	10903.216746
489.185244	11173.858652
489.553326	11331.976963
489.921350	11860.088240
490.289315	12924.341352
490.657222	13266.887756
491.025070	13165.782374
491.392861	13048.573027
491.760593	12676.997139
492.128267	12319.743168
492.495883	11995.370124
492.863440	11655.588793
493.230939	11324.311889
493.598380	11261.549523
493.965763	11120.450148
494.333088	11024.063286
494.700354	10944.594537
495.067563	11009.174238
495.434713	10837.041520
495.801805	10961.628596
496.168839	10884.803932
496.535815	10824.703296
496.902733	10824.751187
497.269593	10756.199056
497.636395	10855.343429
498.003139	10840.199803
498.369825	10715.065761
498.736453	10867.951355
499.103023	10794.375714
499.469535	10825.865282
499.835989	10817.121400
500.202385	10773.165059
500.568723	10627.901691
500.935003	10853.316885
501.301226	10656.671556
501.667390	10908.527602
502.033497	11013.469302
502.399546	10879.815710
502.765537	10776.013311
503.131470	10849.704898
503.497345	11020.335353
503.863163	10631.879161
504.228923	10947.586462
504.594625	11007.815647
504.960269	10761.840107
505.325856	10983.066103
505.691385	10773.580955
506.056856	10929.239182
506.422270	10954.177771
506.787625	10843.254742
507.152924	10957.482247
507.518164	10937.544483
507.883347	10860.863492
508.248472	10774.994998
508.613540	11010.190031
508.978550	10900.708772
509.343503	10864.873730
509.708398	10990.839562
510.073236	11097.772517
510.438016	11103.622776
510.802738	11051.819879
511.167403	11109.021852
511.532010	11004.019659
511.896561	11242.955227
512.261053	11310.123561
512.625488	11179.230002
512.989866	11154.717391
513.354186	11146.187759
513.718449	11050.287369
514.082655	11244.316339
514.446803	11141.391101
514.810894	11259.553227
515.174927	11125.945006
515.538904	11152.713532
515.902822	11304.157356
516.266684	11180.449961
516.630488	11123.500046
516.994235	11178.335197
517.357925	11253.403019
517.721558	11336.634989
518.085133	11352.159223
518.448651	11365.392252
518.812112	11248.954201
519.175516	11257.776220
519.538863	11379.532688
519.902152	11294.664863
520.265385	11456.682507
520.628560	11370.297294
520.991678	11346.792914
521.354739	11408.138716
521.717743	11340.131030
522.080690	11325.010089
522.443580	11452.223606
522.806413	11414.142730
523.169189	11443.328490
523.531908	11498.216573
523.894569	11319.205200
524.257174	11322.053452
524.619722	11442.799169
524.982213	11393.017775
525.344647	11440.729775
525.707025	11393.244627
526.069345	11494.002168
526.431608	11403.831050
526.793815	11516.551250
527.155964	11299.461521
527.518057	11352.224758
527.880093	11310.894858
528.242072	11369.669671
528.603995	11274.313725
528.965860	11198.971160
529.327669	11247.951011
529.689421	11197.511746
530.051117	11164.189719
530.412755	11276.274734
530.774337	11161.177630
531.135862	11145.918057
531.497331	11173.241111
531.858743	11018.366783
532.220098	11189.153513
532.581396	11054.499253
532.942638	11039.128775
533.303824	11006.656182
533.664953	11020.365600
534.026025	10938.628332
534.387040	11030.531087
534.747999	11036.033506
535.108902	11090.344377
535.469748	10849.173057
535.830537	10954.510487
536.191270	10933.965264
536.551947	10957.114243
536.912567	10956.252205
537.273131	10876.223888
537.633638	10858.398368
537.994089	10856.162616
538.354483	10800.165479
538.714821	10944.050093
539.075103	10953.567791
539.435328	10914.559343
539.795497	10738.156767
540.155609	10899.879503
540.515665	10993.529018
540.875665	10721.462986
541.235609	10795.366301
541.595496	10785.220979
541.955328	10941.698394
542.315102	10826.452576
542.674821	10782.801225
543.034483	10775.463826
543.394090	10782.249219
543.753640	10710.190966
544.113134	10931.462331
544.472571	10785.165526
544.831953	10932.541138
545.191278	10736.820861
545.550548	10765.439491
545.909761	10895.135777
546.268918	10868.573937
546.628019	10957.368821
546.987064	10826.578605
547.346053	10748.218910
547.704986	10839.178969
548.063863	10829.179840
548.422684	10822.338995
548.781449	10739.873279
549.140158	10842.473363
549.498811	10716.825124
549.857408	10575.612322
550.215949	10804.667230
550.574434	10663.487196
550.932864	10750.913406
551.291237	10815.435134
551.649555	10762.916394
552.007817	10769.961406
552.366022	10735.623587
552.724173	10729.485982
553.082267	10712.504855
553.440305	10853.669766
553.798288	10651.857254
554.156215	10804.384925
554.514086	10780.782243
554.871902	10638.722527
555.229661	10670.108751
555.587365	10647.562191
555.945014	10541.264421
556.302606	10660.588532
556.660143	10562.033975
557.017625	10713.939063
557.375050	10606.348237
557.732421	10741.836809
558.089735	10659.855044
558.446994	10662.007617
558.804197	10694.903667
559.161345	10700.282578
559.518437	10546.771881
559.875474	10631.034768
560.232455	10670.529688
560.589381	10614.827458
560.946251	10610.330749
561.303065	10718.080371
561.659825	10651.978242
562.016528	10582.546430
562.373177	10467.449326
562.729770	10577.901006
563.086307	10494.865641
563.442789	10585.402243
563.799216	10462.972781
564.155587	10510.505821
564.511904	10474.454009
564.868164	10459.950609
565.224370	10476.155398
565.580520	10399.718903
565.936615	10404.495396
566.292654	10276.261045
566.648638	10403.872814
567.004567	10363.193223
567.360441	10351.782571
567.716260	10254.329506
568.072023	10352.745432
568.427732	10305.524943
568.783385	10207.298061
569.138982	10280.024267
569.494525	10300.370364
569.850013	10169.633080
570.205445	10254.896635
570.560823	10152.145317
570.916145	10070.949973
571.271412	10135.809458
571.626625	10088.639382
571.981782	10061.243231
572.336884	10029.604949
572.691931	10041.204644
573.046923	9984.045522
573.401860	9943.469274
573.756743	9881.334533
574.111570	9917.383824
574.466342	9905.998378
574.821059	9936.310836
575.175722	9827.774793
575.530330	9837.824334
575.884882	9827.973919
576.239380	9754.123536
576.593823	9733.301050
576.948211	9752.714533
577.302544	9630.890009
577.656823	9641.637749
578.011047	9647.258636
578.365216	9622.186457
578.719330	9542.130414
579.073389	9552.366477
579.427394	9505.234209
579.781344	9479.912493
580.135239	9429.556407
580.489080	9433.559083
580.842866	9342.359569
581.196597	9341.366462
581.550273	9382.938337
581.903895	9355.597639
582.257463	9417.172813
582.610975	9294.483731
582.964434	9320.859048
583.317837	9243.563036
583.671186	9228.989060
584.024481	9229.460408
584.377721	9145.010999
584.730906	9118.514694
585.084037	9149.091813
585.437113	9083.771062
585.790135	9105.962221
586.143103	9004.244339
586.496016	8978.698292
586.848874	9036.124596
587.201679	9018.248665
587.554428	8910.098271
587.907124	8954.488151
588.259765	8922.761649
588.612352	8927.616280
588.964884	8801.471488
589.317362	8825.364036
589.669786	8818.334147
590.022155	8869.771561
590.374470	8883.286894
590.726731	8818.944127
591.078937	8675.672014
591.431090	8784.573540
591.783188	8661.178697
592.135232	8654.836925
592.487222	8652.870875
592.839157	8702.632105
593.191038	8644.283270
593.542866	8583.255061
593.894639	8481.464083
594.246358	8538.333339
594.598022	8552.662819
594.949633	8450.713044
595.301190	8421.968385
595.652692	8451.741440
596.004141	8566.213441
596.355535	8342.736570
596.706876	8323.310484
597.058162	8256.762212
597.409395	8337.589552
597.760573	8398.131289
598.111698	8305.679048
598.462768	8287.374618
598.813785	8254.042509
599.164748	8224.140905
599.515657	8213.942651
599.866511	8126.224053
600.217312	8249.528156
600.568060	8107.223945
600.918753	8217.683187
601.269392	8179.098196
601.619978	8087.374401
601.970510	8167.490939
602.320988	8159.871235
602.671412	8210.255047
603.021783	8149.544431
603.372100	8117.006304
603.722363	8122.803631
604.072572	8097.161802
604.422728	8106.666897
604.772830	8042.722381
605.122878	8046.407465
605.472872	8042.198101
605.822813	8073.163389
606.172701	8020.571551
606.522534	8091.044361
606.872314	8091.402283
607.222041	8055.968013
607.571714	8114.246272
607.921333	8073.720436
608.270899	8079.258144
608.620411	8168.234509
608.969870	8070.317657
609.319276	8073.380158
609.668627	8083.028927
610.017926	8120.255327
610.367171	8162.815269
610.716362	8141.266857
611.065500	8134.436093
611.414585	8162.820310
611.763616	8149.448649
612.112594	8133.543809
612.461518	8150.484606
612.810389	8205.914613
613.159207	8144.798185
613.507971	8095.364630
613.856682	8216.984987
614.205340	8169.262904
614.553945	8252.812468
614.902496	8142.186867
615.250994	8196.747275
615.599439	8189.548507
615.947830	8193.220988
616.296169	8171.002102
616.644454	8175.818925
616.992686	8180.708844
617.340864	8235.324705
617.688990	8142.365828
618.037063	8230.419662
618.385082	8179.914863
618.733048	8268.137575
619.080961	8198.917492
619.428821	8219.319042
619.776628	8226.976554
620.124382	8176.030653
620.472083	8158.593302
620.819731	8186.775873
621.167326	8078.065911
621.514868	8095.341945
621.862357	7976.027916
622.209793	7995.070874
622.557176	7922.659741
622.904506	7899.699805
623.251783	7831.808066
623.599007	7782.369470
623.946179	7790.745347
624.293297	7752.389728
624.640363	7667.302613
624.987376	7648.178996
625.334336	7600.875329
625.681243	7546.239303
626.028097	7537.157665
626.374899	7509.338057
626.721647	7497.864391
627.068343	7431.807632
627.414987	7404.552633
627.761577	7361.244081
628.108115	7397.520224
628.454600	7295.459544
628.801032	7349.210847
629.147412	7304.455483
629.493739	7293.690099
629.840014	7226.930098
630.186236	7286.990405
630.532405	7166.438773
630.878521	7216.719241
631.224585	7176.959661
631.570597	7097.057372
631.916556	7133.731767
632.262462	7128.567104
632.608316	7095.159378
632.954117	7067.019657
633.299866	7061.512197
633.645562	7052.700260
633.991206	6968.608772
634.336797	6913.115751
634.682336	6867.629420
635.027823	6841.128074
635.373257	6825.298851
635.718639	6757.719663
636.063968	6770.579646
636.409245	6667.147772
636.754470	6668.241703
637.099642	6621.308560
637.444762	6565.656742
637.789829	6575.587816
638.134845	6520.886255
638.479808	6504.210118
638.824719	6509.684811
639.169577	6436.973729
639.514383	6462.008099
639.859137	6384.089504
640.203839	6391.162243
640.548489	6381.795779
640.893086	6357.764599
641.237632	6326.776626
641.582125	6346.623649
641.926566	6315.708773
642.270955	6330.348284
642.615292	6328.835938
642.959576	6343.198185
643.303809	6331.711916
643.647990	6337.413461
643.992118	6329.198901
644.336195	6275.291322
644.680219	6302.563964
645.024192	6292.390916
645.368112	6384.346603
645.711981	6411.977167
646.055797	6479.329503
646.399562	6442.166117
646.743274	6572.099337
647.086935	6619.213961
647.430544	6617.779753
647.774101	6636.575695
648.117606	6644.903681
648.461059	6629.631505
648.804460	6599.797957
649.147810	6509.031982
649.491108	6478.192723
649.834354	6449.463187
650.177548	6364.267687
650.520690	6282.185100
650.863781	6264.558706
651.206820	6282.263238
651.549807	6202.015630
651.892742	6144.274254
652.235626	6146.633514
652.578458	6132.515763
652.921238	6043.496548
653.263967	6084.390388
653.606644	6024.090626
653.949269	6029.101533
654.291843	5963.856399
654.634365	6016.428072
654.976836	5970.298994
655.319255	5969.532738
655.661622	5950.194872
656.003938	5939.220280
656.346203	5905.174848
656.688416	5933.274239
657.030577	5887.470316
657.372687	5852.671231
657.714746	5842.926680
658.056753	5888.871756
658.398708	5826.111912
658.740612	5817.642773
659.082465	5862.650195
659.424266	5858.937385
659.766016	5858.529051
660.107715	5834.644064
660.449362	5852.411611
660.790958	5843.640003
661.132503	5827.951933
661.473996	5869.942224
661.815438	5852.174677
662.156829	5849.684347
662.498168	5845.689233
662.839456	5821.307692
663.180693	5857.762796
663.521879	5861.425194
663.863013	5851.350448
664.204097	5864.951481
664.545129	5902.049333
664.886110	5901.477162
665.227040	5935.555362
665.567918	5899.974898
665.908746	5929.145534
666.249522	5933.087717
666.590248	5919.632877
666.930922	5945.599861
667.271545	5962.654084
667.612118	5962.079393
667.952639	5936.067039
668.293109	5953.489266
668.633528	5912.308081
668.973896	5918.579276
669.314213	5908.701135
669.654480	5888.813783
669.994695	5882.819851
670.334859	5873.135795
670.674973	5865.551379
671.015035	5872.387183
671.355047	5868.359301
671.695008	5856.131983
672.034918	5828.040153
672.374777	5843.077915
672.714585	5821.305171
673.054342	5829.819680
673.394049	5821.592517
673.733705	5852.802301
674.073310	5841.626063
674.412864	5797.599145
674.752368	5791.111180
675.091820	5795.547396
675.431223	5731.665894
675.770574	5735.824846
676.109875	5684.032032
676.449125	5685.861970
676.788324	5656.020860
677.127473	5592.053659
677.466571	5586.059727
677.805619	5577.865332
678.144616	5567.417540
678.483562	5546.526999
678.822458	5510.553325
679.161303	5506.444784
679.500098	5496.601932
679.838842	5480.833202
680.177535	5487.111959
680.516179	5497.630327
680.854771	5514.795456
681.193314	5593.649184
681.531805	5698.358991
681.870247	5852.081416
682.208638	5951.039266
682.546978	5963.874043
682.885268	5942.270178
683.223508	5861.828487
683.561697	5806.254807
683.899836	5774.616525
684.237925	5733.800823
684.575963	5698.563158
684.913951	5650.470550
685.251889	5719.131065
685.589776	5683.734603
685.927614	5655.579759
686.265401	5725.598866
686.603137	5703.954672
686.940824	5788.310819
687.278460	5809.720600
687.616046	5817.032793
687.953582	5889.504421
688.291068	5865.392582
688.628504	5934.070742
688.965889	5893.602879
689.303224	5836.675649
689.640510	5791.708557
689.977745	5716.580241
690.314930	5616.926712
690.652065	5563.198094
690.989150	5471.570082
691.326185	5397.402106
691.663170	5337.520760
692.000105	5266.470738
692.336990	5185.731618
692.673825	5161.022402
693.010610	5093.312144
693.347345	5024.898646
693.684030	5011.148898
694.020665	4968.657013
694.357251	4880.610740
694.693786	4886.203900
695.030272	4854.978993
695.366707	4819.007840
695.703093	4783.341677
696.039429	4809.943846
696.375716	4790.805105
696.711952	4762.804016
697.048139	4751.494187
697.384276	4730.258327
697.720363	4745.722066
698.056400	4752.910752
698.392388	4703.683884
698.728326	4684.363662
699.064214	4660.531607
699.400053	4655.767717
699.735842	4621.268581
700.071581	4594.283284
700.407270	4569.594233
700.742910	4556.497315
701.078501	4501.291640
701.414042	4497.256196
701.749533	4472.874655
702.084974	4401.890168
702.420366	4459.752532
702.755709	4404.587185
703.091002	4344.726004
703.426246	4395.072008
703.761440	4349.378989
704.096584	4314.037980
704.431679	4339.851208
704.766725	4317.569308
705.101721	4308.928771
705.436668	4340.897248
705.771565	4283.380203
706.106413	4314.050583
706.441212	4343.483360
706.775961	4350.379658
707.110661	4333.441381
707.445311	4358.049774
707.779913	4383.560533
708.114465	4394.371287
708.448967	4417.061521
708.783421	4479.864215
709.117825	4520.246378
709.452180	4524.037326
709.786485	4569.858894
710.120742	4652.848889
710.454949	4640.747599
710.789107	4704.119944
711.123216	4782.746821
711.457275	4771.595788
711.791286	4850.946070
712.125247	4859.752966
712.459159	4763.842494
712.793023	4840.931818
713.126837	4800.468997
713.460602	4794.631341
713.794318	4714.900452
714.127985	4717.660483
714.461602	4631.572699
714.795171	4607.909523
715.128691	4540.431158
715.462162	4484.965863
715.795584	4435.136578
716.128957	4418.074793
716.462281	4363.716031
716.795556	4339.705015
717.128782	4300.452070
717.461960	4231.257193
717.795088	4242.894696
718.128167	4201.161504
718.461198	4143.357114
718.794180	4138.515085
719.127113	4121.165954
719.459997	4099.690639
719.792833	4054.741191
720.125619	4045.296589
720.458357	4010.716794
720.791046	4014.142258
721.123686	3986.733505
721.456278	3944.861681
721.788821	3961.729382
722.121315	3934.975978
722.453761	3909.371958
722.786158	3921.730347
723.118506	3946.948719
723.450805	3894.651789
723.783056	3918.498967
724.115259	3934.476904
724.447412	3940.617029
724.779518	3932.369702
725.111574	3939.026545
725.443582	3966.692398
725.775542	3953.416519
726.107453	4002.633304
726.439315	4002.466946
726.771129	4019.301879
727.102895	4056.288825
727.434612	4100.882872
727.766281	4107.756485
728.097901	4119.905666
728.429473	4116.323926
728.760996	4124.089824
729.092471	4120.699648
729.423897	4104.890589
729.755276	4111.524748
730.086606	4113.367289
730.417887	4151.329698
730.749120	4214.475192
731.080305	4277.403915
731.411442	4307.504645
731.742530	4276.521713
732.073570	4277.683699
732.404562	4332.218901
732.735506	4324.873940
733.066401	4285.358856
733.397249	4227.075556
733.728048	4145.716374
734.058798	4058.746387
734.389501	3990.862210
734.720156	3929.415586
735.050762	3885.184502
735.381320	3879.825755
735.711831	3824.078155
736.042293	3797.687715
736.372707	3820.657732
736.703073	3794.103455
737.033391	3783.267494
737.363661	3798.375833
737.693883	3826.452539
738.024056	3836.716328
738.354182	3829.111747
738.684260	3892.960482
739.014290	3913.503183
739.344272	3910.894386
739.674207	3950.916107
740.004093	3959.430616
740.333931	3951.183288
740.663722	3955.828711
740.993464	3949.507104
741.323159	3926.295111
741.652806	3896.877458
741.982405	3867.421996
742.311956	3838.400073
742.641460	3831.796162
742.970915	3806.744148
743.300323	3765.441974
743.629683	3729.067529
743.958996	3719.096127
744.288260	3693.686191
744.617477	3660.568330
744.946647	3647.678100
745.275768	3622.288329
745.604842	3621.448977
745.933869	3570.795463
746.262847	3563.203485
746.591778	3600.971810
746.920662	3571.110535
747.249498	3538.600134
747.578286	3588.116867
747.907027	3602.869804
748.235720	3601.407869
748.564365	3627.548773
748.892963	3628.002477
749.221514	3611.346504
749.550017	3586.168461
749.878473	3584.628389
750.206881	3557.433884
750.535242	3551.520611
750.863555	3556.307187
751.191821	3550.048594
751.520039	3531.086294
751.848210	3509.227851
752.176334	3539.867984
752.504411	3545.902245
752.832440	3507.720546
753.160421	3489.169100
753.488356	3501.134278
753.816243	3511.970238
754.144082	3466.541881
754.471875	3454.301959
754.799620	3471.111687
755.127318	3467.381233
755.454969	3464.321252
755.782572	3470.476501
756.110129	3445.973973
756.437638	3435.074998
756.765100	3451.216773
757.092515	3457.303966
757.419882	3469.566573
757.747203	3438.439968
758.074477	3442.447686
758.401703	3457.853452
758.728882	3477.753407
759.056014	3485.171465
759.383099	3490.694049
759.710138	3483.291114
760.037129	3506.142665
760.364073	3533.148126
760.690970	3521.147659
761.017820	3497.134123
761.344623	3514.584077
761.671379	3561.197106
761.998088	3612.067389
762.324751	3736.188159
762.651366	3982.750993
762.977935	4456.369918
763.304456	4899.041199
763.630931	4993.840097
763.957359	4632.888440
764.283740	4295.635248
764.610074	4100.010752
764.936362	3904.653438
765.262602	3747.135024
765.588796	3633.898106
765.914943	3541.634908
766.241044	3456.986373
766.567097	3426.071498
766.893104	3381.109446
767.219064	3349.806402
767.544978	3322.707679
767.870845	3265.883793
768.196665	3247.586925
768.522438	3254.349633
768.848165	3252.464241
769.173846	3216.402347
769.499479	3197.966848
769.825066	3181.283149
770.150607	3165.300171
770.476101	3181.421781
770.801548	3176.486491
771.126949	3131.652989
771.452303	3114.409723
771.777611	3121.505147
772.102872	3127.607463
772.428087	3101.350614
772.753256	3093.390632
773.078378	3082.479054
773.403453	3049.247768
773.728482	3036.695295
774.053465	3057.686660
774.378401	3047.911862
774.703291	3013.500946
775.028135	3016.107223
775.352932	3011.550020
775.677683	2999.214316
776.002388	2996.451764
776.327046	2997.006291
776.651658	2987.319714
776.976224	2974.830255
777.300743	2976.317395
777.625216	2964.183338
777.949643	2960.188224
778.274024	2965.531847
778.598359	2950.985597
778.922647	2957.224025
779.246889	2956.029272
779.571086	2942.150975
779.895236	2934.591765
780.219339	2947.572736
780.543397	2959.704273
780.867409	2963.001188
781.191374	2952.276133
781.515294	2951.817388
781.839167	2953.168417
782.162995	2944.805143
782.486776	2951.736729
782.810511	2950.935186
783.134201	2938.826334
783.457844	2943.212138
783.781441	2935.597475
784.104993	2915.228693
784.428498	2915.384969
784.751958	2927.607246
785.075372	2922.067018
785.398739	2907.281314
785.722061	2923.838984
786.045337	2935.231992
786.368568	2919.276740
786.691752	2912.302303
787.014891	2959.159828
787.337983	2989.250476
787.661030	3017.851462
787.984031	3083.550299
788.306987	3129.906230
788.629897	3123.415744
788.952760	3102.943618
789.275579	3090.807040
789.598351	3030.580375
789.921078	2986.999600
790.243759	2982.023982
790.566395	2960.402473
790.888984	2936.736776
791.211529	2920.753798
791.534027	2910.802560
791.856480	2902.005747
792.178888	2886.985629
792.501249	2877.568753
792.823566	2870.753113
793.145836	2870.833772
793.468062	2867.400746
793.790241	2865.827906
794.112375	2870.561549
794.434464	2886.174003
794.756507	2887.903119
795.078505	2895.220353
795.400457	2909.872467
795.722364	2945.785647
796.044226	2969.481591
796.366042	2971.266159
796.687812	2963.878348
797.009538	2980.267139
797.331218	2968.538895
797.652852	2956.298973
797.974442	2936.751899
798.295986	2931.209151
798.617484	2930.841147
798.938938	2913.829773
799.260346	2895.641290
799.581709	2891.562996
799.903026	2884.807850
800.224299	2880.969012
800.545526	2869.545757
800.866708	2855.475897
801.187845	2844.450893
801.508936	2845.121367
801.829983	2853.247707
802.150984	2839.482836
802.471940	2828.606547
802.792851	2826.383398
803.113717	2824.442553
803.434538	2833.206599
803.755314	2825.143274
804.076045	2821.259065
804.396731	2816.437201
804.717372	2819.983653
805.037967	2813.810760
805.358518	2821.256544
805.679024	2834.645849
805.999485	2827.860456
806.319901	2831.830364
806.640272	2823.391473
806.960598	2827.805003
807.280879	2836.190962
807.601115	2846.747139
807.921306	2831.608554
808.241453	2827.431958
808.561554	2835.800273
808.881611	2837.569718
809.201623	2831.134685
809.521590	2827.769715
809.841513	2824.130002
810.161390	2829.072853
810.481223	2825.075218
810.801011	2812.590801
811.120755	2811.060811
811.440453	2814.508960
811.760107	2813.893939
812.079716	2812.668939
812.399281	2802.392547
812.718801	2796.154119
813.038276	2792.032975
813.357707	2795.720579
813.677093	2803.786426
813.996434	2798.203348
814.315731	2793.943573
814.634983	2787.899229
814.954191	2791.546504
815.273354	2803.347845
815.592473	2811.907724
815.911547	2814.826552
816.230577	2822.105979
816.549562	2829.619818
816.868502	2829.982782
817.187399	2838.018381
817.506250	2855.352388
817.825058	2849.335771
818.143821	2861.973944
818.462539	2879.849875
818.781213	2903.631519
819.099843	2943.292797
819.418429	2998.359841
819.736970	3061.941393
820.055466	3133.412352
820.373919	3235.077302
820.692327	3378.888818
821.010691	3549.546999
821.329011	3989.385152
821.647286	4889.019385
821.965517	6266.398727
822.283704	7008.602766
822.601847	6992.123234
822.919945	6360.958170
823.237999	5856.792374
823.556010	5273.311584
823.873976	4718.109146
824.191897	4311.842557
824.509775	4014.530427
824.827609	3742.965990
825.145398	3623.178092
825.463144	3612.538737
825.780845	3702.609033
826.098502	3804.800783
826.416116	4085.036005
826.733685	4403.178183
827.051210	4472.887258
827.368692	4351.755893
827.686129	4086.984411
828.003522	3760.521808
828.320872	3504.075792
828.638177	3308.763848
828.955439	3173.877694
829.272656	3084.999631
829.589830	3016.984383
829.906960	2970.477219
830.224046	2923.901998
830.541088	2890.179200
830.858086	2876.691593
831.175041	2854.384487
831.491952	2855.727954
831.808819	2869.780171
832.125642	2897.047772
832.442421	2940.610903
832.759157	3020.813140
833.075849	3200.391643
833.392497	3483.764983
833.709101	3683.772762
834.025662	3634.261069
834.342179	3475.076554
834.658653	3299.220943
834.975083	3152.062101
835.291469	3051.228942
835.607811	2967.845736
835.924110	2910.031263
836.240366	2857.063860
836.556578	2816.843014
836.872746	2793.646145
837.188871	2772.067486
837.504952	2752.233066
837.820990	2745.528331
838.136984	2732.522154
838.452935	2723.805999
838.768842	2724.466390
839.084706	2740.265367
839.400526	2820.369301
839.716303	2952.427367
840.032037	3031.016435
840.347727	3019.676360
840.663373	2956.689663
840.978977	2885.155690
841.294537	2808.172229
841.610054	2759.555342
841.925527	2738.110273
842.240957	2718.369115
842.556344	2696.674509
842.871687	2679.453928
843.186987	2669.658966
843.502244	2666.694767
843.817458	2659.964827
844.132629	2648.216418
844.447756	2640.407671
844.762840	2633.690333
845.077881	2637.519089
845.392879	2634.890128
845.707833	2629.914509
846.022745	2623.471914
846.337613	2627.464508
846.652438	2625.004425
846.967221	2625.964765
847.281960	2622.498972
847.596656	2621.417644
847.911309	2621.284053
848.225919	2616.598301
848.540485	2614.725512
848.855009	2616.288270
849.169490	2614.049998
849.483928	2613.745008
849.798323	2615.232148
850.112675	2609.505397
850.426984	2616.142077
850.741251	2613.984463
851.055474	2612.071345
851.369654	2617.349433
851.683792	2617.271295
851.997887	2612.058742
852.311938	2613.008999
852.625947	2614.236520
852.939914	2617.278857
853.253837	2616.918414
853.567718	2611.146293
853.881555	2612.464555
854.195350	2616.379011
854.509103	2615.494288
854.822812	2610.715274
855.136479	2611.577312
855.450103	2614.697786
855.763685	2616.862962
856.077224	2610.795933
856.390720	2611.209307
856.704173	2614.047477
857.017584	2618.534104
857.330953	2617.974536
857.644278	2619.769187
857.957561	2617.644340
858.270802	2616.532766
858.584000	2618.123250
858.897155	2618.977726
859.210268	2622.322531
859.523339	2614.851541
859.836367	2611.264760
860.149352	2611.698299
860.462295	2616.414299
860.775195	2612.794750
861.088054	2607.814090
861.400869	2609.591097
861.713642	2605.722012
862.026373	2606.657146
862.339062	2610.748042
862.651708	2615.131325
862.964312	2616.988990
863.276873	2616.600822
863.589392	2615.983280
863.901869	2622.801441
864.214303	2624.086935
864.526696	2630.005250
864.839045	2629.785959
865.151353	2632.984572
865.463619	2632.639252
865.775842	2633.425672
866.088023	2632.926598
866.400162	2632.309057
866.712258	2634.532206
867.024313	2630.128758
867.336325	2628.024076
867.648296	2630.884931
867.960224	2633.521454
868.272110	2634.660755
868.583954	2629.168418
868.895755	2626.166411
869.207515	2634.075981
869.519233	2639.807773
869.830909	2637.327526
870.142542	2631.094139
870.454134	2632.460292
870.765684	2639.306178
871.077191	2643.152579
871.388657	2643.205511
871.700081	2642.560243
872.011463	2640.727784
872.322803	2643.588639
872.634101	2646.731798
872.945357	2654.976605
873.256571	2658.515495
873.567744	2659.654796
873.878874	2656.047850
874.189963	2656.395690
874.501010	2662.659324
874.812015	2668.262566
875.122979	2666.596465
875.433900	2660.214364
875.744780	2657.429127
876.055618	2662.898778
876.366415	2668.033194
876.677169	2666.135199
876.987882	2662.079591
877.298554	2659.488438
877.609183	2672.817249
877.919771	2678.334792
878.230317	2683.958199
878.540822	2695.411700
878.851285	2709.731098
879.161707	2733.227916
879.472087	2771.699481
879.782425	2819.771924
880.092722	2932.620674
880.402977	3121.953809
880.713191	3382.042060
881.023363	3675.346473
881.333494	3868.127758
881.643583	4042.365158
881.953631	4038.032286
882.263637	3860.560986
882.573602	3642.319353
882.883526	3509.704240
883.193408	3394.062691
883.503248	3296.047537
883.813048	3179.528827
884.122806	3067.617733
884.432522	2979.097592
884.742197	2914.137283
885.051831	2877.793085
885.361424	2842.676407
885.670975	2804.928247
885.980485	2774.714091
886.289954	2758.201792
886.599382	2741.850809
886.908768	2732.673389
887.218113	2709.973073
887.527417	2697.632328
887.836680	2691.459436
888.145901	2682.778569
888.455082	2676.522497
888.764221	2664.305260
889.073319	2658.260917
889.382376	2656.587254
889.691392	2658.780156
890.000366	2659.027172
890.309300	2656.773777
890.618193	2657.540032
890.927044	2663.206289
891.235855	2662.472801
891.544625	2662.066988
891.853353	2660.705877
892.162041	2668.476815
892.470687	2689.342151
892.779293	2697.846577
893.087858	2708.435521
893.396381	2730.684654
893.704864	2773.383227
894.013306	2848.025071
894.321707	2938.465892
894.630068	2987.264261
894.938387	3011.164371
895.246665	3001.757578
895.554903	2957.339972
895.863100	2914.313724
896.171256	2856.345496
896.479371	2796.570014
896.787446	2754.330186
897.095480	2737.079357
897.403473	2731.271948
897.711425	2715.084803
898.019336	2697.539067
898.327207	2682.967612
898.635038	2680.527693
898.942827	2678.223886
899.250576	2666.873728
899.558284	2658.858294
899.865952	2652.834115
900.173579	2651.581388
900.481165	2648.586943
900.788711	2639.764923
901.096216	2634.108749
901.403681	2631.305867
901.711105	2632.493059
902.018489	2627.479632
902.325832	2632.626650
902.633135	2633.851650
902.940397	2650.754639
903.247619	2688.424661
903.554800	2756.414703
903.861941	2883.456821
904.169041	3010.007427
904.476101	3074.720718
904.783121	3068.023546
905.090100	3013.178312
905.397039	2932.484563
905.703938	2860.675847
906.010796	2795.947431
906.317614	2745.591346
906.624391	2710.106664
906.931129	2682.622293
907.237826	2660.501710
907.544483	2641.557054
907.851099	2625.483335
908.157675	2618.687859
908.464211	2610.911879
908.770707	2600.585076
909.077163	2596.668099
909.383578	2593.666092
909.689954	2593.744230
909.996289	2589.759198
910.302584	2590.711976
910.608839	2587.052098
910.915054	2589.219794
911.221229	2589.118971
911.527363	2590.946390
911.833458	2590.543097
912.139513	2592.710793
912.445527	2588.839187
912.751502	2600.501897
913.057436	2603.335025
913.363331	2611.902466
913.669186	2620.865638
913.975000	2634.149078
914.280775	2651.556182
914.586510	2667.105621
914.892205	2703.754810
915.197859	2775.250974
915.503475	2857.265506
915.809050	2923.526432
916.114585	2936.724173
916.420081	2950.799075
916.725536	2964.079994
917.030952	2936.235181
917.336328	2889.566699
917.641665	2839.434945
917.946961	2788.731020
918.252218	2756.081987
918.557435	2728.184241
918.862612	2706.270346
919.167750	2690.408355
919.472848	2672.640808
919.777906	2659.226298
920.082925	2643.959163
920.387904	2636.157978
920.692843	2629.428037
920.997743	2623.517285
921.302603	2618.534104
921.607423	2611.002620
921.912204	2605.233020
922.216946	2602.543564
922.521647	2601.363934
922.826310	2596.763881
923.130932	2593.023345
923.435516	2582.575554
923.740059	2584.649988
924.044564	2583.745101
924.349028	2583.009093
924.653454	2573.539285
924.957840	2573.251940
925.262186	2570.254974
925.566493	2567.603327
925.870761	2564.341700
926.174989	2568.004098
926.479178	2564.339180
926.783328	2563.734241
927.087438	2563.426731
927.391509	2561.122923
927.695541	2558.672923
927.999533	2559.973540
928.303486	2558.471277
928.607400	2557.468087
928.911275	2556.711914
929.215110	2556.404403
929.518906	2553.692263
929.822663	2557.863817
930.126381	2557.538663
930.430060	2555.058415
930.733699	2559.320711
931.037299	2557.926832
931.340861	2558.718293
931.644383	2559.910526
931.947866	2558.309960
932.251309	2557.158056
932.554714	2555.247459
932.858080	2555.963302
933.161407	2555.277706
933.464694	2555.953220
933.767943	2555.829712
934.071153	2555.270144
934.374323	2554.080432
934.677455	2552.860472
934.980548	2554.488765
935.283602	2553.934238
935.586617	2553.193188
935.889593	2553.183106
936.192530	2552.164793
936.495428	2554.970195
936.798287	2553.949362
937.101108	2556.086811
937.403890	2559.091338
937.706632	2559.867676
938.009336	2566.653069
938.312002	2569.299675
938.614628	2568.896383
938.917216	2573.269584
939.219765	2574.976014
939.522275	2575.200346
939.824747	2577.617579
940.127179	2572.213462
940.429573	2566.282544
940.731929	2569.130796
941.034246	2567.371434
941.336524	2565.493604
941.638763	2566.980744
941.940964	2564.525702
942.243126	2563.487225
942.545250	2564.450085
942.847335	2561.354817
943.149381	2562.925136
943.451389	2561.203582
943.753359	2554.282078
944.055290	2557.137891
944.357182	2559.182079
944.659036	2558.088149
944.960851	2557.972202
945.262628	2557.261400
945.564367	2558.579661
945.866067	2556.298539
946.167729	2557.672254
946.469352	2556.396842
946.770937	2556.686708
947.072484	2556.273333
947.373992	2555.665874
947.675462	2554.682849
947.976893	2558.367933
948.278286	2553.059598
948.579641	2553.997253
948.880958	2552.537838
949.182236	2551.877447
949.483476	2553.757798
949.784678	2553.810730
950.085841	2554.030020
950.386967	2555.421378
950.688054	2554.584547
950.989103	2555.441543
951.290114	2557.921791
951.591087	2557.072356
951.892021	2557.195865
952.192917	2558.362892
952.493776	2560.331462
952.794596	2563.237688
953.095378	2560.553273
953.396122	2562.282389
953.696828	2560.112172
953.997496	2558.315001
954.298126	2559.910526
954.598718	2555.212171
954.899272	2555.426420
955.199788	2552.633620
955.500266	2552.605894
955.800706	2548.789741
956.101108	2542.689944
956.401472	2545.366797
956.701798	2542.697506
957.002087	2544.658515
957.302337	2547.312683
957.602550	2542.430325
957.902724	2543.821683
958.202861	2543.738504
958.502960	2541.744728
958.803022	2542.725232
959.103045	2542.024512
959.403031	2541.152393
959.702979	2540.239944
960.002889	2545.455017
960.302762	2541.250695
960.602596	2542.158103
960.902393	2542.594162
961.202153	2538.306661
961.501875	2541.538041
961.801559	2537.880684
962.101205	2539.128369
962.400814	2540.975952
962.700385	2536.055786
962.999918	2539.506456
963.299414	2536.448996
963.598873	2538.490663
963.898293	2538.997299
964.197677	2539.219110
964.497022	2536.496887
964.796331	2538.079809
965.095601	2536.426311
965.394835	2536.549819
965.694030	2538.427649
965.993189	2542.831097
966.292309	2535.730632
966.591393	2539.004861
966.890439	2537.094264
967.189447	2539.841692
967.488419	2538.561239
967.787353	2536.219623
968.086249	2538.493184
968.385108	2538.992258
968.683930	2539.511497
968.982714	2537.805066
969.281462	2539.012423
969.580172	2536.138965
969.878844	2538.377237
970.177480	2538.508307
970.476078	2541.946374
970.774639	2538.641898
971.073162	2540.290355
971.371649	2534.974458
971.670098	2536.048224
971.968510	2537.835313
972.266885	2535.811290
972.565223	2539.645088
972.863524	2539.720705
973.161788	2535.934798
973.460014	2540.524769
973.758204	2539.256919
974.056356	2536.113759
974.354471	2539.529141
974.652550	2538.636857
974.950591	2541.752290
975.248595	2539.844213
975.546563	2536.131403
975.844493	2538.669624
976.142386	2539.451003
976.440243	2537.840354
976.738062	2539.632485
977.035845	2536.728780
977.333590	2537.316074
977.631299	2535.042514
977.928971	2535.579397
978.226606	2538.616692
978.524204	2536.562422
978.821765	2535.962525
979.119290	2536.413708
979.416777	2538.805735
979.714228	2535.465971
980.011642	2534.493028
980.309020	2540.378575
980.606360	2539.811446
980.903664	2537.265663
981.200931	2539.138452
981.498162	2536.701054
981.795356	2541.616179
982.092513	2543.504091
982.389633	2545.129863
982.686717	2547.975594
982.983764	2555.713765
983.280775	2553.203271
983.577749	2550.506253
983.874686	2551.176727
984.171587	2549.949206
984.468451	2546.054915
984.765279	2544.023330
985.062070	2544.086344
985.358824	2541.487629
985.655543	2539.219110
985.952224	2540.398740
986.248869	2538.823379
986.545478	2532.625281
986.842050	2534.903882
987.138586	2532.821886
987.435086	2533.174767
987.731549	2532.448840
988.027975	2536.275076
988.324366	2532.862215
988.620719	2534.016639
988.917037	2535.700385
989.213318	2534.805580
989.509563	2537.540406
989.805772	2533.872966
990.101944	2535.045035
990.398080	2534.697195
990.694180	2533.147040
990.990244	2532.317770
991.286271	2533.089067
991.582262	2533.724252
991.878217	2531.188552
992.174136	2533.532688
992.470019	2534.346835
992.765865	2535.153419
993.061676	2534.026722
993.357450	2536.542257
993.653188	2535.758358
993.948890	2536.209541
994.244556	2534.424973
994.540186	2535.564273
994.835780	2535.947401
995.131337	2538.805735
995.426859	2534.878677
995.722345	2534.745086
996.017795	2537.676517
996.313208	2539.599717
996.608586	2538.571322
996.903928	2538.437731
997.199234	2539.985365
997.494504	2539.370345
997.789738	2536.748945
998.084936	2536.544778
998.380099	2535.609644
998.675225	2534.772812
998.970316	2535.355066
999.265371	2534.261135
999.560390	2535.488656
999.855373	2534.125024
1000.150320	2534.369520
1000.445232	2534.097298
1000.740108	2534.258615
1001.034948	2534.523275
1001.329752	2532.428676
1001.624521	2532.670651
1001.919254	2530.049251
1002.213951	2531.317101
1002.508613	2531.924560
1002.803239	2531.493542
1003.097829	2527.967255
1003.392384	2533.320960
1003.686903	2530.918850
1003.981386	2534.528316
1004.275834	2532.751310
1004.570246	2535.289531
1004.864623	2532.685775
1005.158964	2534.606454
1005.453270	2531.133099
1005.747540	2534.840868
1006.041775	2532.746268
1006.335974	2534.666948
1006.630138	2534.538399
1006.924266	2532.040507
1007.218359	2530.500434
1007.512416	2533.389016
1007.806438	2533.411701
1008.100425	2531.874149
1008.394376	2531.135620
1008.688292	2533.782226
1008.982172	2532.756351
1009.276017	2531.543953
1009.569827	2530.712163
1009.863602	2531.924560
1010.157341	2530.356762
1010.451045	2532.043027
1010.744714	2532.337935
1011.038347	2533.033614
1011.331945	2528.428520
1011.625508	2531.606968
1011.919036	2531.932122
1012.212528	2532.360620
1012.505986	2531.334745
1012.799408	2529.847605
1013.092795	2531.682585
1013.386147	2534.908923
1013.679464	2529.608150
1013.972745	2532.191742
1014.265992	2531.818696
1014.559204	2533.978831
1014.852380	2532.670651
1015.145521	2533.832637
1015.438628	2531.591844
1015.731699	2532.448840
1016.024736	2532.559746
1016.317737	2533.250384
1016.610703	2532.305168
1016.903635	2529.177132
1017.196531	2527.639580
1017.489393	2531.052441
1017.782219	2529.494724
1018.075011	2529.615712
1018.367768	2533.550332
1018.660490	2532.801721
1018.953177	2532.801721
1019.245829	2532.801721
