Dividing Wavelength (nm)	Counts (n)	Blue Motor Position (mm): 20.100000	Red Motor Position (mm): 0.000000	
326.493990	2132.952522
326.888308	2132.952522
327.282561	2132.952522
327.676750	2102.831627
328.070874	2100.260639
328.464933	2101.846082
328.858929	2109.624582
329.252859	2120.009359
329.646726	2131.719959
330.040528	2145.207567
330.434265	2162.299599
330.827938	2175.698986
331.221547	2197.335618
331.615091	2217.147353
332.008571	2235.507235
332.401986	2255.104720
332.795338	2272.831938
333.188625	2292.195010
333.581847	2311.444656
333.975006	2328.564414
334.368100	2348.976046
334.761129	2365.107738
335.154095	2384.891747
335.546996	2405.137021
335.939833	2422.410534
336.332606	2437.181115
336.725315	2452.347426
337.117960	2460.052830
337.510540	2470.364510
337.903056	2481.213073
338.295508	2488.121975
338.687896	2497.455671
339.080220	2503.527741
339.472480	2508.770541
339.864676	2516.859072
340.256807	2519.598939
340.648875	2522.164887
341.040879	2525.287881
341.432818	2527.100176
341.824694	2529.383819
342.216506	2528.788963
342.608253	2528.504137
342.999937	2529.628315
343.391557	2528.572193
343.783113	2526.749816
344.174605	2526.951462
344.566033	2525.386184
344.957397	2518.502488
345.348697	2521.191944
345.739934	2519.805627
346.131106	2518.648682
346.522215	2518.101717
346.913260	2513.499143
347.304241	2512.092661
347.695159	2511.202897
348.086012	2508.180726
348.476802	2508.387413
348.867528	2506.542351
349.258191	2504.646877
349.648789	2502.423728
350.039324	2499.857781
350.429796	2503.779798
350.820203	2500.782833
351.210548	2496.936432
351.600828	2495.565238
351.991045	2496.293685
352.381198	2494.241935
352.771288	2496.843171
353.161314	2495.592965
353.551276	2496.727224
353.941175	2497.178408
354.331010	2493.954590
354.720782	2495.739158
355.110490	2493.465598
355.500135	2496.182780
355.889717	2493.977275
356.279235	2493.947028
356.668689	2497.362410
357.058080	2495.885352
357.447408	2495.766884
357.836672	2492.895947
358.225873	2492.618684
358.615010	2490.723210
359.004084	2499.585558
359.393095	2498.393326
359.782043	2499.814931
360.170927	2497.405259
360.559748	2500.021618
360.948505	2503.888183
361.337199	2500.001454
361.725830	2501.133193
362.114398	2503.401712
362.502903	2500.596310
362.891344	2503.230313
363.279722	2501.198728
363.668037	2503.676455
364.056289	2503.900786
364.444478	2503.978924
364.832603	2503.212669
365.220665	2505.413132
365.608665	2503.903307
365.996601	2507.651405
366.384474	2506.169305
366.772284	2507.212824
367.160031	2503.908348
367.547715	2503.578152
367.935336	2506.086126
368.322893	2506.665859
368.710388	2506.701147
369.097820	2510.590397
369.485189	2510.368587
369.872495	2509.466220
370.259738	2509.735922
370.646918	2509.206601
371.034035	2508.604183
371.421090	2507.802639
371.808081	2510.328257
372.195010	2509.733401
372.581875	2509.985459
372.968678	2511.636437
373.355418	2509.839265
373.742096	2512.259019
374.128710	2509.587208
374.515262	2512.286746
374.901751	2511.578463
375.288177	2514.494771
375.674540	2511.707013
376.060841	2512.314472
376.447079	2512.422857
376.833254	2513.025275
377.219367	2508.566374
377.605417	2512.538803
377.991404	2506.927999
378.377329	2509.398164
378.763191	2509.680469
379.148991	2515.477796
379.534727	2515.873527
379.920402	2516.233969
380.306013	2515.427384
380.691563	2518.086593
381.077049	2516.654905
381.462474	2516.556603
381.847835	2516.876716
382.233134	2515.515605
382.618371	2517.600122
383.003545	2514.973681
383.388657	2518.837725
383.773706	2516.249092
384.158693	2516.579288
384.543618	2516.639782
384.928480	2515.727333
385.313280	2518.683970
385.698017	2516.385204
386.082692	2518.580626
386.467305	2516.748167
386.851856	2517.224556
387.236344	2518.857890
387.620770	2517.516943
388.005133	2519.556089
388.389435	2520.672705
388.773674	2517.194309
389.157851	2519.230935
389.541965	2519.167921
389.926018	2519.165400
390.310008	2519.674557
390.693936	2521.459125
391.077802	2519.624145
391.461606	2521.113806
391.845348	2520.380318
392.229027	2522.502644
392.612645	2520.730678
392.996200	2524.272089
393.379694	2524.264527
393.763125	2524.708149
394.146494	2523.094979
394.529801	2523.641945
394.913047	2524.433406
395.296230	2524.158663
395.679351	2525.376102
396.062410	2524.294774
396.445408	2523.034486
396.828343	2525.512213
397.211217	2520.269413
397.594028	2520.473579
397.976778	2520.811337
398.359466	2523.273940
398.742092	2519.745133
399.124656	2524.768643
399.507158	2525.164373
399.889598	2525.267717
400.271977	2528.204189
400.654294	2528.325177
401.036549	2525.804600
401.418742	2526.540608
401.800874	2526.039013
402.182944	2527.543798
402.564952	2527.929446
402.946898	2526.301153
403.328783	2524.884589
403.710606	2526.162522
404.092367	2527.306863
404.474067	2528.594878
404.855705	2527.619415
405.237282	2529.605630
405.618797	2526.180166
406.000250	2528.269724
406.381642	2525.923067
406.762972	2528.925074
407.144240	2529.109076
407.525447	2531.632173
407.906593	2526.510361
408.287677	2527.747964
408.668700	2529.673685
409.049661	2526.132275
409.430560	2529.280475
409.811399	2527.357275
410.192176	2529.557739
410.572891	2528.794004
410.953545	2532.426155
411.334138	2529.328366
411.714669	2531.140661
412.095139	2529.371216
412.475547	2530.011443
412.855894	2528.375588
413.236180	2530.245856
413.616405	2534.238450
413.996568	2530.996988
414.376670	2532.080836
414.756711	2530.066895
415.136691	2532.668131
415.516609	2530.944056
415.896466	2531.417924
416.276262	2536.204500
416.655997	2530.356762
417.035670	2528.867101
417.415283	2531.727955
417.794834	2527.599250
418.174324	2531.861546
418.553753	2532.894983
418.933121	2535.360107
419.312428	2534.740045
419.691674	2533.227699
420.070859	2534.437576
420.449983	2532.453882
420.829045	2534.346835
421.208047	2535.546629
421.586988	2531.730476
421.965867	2533.343645
422.344686	2532.716022
422.723444	2534.853471
423.102141	2535.294572
423.480777	2531.186031
423.859352	2535.476053
424.237866	2536.622916
424.616319	2533.358769
424.994712	2533.308357
425.373044	2536.753986
425.751314	2538.291538
426.129524	2530.971782
426.507673	2538.765406
426.885762	2535.410518
427.263789	2536.343132
427.641756	2535.896990
428.019662	2534.636701
428.397508	2537.963863
428.775292	2536.706095
429.153016	2535.065199
429.530679	2535.821372
429.908282	2532.728624
430.285824	2538.896476
430.663305	2536.353214
431.040726	2537.769778
431.418086	2538.135262
431.795385	2538.485622
432.172624	2537.684079
432.549802	2538.157947
432.926920	2538.896476
433.303977	2538.180632
433.680974	2541.885880
434.057910	2538.233564
434.434786	2540.890253
434.811601	2538.321785
435.188355	2539.408153
435.565050	2538.072247
435.941683	2541.003678
436.318257	2537.784902
436.694770	2536.242309
437.071222	2538.117618
437.447614	2536.259953
437.823946	2536.880015
438.200218	2539.571991
438.576429	2538.866229
438.952580	2539.161137
439.328670	2537.227854
439.704700	2542.057280
440.080670	2540.439069
440.456580	2542.062321
440.832429	2541.757331
441.208218	2542.372352
441.583947	2538.450334
441.959616	2542.014430
442.335224	2538.949408
442.710773	2540.865047
443.086261	2544.235058
443.461689	2542.551313
443.837057	2543.070552
444.212365	2543.100798
444.587612	2543.317568
444.962800	2540.842362
445.337927	2544.030891
445.712995	2542.382434
446.088002	2544.434184
446.462949	2542.508463
446.837837	2543.781354
447.212664	2544.479554
447.587431	2542.611807
447.962139	2543.438556
448.336786	2548.557847
448.711374	2540.887732
449.085901	2544.338402
449.460369	2542.266488
449.834776	2542.977290
450.209124	2542.611807
450.583412	2543.554502
450.957640	2544.885367
451.331808	2544.817311
451.705917	2545.936448
452.079965	2546.581715
452.453954	2545.883515
452.827883	2547.315203
453.201752	2542.974770
453.575562	2546.848896
453.949311	2544.323278
454.323001	2543.627599
454.696632	2544.466951
455.070202	2545.936448
455.443713	2543.988042
455.817164	2543.209183
456.190556	2539.899666
456.563888	2543.841848
456.937160	2541.734646
457.310373	2544.676159
457.683526	2545.132383
458.056619	2545.523073
458.429653	2546.440563
458.802628	2546.395193
459.175542	2548.124308
459.548398	2548.991387
459.921194	2545.054246
460.293930	2547.095913
460.666607	2546.193546
461.039224	2548.149514
461.411782	2547.640358
461.784280	2549.389638
462.156719	2548.809905
462.529099	2547.473999
462.901419	2547.131201
463.273680	2549.422405
463.645882	2551.214536
464.018024	2549.974412
464.390106	2549.298897
464.762130	2549.498023
465.134094	2550.957437
465.505999	2553.064639
465.877845	2550.844011
466.249631	2553.760318
466.621358	2553.505740
466.993026	2556.235525
467.364634	2553.314176
467.736184	2553.435164
468.107674	2551.630431
468.479105	2551.837118
468.850477	2552.764690
469.221790	2555.058415
469.593043	2549.598846
469.964238	2551.005328
470.335373	2550.334854
470.706449	2555.517160
471.077467	2551.534649
471.448425	2552.736964
471.819324	2554.140925
472.190164	2556.268292
472.560945	2551.481717
472.931667	2552.041285
473.302330	2554.297201
473.672934	2555.350802
474.043479	2554.196378
474.413965	2555.073539
474.784393	2548.915769
475.154761	2555.736451
475.525070	2549.959288
475.895321	2552.547921
476.265513	2552.091696
476.635645	2556.026317
477.005719	2554.665205
477.375734	2557.311811
477.745691	2555.985988
478.115588	2557.100083
478.485427	2556.984136
478.855207	2559.126627
479.224928	2560.623849
479.594591	2561.009497
479.964194	2562.418500
480.333739	2565.276834
480.703226	2562.463870
481.072653	2560.404559
481.442022	2564.354303
481.811333	2565.702812
482.180584	2565.571742
482.549777	2564.510579
482.918912	2567.709191
483.287988	2567.507545
483.657005	2570.673389
484.025964	2568.757751
484.394864	2573.312433
484.763706	2571.691702
485.132489	2575.142372
485.501213	2576.208576
485.869879	2577.017682
486.238487	2577.889801
486.607036	2581.882395
486.975527	2583.238465
487.343959	2584.362643
487.712333	2589.270206
488.080648	2592.720876
488.448905	2597.182297
488.817104	2598.188007
489.185244	2604.323091
489.553326	2611.514297
489.921350	2620.283384
490.289315	2634.990951
490.657222	2644.322127
491.025070	2647.624082
491.392861	2654.837973
491.760593	2657.270330
492.128267	2658.588592
492.495883	2660.632780
492.863440	2664.128820
493.230939	2666.223419
493.598380	2674.274142
493.965763	2677.379493
494.333088	2682.720595
494.700354	2693.959848
495.067563	2700.415045
495.434713	2706.328319
495.801805	2722.644013
496.168839	2730.838409
496.535815	2744.913310
496.902733	2751.234917
497.269593	2761.037441
497.636395	2774.136879
498.003139	2793.782256
498.369825	2799.471198
498.736453	2817.566420
499.103023	2824.626556
499.469535	2844.259329
499.835989	2858.850949
500.202385	2873.775285
500.568723	2885.397665
500.935003	2906.147054
501.301226	2925.817637
501.667390	2948.817901
502.033497	2974.994093
502.399546	2983.730412
502.765537	2998.332114
503.131470	3022.401103
503.497345	3054.057029
503.863163	3054.223387
504.228923	3094.759305
504.594625	3118.593880
504.960269	3125.991774
505.325856	3167.087260
505.691385	3180.443797
506.056856	3217.294632
506.422270	3249.144642
506.787625	3268.669030
507.152924	3307.886687
507.518164	3333.253773
507.883347	3356.473328
508.248472	3376.169116
508.613540	3436.426028
508.978550	3460.006025
509.343503	3488.027278
509.708398	3537.047458
510.073236	3583.640323
510.438016	3617.642905
510.802738	3649.321516
511.167403	3697.882951
511.532010	3731.782190
511.896561	3789.324441
512.261053	3848.071527
512.625488	3869.836709
512.989866	3908.262904
513.354186	3949.670942
513.718449	3984.896004
514.082655	4054.456366
514.446803	4095.158642
514.810894	4157.232890
515.174927	4187.870502
515.538904	4233.417327
515.902822	4317.498732
516.266684	4334.772246
516.630488	4384.684710
516.994235	4444.278710
517.357925	4517.877036
517.721558	4585.599897
518.085133	4648.982324
518.448651	4700.767577
518.812112	4727.435281
519.175516	4792.388027
519.538863	4881.548395
519.902152	4909.423455
520.265385	5022.932596
520.628560	5044.307088
520.991678	5109.206903
521.354739	5175.430020
521.717743	5217.679930
522.080690	5270.002066
522.443580	5380.398294
522.806413	5425.229275
523.169189	5487.326208
523.531908	5571.790741
523.894569	5573.693777
524.257174	5646.170446
524.619722	5754.298154
524.982213	5782.566425
525.344647	5880.420262
525.707025	5921.147744
526.069345	6016.629718
526.431608	6061.148148
526.793815	6165.011041
527.155964	6140.775693
527.518057	6218.817796
527.880093	6265.818994
528.242072	6352.557087
528.603995	6392.314147
528.965860	6416.549494
529.327669	6504.220201
529.689421	6545.819802
530.051117	6590.857471
530.412755	6709.664864
530.774337	6712.341717
531.135862	6779.257993
531.497331	6839.812333
531.858743	6835.681107
532.220098	6978.083621
532.581396	6977.433312
532.942638	7023.736310
533.303824	7067.634678
533.664953	7138.094885
534.026025	7158.390571
534.387040	7271.433404
534.747999	7331.453382
535.108902	7424.931498
535.469748	7346.339909
535.830537	7464.577652
536.191270	7514.553131
536.551947	7587.208761
536.912567	7639.263715
537.273131	7646.028944
537.633638	7695.621295
537.994089	7743.328254
538.354483	7764.574197
538.714821	7911.423009
539.075103	7968.589693
539.435328	8009.087803
539.795497	7942.350487
540.155609	8106.193029
540.515665	8216.498516
540.875665	8097.252542
541.235609	8196.840537
541.595496	8243.002382
541.955328	8410.777023
542.315102	8376.250161
542.674821	8390.224239
543.034483	8432.494314
543.394090	8483.651943
543.753640	8486.371646
544.113134	8694.407462
544.472571	8630.634346
544.831953	8784.931462
545.191278	8694.530971
545.550548	8757.434488
545.909761	8905.621726
546.268918	8933.607692
546.628019	9033.253659
546.987064	8979.154517
547.346053	8945.343498
547.704986	9080.469106
548.063863	9109.430535
548.422684	9139.049834
548.781449	9113.309703
549.140158	9235.960976
549.498811	9177.100464
549.857408	9091.121064
550.215949	9324.148401
550.574434	9237.143127
550.932864	9358.695428
551.291237	9436.687119
551.649555	9427.101365
552.007817	9475.120876
552.366022	9462.893557
552.724173	9503.802521
553.082267	9515.810549
553.440305	9672.729066
553.798288	9517.174182
554.156215	9690.357981
554.514086	9701.849291
554.871902	9594.286191
555.229661	9656.073093
555.587365	9657.071242
555.945014	9592.728475
556.302606	9733.061595
556.660143	9654.901025
557.017625	9828.125154
557.375050	9758.055636
557.732421	9907.099870
558.089735	9847.352114
558.446994	9876.379078
558.804197	9930.120299
559.161345	9952.457652
559.518437	9834.577831
559.875474	9944.774933
560.232455	9990.858641
560.589381	9960.357140
560.946251	9983.332198
561.303065	10095.114744
561.659825	10055.082941
562.016528	10010.922433
562.373177	9911.203369
562.729770	10036.576865
563.086307	9973.413728
563.442789	10073.528523
563.799216	9985.452003
564.155587	10038.222802
564.511904	10015.605665
564.868164	10019.620944
565.224370	10048.748731
565.580520	9993.769907
565.936615	10000.520012
566.292654	9895.212829
566.648638	10035.891268
567.004567	9997.543211
567.360441	9995.025155
567.716260	9921.706613
568.072023	10021.009782
568.427732	9987.556685
568.783385	9908.380323
569.138982	9982.603752
569.494525	10004.752061
569.850013	9904.213809
570.205445	9984.912600
570.560823	9894.318024
570.916145	9819.056118
571.271412	9902.973685
571.626625	9854.833187
571.981782	9835.759981
572.336884	9810.806270
572.691931	9832.634466
573.046923	9777.055745
573.401860	9747.552392
573.756743	9691.416623
574.111570	9738.463191
574.466342	9727.725534
574.821059	9757.654864
575.175722	9651.210901
575.530330	9676.668727
575.884882	9668.917953
576.239380	9604.141647
576.593823	9581.602648
576.948211	9606.647101
577.302544	9488.555551
577.656823	9510.310651
578.011047	9516.060087
578.365216	9493.886571
578.719330	9417.140045
579.073389	9435.114279
579.427394	9384.579232
579.781344	9365.972334
580.135239	9313.884612
580.489080	9327.185696
580.842866	9232.686747
581.196597	9240.755113
581.550273	9284.494685
581.903895	9253.126105
582.257463	9321.789141
582.610975	9196.806334
582.964434	9227.212053
583.317837	9150.636927
583.671186	9141.162078
584.024481	9129.801838
584.377721	9058.862721
584.730906	9032.051344
585.084037	9062.499913
585.437113	9003.238629
585.790135	9025.371815
586.143103	8924.241228
586.496016	8900.625943
586.848874	8958.936969
587.201679	8949.570505
587.554428	8833.634049
587.907124	8880.763797
588.259765	8850.451338
588.612352	8861.413327
588.964884	8734.446827
589.317362	8754.787882
589.669786	8756.406093
590.022155	8803.994585
590.374470	8822.591402
590.726731	8756.401052
591.078937	8616.078014
591.431090	8719.885454
591.783188	8601.393133
592.135232	8596.220909
592.487222	8594.980785
592.839157	8644.502560
593.191038	8580.689114
593.542866	8523.729117
593.894639	8427.301926
594.246358	8478.681366
594.598022	8491.543870
594.949633	8390.902274
595.301190	8368.678348
595.652692	8401.158502
596.004141	8505.999378
596.355535	8290.558107
596.706876	8270.499356
597.058162	8204.248512
597.409395	8276.515973
597.760573	8340.785643
598.111698	8251.158969
598.462768	8239.065241
598.813785	8209.284625
599.164748	8170.825662
599.515657	8157.779156
599.866511	8078.333092
600.217312	8203.051238
600.568060	8055.715955
600.918753	8165.439189
601.269392	8135.847616
601.619978	8049.051550
601.970510	8111.660160
602.320988	8103.974921
602.671412	8162.210330
603.021783	8100.670445
603.372100	8071.772030
603.722363	8074.801764
604.072572	8047.458545
604.422728	8057.641676
604.772830	7995.348138
605.122878	8005.954726
605.472872	7997.208324
605.822813	8020.735389
606.172701	7969.066082
606.522534	8046.793113
606.872314	8046.152886
607.222041	8015.911004
607.571714	8067.628202
607.921333	8028.029938
608.270899	8037.761886
608.620411	8121.480328
608.969870	8027.830813
609.319276	8021.862087
609.668627	8037.661063
610.017926	8072.976866
610.367171	8113.263247
610.716362	8096.330011
611.065500	8087.502951
611.414585	8112.683514
611.763616	8101.953418
612.112594	8088.052437
612.461518	8098.744724
612.810389	8161.668406
613.159207	8098.149868
613.507971	8055.935245
613.856682	8165.219899
614.205340	8124.086604
614.553945	8204.331691
614.902496	8097.592820
615.250994	8155.377046
615.599439	8132.248232
615.947830	8145.866909
616.296169	8120.373794
616.644454	8135.683779
616.992686	8133.286710
617.340864	8189.767798
617.688990	8095.687264
618.037063	8184.454422
618.385082	8137.117987
618.733048	8224.297181
619.080961	8161.229826
619.428821	8178.473092
619.776628	8185.729833
620.124382	8134.930126
620.472083	8115.730892
620.819731	8145.909759
621.167326	8037.227523
621.514868	8046.112557
621.862357	7929.956811
622.209793	7948.578833
622.557176	7884.667085
622.904506	7857.283537
623.251783	7786.989688
623.599007	7750.874862
623.946179	7748.659274
624.293297	7712.226856
624.640363	7624.167980
624.987376	7611.560054
625.334336	7559.200110
625.681243	7504.422932
626.028097	7493.382805
626.374899	7472.648540
626.721647	7465.172508
627.068343	7400.426449
627.414987	7368.536110
627.761577	7325.567835
628.108115	7361.622167
628.454600	7256.241887
628.801032	7310.313303
629.147412	7272.055987
629.493739	7254.825323
629.840014	7194.175201
630.186236	7247.825681
630.532405	7133.338557
630.878521	7184.138264
631.224585	7137.396685
631.570597	7062.280972
631.916556	7096.197856
632.262462	7095.441682
632.608316	7057.242339
632.954117	7037.821294
633.299866	7020.394025
633.645562	7018.412852
633.991206	6939.541479
634.336797	6881.472428
634.682336	6840.510533
635.027823	6802.283463
635.373257	6792.899355
635.718639	6727.795374
636.063968	6737.454224
636.409245	6636.169882
636.754470	6628.850127
637.099642	6595.013902
637.444762	6534.938472
637.789829	6548.421037
638.134845	6487.707901
638.479808	6471.177958
638.824719	6476.246838
639.169577	6406.230252
639.514383	6429.706906
639.859137	6358.193097
640.203839	6363.955136
640.548489	6348.072981
640.893086	6328.135217
641.237632	6299.962729
641.582125	6321.231357
641.926566	6286.447396
642.270955	6301.916176
642.615292	6297.779909
642.959576	6317.926881
643.303809	6305.913811
643.647990	6309.619059
643.992118	6301.512884
644.336195	6249.974647
644.680219	6272.191012
645.024192	6262.832110
645.368112	6356.252253
645.711981	6376.913422
646.055797	6455.469722
646.399562	6415.185862
646.743274	6542.043978
647.086935	6593.080619
647.430544	6587.260607
647.774101	6608.191478
648.117606	6610.124761
648.461059	6609.731551
648.804460	6562.407719
649.147810	6477.522250
649.491108	6447.547549
649.834354	6421.202479
650.177548	6335.404561
650.520690	6248.880717
650.863781	6230.306586
651.206820	6248.623618
651.549807	6175.070663
651.892742	6111.065653
652.235626	6119.398681
652.578458	6111.935252
652.921238	6015.371950
653.263967	6058.919958
653.606644	5992.071737
653.949269	5999.721688
654.291843	5936.455208
654.634365	5986.276931
654.976836	5942.355878
655.319255	5939.721875
655.661622	5924.288383
656.003938	5917.329070
656.346203	5877.128388
656.688416	5911.085601
657.030577	5860.724474
657.372687	5831.725236
657.714746	5819.888607
658.056753	5862.166244
658.398708	5803.157018
658.740612	5790.312157
659.082465	5843.733265
659.424266	5836.791596
659.766016	5834.147511
660.107715	5809.763450
660.449362	5820.548998
660.790958	5819.452547
661.132503	5805.181041
661.473996	5843.309808
661.815438	5823.062013
662.156829	5826.003527
662.498168	5815.785108
662.839456	5790.788547
663.180693	5827.591490
663.521879	5828.876984
663.863013	5816.334594
664.204097	5840.121278
664.545129	5879.071753
664.886110	5874.892637
665.227040	5911.345220
665.567918	5872.077152
665.908746	5899.193519
666.249522	5900.116050
666.590248	5889.587600
666.930922	5920.789822
667.271545	5929.367345
667.612118	5934.181647
667.952639	5906.936731
668.293109	5928.674187
668.633528	5883.495366
668.973896	5892.156068
669.314213	5881.867073
669.654480	5864.311255
669.994695	5856.918403
670.334859	5848.227453
670.674973	5839.123130
671.015035	5839.385270
671.355047	5843.561866
671.695008	5828.196429
672.034918	5807.353778
672.374777	5808.467873
672.714585	5797.521008
673.054342	5799.345905
673.394049	5791.229648
673.733705	5827.374721
674.073310	5816.591693
674.412864	5774.394714
674.752368	5762.001038
675.091820	5767.972284
675.431223	5705.260330
675.770574	5707.445671
676.109875	5657.432383
676.449125	5660.383979
676.788324	5626.804853
677.127473	5571.480710
677.466571	5565.922838
677.805619	5551.192587
678.144616	5540.669178
678.483562	5514.003995
678.822458	5489.849306
679.161303	5484.798070
679.500098	5473.649558
679.838842	5460.524914
680.177535	5461.969205
680.516179	5474.655268
680.854771	5486.592721
681.193314	5570.086831
681.531805	5677.594478
681.870247	5826.941181
682.208638	5926.577067
682.546978	5937.907060
682.885268	5912.245066
683.223508	5832.005020
683.561697	5772.532008
683.899836	5745.463532
684.237925	5705.736719
684.575963	5665.994783
684.913951	5628.176047
685.251889	5690.706519
685.589776	5656.678731
685.927614	5634.159897
686.265401	5696.823959
686.603137	5680.321742
686.940824	5762.910966
687.278460	5783.166322
687.616046	5793.578825
687.953582	5857.359504
688.291068	5844.244942
688.628504	5905.187451
688.965889	5867.482141
689.303224	5808.845960
689.640510	5768.899857
689.977745	5689.136200
690.314930	5589.679276
690.652065	5534.098034
690.989150	5441.118992
691.326185	5370.023600
691.663170	5309.910361
692.000105	5237.887396
692.336990	5162.514584
692.673825	5134.427795
693.010610	5066.415068
693.347345	5002.029451
693.684030	4988.481350
694.020665	4950.589517
694.357251	4858.406978
694.693786	4867.024831
695.030272	4833.995191
695.366707	4791.720074
695.703093	4764.581023
696.039429	4788.982728
696.375716	4770.761477
696.711952	4744.587807
697.048139	4735.917022
697.384276	4712.359710
697.720363	4726.558120
698.056400	4732.267227
698.392388	4686.501111
698.728326	4660.786186
699.064214	4637.188544
699.400053	4634.793996
699.735842	4600.506588
700.071581	4575.820058
700.407270	4550.934402
700.742910	4537.799676
701.078501	4479.241633
701.414042	4481.111901
701.749533	4454.081234
702.084974	4386.086151
702.420366	4439.963482
702.755709	4382.494329
703.091002	4328.261596
703.426246	4377.213720
703.761440	4332.844004
704.096584	4301.273778
704.431679	4313.249039
704.766725	4299.726144
705.101721	4290.039567
705.436668	4320.888908
705.771565	4266.255403
706.106413	4297.255979
706.441212	4333.690918
706.775961	4336.355168
707.110661	4315.739369
707.445311	4343.879090
707.779913	4363.854662
708.114465	4377.985017
708.448967	4402.928646
708.783421	4463.540959
709.117825	4501.402545
709.452180	4507.204913
709.786485	4550.576480
710.120742	4636.951610
710.454949	4620.865288
710.789107	4688.462120
711.123216	4761.989870
711.457275	4751.184156
711.791286	4827.557637
712.125247	4839.686653
712.459159	4740.592692
712.793023	4821.785516
713.126837	4777.383033
713.460602	4769.901961
713.794318	4690.513870
714.127985	4701.720355
714.461602	4611.377837
714.795171	4586.189712
715.128691	4522.025905
715.462162	4463.878716
715.795584	4416.093619
716.128957	4399.372112
716.462281	4344.894883
716.795556	4323.086851
717.128782	4282.591262
717.461960	4213.020819
717.795088	4221.968867
718.128167	4186.834545
718.461198	4126.585195
718.794180	4126.179382
719.127113	4102.521247
719.459997	4080.695571
719.792833	4032.076163
720.125619	4026.339330
720.458357	3995.784897
720.791046	3998.698683
721.123686	3970.805979
721.456278	3931.278292
721.788821	3948.584573
722.121315	3917.271446
722.453761	3896.380904
722.786158	3909.687030
723.118506	3932.183179
723.450805	3881.832134
723.783056	3906.841299
724.115259	3922.998197
724.447412	3930.963220
724.779518	3916.984100
725.111574	3919.091302
725.443582	3952.168833
725.775542	3939.318932
726.107453	3992.656861
726.439315	3989.337261
726.771129	4001.244466
727.102895	4037.823078
727.434612	4088.995831
727.766281	4097.391873
728.097901	4097.681739
728.429473	4103.907564
728.760996	4110.380406
729.092471	4102.818675
729.423897	4088.151438
729.755276	4097.885906
730.086606	4094.415072
730.417887	4131.936380
730.749120	4195.701935
731.080305	4261.375566
731.411442	4284.002785
731.742530	4256.931789
732.073570	4261.483951
732.404562	4314.194256
732.735506	4299.784118
733.066401	4268.836474
733.397249	4202.245352
733.728048	4128.110144
734.058798	4044.300961
734.389501	3974.407884
734.720156	3916.285900
735.050762	3872.243860
735.381320	3862.345554
735.711831	3812.483502
736.042293	3784.457207
736.372707	3806.620640
736.703073	3780.262967
737.033391	3769.268210
737.363661	3784.913431
737.693883	3810.797236
738.024056	3816.191270
738.354182	3817.471723
738.684260	3879.621588
739.014290	3899.634969
739.344272	3895.488620
739.674207	3934.802058
740.004093	3938.887914
740.333931	3934.043365
740.663722	3939.601237
740.993464	3937.476391
741.323159	3907.617636
741.652806	3879.553533
741.982405	3855.454297
742.311956	3824.075635
742.641460	3812.788491
742.970915	3789.712610
743.300323	3747.145107
743.629683	3716.328533
743.958996	3705.578273
744.288260	3680.450641
744.617477	3644.507214
744.946647	3634.152684
745.275768	3608.997327
745.604842	3602.703446
745.933869	3558.048905
746.262847	3547.200342
746.591778	3590.481168
746.920662	3558.958833
747.249498	3527.655789
747.578286	3578.947008
747.907027	3593.692383
748.235720	3590.249275
748.564365	3616.241465
748.892963	3615.548306
749.221514	3598.151284
749.550017	3575.498859
749.878473	3571.148343
750.206881	3541.879404
750.535242	3537.390257
750.863555	3539.396636
751.191821	3533.695091
751.520039	3515.267153
751.848210	3494.270747
752.176334	3529.011859
752.504411	3534.146274
752.832440	3491.021724
753.160421	3477.067810
753.488356	3485.461331
753.816243	3500.599916
754.144082	3455.461424
754.471875	3441.217644
754.799620	3463.333186
755.127318	3454.032257
755.454969	3455.128708
755.782572	3459.330510
756.110129	3433.764298
756.437638	3424.906991
756.765100	3440.779064
757.092515	3448.605455
757.419882	3457.588791
757.747203	3426.933535
758.074477	3433.043413
758.401703	3445.933644
758.728882	3467.676140
759.056014	3474.925319
759.383099	3476.934219
759.710138	3474.045638
760.037129	3490.568020
760.364073	3521.034233
760.690970	3505.646111
761.017820	3484.198522
761.344623	3499.513547
761.671379	3548.833676
761.998088	3597.425358
762.324751	3721.629306
762.651366	3972.179694
762.977935	4435.948203
763.304456	4873.129668
763.630931	4963.399089
763.957359	4604.781487
764.283740	4261.534363
764.610074	4078.464861
764.936362	3881.922875
765.262602	3727.434195
765.588796	3619.029223
765.914943	3529.609236
766.241044	3444.630505
766.567097	3413.972728
766.893104	3371.117879
767.219064	3337.238805
767.544978	3311.297027
767.870845	3254.788213
768.196665	3234.926067
768.522438	3246.886205
768.848165	3240.564598
769.173846	3208.333981
769.499479	3192.696321
769.825066	3174.439783
770.150607	3158.240035
770.476101	3173.567663
770.801548	3169.658248
771.126949	3121.326186
771.452303	3106.467385
771.777611	3115.044908
772.102872	3115.183540
772.428087	3092.737802
772.753256	3082.111050
773.078378	3078.665421
773.403453	3043.536141
773.728482	3029.267155
774.053465	3053.711710
774.378401	3037.607744
774.703291	3010.262005
775.028135	3007.703619
775.352932	3003.380830
775.677683	2993.381701
776.002388	2994.004284
776.327046	2989.938593
776.651658	2977.040801
776.976224	2968.155767
777.300743	2969.819348
777.625216	2960.092442
777.949643	2954.854683
778.274024	2954.612708
778.598359	2946.047787
778.922647	2951.461986
779.246889	2948.890998
779.571086	2937.321550
779.895236	2929.449788
780.219339	2938.775923
780.543397	2955.416772
780.867409	2958.438943
781.191374	2948.303703
781.515294	2944.301027
781.839167	2944.800102
782.162995	2936.464554
782.486776	2947.282870
782.810511	2944.338836
783.134201	2930.006836
783.457844	2938.874225
783.781441	2930.737803
784.104993	2909.801891
784.428498	2911.553692
784.751958	2924.706062
785.075372	2916.128539
785.398739	2902.199831
785.722061	2918.379414
786.045337	2925.603388
786.368568	2913.207190
786.691752	2905.494225
787.014891	2953.518777
787.337983	2979.778148
787.661030	3011.376100
787.984031	3081.221286
788.306987	3122.253758
788.629897	3112.710854
788.952760	3099.021601
789.275579	3081.221286
789.598351	3022.638037
789.921078	2980.166316
790.243759	2973.398567
790.566395	2955.023562
790.888984	2930.856270
791.211529	2914.190215
791.534027	2903.374420
791.856480	2894.633059
792.178888	2881.412633
792.501249	2874.297044
792.823566	2870.690099
793.145836	2868.096425
793.468062	2861.921012
793.790241	2860.350692
794.112375	2869.089532
794.434464	2879.045811
794.756507	2884.838097
795.078505	2889.125598
795.400457	2903.026580
795.722364	2939.378341
796.044226	2964.117803
796.366042	2967.397074
796.687812	2955.096658
797.009538	2975.480564
797.331218	2961.105714
797.652852	2949.148097
797.974442	2931.680499
798.295986	2926.803182
798.617484	2921.204981
798.938938	2907.130079
799.260346	2892.402348
799.581709	2887.512429
799.903026	2878.768548
800.224299	2872.426776
800.545526	2865.170035
800.866708	2849.199660
801.187845	2841.138855
801.508936	2841.466530
801.829983	2847.261336
802.150984	2833.337669
802.471940	2821.357367
802.792851	2821.372491
803.113717	2823.227635
803.434538	2830.209633
803.755314	2819.330823
804.076045	2814.733291
804.396731	2815.126501
804.717372	2812.439566
805.037967	2807.779019
805.358518	2818.919969
805.679024	2827.094200
805.999485	2823.933397
806.319901	2830.486897
806.640272	2816.500216
806.960598	2823.958603
807.280879	2834.013184
807.601115	2841.315295
807.921306	2828.820796
808.241453	2821.828715
808.561554	2828.606547
808.881611	2834.471929
809.201623	2830.141578
809.521590	2823.439364
809.841513	2824.364416
810.161390	2828.427586
810.481223	2818.599856
810.801011	2809.525779
811.120755	2805.397074
811.440453	2807.947898
811.760107	2808.971252
812.079716	2806.659883
812.399281	2796.713687
812.718801	2791.191103
813.038276	2785.240021
813.357707	2791.813685
813.677093	2800.726445
813.996434	2793.817544
814.315731	2787.221194
814.634983	2783.142901
814.954191	2787.306894
815.273354	2800.124027
815.592473	2811.385965
815.911547	2808.043680
816.230577	2817.445432
816.549562	2826.953048
816.868502	2825.627225
817.187399	2834.061075
817.506250	2849.497088
817.825058	2845.461644
818.143821	2856.174096
818.462539	2870.533823
818.781213	2896.178173
819.099843	2933.727207
819.418429	2989.845332
819.736970	3049.025957
820.055466	3119.546658
820.373919	3224.805951
820.692327	3362.159749
821.010691	3526.864327
821.329011	3961.444557
821.647286	4846.197303
821.965517	6202.592842
822.283704	6919.994405
822.601847	6887.952831
822.919945	6266.761690
823.237999	5772.635352
823.556010	5206.891861
823.873976	4664.297349
824.191897	4262.547635
824.509775	3978.851661
824.827609	3715.549675
825.145398	3592.681632
825.463144	3583.413471
825.780845	3673.748427
826.098502	3777.417235
826.416116	4056.220769
826.733685	4363.889950
827.051210	4422.137962
827.368692	4309.599244
827.686129	4051.325809
828.003522	3733.017273
828.320872	3478.759117
828.638177	3289.809109
828.955439	3154.411278
829.272656	3072.268197
829.589830	3009.576408
829.906960	2960.558748
830.224046	2914.671646
830.541088	2884.737274
830.858086	2869.896117
831.175041	2851.165710
831.491952	2854.124867
831.808819	2865.908564
832.125642	2887.560320
832.442421	2931.410797
832.759157	3011.595390
833.075849	3185.860517
833.392497	3462.382929
833.709101	3658.756036
834.025662	3609.887090
834.342179	3452.519911
834.658653	3280.387193
834.975083	3133.475367
835.291469	3039.379709
835.607811	2954.680763
835.924110	2901.680592
836.240366	2850.628827
836.556578	2808.119297
836.872746	2788.307563
837.188871	2765.824017
837.504952	2749.899012
837.820990	2742.833834
838.136984	2728.703480
838.452935	2721.756770
838.768842	2718.064125
839.084706	2739.582290
839.400526	2814.138435
839.716303	2943.381017
840.032037	3020.704755
840.347727	3008.074144
840.663373	2947.408899
840.978977	2874.914586
841.294537	2803.932619
841.610054	2757.657347
841.925527	2736.320664
842.240957	2715.198229
842.556344	2693.657379
842.871687	2676.048628
843.186987	2669.462361
843.502244	2665.540343
843.817458	2662.059426
844.132629	2648.750780
844.447756	2642.204842
844.762840	2635.346352
845.077881	2636.031949
845.392879	2634.786784
845.707833	2632.432565
846.022745	2625.276647
846.337613	2626.065588
846.652438	2620.389249
846.967221	2623.565176
847.281960	2625.742954
847.596656	2622.786317
847.911309	2622.942593
848.225919	2618.718106
848.540485	2614.254164
848.855009	2617.193157
849.169490	2614.861623
849.483928	2614.964967
849.798323	2613.878598
850.112675	2614.153341
850.426984	2613.271139
850.741251	2610.531272
851.055474	2610.952209
851.369654	2615.643002
851.683792	2617.195678
851.997887	2610.319544
852.311938	2613.785337
852.625947	2614.115533
852.939914	2615.196860
853.253837	2615.511932
853.567718	2610.344750
853.881555	2614.309617
854.195350	2614.786006
854.509103	2615.459000
854.822812	2610.246447
855.136479	2610.473299
855.450103	2613.044287
855.763685	2614.939761
856.077224	2615.068311
856.390720	2609.059255
856.704173	2610.861468
857.017584	2615.106119
857.330953	2618.808847
857.644278	2622.640124
857.957561	2618.566872
858.270802	2615.459000
858.584000	2616.142077
858.897155	2620.752212
859.210268	2620.298508
859.523339	2615.990842
859.836367	2612.323402
860.149352	2611.022785
860.462295	2612.814915
860.775195	2612.134359
861.088054	2609.240737
861.400869	2609.374327
861.713642	2606.725201
862.026373	2606.611775
862.339062	2610.274173
862.651708	2617.422530
862.964312	2616.003445
863.276873	2612.298197
863.589392	2615.945472
863.901869	2619.043261
864.214303	2627.141874
864.526696	2630.093470
864.839045	2629.332256
865.151353	2632.840899
865.463619	2631.200003
865.775842	2631.590692
866.088023	2633.312247
866.400162	2632.883748
866.712258	2632.626650
867.024313	2629.934673
867.336325	2626.420989
867.648296	2631.313429
867.960224	2635.104377
868.272110	2632.508182
868.583954	2625.962244
868.895755	2627.406535
869.207515	2633.526496
869.519233	2637.763585
869.830909	2635.817700
870.142542	2630.854684
870.454134	2632.586320
870.765684	2635.137144
871.077191	2638.033287
871.388657	2642.610655
871.700081	2638.378606
872.011463	2640.291724
872.322803	2642.071251
872.634101	2645.652991
872.945357	2653.696152
873.256571	2658.331493
873.567744	2655.868889
873.878874	2655.543735
874.189963	2654.681698
874.501010	2661.595640
874.812015	2664.524551
875.122979	2661.197389
875.433900	2655.001811
875.744780	2655.563900
876.055618	2660.388284
876.366415	2666.024294
876.677169	2667.614778
876.987882	2662.475322
877.298554	2658.311328
877.609183	2667.632422
877.919771	2673.828000
878.230317	2681.235976
878.540822	2690.967923
878.851285	2704.332022
879.161707	2727.617112
879.472087	2764.225971
879.782425	2810.307158
880.092722	2918.321441
880.402977	3103.135182
880.713191	3356.175899
881.023363	3636.774084
881.333494	3818.840397
881.643583	3989.007065
881.953631	3987.963546
882.263637	3813.673214
882.573602	3597.027107
882.883526	3471.542705
883.193408	3359.003987
883.503248	3263.418669
883.813048	3154.053357
884.122806	3040.032539
884.432522	2963.278451
884.742197	2898.068605
885.051831	2865.308667
885.361424	2828.636793
885.670975	2797.290899
885.980485	2764.480549
886.289954	2749.092427
886.599382	2736.071127
886.908768	2726.278685
887.218113	2704.405119
887.527417	2692.467666
887.836680	2686.040195
888.145901	2683.650688
888.455082	2670.626867
888.764221	2663.849036
889.073319	2655.079949
889.382376	2652.529125
889.691392	2654.822850
890.000366	2654.986687
890.309300	2655.155566
890.618193	2655.763025
890.927044	2658.117244
891.235855	2660.237049
891.544625	2656.108344
891.853353	2657.608087
892.162041	2662.850887
892.470687	2683.779238
892.779293	2696.190558
893.087858	2702.955787
893.396381	2726.326576
893.704864	2764.830909
894.013306	2832.581496
894.321707	2922.969385
894.630068	2971.850933
894.938387	2990.336844
895.246665	2984.471462
895.554903	2940.888166
895.863100	2901.252094
896.171256	2841.708505
896.479371	2783.762962
896.787446	2747.461614
897.095480	2729.260528
897.403473	2724.640310
897.711425	2710.109184
898.019336	2690.715865
898.327207	2679.486695
898.635038	2677.054338
898.942827	2673.296158
899.250576	2665.989006
899.558284	2656.357881
899.865952	2649.905204
900.173579	2651.581388
900.481165	2646.424288
900.788711	2637.055303
901.096216	2630.567338
901.403681	2627.227574
901.711105	2632.331742
902.018489	2629.329735
902.325832	2630.907616
902.633135	2633.521454
902.940397	2646.497384
903.247619	2681.881243
903.554800	2748.542941
903.861941	2871.915099
904.169041	2990.397338
904.476101	3049.315824
904.783121	3045.512273
905.090100	2987.932214
905.397039	2916.267171
905.703938	2846.968949
906.010796	2788.657923
906.317614	2737.323853
906.624391	2702.920499
906.931129	2678.566685
907.237826	2657.411482
907.544483	2638.247536
907.851099	2626.368057
908.157675	2617.115019
908.464211	2609.422218
908.770707	2598.223295
909.077163	2596.239601
909.383578	2589.953282
909.689954	2591.584096
909.996289	2591.942018
910.302584	2588.987901
910.608839	2585.711151
910.915054	2587.112592
911.221229	2589.098807
911.527363	2590.054105
911.833458	2588.219125
912.139513	2593.272882
912.445527	2591.069898
912.751502	2597.648604
913.057436	2601.469798
913.363331	2610.372476
913.669186	2615.675770
913.975000	2633.050107
914.280775	2645.163999
914.586510	2665.467246
914.892205	2696.752647
915.197859	2760.394694
915.503475	2841.930316
915.809050	2908.281983
916.114585	2920.017789
916.420081	2929.495158
916.725536	2939.368258
917.030952	2915.291708
917.336328	2873.094729
917.641665	2826.091011
917.946961	2776.294493
918.252218	2742.833834
918.557435	2720.657799
918.862612	2697.370188
919.167750	2683.660771
919.472848	2667.307267
919.777906	2650.442087
920.082925	2639.689306
920.387904	2631.290744
920.692843	2625.833695
920.997743	2622.783797
921.302603	2617.704834
921.607423	2607.670417
921.912204	2604.295365
922.216946	2602.795622
922.521647	2599.876794
922.826310	2595.075095
923.130932	2591.808427
923.435516	2584.672674
923.740059	2584.733167
924.044564	2583.913980
924.349028	2582.691500
924.653454	2574.459296
924.957840	2572.205900
925.262186	2569.161043
925.566493	2572.798236
925.870761	2566.516958
926.174989	2568.765313
926.479178	2563.154508
926.783328	2566.337997
927.087438	2561.836247
927.391509	2562.814231
927.695541	2561.407749
927.999533	2562.347924
928.303486	2560.885989
928.607400	2558.211657
928.911275	2555.958261
929.215110	2557.473128
929.518906	2556.348951
929.822663	2555.796944
930.126381	2557.906667
930.430060	2558.539332
930.733699	2556.364074
931.037299	2558.390618
931.340861	2558.657799
931.644383	2557.329455
931.947866	2558.884651
932.251309	2558.902295
932.554714	2557.142933
932.858080	2556.573282
933.161407	2556.989177
933.464694	2555.948179
933.767943	2558.927501
934.071153	2556.689229
934.374323	2554.004814
934.677455	2556.825340
934.980548	2556.482541
935.283602	2554.564382
935.586617	2554.415668
935.889593	2556.575803
936.192530	2555.459187
936.495428	2558.511606
936.798287	2552.124464
937.101108	2559.199723
937.403890	2557.954558
937.706632	2564.560990
938.009336	2566.625343
938.312002	2568.727504
938.614628	2571.013667
938.917216	2575.003741
939.219765	2575.258319
939.522275	2576.223700
939.824747	2577.932651
940.127179	2569.481157
940.429573	2568.306568
940.731929	2567.315981
941.034246	2565.733059
941.336524	2567.681465
941.638763	2568.634243
941.940964	2566.895045
942.243126	2563.255332
942.545250	2565.506207
942.847335	2564.941597
943.149381	2560.006308
943.451389	2561.117882
943.753359	2560.245763
944.055290	2558.221739
944.357182	2561.798438
944.659036	2559.595454
944.960851	2560.175187
945.262628	2556.737120
945.564367	2559.424055
945.866067	2557.959599
946.167729	2560.480176
946.469352	2559.015721
946.770937	2558.461194
947.072484	2556.386759
947.373992	2559.711400
947.675462	2556.558159
947.976893	2557.019424
948.278286	2556.830381
948.579641	2553.629248
948.880958	2553.041954
949.182236	2556.432130
949.483476	2555.292829
949.784678	2557.173179
950.085841	2556.285936
950.386967	2556.593447
950.688054	2555.340720
950.989103	2554.871893
951.290114	2556.364074
951.591087	2560.354148
951.892021	2558.844322
952.192917	2559.681153
952.493776	2560.298695
952.794596	2562.521844
953.095378	2563.603171
953.396122	2562.037893
953.696828	2560.825495
953.997496	2559.953376
954.298126	2558.746019
954.598718	2557.581513
954.899272	2556.860628
955.199788	2555.688560
955.500266	2554.604712
955.800706	2549.331665
956.101108	2547.148845
956.401472	2546.853937
956.701798	2543.922507
957.002087	2546.286808
957.302337	2545.845707
957.602550	2547.332847
957.902724	2546.455686
958.202861	2547.368135
958.502960	2546.886705
958.803022	2548.010882
959.103045	2543.272198
959.403031	2545.991900
959.702979	2541.971580
960.002889	2544.900490
960.302762	2544.348484
960.602596	2546.201108
960.902393	2541.452341
961.202153	2541.187681
961.501875	2541.656508
961.801559	2540.809594
962.101205	2542.014430
962.400814	2541.540561
962.700385	2541.200283
962.999918	2543.335212
963.299414	2539.456044
963.598873	2543.443597
963.898293	2543.065510
964.197677	2540.925541
964.497022	2543.718340
964.796331	2542.969728
965.095601	2539.156096
965.394835	2540.512166
965.694030	2540.522248
965.993189	2542.125335
966.292309	2541.790098
966.591393	2540.781868
966.890439	2539.254398
967.189447	2539.138452
967.488419	2542.652136
967.787353	2540.040818
968.086249	2540.139121
968.385108	2542.332023
968.683930	2540.640715
968.982714	2540.681045
969.281462	2540.744059
969.580172	2539.677855
969.878844	2539.443441
970.177480	2539.813966
970.476078	2541.832948
970.774639	2542.286652
971.073162	2543.012578
971.371649	2540.217258
971.670098	2536.869932
971.968510	2541.109543
972.266885	2537.295910
972.565223	2542.188350
972.863524	2543.395706
973.161788	2540.900335
973.460014	2540.643236
973.758204	2539.093081
974.056356	2542.808412
974.354471	2540.403781
974.652550	2543.516694
974.950591	2544.414019
975.248595	2542.873947
975.546563	2539.075437
975.844493	2538.659542
976.142386	2540.917979
976.440243	2542.014430
976.738062	2542.639533
977.035845	2541.706919
977.333590	2543.025181
977.631299	2538.505787
977.928971	2539.811446
978.226606	2542.916796
978.524204	2538.898997
978.821765	2539.892104
979.119290	2538.629295
979.416777	2541.243133
979.714228	2542.057280
980.011642	2537.673996
980.309020	2540.083668
980.606360	2538.576363
980.903664	2540.008051
981.200931	2539.781199
981.498162	2541.303627
981.795356	2544.507280
982.092513	2547.078269
982.389633	2548.451983
982.686717	2553.193188
982.983764	2551.983312
983.280775	2555.544887
983.577749	2553.266285
983.874686	2555.363405
984.171587	2552.492468
984.468451	2548.232693
984.765279	2546.480892
985.062070	2546.705223
985.358824	2543.347815
985.655543	2541.505273
985.952224	2541.336395
986.248869	2542.145500
986.545478	2535.092926
986.842050	2538.341949
987.138586	2535.934798
987.435086	2537.404295
987.731549	2533.174767
988.027975	2541.527958
988.324366	2537.300951
988.620719	2539.755993
988.917037	2536.874973
989.213318	2539.118287
989.509563	2539.294727
989.805772	2537.132072
990.101944	2536.932947
990.398080	2537.225334
990.694180	2535.944881
990.990244	2536.756506
991.286271	2538.019315
991.582262	2534.369520
991.878217	2538.825900
992.174136	2538.130221
992.470019	2538.936805
992.765865	2536.086033
993.061676	2535.846578
993.357450	2538.861188
993.653188	2536.149047
993.948890	2534.896321
994.244556	2539.728267
994.540186	2539.382948
994.835780	2537.230375
995.131337	2540.376055
995.426859	2536.885056
995.722345	2537.658873
996.017795	2540.900335
996.313208	2539.929913
996.608586	2541.076775
996.903928	2541.651467
997.199234	2542.967208
997.494504	2540.892773
997.789738	2542.795809
998.084936	2540.986034
998.380099	2537.119469
998.675225	2539.597197
998.970316	2539.819007
999.265371	2536.675848
999.560390	2538.588966
999.855373	2536.940508
1000.150320	2539.453524
1000.445232	2537.432021
1000.740108	2537.464788
1001.034948	2541.202804
1001.329752	2537.595858
1001.624521	2536.837165
1001.919254	2533.540250
1002.213951	2533.603265
1002.508613	2533.673841
1002.803239	2536.496887
1003.097829	2532.968079
1003.392384	2535.856660
1003.686903	2536.136444
1003.981386	2535.395395
1004.275834	2536.698533
1004.570246	2537.192566
1004.864623	2536.817000
1005.158964	2537.079140
1005.453270	2537.043852
1005.747540	2535.176105
1006.041775	2533.961187
1006.335974	2537.469830
1006.630138	2533.673841
1006.924266	2534.750127
1007.218359	2535.347504
1007.512416	2538.825900
1007.806438	2535.592000
1008.100425	2534.291382
1008.394376	2535.705426
1008.688292	2536.895138
1008.982172	2534.654345
1009.276017	2535.576876
1009.569827	2537.832793
1009.863602	2538.210879
1010.157341	2538.803215
1010.451045	2537.537885
1010.744714	2535.937319
1011.038347	2535.597041
1011.331945	2533.089067
1011.625508	2535.420601
1011.919036	2533.953625
1012.212528	2534.765251
1012.505986	2535.092926
1012.799408	2536.010416
1013.092795	2531.606968
1013.386147	2535.430683
1013.679464	2533.512524
1013.972745	2535.211393
1014.265992	2534.828265
1014.559204	2536.791794
1014.852380	2535.891948
1015.145521	2536.454037
1015.438628	2534.661907
1015.731699	2534.724921
1016.024736	2535.347504
1016.317737	2536.756506
1016.610703	2536.325488
1016.903635	2531.609488
1017.196531	2532.489170
1017.489393	2535.060158
1017.782219	2531.120496
1018.075011	2531.669982
1018.367768	2535.634850
1018.660490	2532.678213
1018.953177	2532.678213
1019.245829	2532.678213
