Dividing Wavelength (nm)	Counts (n)	Blue Motor Position (mm): 6.800000	Red Motor Position (mm): 0.000000	
326.493990	2141.595580
326.888308	2141.595580
327.282561	2141.595580
327.676750	2108.878491
328.070874	2107.134252
328.464933	2109.972422
328.858929	2116.709924
329.252859	2126.691408
329.646726	2138.313789
330.040528	2149.994142
330.434265	2167.585248
330.827938	2186.217353
331.221547	2201.759230
331.615091	2223.063147
332.008571	2243.598287
332.401986	2261.638056
332.795338	2279.390479
333.188625	2300.621298
333.581847	2320.523774
333.975006	2339.087823
334.368100	2354.526357
334.761129	2375.452186
335.154095	2390.943652
335.546996	2407.067782
335.939833	2421.850966
336.332606	2436.707247
336.725315	2447.518001
337.117960	2461.050978
337.510540	2466.311422
337.903056	2479.115953
338.295508	2484.779690
338.687896	2495.565238
339.080220	2502.953049
339.472480	2509.125942
339.864676	2512.059894
340.256807	2518.192457
340.648875	2517.272447
341.040879	2525.018180
341.432818	2523.140350
341.824694	2525.555062
342.216506	2527.357275
342.608253	2526.817872
342.999937	2526.878365
343.391557	2527.634538
343.783113	2522.202695
344.174605	2524.829136
344.566033	2523.586492
344.957397	2521.292767
345.348697	2518.308404
345.739934	2518.802437
346.131106	2515.376973
346.522215	2515.409740
346.913260	2512.531242
347.304241	2509.123422
347.695159	2509.952691
348.086012	2506.786847
348.476802	2504.898935
348.867528	2504.359531
349.258191	2503.396671
349.648789	2500.601351
350.039324	2497.364930
350.429796	2500.009015
350.820203	2497.473315
351.210548	2495.005670
351.600828	2493.357213
351.991045	2493.843684
352.381198	2495.005670
352.771288	2494.052892
353.161314	2495.577841
353.551276	2493.609271
353.941175	2493.231184
354.331010	2493.510968
354.720782	2494.607419
355.110490	2494.151195
355.500135	2494.166318
355.889717	2491.739003
356.279235	2496.265959
356.668689	2495.474497
357.058080	2495.925681
357.447408	2494.793942
357.836672	2489.722541
358.225873	2495.403921
358.615010	2489.536018
359.004084	2496.858294
359.393095	2492.505258
359.782043	2499.630929
360.170927	2499.164622
360.559748	2495.477018
360.948505	2498.416011
361.337199	2500.649242
361.725830	2498.592451
362.114398	2500.724859
362.502903	2500.180415
362.891344	2499.565394
363.279722	2501.430621
363.668037	2499.351145
364.056289	2500.689571
364.444478	2504.641836
364.832603	2504.876249
365.220665	2503.061434
365.608665	2504.246105
365.996601	2503.230313
366.384474	2505.140910
366.772284	2505.057731
367.160031	2505.382885
367.547715	2504.316681
367.935336	2505.150992
368.322893	2507.548061
368.710388	2504.770385
369.097820	2509.614934
369.485189	2505.876918
369.872495	2508.652074
370.259738	2509.516632
370.646918	2509.309944
371.034035	2508.261384
371.421090	2507.001096
371.808081	2508.226096
372.195010	2509.922444
372.581875	2508.009327
372.968678	2510.847496
373.355418	2510.313134
373.742096	2511.525531
374.128710	2508.647033
374.515262	2509.055366
374.901751	2509.433452
375.288177	2509.496467
375.674540	2509.753566
376.060841	2511.177692
376.447079	2512.367404
376.833254	2510.517301
377.219367	2507.863133
377.605417	2510.618124
377.991404	2507.991683
378.377329	2508.397495
378.763191	2507.356497
379.148991	2513.967970
379.534727	2513.123577
379.920402	2514.426715
380.306013	2510.202228
380.691563	2513.037877
381.077049	2513.075686
381.462474	2517.143897
381.847835	2512.604338
382.233134	2515.931500
382.618371	2512.745491
383.003545	2515.034174
383.388657	2514.915707
383.773706	2515.054339
384.158693	2514.837569
384.543618	2514.749349
384.928480	2515.608866
385.313280	2517.857221
385.698017	2514.136849
386.082692	2516.493588
386.467305	2514.880419
386.851856	2516.856552
387.236344	2514.940913
387.620770	2515.548372
388.005133	2518.124402
388.389435	2517.015348
388.773674	2516.241531
389.157851	2516.791017
389.541965	2518.424350
389.926018	2518.424350
390.310008	2518.444515
390.693936	2516.143228
391.077802	2520.478621
391.461606	2516.428053
391.845348	2518.467200
392.229027	2520.632376
392.612645	2519.422499
392.996200	2519.256141
393.379694	2521.106244
393.763125	2521.670853
394.146494	2521.552386
394.529801	2521.169259
394.913047	2521.123888
395.296230	2523.150432
395.679351	2519.881244
396.062410	2521.330576
396.445408	2522.328724
396.828343	2522.485000
397.211217	2517.761439
397.594028	2517.862262
397.976778	2518.210101
398.359466	2518.797396
398.742092	2519.447705
399.124656	2520.660102
399.507158	2521.748991
399.889598	2524.650175
400.271977	2525.824764
400.654294	2526.724610
401.036549	2525.103879
401.418742	2524.516585
401.800874	2523.914167
402.182944	2525.895340
402.564952	2525.277799
402.946898	2524.284692
403.328783	2522.631193
403.710606	2522.532891
404.092367	2524.209074
404.474067	2523.783097
404.855705	2523.394928
405.237282	2525.882737
405.618797	2526.439785
406.000250	2525.784435
406.381642	2527.967255
406.762972	2525.282840
407.144240	2526.860721
407.525447	2527.271575
407.906593	2523.659589
408.287677	2524.972809
408.668700	2528.176462
409.049661	2529.015815
409.430560	2528.753675
409.811399	2528.594878
410.192176	2526.548170
410.572891	2527.760567
410.953545	2527.473222
411.334138	2528.428520
411.714669	2527.808458
412.095139	2531.065044
412.475547	2529.111597
412.855894	2529.935825
413.236180	2528.809127
413.616405	2530.578572
413.996568	2530.366844
414.376670	2528.950280
414.756711	2531.160826
415.136691	2529.255269
415.516609	2531.201155
415.896466	2526.485155
416.276262	2529.535053
416.655997	2526.946421
417.035670	2525.292923
417.415283	2528.045393
417.794834	2523.778056
418.174324	2530.966741
418.553753	2528.579755
418.933121	2532.378264
419.312428	2529.391381
419.691674	2531.985054
420.070859	2528.499096
420.449983	2529.497245
420.829045	2529.083870
421.208047	2533.482277
421.586988	2532.441279
421.965867	2531.798532
422.344686	2530.782739
422.723444	2532.121165
423.102141	2532.728624
423.480777	2532.234591
423.859352	2533.257946
424.237866	2533.479756
424.616319	2532.295085
424.994712	2533.527647
425.373044	2534.049407
425.751314	2530.213089
426.129524	2533.343645
426.507673	2532.542102
426.885762	2531.924560
427.263789	2535.503780
427.641756	2528.947759
428.019662	2534.699716
428.397508	2532.380785
428.775292	2535.589479
429.153016	2535.455889
429.530679	2532.950435
429.908282	2532.927750
430.285824	2534.830786
430.663305	2534.861033
431.040726	2534.644263
431.418086	2535.788605
431.795385	2537.263142
432.172624	2534.180477
432.549802	2534.636701
432.926920	2534.470343
433.303977	2538.379758
433.680974	2533.013450
434.057910	2536.859850
434.434786	2537.447144
434.811601	2537.616023
435.188355	2537.386651
435.565050	2535.617206
435.941683	2534.989582
436.318257	2535.244160
436.694770	2535.778522
437.071222	2532.970600
437.447614	2533.245343
437.823946	2534.016639
438.200218	2534.752648
438.576429	2536.446475
438.952580	2538.518390
439.328670	2537.971424
439.704700	2535.700385
440.080670	2538.213400
440.456580	2536.053265
440.832429	2538.954449
441.208218	2537.298430
441.583947	2537.358924
441.959616	2537.963863
442.335224	2536.890097
442.710773	2538.735159
443.086261	2537.248019
443.461689	2537.996630
443.837057	2537.641229
444.212365	2536.784233
444.587612	2538.064686
444.962800	2538.271373
445.337927	2538.626774
445.712995	2536.186856
446.088002	2538.596528
446.462949	2539.408153
446.837837	2538.730118
447.212664	2537.479912
447.587431	2536.912782
447.962139	2538.634336
448.336786	2541.167516
448.711374	2539.982845
449.085901	2539.700540
449.460369	2535.244160
449.834776	2539.985365
450.209124	2539.811446
450.583412	2542.178267
450.957640	2539.420756
451.331808	2540.983514
451.705917	2539.241795
452.079965	2540.802032
452.453954	2541.457382
452.827883	2539.720705
453.201752	2539.148534
453.575562	2540.996117
453.949311	2540.955787
454.323001	2538.979655
454.696632	2540.912938
455.070202	2542.226158
455.443713	2539.992927
455.817164	2541.321271
456.190556	2534.732483
456.563888	2540.360931
456.937160	2533.663758
457.310373	2541.132228
457.683526	2539.889583
458.056619	2541.348997
458.429653	2540.660880
458.802628	2540.723894
459.175542	2543.070552
459.548398	2540.728936
459.921194	2541.646426
460.293930	2541.991745
460.666607	2542.389996
461.039224	2540.837320
461.411782	2542.117773
461.784280	2542.473175
462.156719	2539.410674
462.529099	2541.817825
462.901419	2542.437887
463.273680	2542.621889
463.645882	2540.111394
464.018024	2542.571477
464.390106	2540.663401
464.762130	2543.367980
465.134094	2540.968390
465.505999	2546.198588
465.877845	2542.770603
466.249631	2542.437887
466.621358	2543.688093
466.993026	2543.002496
467.364634	2548.542724
467.736184	2546.415357
468.107674	2542.878988
468.479105	2541.719522
468.850477	2543.214224
469.221790	2542.332022
469.593043	2543.685572
469.964238	2543.264636
470.335373	2541.835469
470.706449	2542.498381
471.077467	2543.630120
471.448425	2545.374359
471.819324	2543.380582
472.190164	2548.971222
472.560945	2543.632640
472.931667	2544.376210
473.302330	2543.504091
473.672934	2545.767569
474.043479	2541.873277
474.413965	2542.337064
474.784393	2539.849254
475.154761	2539.738349
475.525070	2537.721887
475.895321	2541.659028
476.265513	2540.376055
476.635645	2545.240768
477.005719	2544.603062
477.375734	2542.750438
477.745691	2546.196067
478.115588	2544.557692
478.485427	2545.492826
478.855207	2547.332847
479.224928	2544.015768
479.594591	2546.896787
479.964194	2543.463762
480.333739	2546.586756
480.703226	2546.218752
481.072653	2551.607746
481.442022	2544.988711
481.811333	2546.314534
482.180584	2546.334699
482.549777	2548.673794
482.918912	2541.946374
483.287988	2545.956612
483.657005	2543.451159
484.025964	2547.098433
484.394864	2548.275543
484.763706	2545.195398
485.132489	2544.880326
485.501213	2545.651622
485.869879	2546.178423
486.238487	2541.291024
486.607036	2546.427960
486.975527	2545.936447
487.343959	2545.356715
487.712333	2549.324103
488.080648	2544.862682
488.448905	2547.088351
488.817104	2545.916283
489.185244	2545.608772
489.553326	2545.606252
489.921350	2545.369318
490.289315	2549.079607
490.657222	2545.611293
491.025070	2545.543238
491.392861	2549.714792
491.760593	2549.553475
492.128267	2548.192364
492.495883	2545.903680
492.863440	2546.952240
493.230939	2545.097095
493.598380	2548.048691
493.965763	2540.746580
494.333088	2545.087013
494.700354	2545.218083
495.067563	2545.787733
495.434713	2541.752290
495.801805	2547.584905
496.168839	2545.117260
496.535815	2548.154555
496.902733	2548.676315
497.269593	2547.053063
497.636395	2547.325285
498.003139	2544.363607
498.369825	2549.626572
498.736453	2546.705223
499.103023	2549.061963
499.469535	2546.155738
499.835989	2546.548948
500.202385	2547.398382
500.568723	2547.789072
500.935003	2547.058104
501.301226	2546.498536
501.667390	2544.494678
502.033497	2546.533824
502.399546	2548.111705
502.765537	2547.988197
503.131470	2547.602549
503.497345	2547.186654
503.863163	2549.258568
504.228923	2546.140614
504.594625	2547.320244
504.960269	2548.104144
505.325856	2547.431150
505.691385	2551.234700
506.056856	2550.206305
506.422270	2548.315872
506.787625	2548.358722
507.152924	2547.824360
507.518164	2548.608259
507.883347	2548.520039
508.248472	2546.649771
508.613540	2549.049360
508.978550	2548.641027
509.343503	2545.271015
509.708398	2550.634803
510.073236	2548.056253
510.438016	2549.190512
510.802738	2547.078269
511.167403	2549.472817
511.532010	2549.772766
511.896561	2549.795451
512.261053	2551.156562
512.625488	2544.686241
512.989866	2545.399565
513.354186	2545.843186
513.718449	2542.679862
514.082655	2547.496685
514.446803	2546.838814
514.810894	2549.253527
515.174927	2549.369473
515.538904	2547.456355
515.902822	2549.412323
516.266684	2548.076417
516.630488	2550.896943
516.994235	2546.488454
517.357925	2547.574823
517.721558	2549.722354
518.085133	2550.138249
518.448651	2548.018444
518.812112	2551.627910
519.175516	2548.903167
519.538863	2545.583567
519.902152	2548.575492
520.265385	2549.014072
520.628560	2544.910573
520.991678	2547.305121
521.354739	2548.691438
521.717743	2547.189174
522.080690	2548.867878
522.443580	2548.416695
522.806413	2550.682694
523.169189	2550.191181
523.531908	2550.579350
523.894569	2549.369473
524.257174	2549.379556
524.619722	2549.646737
524.982213	2548.661191
525.344647	2548.078938
525.707025	2550.012220
526.069345	2549.492982
526.431608	2548.217570
526.793815	2547.794113
527.155964	2551.413661
527.518057	2550.294525
527.880093	2548.265461
528.242072	2551.378373
528.603995	2550.917107
528.965860	2550.647406
529.327669	2551.781665
529.689421	2547.017775
530.051117	2551.171686
530.412755	2550.034906
530.774337	2550.390307
531.135862	2550.791079
531.497331	2548.691438
531.858743	2544.797147
532.220098	2547.012734
532.581396	2546.508618
532.942638	2547.514329
533.303824	2551.443908
533.664953	2552.615976
534.026025	2550.007179
534.387040	2550.488609
534.747999	2549.311500
535.108902	2552.069011
535.469748	2550.450801
535.830537	2550.050029
536.191270	2550.561706
536.551947	2547.872251
536.912567	2551.295194
537.273131	2549.104813
537.633638	2551.325441
537.994089	2551.166645
538.354483	2550.539021
538.714821	2553.112530
539.075103	2549.445091
539.435328	2548.618341
539.795497	2549.379556
540.155609	2548.320913
540.515665	2549.266130
540.875665	2550.370142
541.235609	2549.573640
541.595496	2550.241593
541.955328	2551.421223
542.315102	2550.125646
542.674821	2552.368960
543.034483	2548.454504
543.394090	2550.044988
543.753640	2550.629762
544.113134	2548.111705
544.472571	2550.816284
544.831953	2548.983825
545.191278	2550.743188
545.550548	2549.371994
545.909761	2548.462066
546.268918	2551.905174
546.628019	2550.796120
546.987064	2552.399207
547.346053	2551.701007
547.704986	2554.521533
548.063863	2551.312838
548.422684	2551.844680
548.781449	2553.402396
549.140158	2553.639331
549.498811	2551.673281
549.857408	2550.332334
550.215949	2548.557847
550.574434	2546.649771
550.932864	2551.587581
551.291237	2547.174051
551.649555	2551.726213
552.007817	2552.431974
552.366022	2550.702858
552.724173	2552.671429
553.082267	2553.656975
553.440305	2551.476676
553.798288	2551.401058
554.156215	2550.922149
554.514086	2551.748898
554.871902	2551.060780
555.229661	2552.258054
555.587365	2551.015410
555.945014	2550.090358
556.302606	2553.840977
556.660143	2551.953065
557.017625	2552.535318
557.375050	2553.873744
557.732421	2554.090514
558.089735	2552.356357
558.446994	2550.816284
558.804197	2555.239897
559.161345	2551.950544
559.518437	2552.941131
559.875474	2555.040771
560.232455	2551.564896
560.589381	2552.978939
560.946251	2555.224773
561.303065	2552.777293
561.659825	2555.033210
562.016528	2553.639331
562.373177	2551.262427
562.729770	2554.380380
563.086307	2551.469114
563.442789	2550.433157
563.799216	2553.755277
564.155587	2550.959957
564.511904	2552.356357
564.868164	2555.653272
565.224370	2554.576985
565.580520	2553.001625
565.936615	2554.239228
566.292654	2551.910215
566.648638	2554.952551
567.004567	2550.337375
567.360441	2550.483568
567.716260	2552.913404
568.072023	2550.483568
568.427732	2551.280071
568.783385	2549.787889
569.138982	2549.162786
569.494525	2548.870399
569.850013	2546.596839
570.205445	2553.034392
570.560823	2551.688404
570.916145	2554.445915
571.271412	2554.526574
571.626625	2554.856769
571.981782	2549.795451
572.336884	2554.208981
572.691931	2553.452808
573.046923	2553.760318
573.401860	2553.606563
573.756743	2554.259392
574.111570	2551.403579
574.466342	2555.381049
574.821059	2550.768393
575.175722	2552.900802
575.530330	2553.815771
575.884882	2553.319217
576.239380	2550.980122
576.593823	2557.936914
576.948211	2550.995245
577.302544	2552.391645
577.656823	2552.018600
578.011047	2552.764690
578.365216	2551.837118
578.719330	2553.228477
579.073389	2552.462221
579.427394	2551.113713
579.781344	2549.707231
580.135239	2551.519525
580.489080	2550.629762
580.842866	2551.164124
581.196597	2553.553631
581.550273	2553.651933
581.903895	2553.987170
582.257463	2551.922818
582.610975	2549.888712
582.964434	2552.447098
583.317837	2553.341903
583.671186	2555.633107
584.024481	2550.617159
584.377721	2554.400545
584.730906	2550.788558
585.084037	2552.235369
585.437113	2555.184444
585.790135	2552.134546
586.143103	2551.791748
586.496016	2554.085473
586.848874	2548.625903
587.201679	2548.850234
587.554428	2549.808054
587.907124	2552.063970
588.259765	2544.643392
588.612352	2551.973229
588.964884	2552.379042
589.317362	2553.891388
589.669786	2553.107489
590.022155	2553.079763
590.374470	2550.145811
590.726731	2551.950544
591.078937	2552.449618
591.431090	2555.055895
591.783188	2552.915925
592.135232	2553.057077
592.487222	2552.845349
592.839157	2553.006666
593.191038	2553.725030
593.542866	2553.006666
593.894639	2550.768393
594.246358	2552.235369
594.598022	2553.687222
594.949633	2552.868034
595.301190	2552.217725
595.652692	2549.956768
596.004141	2552.978939
596.355535	2550.821326
596.706876	2551.607746
597.058162	2554.153528
597.409395	2550.556665
597.760573	2553.082283
598.111698	2552.437015
598.462768	2550.629762
598.813785	2550.052550
599.164748	2551.665719
599.515657	2552.469783
599.866511	2553.886347
600.217312	2553.967006
600.568060	2553.888868
600.918753	2553.311656
601.269392	2553.989691
601.619978	2552.678991
601.970510	2552.308466
602.320988	2548.005841
602.671412	2549.843342
603.021783	2554.188816
603.372100	2550.208825
603.722363	2552.936090
604.072572	2552.739485
604.422728	2552.303425
604.772830	2547.607590
605.122878	2547.680687
605.472872	2547.675646
605.822813	2546.178423
606.172701	2550.292004
606.522534	2552.149670
606.872314	2551.670760
607.222041	2551.645554
607.571714	2550.972560
607.921333	2551.985832
608.270899	2551.854762
608.620411	2552.079093
608.969870	2553.941800
609.319276	2553.591440
609.668627	2557.664692
610.017926	2557.170659
610.367171	2557.324414
610.716362	2558.229301
611.065500	2557.155535
611.414585	2554.561862
611.763616	2556.109496
612.112594	2555.736451
612.461518	2554.478683
612.810389	2554.340051
613.159207	2552.124464
613.507971	2552.681511
613.856682	2555.744012
614.205340	2552.736964
614.553945	2555.524722
614.902496	2549.863506
615.250994	2551.930379
615.599439	2552.101779
615.947830	2552.903322
616.296169	2552.968857
616.644454	2552.537838
616.992686	2552.832746
617.340864	2551.338044
617.688990	2552.081614
618.037063	2549.843342
618.385082	2551.519525
618.733048	2553.505740
619.080961	2552.114382
619.428821	2553.543549
619.776628	2554.234187
620.124382	2551.239741
620.472083	2552.179917
620.819731	2553.689742
621.167326	2554.133364
621.514868	2553.407438
621.862357	2550.433157
622.209793	2553.495658
622.557176	2553.835936
622.904506	2550.057591
623.251783	2548.368804
623.599007	2546.891746
623.946179	2546.100285
624.293297	2550.614638
624.640363	2552.341233
624.987376	2553.977088
625.334336	2551.648075
625.681243	2552.189999
626.028097	2552.406768
626.374899	2552.399207
626.721647	2551.975750
627.068343	2552.384083
627.414987	2552.444577
627.761577	2555.000442
628.108115	2552.338713
628.454600	2550.864175
628.801032	2553.561193
629.147412	2552.515153
629.493739	2552.336192
629.840014	2553.588919
630.186236	2553.228477
630.532405	2554.148487
630.878521	2550.380225
631.224585	2552.535318
631.570597	2551.574978
631.916556	2552.091696
632.262462	2554.438353
632.608316	2551.058260
632.954117	2551.494320
633.299866	2553.793086
633.645562	2554.188816
633.991206	2553.541028
634.336797	2547.952909
634.682336	2552.802499
635.027823	2551.479196
635.373257	2550.349978
635.718639	2550.607077
636.063968	2550.201264
636.409245	2551.244782
636.754470	2553.379711
637.099642	2550.672612
637.444762	2552.399207
637.789829	2552.878116
638.134845	2552.343754
638.479808	2548.966181
638.824719	2550.644885
639.169577	2552.005997
639.514383	2552.076573
639.859137	2551.411141
640.203839	2553.004145
640.548489	2549.621531
640.893086	2549.578681
641.237632	2547.839483
641.582125	2546.690100
641.926566	2545.966694
642.270955	2550.763352
642.615292	2551.358208
642.959576	2550.604556
643.303809	2550.468445
643.647990	2553.291491
643.992118	2550.322251
644.336195	2555.260062
644.680219	2552.711758
645.024192	2551.615307
645.368112	2549.465255
645.711981	2552.031202
646.055797	2552.099258
646.399562	2551.968188
646.743274	2549.664381
647.086935	2552.542880
647.430544	2552.678991
647.774101	2554.428271
648.117606	2551.958106
648.461059	2551.925338
648.804460	2555.192006
649.147810	2552.565565
649.491108	2551.033054
649.834354	2553.258723
650.177548	2549.619010
650.520690	2552.462221
650.863781	2549.843342
651.206820	2552.968857
651.549807	2552.991542
651.892742	2551.920297
652.235626	2552.603373
652.578458	2552.142108
652.921238	2552.333672
653.263967	2553.535987
653.606644	2554.287119
653.949269	2550.533980
654.291843	2551.839639
654.634365	2551.040616
654.976836	2550.813764
655.319255	2553.616645
655.661622	2551.408620
656.003938	2553.362067
656.346203	2549.878630
656.688416	2551.980791
657.030577	2552.885678
657.372687	2554.687891
657.714746	2551.547252
658.056753	2550.770914
658.398708	2546.233876
658.740612	2548.789741
659.082465	2547.925183
659.424266	2547.189174
659.766016	2547.468958
660.107715	2550.332334
660.449362	2552.316028
660.790958	2551.877447
661.132503	2551.239741
661.473996	2553.566234
661.815438	2550.544062
662.156829	2553.949362
662.498168	2551.733774
662.839456	2551.985832
663.180693	2553.616645
663.521879	2551.098589
663.863013	2551.950544
664.204097	2550.155893
664.545129	2552.651264
664.886110	2552.275698
665.227040	2551.867365
665.567918	2554.042623
665.908746	2552.865513
666.249522	2553.420040
666.590248	2552.621017
666.930922	2553.256203
667.271545	2550.874258
667.612118	2552.777293
667.952639	2551.403579
668.293109	2554.087993
668.633528	2551.101110
668.973896	2549.498023
669.314213	2553.478014
669.654480	2554.531615
669.994695	2553.694783
670.334859	2552.931048
670.674973	2550.959957
671.015035	2552.880637
671.355047	2552.900802
671.695008	2552.187478
672.034918	2555.350802
672.374777	2551.859803
672.714585	2551.920297
673.054342	2555.184444
673.394049	2553.369629
673.733705	2554.423230
674.073310	2552.931048
674.412864	2553.457849
674.752368	2551.035575
675.091820	2553.218394
675.431223	2552.197561
675.770574	2555.529763
676.109875	2546.102806
676.449125	2548.152035
676.788324	2549.271171
677.127473	2552.474824
677.466571	2548.512477
677.805619	2553.820812
678.144616	2551.441388
678.483562	2555.343241
678.822458	2555.391132
679.161303	2556.482541
679.500098	2552.910884
679.838842	2552.973898
680.177535	2551.085986
680.516179	2553.258723
680.854771	2551.390976
681.193314	2554.380380
681.531805	2554.403065
681.870247	2556.699311
682.208638	2556.676626
682.546978	2555.108827
682.885268	2555.789383
683.223508	2554.859290
683.561697	2556.361554
683.899836	2555.837274
684.237925	2556.603529
684.575963	2555.572613
684.913951	2555.272664
685.251889	2559.209806
685.589776	2555.834753
685.927614	2559.121585
686.265401	2556.563200
686.603137	2555.648230
686.940824	2558.882131
687.278460	2561.856411
687.616046	2557.309291
687.953582	2560.028993
688.291068	2558.864487
688.628504	2560.938921
688.965889	2560.326421
689.303224	2560.386915
689.640510	2558.171328
689.977745	2560.795248
690.314930	2557.188303
690.652065	2561.150650
690.989150	2558.146122
691.326185	2558.478838
691.663170	2559.378684
692.000105	2559.789538
692.336990	2558.365412
692.673825	2557.926832
693.010610	2556.656461
693.347345	2554.198899
693.684030	2556.066646
694.020665	2557.155535
694.357251	2553.432643
694.693786	2557.210988
695.030272	2557.702501
695.366707	2556.215360
695.703093	2557.596636
696.039429	2557.715103
696.375716	2562.594940
696.711952	2559.565207
697.048139	2559.776935
697.384276	2560.220557
697.720363	2559.446740
698.056400	2562.478994
698.392388	2560.011349
698.728326	2562.050496
699.064214	2559.043447
699.400053	2560.180228
699.735842	2559.194682
700.071581	2556.802655
700.407270	2558.826678
700.742910	2562.461350
701.078501	2558.551935
701.414042	2560.714590
701.749533	2561.707697
702.084974	2560.533108
702.420366	2559.446740
702.755709	2558.980433
703.091002	2557.546225
703.426246	2561.246432
703.761440	2560.097049
704.096584	2557.163097
704.431679	2559.575289
704.766725	2560.422203
705.101721	2559.209806
705.436668	2562.413459
705.771565	2561.866494
706.106413	2560.323901
706.441212	2562.269786
706.775961	2561.921946
707.110661	2562.501679
707.445311	2562.073181
707.779913	2565.077709
708.114465	2565.276834
708.448967	2565.085270
708.783421	2564.916392
709.117825	2564.901268
709.452180	2565.508727
709.786485	2566.832030
710.120742	2567.031156
710.454949	2569.997875
710.789107	2568.220868
711.123216	2572.049624
711.457275	2571.638770
711.791286	2569.130796
712.125247	2573.536765
712.459159	2574.219841
712.793023	2573.630026
713.126837	2576.793350
713.460602	2572.515931
713.794318	2575.911148
714.127985	2572.611713
714.461602	2571.109449
714.795171	2574.769327
715.128691	2570.731363
715.462162	2574.650860
715.795584	2570.920406
716.128957	2575.701940
716.462281	2571.767320
716.795556	2571.074161
717.128782	2570.383523
717.461960	2571.358986
717.795088	2570.007957
718.128167	2569.337484
718.461198	2566.615261
718.794180	2571.374110
719.127113	2571.550550
719.459997	2568.432597
719.792833	2569.022412
720.125619	2570.789336
720.458357	2567.353790
720.791046	2569.430745
721.123686	2569.765982
721.456278	2568.273800
721.788821	2568.755230
722.121315	2570.108780
722.453761	2569.682803
722.786158	2570.063410
723.118506	2569.095508
723.450805	2566.975703
723.783056	2569.753379
724.115259	2571.157340
724.447412	2570.343194
724.779518	2571.633729
725.111574	2571.424521
725.443582	2572.926785
725.775542	2572.949470
726.107453	2572.702454
726.439315	2575.344018
726.771129	2575.225551
727.102895	2575.890984
727.434612	2579.457600
727.766281	2578.993814
728.097901	2572.778071
728.429473	2574.275294
728.760996	2575.830490
729.092471	2575.838052
729.423897	2577.002558
729.755276	2580.780903
730.086606	2580.211252
730.417887	2579.034143
730.749120	2581.095975
731.080305	2586.205184
731.411442	2587.588981
731.742530	2584.982705
732.073570	2584.881882
732.404562	2587.972109
732.735506	2588.297263
733.066401	2584.065215
733.397249	2582.908270
733.728048	2583.926583
734.058798	2582.111768
734.389501	2577.176478
734.720156	2577.496591
735.050762	2579.087075
735.381320	2579.923907
735.711831	2577.794019
736.042293	2577.620099
736.372707	2579.361818
736.703073	2577.567167
737.033391	2576.846282
737.363661	2577.589852
737.693883	2579.447518
738.024056	2581.360636
738.354182	2579.669328
738.684260	2582.260482
739.014290	2581.272415
739.344272	2580.922055
739.674207	2585.496902
740.004093	2587.460432
740.333931	2585.849783
740.663722	2584.723085
740.993464	2586.414392
741.323159	2587.954465
741.652806	2587.347006
741.982405	2586.079156
742.311956	2583.339288
742.641460	2587.422623
742.970915	2584.498754
743.300323	2583.934145
743.629683	2582.182344
743.958996	2583.067066
744.288260	2580.286870
744.617477	2578.981211
744.946647	2576.992476
745.275768	2578.088927
745.604842	2578.361149
745.933869	2576.851323
746.262847	2574.166909
746.591778	2583.966912
746.920662	2579.785275
747.249498	2579.843248
747.578286	2584.077818
747.907027	2587.475555
748.235720	2582.449525
748.564365	2584.435739
748.892963	2584.198805
749.221514	2584.662591
749.550017	2584.445822
749.878473	2584.534042
750.206881	2580.922055
750.535242	2585.885071
750.863555	2582.893146
751.191821	2585.567478
751.520039	2582.983887
751.848210	2584.861717
752.176334	2582.411716
752.504411	2586.747108
752.832440	2585.426326
753.160421	2584.423137
753.488356	2583.646799
753.816243	2586.893302
754.144082	2583.389700
754.471875	2581.327868
754.799620	2581.408527
755.127318	2580.322158
755.454969	2585.078487
755.782572	2585.658219
756.110129	2582.865420
756.437638	2582.628486
756.765100	2585.370873
757.092515	2585.086048
757.419882	2584.337437
757.747203	2582.666294
758.074477	2581.925245
758.401703	2589.648292
758.728882	2586.951275
759.056014	2587.334403
759.383099	2587.009248
759.710138	2584.471027
760.037129	2587.624269
760.364073	2591.485793
760.690970	2589.948241
761.017820	2589.580237
761.344623	2587.835998
761.671379	2594.087028
761.998088	2591.712645
762.324751	2596.564756
762.651366	2606.150510
762.977935	2623.628190
763.304456	2646.280615
763.630931	2662.934067
763.957359	2642.784575
764.283740	2628.041720
764.610074	2621.768004
764.936362	2617.480503
765.262602	2607.410798
765.588796	2603.496342
765.914943	2594.843202
766.241044	2591.369847
766.567097	2593.711462
766.893104	2589.429002
767.219064	2585.091089
767.544978	2584.281984
767.870845	2580.130594
768.196665	2582.144535
768.522438	2582.194947
768.848165	2581.025399
769.173846	2579.991962
769.499479	2581.032961
769.825066	2578.792168
770.150607	2578.454410
770.476101	2580.748135
770.801548	2579.634040
771.126949	2579.276118
771.452303	2576.937023
771.777611	2576.488360
772.102872	2579.409709
772.428087	2577.267219
772.753256	2575.699420
773.078378	2578.613207
773.403453	2576.488360
773.728482	2573.630026
774.053465	2578.671180
774.378401	2573.244378
774.703291	2572.951991
775.028135	2576.944585
775.352932	2574.534913
775.677683	2572.641960
776.002388	2572.654563
776.327046	2573.902248
776.651658	2572.906621
776.976224	2573.569532
777.300743	2571.895869
777.625216	2569.886969
777.949643	2570.403688
778.274024	2571.921075
778.598359	2570.197000
778.922647	2569.077864
779.246889	2572.639439
779.571086	2567.769685
779.895236	2570.083574
780.219339	2571.432083
780.543397	2574.499625
780.867409	2572.266394
781.191374	2572.019378
781.515294	2575.119687
781.839167	2572.316806
782.162995	2571.424521
782.486776	2573.846796
782.810511	2572.750345
783.134201	2573.151117
783.457844	2571.444686
783.781441	2575.477609
784.104993	2570.648184
784.428498	2571.563153
784.751958	2572.929306
785.075372	2570.297823
785.398739	2568.261197
785.722061	2573.451065
786.045337	2575.762434
786.368568	2570.653225
786.691752	2569.902093
787.014891	2576.596745
787.337983	2574.474419
787.661030	2578.167065
787.984031	2582.774679
788.306987	2583.356932
788.629897	2582.235276
788.952760	2585.633013
789.275579	2586.167376
789.598351	2579.097157
789.921078	2578.993814
790.243759	2579.550861
790.566395	2577.141190
790.888984	2575.787640
791.211529	2573.662794
791.534027	2574.444173
791.856480	2571.565674
792.178888	2568.782957
792.501249	2567.449572
792.823566	2573.768658
793.145836	2572.016857
793.468062	2569.196331
793.790241	2569.213975
794.112375	2572.170612
794.434464	2568.780436
794.756507	2572.921744
795.078505	2573.259501
795.400457	2571.764799
795.722364	2571.053997
796.044226	2576.105233
796.366042	2576.516087
796.687812	2573.526683
797.009538	2576.190932
797.331218	2580.251582
797.652852	2581.055646
797.974442	2575.011302
798.295986	2575.223031
798.617484	2576.422825
798.938938	2575.628844
799.260346	2574.003072
799.581709	2575.230592
799.903026	2574.028277
800.224299	2575.860737
800.545526	2570.144068
800.866708	2573.693041
801.187845	2571.268246
801.508936	2573.864440
801.829983	2570.794377
802.150984	2569.072823
802.471940	2568.805642
802.792851	2567.194993
803.113717	2571.817731
803.434538	2571.066599
803.755314	2570.542319
804.076045	2565.806155
804.396731	2568.795560
804.717372	2573.199008
805.037967	2568.291444
805.358518	2566.973182
805.679024	2571.139696
805.999485	2571.298493
806.319901	2570.343194
806.640272	2568.248594
806.960598	2568.722463
807.280879	2568.026784
807.601115	2573.730849
807.921306	2571.706826
808.241453	2569.380333
808.561554	2570.534758
808.881611	2571.855540
809.201623	2570.416291
809.521590	2572.876374
809.841513	2571.033832
810.161390	2573.340160
810.481223	2570.441496
810.801011	2566.890003
811.120755	2570.360838
811.440453	2572.165571
811.760107	2569.808832
812.079716	2567.126938
812.399281	2564.825651
812.718801	2569.846640
813.038276	2563.338511
813.357707	2570.602813
813.677093	2569.574418
813.996434	2570.156671
814.315731	2570.925447
814.634983	2568.682134
814.954191	2566.794222
815.273354	2572.599110
815.592473	2574.073648
815.911547	2569.942422
816.230577	2571.641291
816.549562	2574.308061
816.868502	2571.018708
817.187399	2577.415933
817.506250	2579.543300
817.825058	2578.076324
818.143821	2574.673545
818.462539	2581.695872
818.781213	2579.664287
819.099843	2583.921542
819.418429	2589.292891
819.736970	2593.822368
820.055466	2601.076588
820.373919	2611.161417
820.692327	2627.958541
821.010691	2641.602424
821.329011	2669.543019
821.647286	2718.119578
821.965517	2798.727628
822.283704	2827.633604
822.601847	2845.537262
822.919945	2839.215655
823.237999	2834.444203
823.556010	2787.130453
823.873976	2749.775503
824.191897	2722.028992
824.509775	2698.587627
824.827609	2671.836744
825.145398	2662.742503
825.463144	2662.414828
825.780845	2667.450940
826.098502	2673.044101
826.416116	2693.654858
826.733685	2716.372818
827.051210	2727.097873
827.368692	2719.430278
827.686129	2703.724563
828.003522	2676.237672
828.320872	2648.919659
828.638177	2631.381485
828.955439	2615.605194
829.272656	2605.777464
829.589830	2596.035434
829.906960	2596.005187
830.224046	2587.921697
830.541088	2587.372212
830.858086	2588.042685
831.175041	2584.521439
831.491952	2584.387848
831.808819	2587.657037
832.125642	2586.623600
832.442421	2594.492841
832.759157	2602.631784
833.075849	2618.045112
833.392497	2636.881383
833.709101	2658.167656
834.025662	2661.494817
834.342179	2650.699186
834.658653	2632.248563
834.975083	2616.736933
835.291469	2610.314503
835.607811	2599.629777
835.924110	2589.194589
836.240366	2585.265009
836.556578	2581.925245
836.872746	2577.698237
837.188871	2573.191446
837.504952	2571.011147
837.820990	2571.449727
838.136984	2568.304047
838.452935	2565.906978
838.768842	2569.902093
839.084706	2568.074675
839.400526	2577.882239
839.716303	2588.206522
840.032037	2597.318408
840.347727	2597.608274
840.663373	2595.823706
840.978977	2586.863055
841.294537	2579.165213
841.610054	2573.687999
841.925527	2571.197669
842.240957	2567.091650
842.556344	2566.816907
842.871687	2562.602502
843.186987	2563.698953
843.502244	2561.183417
843.817458	2561.876576
844.132629	2559.882800
844.447756	2559.540001
844.762840	2555.252500
845.077881	2558.045299
845.392879	2554.763508
845.707833	2556.359033
846.022745	2553.397355
846.337613	2554.087993
846.652438	2556.187634
846.967221	2556.545556
847.281960	2554.806358
847.596656	2556.716955
847.911309	2556.505227
848.225919	2555.479352
848.540485	2554.503888
848.855009	2553.049516
849.169490	2555.723848
849.483928	2551.751418
849.798323	2554.524053
850.112675	2557.427758
850.426984	2556.704352
850.741251	2557.034548
851.055474	2555.068498
851.369654	2557.765515
851.683792	2558.163766
851.997887	2554.123281
852.311938	2554.738302
852.625947	2558.403221
852.939914	2556.323745
853.253837	2557.584033
853.567718	2554.246790
853.881555	2555.549928
854.195350	2556.573282
854.509103	2556.036399
854.822812	2552.159752
855.136479	2554.748384
855.450103	2557.210988
855.763685	2555.766697
856.077224	2554.748384
856.390720	2554.095555
856.704173	2555.827191
857.017584	2555.275185
857.330953	2555.751574
857.644278	2554.448436
857.957561	2557.846173
858.270802	2556.512788
858.584000	2554.917263
858.897155	2557.470607
859.210268	2556.477500
859.523339	2556.008673
859.836367	2556.956410
860.149352	2559.320711
860.462295	2556.774928
860.775195	2554.229146
861.088054	2550.851573
861.400869	2551.569937
861.713642	2551.461552
862.026373	2555.930535
862.339062	2554.024979
862.651708	2556.779969
862.964312	2557.780638
863.276873	2556.101934
863.589392	2558.683005
863.901869	2559.829867
864.214303	2559.229970
864.526696	2561.473284
864.839045	2558.899775
865.151353	2560.195351
865.463619	2561.798438
865.775842	2560.762481
866.088023	2561.354817
866.400162	2557.899106
866.712258	2560.109652
867.024313	2560.321380
867.336325	2559.716442
867.648296	2557.084959
867.960224	2561.450598
868.272110	2561.145609
868.583954	2559.403890
868.895755	2557.909188
869.207515	2559.958417
869.519233	2563.285578
869.830909	2563.043603
870.142542	2559.464384
870.454134	2561.034703
870.765684	2561.009498
871.077191	2560.218036
871.388657	2561.871535
871.700081	2564.886145
872.011463	2560.510423
872.322803	2560.021431
872.634101	2563.167111
872.945357	2560.633932
873.256571	2564.760116
873.567744	2562.899930
873.878874	2566.799263
874.189963	2568.107442
874.501010	2565.155847
874.812015	2565.291958
875.122979	2567.023594
875.433900	2568.024263
875.744780	2569.145920
876.055618	2565.395301
876.366415	2568.417473
876.677169	2566.892524
876.987882	2562.136195
877.298554	2563.570404
877.609183	2569.251784
877.919771	2568.198183
878.230317	2569.692885
878.540822	2575.404512
878.851285	2578.600604
879.161707	2583.974474
879.472087	2591.858838
879.782425	2598.520723
880.092722	2614.382714
880.402977	2636.135293
880.713191	2659.349806
881.023363	2680.023578
881.333494	2691.560259
881.643583	2710.966180
881.953631	2717.459187
882.263637	2711.011551
882.573602	2697.695343
882.883526	2685.513395
883.193408	2675.047959
883.503248	2664.491783
883.813048	2651.815802
884.122806	2634.050776
884.432522	2621.445370
884.742197	2610.412805
885.051831	2607.801487
885.361424	2601.132041
885.670975	2595.022162
885.980485	2588.370360
886.289954	2589.101327
886.599382	2584.566809
886.908768	2580.526325
887.218113	2577.083217
887.527417	2574.837382
887.836680	2571.805128
888.145901	2572.775551
888.455082	2571.623647
888.764221	2570.565005
889.073319	2565.728018
889.382376	2568.319171
889.691392	2568.735066
890.000366	2571.477453
890.309300	2567.200034
890.618193	2568.767833
890.927044	2569.413101
891.235855	2570.943091
891.544625	2566.970662
891.853353	2569.042576
892.162041	2568.757751
892.470687	2576.175809
892.779293	2575.633885
893.087858	2574.197156
893.396381	2573.645150
893.704864	2584.261820
894.013306	2593.335897
894.321707	2607.113370
894.630068	2617.730040
894.938387	2623.151801
895.246665	2625.374950
895.554903	2619.882613
895.863100	2616.898250
896.171256	2607.352825
896.479371	2595.669951
896.787446	2591.750454
897.095480	2581.469020
897.403473	2582.157138
897.711425	2581.940368
898.019336	2577.620099
898.327207	2574.373596
898.635038	2575.074317
898.942827	2570.063410
899.250576	2570.317988
899.558284	2567.084088
899.865952	2567.933522
900.173579	2568.251115
900.481165	2568.929150
900.788711	2567.280693
901.096216	2561.430434
901.403681	2564.394632
901.711105	2562.617626
902.018489	2564.185424
902.325832	2562.957903
902.633135	2563.610733
902.940397	2566.829510
903.247619	2574.799574
903.554800	2586.815164
903.861941	2604.116404
904.169041	2622.708179
904.476101	2632.183028
904.783121	2633.702936
905.090100	2628.119858
905.397039	2620.941255
905.703938	2612.250306
906.010796	2599.594489
906.317614	2587.231059
906.624391	2579.944071
906.931129	2574.628175
907.237826	2568.160374
907.544483	2561.574107
907.851099	2561.309446
908.157675	2560.313818
908.464211	2558.814075
908.770707	2553.110009
909.077163	2558.582182
909.383578	2549.311500
909.689954	2551.668239
909.996289	2552.915925
910.302584	2553.556152
910.608839	2553.074721
910.915054	2551.859803
911.221229	2553.180586
911.527363	2554.362736
911.833458	2556.638817
912.139513	2553.087324
912.445527	2553.851059
912.751502	2554.239228
913.057436	2557.463046
913.363331	2559.572769
913.669186	2560.903633
913.975000	2564.555949
914.280775	2567.464695
914.586510	2570.645663
914.892205	2576.369893
915.197859	2585.842221
915.503475	2599.886876
915.809050	2609.943978
916.114585	2615.118722
916.420081	2613.450100
916.725536	2620.517798
917.030952	2620.658950
917.336328	2610.566560
917.641665	2603.163626
917.946961	2595.319591
918.252218	2588.025041
918.557435	2581.378280
918.862612	2580.473392
919.167750	2573.763617
919.472848	2571.497618
919.777906	2566.779098
920.082925	2570.005437
920.387904	2562.892368
920.692843	2562.519323
920.997743	2557.339537
921.302603	2562.592420
921.607423	2559.194682
921.912204	2559.088818
922.216946	2556.028837
922.521647	2555.602860
922.826310	2556.265772
923.130932	2554.763508
923.435516	2552.726882
923.740059	2555.189485
924.044564	2553.369629
924.349028	2553.750236
924.653454	2546.299411
924.957840	2550.574309
925.262186	2547.852086
925.566493	2550.324772
925.870761	2546.977446
926.174989	2549.225800
926.479178	2547.509288
926.783328	2549.460214
927.087438	2546.836293
927.391509	2546.049873
927.695541	2545.694472
927.999533	2547.746222
928.303486	2545.805377
928.607400	2548.595656
928.911275	2546.059956
929.215110	2546.117929
929.518906	2546.286808
929.822663	2546.790923
930.126381	2545.003834
930.430060	2546.758156
930.733699	2545.306303
931.037299	2545.898639
931.340861	2546.601880
931.644383	2546.843855
931.947866	2545.656663
932.251309	2548.719164
932.554714	2546.536345
932.858080	2547.221942
933.161407	2544.514842
933.464694	2547.746222
933.767943	2547.179092
934.071153	2545.709596
934.374323	2545.540717
934.677455	2547.842004
934.980548	2545.674308
935.283602	2547.504246
935.586617	2546.470810
935.889593	2545.959133
936.192530	2543.791437
936.495428	2546.795964
936.798287	2547.809236
937.101108	2546.037271
937.403890	2545.281097
937.706632	2546.652291
938.009336	2548.449463
938.312002	2547.884853
938.614628	2548.015923
938.917216	2552.300904
939.219765	2549.860986
939.522275	2551.149001
939.824747	2550.763352
940.127179	2548.232693
940.429573	2547.564740
940.731929	2547.400903
941.034246	2545.361756
941.336524	2547.499205
941.638763	2548.565409
941.940964	2547.927703
942.243126	2551.585060
942.545250	2551.133877
942.847335	2546.954761
943.149381	2547.962991
943.451389	2546.443083
943.753359	2546.490974
944.055290	2546.022147
944.357182	2548.527601
944.659036	2547.176571
944.960851	2547.322765
945.262628	2543.925027
945.564367	2548.136911
945.866067	2545.127342
946.167729	2549.878630
946.469352	2547.854607
946.770937	2547.022816
947.072484	2549.639175
947.373992	2547.486602
947.675462	2546.092723
947.976893	2545.888557
948.278286	2545.444935
948.579641	2548.560368
948.880958	2544.368649
949.182236	2547.393341
949.483476	2544.517363
949.784678	2547.847045
950.085841	2546.480892
950.386967	2547.340409
950.688054	2545.787733
950.989103	2546.990049
951.290114	2548.318393
951.591087	2547.310162
951.892021	2546.196067
952.192917	2545.649102
952.493776	2547.715975
952.794596	2547.390820
953.095378	2549.109854
953.396122	2548.625903
953.696828	2548.512477
953.997496	2549.513146
954.298126	2546.319575
954.598718	2549.331665
954.899272	2548.257899
955.199788	2546.198588
955.500266	2547.831921
955.800706	2542.952084
956.101108	2538.614172
956.401472	2542.354708
956.701798	2541.709440
957.002087	2542.430325
957.302337	2543.118443
957.602550	2543.614996
957.902724	2541.739687
958.202861	2544.038453
958.502960	2541.086857
958.803022	2543.496529
959.103045	2545.795295
959.403031	2543.519214
959.702979	2541.565767
960.002889	2544.192208
960.302762	2544.051056
960.602596	2543.287321
960.902393	2543.592311
961.202153	2543.582229
961.501875	2542.384955
961.801559	2542.944523
962.101205	2541.893442
962.400814	2542.856303
962.700385	2539.811446
962.999918	2541.207845
963.299414	2543.244471
963.598873	2543.307486
963.898293	2544.348484
964.197677	2541.139790
964.497022	2544.411498
964.796331	2541.938812
965.095601	2545.407126
965.394835	2543.083154
965.694030	2542.478216
965.993189	2543.496529
966.292309	2541.361600
966.591393	2539.813966
966.890439	2543.128525
967.189447	2542.886549
967.488419	2541.911086
967.787353	2540.307999
968.086249	2543.302445
968.385108	2541.480068
968.683930	2542.611807
968.982714	2541.848072
969.281462	2544.151879
969.580172	2544.466951
969.878844	2539.183822
970.177480	2540.073586
970.476078	2541.583411
970.774639	2543.451159
971.073162	2541.154913
971.371649	2540.938143
971.670098	2535.839016
971.968510	2540.174409
972.266885	2537.852957
972.565223	2541.306148
972.863524	2538.863709
973.161788	2541.575849
973.460014	2542.752959
973.758204	2541.933771
974.056356	2541.190201
974.354471	2541.490150
974.652550	2543.551982
974.950591	2540.980993
975.248595	2542.647095
975.546563	2541.217928
975.844493	2542.833617
976.142386	2545.071890
976.440243	2543.748587
976.738062	2541.780016
977.035845	2540.081147
977.333590	2542.150541
977.631299	2540.991076
977.928971	2542.541230
978.226606	2541.739687
978.524204	2542.165664
978.821765	2541.376724
979.119290	2541.802701
979.416777	2543.443597
979.714228	2541.908566
980.011642	2541.976621
980.309020	2543.574667
980.606360	2541.303627
980.903664	2542.735315
981.200931	2543.156251
981.498162	2540.250026
981.795356	2544.212373
982.092513	2543.312527
982.389633	2543.708258
982.686717	2544.451828
982.983764	2542.974770
983.280775	2546.972405
983.577749	2546.609442
983.874686	2545.782692
984.171587	2544.040974
984.468451	2542.011909
984.765279	2545.064328
985.062070	2543.413350
985.358824	2543.650284
985.655543	2544.807229
985.952224	2540.870088
986.248869	2541.873277
986.545478	2540.784388
986.842050	2540.877650
987.138586	2536.335570
987.435086	2542.553833
987.731549	2538.004192
988.027975	2541.759852
988.324366	2537.273225
988.620719	2540.111394
988.917037	2541.306148
989.213318	2542.432846
989.509563	2539.607279
989.805772	2540.577701
990.101944	2542.067362
990.398080	2542.853782
990.694180	2538.112577
990.990244	2543.030222
991.286271	2540.406302
991.582262	2542.432846
991.878217	2539.889583
992.174136	2539.365303
992.470019	2540.860006
992.765865	2541.691796
993.061676	2539.708102
993.357450	2543.365459
993.653188	2541.777496
993.948890	2541.391847
994.244556	2544.411498
994.540186	2541.648946
994.835780	2541.500232
995.131337	2541.885880
995.426859	2544.517363
995.722345	2538.591486
996.017795	2541.971580
996.313208	2541.848072
996.608586	2542.730274
996.903928	2545.848227
997.199234	2541.961498
997.494504	2542.052238
997.789738	2542.921838
998.084936	2541.865716
998.380099	2540.252547
998.675225	2541.545602
998.970316	2539.360262
999.265371	2541.888401
999.560390	2539.708102
999.855373	2543.322609
1000.150320	2539.773637
1000.445232	2543.433515
1000.740108	2540.391178
1001.034948	2539.519059
1001.329752	2540.799512
1001.624521	2539.108205
1001.919254	2536.935467
1002.213951	2540.015612
1002.508613	2537.202648
1002.803239	2539.025026
1003.097829	2535.186187
1003.392384	2540.050900
1003.686903	2537.497556
1003.981386	2538.551157
1004.275834	2541.228010
1004.570246	2543.312527
1004.864623	2539.239275
1005.158964	2541.366642
1005.453270	2540.187012
1005.747540	2537.860519
1006.041775	2538.848585
1006.335974	2541.412012
1006.630138	2539.710623
1006.924266	2539.844213
1007.218359	2539.539223
1007.512416	2540.890252
1007.806438	2538.949408
1008.100425	2539.236754
1008.394376	2539.635005
1008.688292	2542.715150
1008.982172	2539.970242
1009.276017	2540.839841
1009.569827	2539.970242
1009.863602	2539.571991
1010.157341	2542.475695
1010.451045	2541.293545
1010.744714	2540.708771
1011.038347	2539.801363
1011.331945	2538.732639
1011.625508	2540.164326
1011.919036	2541.134748
1012.212528	2540.305479
1012.505986	2537.437062
1012.799408	2540.827238
1013.092795	2539.234233
1013.386147	2539.534182
1013.679464	2537.931095
1013.972745	2538.473019
1014.265992	2540.113915
1014.559204	2539.017464
1014.852380	2538.881353
1015.145521	2541.033925
1015.438628	2541.701878
1015.731699	2539.758513
1016.024736	2539.387989
1016.317737	2541.028884
1016.610703	2539.428318
1016.903635	2538.636857
1017.196531	2534.850950
1017.489393	2538.430169
1017.782219	2537.152237
1018.075011	2538.281455
1018.367768	2540.194573
1018.660490	2541.013761
1018.953177	2541.013761
1019.245829	2541.013761
