Dividing Wavelength (nm)	Counts (n)	Blue Motor Position (mm): 9.900000	Red Motor Position (mm): 0.000000	
326.493990	2134.742131
326.888308	2134.742131
327.282561	2134.742131
327.676750	2103.426483
328.070874	2105.884046
328.464933	2103.854982
328.858929	2115.497526
329.252859	2124.904319
329.646726	2135.336987
330.040528	2147.581950
330.434265	2166.818993
330.827938	2182.759122
331.221547	2200.163705
331.615091	2220.073742
332.008571	2239.557802
332.401986	2261.600247
332.795338	2277.076589
333.188625	2298.239353
333.581847	2316.863896
333.975006	2334.412153
334.368100	2353.969309
334.761129	2368.409694
335.154095	2389.726213
335.546996	2405.192473
335.939833	2422.841553
336.332606	2439.999120
336.725315	2448.937086
337.117960	2460.158694
337.510540	2465.580455
337.903056	2480.766931
338.295508	2484.310862
338.687896	2494.536843
339.080220	2500.238388
339.472480	2508.331960
339.864676	2510.421519
340.256807	2516.826305
340.648875	2520.919722
341.040879	2523.420134
341.432818	2526.618746
341.824694	2526.013807
342.216506	2527.692512
342.608253	2527.606812
342.999937	2525.996163
343.391557	2523.470545
343.783113	2527.208561
344.174605	2527.080012
344.566033	2526.084384
344.957397	2520.145904
345.348697	2519.394773
345.739934	2517.156500
346.131106	2516.375121
346.522215	2516.559123
346.913260	2511.744822
347.304241	2511.709533
347.695159	2508.082423
348.086012	2507.706857
348.476802	2503.900786
348.867528	2504.674603
349.258191	2503.189983
349.648789	2504.941784
350.039324	2498.973058
350.429796	2498.413490
350.820203	2498.438696
351.210548	2496.661689
351.600828	2495.524909
351.991045	2496.150012
352.381198	2496.530619
352.771288	2493.783190
353.161314	2492.475011
353.551276	2493.944507
353.941175	2494.057933
354.331010	2490.773622
354.720782	2494.685557
355.110490	2496.084477
355.500135	2491.255052
355.889717	2494.259579
356.279235	2494.768736
356.668689	2496.656648
357.058080	2495.517347
357.447408	2492.850577
357.836672	2489.009218
358.225873	2495.005670
358.615010	2490.864362
359.004084	2498.826865
359.393095	2496.223109
359.782043	2498.408449
360.170927	2498.466422
360.559748	2501.218892
360.948505	2501.551608
361.337199	2499.905672
361.725830	2498.410970
362.114398	2500.432472
362.502903	2502.209479
362.891344	2501.261742
363.279722	2502.509428
363.668037	2501.889366
364.056289	2502.612771
364.444478	2503.903307
364.832603	2503.578152
365.220665	2503.726866
365.608665	2503.247957
365.996601	2504.427587
366.384474	2503.517658
366.772284	2503.802484
367.160031	2506.547392
367.547715	2507.689213
367.935336	2504.740138
368.322893	2507.054028
368.710388	2505.753410
369.097820	2507.268277
369.485189	2506.706188
369.872495	2508.122753
370.259738	2508.367248
370.646918	2508.432783
371.034035	2507.258195
371.421090	2509.413288
371.808081	2506.991013
372.195010	2509.085613
372.581875	2505.977742
372.968678	2508.773061
373.355418	2510.202228
373.742096	2511.139883
374.128710	2509.914883
374.515262	2510.285408
374.901751	2510.860099
375.288177	2509.536796
375.674540	2507.860613
376.060841	2510.295490
376.447079	2510.953360
376.833254	2511.954029
377.219367	2506.743997
377.605417	2511.943947
377.991404	2508.377331
378.377329	2511.891015
378.763191	2507.268277
379.148991	2511.223062
379.534727	2513.269771
379.920402	2514.303207
380.306013	2513.090810
380.691563	2514.005779
381.077049	2515.397138
381.462474	2515.588701
381.847835	2514.600635
382.233134	2515.974350
382.618371	2515.094668
383.003545	2513.985614
383.388657	2513.264729
383.773706	2515.581140
384.158693	2518.999042
384.543618	2515.021572
384.928480	2515.959226
385.313280	2516.493588
385.698017	2518.441994
386.082692	2518.194978
386.467305	2518.794875
386.851856	2516.342354
387.236344	2517.161541
387.620770	2519.107427
388.005133	2518.512571
388.389435	2518.789834
388.773674	2518.290760
389.157851	2517.280008
389.541965	2518.782272
389.926018	2519.147756
390.310008	2517.098527
390.693936	2520.478621
391.077802	2517.557272
391.461606	2519.699762
391.845348	2518.633558
392.229027	2520.382839
392.612645	2519.863600
392.996200	2522.328724
393.379694	2520.057684
393.763125	2521.892664
394.146494	2521.552386
394.529801	2520.791172
394.913047	2519.546007
395.296230	2521.345699
395.679351	2519.719927
396.062410	2522.013652
396.445408	2522.847963
396.828343	2521.559948
397.211217	2516.549041
397.594028	2519.253620
397.976778	2520.579444
398.359466	2522.936183
398.742092	2518.147087
399.124656	2524.435926
399.507158	2523.221008
399.889598	2522.205216
400.271977	2524.035155
400.654294	2525.797038
401.036549	2524.551873
401.418742	2526.142357
401.800874	2525.171935
402.182944	2525.277799
402.564952	2524.503982
402.946898	2524.819054
403.328783	2524.582120
403.710606	2522.870648
404.092367	2524.355268
404.474067	2522.132119
404.855705	2527.846267
405.237282	2523.102541
405.618797	2526.419620
406.000250	2527.987419
406.381642	2526.548170
406.762972	2528.350382
407.144240	2527.637059
407.525447	2528.688140
407.906593	2527.289219
408.287677	2526.817872
408.668700	2526.215454
409.049661	2530.961700
409.430560	2524.834178
409.811399	2531.551515
410.192176	2526.258303
410.572891	2527.286699
410.953545	2526.177645
411.334138	2524.337624
411.714669	2529.933305
412.095139	2527.906761
412.475547	2529.035979
412.855894	2527.140505
413.236180	2531.062523
413.616405	2531.206196
413.996568	2528.967924
414.376670	2529.620753
414.756711	2528.665454
415.136691	2529.661082
415.516609	2529.315763
415.896466	2530.586134
416.276262	2530.500434
416.655997	2527.747964
417.035670	2525.469363
417.415283	2528.010104
417.794834	2524.788807
418.174324	2529.119158
418.553753	2532.050589
418.933121	2533.046217
419.312428	2532.045548
419.691674	2531.208717
420.070859	2531.138140
420.449983	2530.044210
420.829045	2532.302647
421.208047	2532.191742
421.586988	2528.904909
421.965867	2529.608150
422.344686	2532.209386
422.723444	2531.410363
423.102141	2531.818696
423.480777	2532.224509
423.859352	2530.147554
424.237866	2533.073943
424.616319	2532.809283
424.994712	2531.667462
425.373044	2535.881866
425.751314	2534.878677
426.129524	2533.552853
426.507673	2534.863553
426.885762	2536.282638
427.263789	2534.515713
427.641756	2533.686444
428.019662	2532.035466
428.397508	2534.331711
428.775292	2532.665610
429.153016	2535.004705
429.530679	2534.303985
429.908282	2535.554191
430.285824	2534.543440
430.663305	2534.326670
431.040726	2532.453882
431.418086	2536.862371
431.795385	2534.208203
432.172624	2535.390354
432.549802	2535.322298
432.926920	2536.849768
433.303977	2539.665252
433.680974	2536.426311
434.057910	2536.101156
434.434786	2533.820034
434.811601	2534.339273
435.188355	2535.042514
435.565050	2535.145858
435.941683	2534.997144
436.318257	2536.348173
436.694770	2530.989426
437.071222	2533.010929
437.447614	2532.988244
437.823946	2534.714839
438.200218	2537.358924
438.576429	2537.689120
438.952580	2537.426980
439.328670	2535.770961
439.704700	2535.675179
440.080670	2536.050745
440.456580	2537.779861
440.832429	2535.929757
441.208218	2535.206352
441.583947	2537.142155
441.959616	2536.562422
442.335224	2537.442103
442.710773	2537.558050
443.086261	2538.397402
443.461689	2538.921682
443.837057	2536.532175
444.212365	2537.507638
444.587612	2541.013761
444.962800	2539.448482
445.337927	2537.863040
445.712995	2539.176260
446.088002	2539.687937
446.462949	2539.110725
446.837837	2540.179450
447.212664	2540.534851
447.587431	2542.692465
447.962139	2537.981507
448.336786	2540.701209
448.711374	2538.707433
449.085901	2539.146013
449.460369	2536.605272
449.834776	2541.792619
450.209124	2539.937474
450.583412	2537.532844
450.957640	2543.325130
451.331808	2540.560057
451.705917	2539.403112
452.079965	2540.870088
452.453954	2541.066693
452.827883	2542.405119
453.201752	2541.268339
453.575562	2541.228010
453.949311	2541.192722
454.323001	2538.853626
454.696632	2537.825231
455.070202	2543.695655
455.443713	2541.417053
455.817164	2537.724408
456.190556	2535.014788
456.563888	2539.007382
456.937160	2539.060314
457.310373	2543.131045
457.683526	2540.492001
458.056619	2540.519728
458.429653	2540.388658
458.802628	2541.588452
459.175542	2542.858823
459.548398	2542.770603
459.921194	2538.457896
460.293930	2544.351005
460.666607	2544.771941
461.039224	2542.125335
461.411782	2542.233720
461.784280	2540.156765
462.156719	2542.165664
462.529099	2541.316230
462.901419	2543.705737
463.273680	2539.357742
463.645882	2542.876467
464.018024	2543.433515
464.390106	2542.374872
464.762130	2544.834955
465.134094	2543.141128
465.505999	2541.795140
465.877845	2543.294883
466.249631	2542.432846
466.621358	2545.384441
466.993026	2545.099616
467.364634	2545.434853
467.736184	2541.293545
468.107674	2543.201622
468.479105	2543.862013
468.850477	2540.817156
469.221790	2543.199101
469.593043	2545.651622
469.964238	2543.521735
470.335373	2543.625078
470.706449	2544.976108
471.077467	2542.531148
471.448425	2546.569112
471.819324	2545.699513
472.190164	2544.719009
472.560945	2543.320089
472.931667	2544.897970
473.302330	2544.981149
473.672934	2547.078269
474.043479	2547.423588
474.413965	2543.214224
474.784393	2541.175078
475.154761	2544.572815
475.525070	2542.815973
475.895321	2543.098278
476.265513	2539.045190
476.635645	2543.791437
477.005719	2544.610624
477.375734	2545.679349
477.745691	2544.638350
478.115588	2543.753628
478.485427	2544.776982
478.855207	2544.446787
479.224928	2547.302600
479.594591	2545.444935
479.964194	2545.553320
480.333739	2547.436191
480.703226	2548.487271
481.072653	2547.138763
481.442022	2546.367466
481.811333	2546.506098
482.180584	2545.066848
482.549777	2545.563402
482.918912	2548.298228
483.287988	2548.976263
483.657005	2544.517363
484.025964	2544.666077
484.394864	2549.026675
484.763706	2545.306303
485.132489	2545.601211
485.501213	2547.174051
485.869879	2544.305634
486.238487	2544.996272
486.607036	2545.535676
486.975527	2546.543907
487.343959	2547.022816
487.712333	2547.479041
488.080648	2545.875954
488.448905	2547.136242
488.817104	2546.536345
489.185244	2547.358053
489.553326	2547.224462
489.921350	2545.954092
490.289315	2548.005841
490.657222	2549.208156
491.025070	2544.897970
491.392861	2548.204967
491.760593	2548.275543
492.128267	2547.645399
492.495883	2546.629606
492.863440	2546.334699
493.230939	2547.221942
493.598380	2548.366284
493.965763	2544.852599
494.333088	2545.303783
494.700354	2543.292362
495.067563	2547.602549
495.434713	2542.848741
495.801805	2549.011551
496.168839	2549.838301
496.535815	2549.631613
496.902733	2547.234545
497.269593	2548.837632
497.636395	2546.964843
498.003139	2547.373176
498.369825	2549.137580
498.736453	2550.791079
499.103023	2550.216387
499.469535	2548.885522
499.835989	2547.108516
500.202385	2548.197405
500.568723	2546.576674
500.935003	2549.780327
501.301226	2548.237734
501.667390	2548.880481
502.033497	2548.842673
502.399546	2549.797971
502.765537	2548.678835
503.131470	2548.174720
503.497345	2550.158414
503.863163	2550.201264
504.228923	2550.841490
504.594625	2547.353012
504.960269	2547.761345
505.325856	2549.364432
505.691385	2547.229503
506.056856	2550.332334
506.422270	2550.281922
506.787625	2549.578681
507.152924	2549.528270
507.518164	2549.245965
507.883347	2547.080789
508.248472	2552.469783
508.613540	2547.582384
508.978550	2549.281253
509.343503	2550.924669
509.708398	2550.349978
510.073236	2551.227138
510.438016	2550.196222
510.802738	2550.274360
511.167403	2548.638506
511.532010	2551.179248
511.896561	2549.558517
512.261053	2547.925183
512.625488	2547.680687
512.989866	2549.225800
513.354186	2544.477033
513.718449	2545.245809
514.082655	2547.491643
514.446803	2549.659340
514.810894	2548.963660
515.174927	2551.421223
515.538904	2550.307128
515.902822	2553.397355
516.266684	2550.831408
516.630488	2549.775286
516.994235	2549.772766
517.357925	2549.228321
517.721558	2548.419216
518.085133	2551.574978
518.448651	2549.530790
518.812112	2548.918290
519.175516	2551.764021
519.538863	2550.622200
519.902152	2548.933413
520.265385	2548.305790
520.628560	2554.135884
520.991678	2550.738147
521.354739	2548.756973
521.717743	2549.382076
522.080690	2551.650595
522.443580	2550.697817
522.806413	2551.758980
523.169189	2552.631100
523.531908	2550.922149
523.894569	2551.239741
524.257174	2549.548434
524.619722	2551.733774
524.982213	2554.206460
525.344647	2551.146480
525.707025	2551.645554
526.069345	2551.567416
526.431608	2555.134033
526.793815	2551.554813
527.155964	2553.150339
527.518057	2552.656306
527.880093	2554.559341
528.242072	2552.497509
528.603995	2554.992880
528.965860	2554.488765
529.327669	2557.102603
529.689421	2553.112530
530.051117	2554.791234
530.412755	2551.685883
530.774337	2553.664536
531.135862	2553.851059
531.497331	2553.039433
531.858743	2551.378373
532.220098	2553.326779
532.581396	2549.382076
532.942638	2554.728220
533.303824	2557.775597
533.664953	2557.994888
534.026025	2554.440874
534.387040	2557.150494
534.747999	2556.394321
535.108902	2558.572100
535.469748	2555.731409
535.830537	2557.251317
536.191270	2557.445402
536.551947	2556.966492
536.912567	2557.997408
537.273131	2558.902295
537.633638	2559.479507
537.994089	2560.366750
538.354483	2559.124106
538.714821	2559.103941
539.075103	2558.070505
539.435328	2560.248283
539.795497	2558.231822
540.155609	2560.613767
540.515665	2560.530588
540.875665	2560.661658
541.235609	2558.756102
541.595496	2560.202913
541.955328	2561.727862
542.315102	2561.581668
542.674821	2558.982954
543.034483	2558.625032
543.394090	2558.861966
543.753640	2562.625187
544.113134	2563.005794
544.472571	2564.046793
544.831953	2562.967986
545.191278	2563.058727
545.550548	2562.168963
545.909761	2561.032183
546.268918	2561.571586
546.628019	2564.069478
546.987064	2559.965979
547.346053	2561.158212
547.704986	2562.872204
548.063863	2561.926988
548.422684	2562.458829
548.781449	2564.697102
549.140158	2564.402194
549.498811	2562.574776
549.857408	2561.755588
550.215949	2562.264745
550.574434	2560.588561
550.932864	2562.985630
551.291237	2560.696946
551.649555	2566.499314
552.007817	2564.868501
552.366022	2563.076371
552.724173	2565.513768
553.082267	2564.059396
553.440305	2565.143244
553.798288	2565.307081
554.156215	2563.446895
554.514086	2566.592575
554.871902	2562.708366
555.229661	2566.219530
555.587365	2562.194169
555.945014	2566.007802
556.302606	2562.297512
556.660143	2564.697102
557.017625	2562.141237
557.375050	2562.973027
557.732421	2563.464539
558.089735	2565.332287
558.446994	2563.930846
558.804197	2566.753892
559.161345	2565.145764
559.518437	2564.629046
559.875474	2563.847667
560.232455	2565.165929
560.589381	2565.642318
560.946251	2564.734910
561.303065	2561.964796
561.659825	2561.621998
562.016528	2564.014025
562.373177	2560.767522
562.729770	2563.288099
563.086307	2562.726010
563.442789	2564.366906
563.799216	2562.834395
564.155587	2564.354303
564.511904	2562.103428
564.868164	2563.255332
565.224370	2564.263562
565.580520	2560.283571
565.936615	2563.497307
566.292654	2566.274983
566.648638	2562.360527
567.004567	2560.099569
567.360441	2563.227605
567.716260	2561.271637
568.072023	2561.364899
568.427732	2556.580844
568.783385	2559.615618
569.138982	2560.018911
569.494525	2559.471946
569.850013	2557.241235
570.205445	2562.355486
570.560823	2561.080074
570.916145	2561.624518
571.271412	2563.023438
571.626625	2563.421690
571.981782	2559.887841
572.336884	2560.472615
572.691931	2561.069991
573.046923	2559.121585
573.401860	2561.712738
573.756743	2561.228788
574.111570	2561.138047
574.466342	2561.753068
574.821059	2561.410269
575.175722	2560.722152
575.530330	2562.741134
575.884882	2561.697615
576.239380	2563.535116
576.593823	2561.932029
576.948211	2559.978582
577.302544	2558.060422
577.656823	2559.540001
578.011047	2561.170814
578.365216	2562.000084
578.719330	2563.051165
579.073389	2560.117213
579.427394	2558.297357
579.781344	2560.762481
580.135239	2556.984136
580.489080	2559.320711
580.842866	2559.827347
581.196597	2563.144426
581.550273	2561.125444
581.903895	2562.700805
582.257463	2561.863973
582.610975	2559.555125
582.964434	2560.848181
583.317837	2559.746688
583.671186	2561.536298
584.024481	2562.665517
584.377721	2561.619477
584.730906	2561.425393
585.084037	2559.902964
585.437113	2560.328942
585.790135	2560.465053
586.143103	2557.964641
586.496016	2560.737275
586.848874	2553.520863
587.201679	2558.171328
587.554428	2555.169321
587.907124	2559.088818
588.259765	2555.779300
588.612352	2559.204764
588.964884	2560.901113
589.317362	2559.882800
589.669786	2557.891544
590.022155	2559.877758
590.374470	2558.418344
590.726731	2559.729044
591.078937	2561.173335
591.431090	2558.577141
591.783188	2558.584702
592.135232	2560.298695
592.487222	2559.328273
592.839157	2560.921277
593.191038	2559.177038
593.542866	2559.945814
593.894639	2559.023283
594.246358	2559.177038
594.598022	2558.604867
594.949633	2561.233829
595.301190	2557.843653
595.652692	2559.058571
596.004141	2558.801472
596.355535	2561.669889
596.706876	2560.107131
597.058162	2557.921791
597.409395	2558.151163
597.760573	2559.605536
598.111698	2557.541184
598.462768	2557.082439
598.813785	2558.819116
599.164748	2561.760629
599.515657	2561.052347
599.866511	2560.777604
600.217312	2560.412121
600.568060	2561.695094
600.918753	2563.731721
601.269392	2560.258366
601.619978	2563.635939
601.970510	2561.475804
602.320988	2562.005125
602.671412	2562.108469
603.021783	2560.817934
603.372100	2560.618808
603.722363	2562.027811
604.072572	2561.511092
604.422728	2562.337842
604.772830	2559.971020
605.122878	2560.674261
605.472872	2561.196020
605.822813	2557.495813
606.172701	2560.548232
606.522534	2563.209961
606.872314	2562.489076
607.222041	2564.205589
607.571714	2564.971844
607.921333	2565.753223
608.270899	2563.968655
608.620411	2564.198027
608.969870	2566.222051
609.319276	2565.478480
609.668627	2568.621640
610.017926	2570.174315
610.367171	2572.808318
610.716362	2570.154151
611.065500	2570.958215
611.414585	2571.391754
611.763616	2569.967628
612.112594	2569.213975
612.461518	2567.918399
612.810389	2568.256156
613.159207	2571.177505
613.507971	2567.565518
613.856682	2569.471074
614.205340	2567.557956
614.553945	2571.031311
614.902496	2571.137176
615.250994	2571.096846
615.599439	2570.103739
615.947830	2571.038873
616.296169	2570.325550
616.644454	2571.653894
616.992686	2572.528534
617.340864	2573.531724
617.688990	2572.324367
618.037063	2574.431570
618.385082	2577.486509
618.733048	2575.654049
619.080961	2575.273442
619.428821	2578.222517
619.776628	2579.089596
620.124382	2578.666139
620.472083	2581.143866
620.819731	2580.100347
621.167326	2580.702765
621.514868	2581.484144
621.862357	2581.584967
622.209793	2582.656212
622.557176	2581.164031
622.904506	2578.807291
623.251783	2577.350398
623.599007	2578.824935
623.946179	2577.783937
624.293297	2577.917527
624.640363	2582.983887
624.987376	2583.379618
625.334336	2585.365832
625.681243	2584.506316
626.028097	2584.622262
626.374899	2585.746439
626.721647	2586.137129
627.068343	2587.846080
627.414987	2588.050247
627.761577	2586.812643
628.108115	2590.691811
628.454600	2589.633169
628.801032	2592.095773
629.147412	2592.793973
629.493739	2594.684405
629.840014	2595.480907
630.186236	2598.308995
630.532405	2595.609457
630.878521	2602.004161
631.224585	2600.055755
631.570597	2601.341249
631.916556	2603.844182
632.262462	2605.081785
632.608316	2608.434152
632.954117	2608.865171
633.299866	2608.807198
633.645562	2609.933896
633.991206	2612.212497
634.336797	2612.353649
634.682336	2611.723505
635.027823	2612.497322
635.373257	2613.203084
635.718639	2613.170316
636.063968	2615.995883
636.409245	2615.103599
636.754470	2616.868003
637.099642	2617.422530
637.444762	2617.813219
637.789829	2619.091152
638.134845	2621.578961
638.479808	2622.130967
638.824719	2623.812192
639.169577	2624.550721
639.514383	2625.402676
639.859137	2627.247738
640.203839	2629.561628
640.548489	2629.385188
640.893086	2629.329735
641.237632	2632.004067
641.582125	2633.866773
641.926566	2633.597072
642.270955	2640.495891
642.615292	2643.155099
642.959576	2643.452527
643.303809	2647.472848
643.647990	2648.909577
643.992118	2650.568116
644.336195	2649.048208
644.680219	2656.531801
645.024192	2656.640186
645.368112	2663.473470
645.711981	2669.399346
646.055797	2674.722805
646.399562	2677.959226
646.743274	2686.937521
647.086935	2689.717717
647.430544	2694.398428
647.774101	2701.735828
648.117606	2701.781198
648.461059	2705.854450
648.804460	2708.876622
649.147810	2706.141796
649.491108	2708.821169
649.834354	2709.335367
650.177548	2706.794626
650.520690	2710.265460
650.863781	2713.174206
651.206820	2717.587736
651.549807	2714.230327
651.892742	2715.798126
652.235626	2718.931203
652.578458	2722.956565
652.921238	2722.850701
653.263967	2726.203068
653.606644	2724.234497
653.949269	2732.842267
654.291843	2730.520816
654.634365	2738.170767
654.976836	2740.739235
655.319255	2741.150089
655.661622	2746.405492
656.003938	2752.754825
656.346203	2747.385996
656.688416	2756.886051
657.030577	2753.999990
657.372687	2757.012080
657.714746	2760.336721
658.056753	2764.732607
658.398708	2766.643204
658.740612	2766.660848
659.082465	2775.056890
659.424266	2778.424381
659.766016	2780.692900
660.107715	2790.566000
660.449362	2792.461473
660.790958	2799.934984
661.132503	2804.325829
661.473996	2811.995945
661.815438	2812.951243
662.156829	2814.524083
662.498168	2819.076245
662.839456	2819.071204
663.180693	2829.334993
663.521879	2832.168122
663.863013	2834.166939
664.204097	2847.702437
664.545129	2852.536904
664.886110	2857.822554
665.227040	2865.525437
665.567918	2864.126517
665.908746	2877.528424
666.249522	2879.227293
666.590248	2883.177037
666.930922	2889.599467
667.271545	2897.294788
667.612118	2903.500449
667.952639	2903.308885
668.293109	2915.072417
668.633528	2913.754156
668.973896	2914.275915
669.314213	2918.414702
669.654480	2929.888368
669.994695	2926.442740
670.334859	2927.241763
670.674973	2939.602672
671.015035	2939.310285
671.355047	2947.424022
671.695008	2952.651699
672.034918	2949.702624
672.374777	2957.879375
672.714585	2964.155612
673.054342	2969.723566
673.394049	2971.603917
673.733705	2986.046822
674.073310	2992.726351
674.412864	2981.789568
674.752368	2996.965962
675.091820	2998.571569
675.431223	2990.732575
675.770574	2999.564676
676.109875	2989.807523
676.449125	3000.119203
676.788324	2998.105262
677.127473	2999.882269
677.466571	3000.668689
677.805619	3009.664628
678.144616	3012.926255
678.483562	3014.244516
678.822458	3008.936181
679.161303	3018.907584
679.500098	3019.779703
679.838842	3020.805578
680.177535	3029.965355
680.516179	3033.688247
680.854771	3039.379709
681.193314	3062.674881
681.531805	3085.171030
681.870247	3130.548977
682.208638	3153.725682
682.546978	3157.236845
682.885268	3162.235149
683.223508	3154.217194
683.561697	3147.764517
683.899836	3149.707882
684.237925	3149.539003
684.575963	3147.799805
684.913951	3140.406953
685.251889	3172.498938
685.589776	3159.701969
685.927614	3156.931855
686.265401	3186.485620
686.603137	3185.421936
686.940824	3216.225907
687.278460	3220.442832
687.616046	3240.350349
687.953582	3253.233017
688.291068	3258.977412
688.628504	3287.843059
688.965889	3276.177829
689.303224	3265.790532
689.640510	3267.305398
689.977745	3255.141094
690.314930	3237.900348
690.652065	3230.459605
690.989150	3204.858105
691.326185	3199.327959
691.663170	3200.331149
692.000105	3178.739887
692.336990	3162.068791
692.673825	3171.760409
693.010610	3156.155518
693.347345	3125.132257
693.684030	3147.104126
694.020665	3139.439052
694.357251	3112.312603
694.693786	3126.810961
695.030272	3120.207050
695.366707	3118.810650
695.703093	3111.324537
696.039429	3123.176289
696.375716	3128.678709
696.711952	3121.147225
697.048139	3117.076493
697.384276	3118.175465
697.720363	3131.466467
698.056400	3143.754279
698.392388	3130.639718
698.728326	3123.566979
699.064214	3116.524487
699.400053	3125.686784
699.735842	3125.046557
700.071581	3122.180661
700.407270	3112.584825
700.742910	3115.312089
701.078501	3098.424224
701.414042	3109.429063
701.749533	3107.599124
702.084974	3077.752973
702.420366	3107.064762
702.755709	3093.524222
703.091002	3075.345822
703.426246	3106.646346
703.761440	3082.899991
704.096584	3071.365831
704.431679	3092.702514
704.766725	3090.572627
705.101721	3093.887185
705.436668	3110.149948
705.771565	3086.171699
706.106413	3098.046137
706.441212	3125.805251
706.775961	3135.428814
707.110661	3116.453911
707.445311	3127.002525
707.779913	3150.363232
708.114465	3150.085968
708.448967	3156.097544
708.783421	3187.319931
709.117825	3203.900286
709.452180	3202.894576
709.786485	3216.699775
710.120742	3252.749067
710.454949	3250.059611
710.789107	3272.979217
711.123216	3306.046666
711.457275	3300.980306
711.791286	3333.644462
712.125247	3350.885208
712.459159	3298.157260
712.793023	3328.018535
713.126837	3346.776668
713.460602	3344.155268
713.794318	3303.379895
714.127985	3318.641988
714.461602	3301.207158
714.795171	3281.934827
715.128691	3267.557456
715.462162	3256.093872
715.795584	3240.365472
716.128957	3237.902868
716.462281	3214.461503
716.795556	3217.123232
717.128782	3208.291131
717.461960	3188.786907
717.795088	3197.533308
718.128167	3183.302131
718.461198	3155.966474
718.794180	3161.075684
719.127113	3164.226405
719.459997	3156.586536
719.792833	3144.081954
720.125619	3135.995943
720.458357	3127.557052
720.791046	3137.112559
721.123686	3128.093935
721.456278	3111.531224
721.788821	3122.629324
722.121315	3115.095320
722.453761	3099.102259
722.786158	3116.935341
723.118506	3130.662403
723.450805	3100.710387
723.783056	3113.943416
724.115259	3135.575007
724.447412	3136.671458
724.779518	3128.751805
725.111574	3133.465284
725.443582	3151.265598
725.775542	3147.688900
726.107453	3169.766633
726.439315	3174.984227
726.771129	3180.055628
727.102895	3190.435364
727.434612	3222.134139
727.766281	3227.692011
728.097901	3222.751681
728.429473	3226.734192
728.760996	3237.570152
729.092471	3232.125706
729.423897	3233.413721
729.755276	3245.068869
730.086606	3242.855802
730.417887	3260.149480
730.749120	3292.438071
731.080305	3335.512210
731.411442	3344.666945
731.742530	3329.528360
732.073570	3329.770336
732.404562	3368.688043
732.735506	3366.447250
733.066401	3345.488653
733.397249	3319.206598
733.728048	3290.104017
734.058798	3265.006632
734.389501	3236.486304
734.720156	3204.469936
735.050762	3188.552493
735.381320	3195.337886
735.711831	3164.541477
736.042293	3153.970178
736.372707	3173.529854
736.703073	3161.000067
737.033391	3149.060094
737.363661	3164.208761
737.693883	3182.714837
738.024056	3185.361442
738.354182	3173.870132
738.684260	3210.607541
739.014290	3221.501474
739.344272	3216.059549
739.674207	3241.219948
740.004093	3244.075761
740.333931	3240.791450
740.663722	3246.687079
740.993464	3245.136924
741.323159	3234.495048
741.652806	3227.276116
741.982405	3216.367059
742.311956	3203.920450
742.641460	3205.778116
742.970915	3199.335521
743.300323	3175.775688
743.629683	3161.388235
743.958996	3162.091476
744.288260	3154.532266
744.617477	3138.461068
744.946647	3136.114411
745.275768	3123.584623
745.604842	3126.868934
745.933869	3092.631938
746.262847	3092.662185
746.591778	3126.972278
746.920662	3108.509052
747.249498	3085.181113
747.578286	3122.394910
747.907027	3132.126858
748.235720	3117.678911
748.564365	3140.855616
748.892963	3151.147131
749.221514	3138.072899
749.550017	3121.467338
749.878473	3123.924901
750.206881	3108.932509
750.535242	3113.441821
750.863555	3117.961216
751.191821	3115.458283
751.520039	3100.329780
751.848210	3089.818974
752.176334	3115.009620
752.504411	3121.250568
752.832440	3092.246290
753.160421	3083.580546
753.488356	3097.037907
753.816243	3104.763475
754.144082	3075.429001
754.471875	3066.140675
754.799620	3086.522060
755.127318	3081.052408
755.454969	3081.826225
755.782572	3086.043150
756.110129	3070.153433
756.437638	3065.644121
756.765100	3076.091912
757.092515	3085.463417
757.419882	3091.585899
757.747203	3074.221644
758.074477	3072.674010
758.401703	3085.097934
758.728882	3098.318360
759.056014	3107.601644
759.383099	3107.609206
759.710138	3101.494287
760.037129	3110.268415
760.364073	3140.268321
760.690970	3129.271044
761.017820	3111.132973
761.344623	3127.844398
761.671379	3157.743481
761.998088	3193.437371
762.324751	3271.877725
762.651366	3404.490318
762.977935	3666.557221
763.304456	3931.858025
763.630931	4009.990868
763.957359	3803.948828
764.283740	3606.633025
764.610074	3505.124352
764.936362	3392.136970
765.262602	3290.043523
765.588796	3225.688153
765.914943	3173.013136
766.241044	3119.609673
766.567097	3106.301027
766.893104	3075.799525
767.219064	3057.525343
767.544978	3041.108825
767.870845	3004.885614
768.196665	2995.143584
768.522438	3008.290914
768.848165	3006.070285
769.173846	2980.831749
769.499479	2968.475881
769.825066	2959.643779
770.150607	2952.238324
770.476101	2964.926908
770.801548	2961.468677
771.126949	2931.042793
771.452303	2920.753798
771.777611	2929.001125
772.102872	2934.964810
772.428087	2917.189702
772.753256	2914.764907
773.078378	2907.092271
773.403453	2886.395814
773.728482	2877.236037
774.053465	2896.722617
774.378401	2887.711555
774.703291	2864.635673
775.028135	2864.156763
775.352932	2863.680374
775.677683	2857.421782
776.002388	2855.475897
776.327046	2859.715507
776.651658	2852.173941
776.976224	2842.562981
777.300743	2844.798733
777.625216	2838.295644
777.949643	2833.143585
778.274024	2835.575942
778.598359	2828.256186
778.922647	2832.495797
779.246889	2833.103256
779.571086	2821.574137
779.895236	2815.897798
780.219339	2825.158397
780.543397	2839.235819
780.867409	2837.315140
781.191374	2830.991012
781.515294	2831.268276
781.839167	2834.910509
782.162995	2828.273830
782.486776	2834.696260
782.810511	2834.565190
783.134201	2826.988336
783.457844	2830.630570
783.781441	2825.208809
784.104993	2808.893114
784.428498	2813.205822
784.751958	2823.893068
785.075372	2818.219249
785.398739	2809.608958
785.722061	2822.010197
786.045337	2832.465550
786.368568	2818.098261
786.691752	2810.970070
787.014891	2849.156810
787.337983	2868.351003
787.661030	2879.660832
787.984031	2928.267638
788.306987	2964.783235
788.629897	2956.004066
788.952760	2951.741770
789.275579	2945.652057
789.598351	2901.254615
789.921078	2871.287476
790.243759	2869.853267
790.566395	2858.901361
790.888984	2841.925275
791.211529	2830.353306
791.534027	2823.199909
791.856480	2817.848724
792.178888	2802.725263
792.501249	2797.696712
792.823566	2796.743934
793.145836	2795.299643
793.468062	2793.278140
793.790241	2792.970630
794.112375	2796.736372
794.434464	2805.762558
794.756507	2809.172898
795.078505	2812.207673
795.400457	2816.532983
795.722364	2844.592045
796.044226	2861.931094
796.366042	2861.182483
796.687812	2854.818026
797.009538	2875.305275
797.331218	2864.141640
797.652852	2857.998994
797.974442	2843.268742
798.295986	2843.641788
798.617484	2842.792353
798.938938	2831.606033
799.260346	2818.128508
799.581709	2815.111378
799.903026	2807.537044
800.224299	2804.595531
800.545526	2798.347021
800.866708	2783.258847
801.187845	2777.373300
801.508936	2780.143414
801.829983	2787.264044
802.150984	2775.250974
802.471940	2765.640014
802.792851	2766.212185
803.113717	2766.799480
803.434538	2772.755603
803.755314	2764.374685
804.076045	2759.910743
804.396731	2758.448808
804.717372	2762.476690
805.037967	2757.107862
805.358518	2762.726227
805.679024	2771.069337
805.999485	2766.033224
806.319901	2768.808380
806.640272	2763.863008
806.960598	2769.168822
807.280879	2776.049997
807.601115	2781.312962
807.921306	2771.555808
808.241453	2767.895931
808.561554	2773.748710
808.881611	2773.887342
809.201623	2771.616302
809.521590	2772.508587
809.841513	2770.431631
810.161390	2772.183432
810.481223	2770.106477
810.801011	2759.852770
811.120755	2758.411000
811.440453	2764.004160
811.760107	2758.945362
812.079716	2762.622884
812.399281	2753.430340
812.718801	2746.473547
813.038276	2745.949267
813.357707	2751.066039
813.677093	2756.142481
813.996434	2751.981008
814.315731	2749.810791
814.634983	2743.952971
814.954191	2747.108733
815.273354	2757.790938
815.592473	2765.604726
815.911547	2766.149171
816.230577	2772.281735
816.549562	2782.822787
816.868502	2777.854730
817.187399	2792.504323
817.506250	2801.452371
817.825058	2795.886937
818.143821	2807.479071
818.462539	2820.437357
818.781213	2844.163547
819.099843	2868.671117
819.418429	2915.735329
819.736970	2968.387660
820.055466	3023.167359
820.373919	3116.375773
820.692327	3239.102663
821.010691	3367.473125
821.329011	3701.371430
821.647286	4337.746527
821.965517	5291.605931
822.283704	5803.149456
822.601847	5821.015305
822.919945	5425.335140
823.237999	5118.689313
823.556010	4700.238256
823.873976	4277.908030
824.191897	3968.524857
824.509775	3743.376844
824.827609	3522.859131
825.145398	3425.189296
825.463144	3418.587905
825.780845	3494.031293
826.098502	3578.309302
826.416116	3792.828043
826.733685	4034.505999
827.051210	4083.027105
827.368692	4003.187831
827.686129	3807.744817
828.003522	3540.387223
828.320872	3334.244360
828.638177	3174.243178
828.955439	3064.305695
829.272656	2997.354130
829.589830	2940.384051
829.906960	2900.808473
830.224046	2863.019983
830.541088	2837.955366
830.858086	2824.054385
831.175041	2810.453352
831.491952	2811.678352
831.808819	2824.160249
832.125642	2845.922910
832.442421	2881.747870
832.759157	2947.600463
833.075849	3093.766198
833.392497	3327.227073
833.709101	3487.971826
834.025662	3445.913479
834.342179	3316.179385
834.658653	3178.452541
834.975083	3052.176678
835.291469	2975.714978
835.607811	2902.398957
835.924110	2853.328365
836.240366	2810.150882
836.556578	2777.842127
836.872746	2755.567789
837.188871	2736.960890
837.504952	2723.677450
837.820990	2717.481872
838.136984	2705.257074
838.452935	2701.042669
838.768842	2696.800538
839.084706	2714.510112
839.400526	2778.535286
839.716303	2887.772049
840.032037	2951.963581
840.347727	2940.931016
840.663373	2896.042062
840.978977	2832.823472
841.294537	2769.995571
841.610054	2732.323029
841.925527	2713.569936
842.240957	2695.308357
842.556344	2675.224400
842.871687	2663.075219
843.186987	2655.349651
843.502244	2651.122643
843.817458	2646.915800
844.132629	2637.393061
844.447756	2631.096659
844.762840	2620.890843
845.077881	2625.664816
845.392879	2624.757408
845.707833	2620.051491
846.022745	2614.354987
846.337613	2616.868003
846.652438	2615.504371
846.967221	2618.158538
847.281960	2615.219545
847.596656	2615.569906
847.911309	2613.679473
848.225919	2613.434977
848.540485	2608.426591
848.855009	2607.249481
849.169490	2605.553133
849.483928	2606.304265
849.798323	2607.861981
850.112675	2605.628750
850.426984	2605.797629
850.741251	2603.405601
851.055474	2605.464913
851.369654	2608.240068
851.683792	2609.283587
851.997887	2604.796960
852.311938	2605.462392
852.625947	2605.956425
852.939914	2604.605396
853.253837	2609.548247
853.567718	2606.931888
853.881555	2604.711260
854.195350	2610.425408
854.509103	2609.235696
854.822812	2603.062803
855.136479	2604.073554
855.450103	2606.936930
855.763685	2606.203442
856.077224	2605.084306
856.390720	2601.805035
856.704173	2604.968359
857.017584	2609.472630
857.330953	2609.636467
857.644278	2610.632095
857.957561	2610.438011
858.270802	2605.497680
858.584000	2609.281066
858.897155	2610.942126
859.210268	2611.998248
859.523339	2607.098247
859.836367	2604.774275
860.149352	2602.987186
860.462295	2605.391816
860.775195	2602.616661
861.088054	2600.892586
861.400869	2599.254211
861.713642	2597.913264
862.026373	2600.227154
862.339062	2605.036415
862.651708	2607.476333
862.964312	2608.976076
863.276873	2607.632609
863.589392	2609.351642
863.901869	2613.739967
864.214303	2615.937910
864.526696	2620.490072
864.839045	2620.837911
865.151353	2624.586009
865.463619	2622.660288
865.775842	2624.147429
866.088023	2623.605505
866.400162	2626.017697
866.712258	2624.311266
867.024313	2624.200361
867.336325	2616.537807
867.648296	2620.467387
867.960224	2623.892851
868.272110	2625.445526
868.583954	2618.758435
868.895755	2621.092490
869.207515	2624.328910
869.519233	2632.077164
869.830909	2626.902419
870.142542	2622.312449
870.454134	2623.986112
870.765684	2628.346710
871.077191	2627.824951
871.388657	2635.472381
871.700081	2631.855353
872.011463	2632.311577
872.322803	2632.160343
872.634101	2637.549336
872.945357	2643.699544
873.256571	2648.299597
873.567744	2643.770120
873.878874	2642.159472
874.189963	2645.111067
874.501010	2649.179278
874.812015	2655.579023
875.122979	2654.580875
875.433900	2643.369348
875.744780	2644.107877
876.055618	2649.869916
876.366415	2652.544248
876.677169	2652.017448
876.987882	2648.203815
877.298554	2647.225831
877.609183	2656.776297
877.919771	2659.387615
878.230317	2667.871877
878.540822	2679.211952
878.851285	2692.999508
879.161707	2709.534493
879.472087	2744.981366
879.782425	2786.699435
880.092722	2887.877913
880.402977	3049.121739
880.713191	3260.076384
881.023363	3481.362873
881.333494	3626.157414
881.643583	3778.929582
881.953631	3789.427784
882.263637	3644.645846
882.573602	3464.651448
882.883526	3363.011704
883.193408	3274.214300
883.503248	3187.808923
883.813048	3089.105651
884.122806	2990.800630
884.432522	2919.085176
884.742197	2859.239118
885.051831	2832.465550
885.361424	2802.243832
885.670975	2771.684358
885.980485	2747.315420
886.289954	2728.506875
886.599382	2719.415154
886.908768	2708.508618
887.218113	2690.703262
887.527417	2679.254802
887.836680	2670.697443
888.145901	2671.075530
888.455082	2661.378871
888.764221	2648.465955
889.073319	2645.287507
889.382376	2643.754997
889.691392	2643.601242
890.000366	2646.346150
890.309300	2641.783906
890.618193	2646.303300
890.927044	2648.768424
891.235855	2649.504433
891.544625	2647.114926
891.853353	2646.351191
892.162041	2654.900988
892.470687	2670.006805
892.779293	2680.557940
893.087858	2688.961544
893.396381	2706.381251
893.704864	2746.496233
894.013306	2807.826910
894.321707	2886.254661
894.630068	2927.859304
894.938387	2945.079886
895.246665	2943.106274
895.554903	2903.593710
895.863100	2866.891589
896.171256	2812.842858
896.479371	2758.968047
896.787446	2725.555280
897.095480	2713.491798
897.403473	2709.267312
897.711425	2692.568489
898.019336	2678.357477
898.327207	2663.518840
898.635038	2664.141423
898.942827	2663.123110
899.250576	2654.051553
899.558284	2644.405306
899.865952	2640.921868
900.173579	2641.446148
900.481165	2637.768627
900.788711	2629.254118
901.096216	2625.443005
901.403681	2619.718775
901.711105	2621.226080
902.018489	2618.629886
902.325832	2622.430916
902.633135	2621.989815
902.940397	2636.347021
903.247619	2669.089315
903.554800	2729.479818
903.861941	2838.255315
904.169041	2946.987962
904.476101	2997.880931
904.783121	2990.495641
905.090100	2941.921603
905.397039	2879.179402
905.703938	2816.396872
906.010796	2761.796135
906.317614	2718.427088
906.624391	2687.882737
906.931129	2667.377844
907.237826	2643.981849
907.544483	2628.656741
907.851099	2616.673918
908.157675	2606.742845
908.464211	2604.378544
908.770707	2590.873293
909.077163	2587.074783
909.383578	2582.736871
909.689954	2583.624114
909.996289	2583.871130
910.302584	2586.179979
910.608839	2580.788465
910.915054	2581.615214
911.221229	2585.002869
911.527363	2583.921542
911.833458	2584.004721
912.139513	2582.237796
912.445527	2587.031934
912.751502	2593.184662
913.057436	2596.426124
913.363331	2603.226640
913.669186	2609.742332
913.975000	2625.858901
914.280775	2637.488842
914.586510	2650.704227
914.892205	2684.802592
915.197859	2744.015985
915.503475	2815.726398
915.809050	2871.267311
916.114585	2881.205946
916.420081	2891.610887
916.725536	2900.203534
917.030952	2880.827859
917.336328	2841.862261
917.641665	2800.232412
917.946961	2753.551327
918.252218	2725.441854
918.557435	2703.691795
918.862612	2683.393589
919.167750	2669.890859
919.472848	2656.557007
919.777906	2641.552012
920.082925	2630.355610
920.387904	2618.705503
920.692843	2616.880606
920.997743	2614.904473
921.302603	2609.086982
921.607423	2603.430807
921.912204	2598.505600
922.216946	2596.169025
922.521647	2594.281113
922.826310	2590.759867
923.130932	2583.722416
923.435516	2580.637230
923.740059	2577.854513
924.044564	2576.682445
924.349028	2577.224369
924.653454	2569.271949
924.957840	2566.849674
925.262186	2565.168449
925.566493	2566.290106
925.870761	2562.325239
926.174989	2564.122410
926.479178	2562.327759
926.783328	2560.308777
927.087438	2558.816596
927.391509	2560.906154
927.695541	2559.086297
927.999533	2556.505227
928.303486	2556.757284
928.607400	2557.710062
928.911275	2555.771739
929.215110	2554.332489
929.518906	2554.183775
929.822663	2558.980433
930.126381	2553.054557
930.430060	2556.711914
930.733699	2554.450956
931.037299	2558.919939
931.340861	2551.950544
931.644383	2556.049002
931.947866	2559.885320
932.251309	2556.442212
932.554714	2555.852397
932.858080	2556.946328
933.161407	2554.201419
933.464694	2555.113868
933.767943	2554.919784
934.071153	2555.249979
934.374323	2554.566903
934.677455	2553.246121
934.980548	2553.470452
935.283602	2554.105637
935.586617	2553.155380
935.889593	2555.169321
936.192530	2551.567416
936.495428	2551.753939
936.798287	2552.500030
937.101108	2554.743343
937.403890	2555.509599
937.706632	2558.473797
938.009336	2563.893037
938.312002	2563.991340
938.614628	2567.784808
938.917216	2573.146075
939.219765	2573.337639
939.522275	2571.432083
939.824747	2571.268246
940.127179	2568.651887
940.429573	2566.038048
940.731929	2568.412432
941.034246	2561.785835
941.336524	2564.702143
941.638763	2567.474777
941.940964	2565.566701
942.243126	2564.848336
942.545250	2562.000084
942.847335	2558.927501
943.149381	2559.872717
943.451389	2558.826678
943.753359	2556.530432
944.055290	2556.182593
944.357182	2556.963972
944.659036	2555.219732
944.960851	2555.025648
945.262628	2553.843497
945.564367	2558.730896
945.866067	2558.098231
946.167729	2556.633776
946.469352	2556.079249
946.770937	2556.795093
947.072484	2554.841646
947.373992	2555.156718
947.675462	2553.485575
947.976893	2556.268292
948.278286	2554.982798
948.579641	2554.191337
948.880958	2552.880637
949.182236	2555.204609
949.483476	2551.600184
949.784678	2552.038764
950.085841	2552.242931
950.386967	2553.911553
950.688054	2551.635472
950.989103	2555.837274
951.290114	2555.718807
951.591087	2555.620504
951.892021	2557.084959
952.192917	2559.270299
952.493776	2558.216698
952.794596	2561.412790
953.095378	2559.741647
953.396122	2559.678633
953.696828	2559.729044
953.997496	2558.970351
954.298126	2556.406924
954.598718	2556.444733
954.899272	2555.978426
955.199788	2555.068498
955.500266	2553.399876
955.800706	2547.486602
956.101108	2546.982487
956.401472	2547.259750
956.701798	2544.650953
957.002087	2546.037271
957.302337	2543.811601
957.602550	2547.254709
957.902724	2545.069369
958.202861	2543.975439
958.502960	2545.886036
958.803022	2546.874102
959.103045	2547.058104
959.403031	2542.780685
959.702979	2544.887887
960.002889	2543.277239
960.302762	2541.664070
960.602596	2543.257074
960.902393	2542.057280
961.202153	2538.888914
961.501875	2543.007537
961.801559	2543.123484
962.101205	2540.434028
962.400814	2541.822866
962.700385	2540.907897
962.999918	2544.557692
963.299414	2540.068544
963.598873	2544.343443
963.898293	2540.872608
964.197677	2542.599204
964.497022	2540.338246
964.796331	2540.618030
965.095601	2543.189019
965.394835	2539.214069
965.694030	2537.542926
965.993189	2540.166847
966.292309	2540.504604
966.591393	2539.052752
966.890439	2541.101981
967.189447	2541.565767
967.488419	2542.793288
967.787353	2539.352701
968.086249	2542.538710
968.385108	2542.725233
968.683930	2541.485109
968.982714	2543.060469
969.281462	2541.011240
969.580172	2540.388658
969.878844	2540.872608
970.177480	2542.599204
970.476078	2540.620551
970.774639	2545.273536
971.073162	2541.893442
971.371649	2539.272042
971.670098	2541.492670
971.968510	2537.857998
972.266885	2536.718698
972.565223	2540.723894
972.863524	2541.931251
973.161788	2542.815973
973.460014	2544.237579
973.758204	2540.749100
974.056356	2540.691127
974.354471	2543.922507
974.652550	2541.275901
974.950591	2541.429656
975.248595	2542.823535
975.546563	2542.649615
975.844493	2543.060469
976.142386	2542.216076
976.440243	2540.837320
976.738062	2541.971580
977.035845	2541.885880
977.333590	2539.082999
977.631299	2540.822197
977.928971	2542.488298
978.226606	2541.568288
978.524204	2541.832948
978.821765	2539.176260
979.119290	2541.313709
979.416777	2543.564585
979.714228	2538.954449
980.011642	2538.679707
980.309020	2540.844882
980.606360	2541.162475
980.903664	2539.740869
981.200931	2543.587270
981.498162	2544.282949
981.795356	2542.153062
982.092513	2547.927703
982.389633	2549.707231
982.686717	2551.491799
982.983764	2552.207643
983.280775	2551.479196
983.577749	2554.486244
983.874686	2553.384752
984.171587	2549.099772
984.468451	2550.221428
984.765279	2547.113557
985.062070	2547.463917
985.358824	2544.340922
985.655543	2543.340253
985.952224	2543.158772
986.248869	2540.807073
986.545478	2535.849099
986.842050	2540.214738
987.138586	2536.038142
987.435086	2536.917823
987.731549	2533.527647
988.027975	2538.982176
988.324366	2540.572660
988.620719	2541.033925
988.917037	2539.698020
989.213318	2539.710622
989.509563	2539.748431
989.805772	2541.091899
990.101944	2536.678368
990.398080	2538.253729
990.694180	2540.277752
990.990244	2539.753472
991.286271	2539.813966
991.582262	2539.841692
991.878217	2538.208359
992.174136	2540.350849
992.470019	2537.374048
992.765865	2541.170037
993.061676	2537.747093
993.357450	2539.879501
993.653188	2540.151723
993.948890	2539.360262
994.244556	2539.261960
994.540186	2542.223638
994.835780	2541.845551
995.131337	2541.180119
995.426859	2538.750283
995.722345	2539.330015
996.017795	2540.807073
996.313208	2544.938299
996.608586	2542.074924
996.903928	2541.893442
997.199234	2543.945192
997.494504	2542.788247
997.789738	2541.585932
998.084936	2543.587270
998.380099	2541.792619
998.675225	2540.905376
998.970316	2538.984696
999.265371	2539.065355
999.560390	2539.725746
999.855373	2540.892773
1000.150320	2538.654501
1000.445232	2540.222300
1000.740108	2541.399409
1001.034948	2538.125180
1001.329752	2539.617361
1001.624521	2538.475540
1001.919254	2533.734335
1002.213951	2536.683410
1002.508613	2534.929088
1002.803239	2537.225334
1003.097829	2532.340456
1003.392384	2540.365972
1003.686903	2536.617875
1003.981386	2539.493853
1004.275834	2539.093081
1004.570246	2541.059131
1004.864623	2538.112577
1005.158964	2541.306148
1005.453270	2537.767258
1005.747540	2540.328164
1006.041775	2537.908410
1006.335974	2538.757844
1006.630138	2539.584594
1006.924266	2538.203317
1007.218359	2538.505787
1007.512416	2537.837834
1007.806438	2538.649460
1008.100425	2539.753472
1008.394376	2536.607792
1008.688292	2535.816331
1008.982172	2537.492515
1009.276017	2537.326157
1009.569827	2537.220293
1009.863602	2541.480068
1010.157341	2539.670293
1010.451045	2535.760878
1010.744714	2539.801363
1011.038347	2539.561908
1011.331945	2535.942360
1011.625508	2538.508307
1011.919036	2535.559232
1012.212528	2537.598379
1012.505986	2537.237937
1012.799408	2538.838503
1013.092795	2536.867412
1013.386147	2537.900848
1013.679464	2537.837834
1013.972745	2538.616692
1014.265992	2535.203831
1014.559204	2537.900848
1014.852380	2537.908410
1015.145521	2538.765406
1015.438628	2537.210210
1015.731699	2537.936136
1016.024736	2535.944881
1016.317737	2538.578883
1016.610703	2540.892773
1016.903635	2537.668955
1017.196531	2533.149561
1017.489393	2535.380271
1017.782219	2533.240302
1018.075011	2536.000333
1018.367768	2537.449665
1018.660490	2536.852288
1018.953177	2536.852288
1019.245829	2536.852288
