Dividing Wavelength (nm)	Counts (n)	Blue Motor Position (mm): 15.400000	Red Motor Position (mm): 0.000000	
326.493990	2135.606689
326.888308	2135.606689
327.282561	2135.606689
327.676750	2104.588469
328.070874	2103.514704
328.464933	2103.807091
328.858929	2112.359408
329.252859	2120.021962
329.646726	2129.844650
330.040528	2145.686476
330.434265	2163.383447
330.827938	2178.758966
331.221547	2198.147244
331.615091	2218.979812
332.008571	2236.036556
332.401986	2256.266706
332.795338	2275.090375
333.188625	2293.354475
333.581847	2313.352733
333.975006	2332.136072
334.368100	2350.765656
334.761129	2366.431041
335.154095	2384.380070
335.546996	2403.228944
335.939833	2423.186872
336.332606	2438.169181
336.725315	2450.111675
337.117960	2459.856225
337.510540	2465.232616
337.903056	2476.776858
338.295508	2487.446460
338.687896	2494.418376
339.080220	2503.822648
339.472480	2508.800788
339.864676	2510.355984
340.256807	2517.156500
340.648875	2519.291429
341.040879	2524.559435
341.432818	2525.797038
341.824694	2527.700073
342.216506	2527.140505
342.608253	2526.449867
342.999937	2528.675537
343.391557	2525.391225
343.783113	2528.342821
344.174605	2524.781245
344.566033	2522.721934
344.957397	2524.176307
345.348697	2519.150277
345.739934	2519.891326
346.131106	2515.326561
346.522215	2516.889319
346.913260	2513.146262
347.304241	2507.830366
347.695159	2509.204080
348.086012	2506.597803
348.476802	2506.292814
348.867528	2505.861795
349.258191	2502.438852
349.648789	2501.236536
350.039324	2501.087822
350.429796	2500.331649
350.820203	2498.108500
351.210548	2497.334683
351.600828	2495.182111
351.991045	2496.742348
352.381198	2494.844353
352.771288	2493.407624
353.161314	2493.256390
353.551276	2495.045999
353.941175	2494.630104
354.331010	2493.568941
354.720782	2494.758654
355.110490	2492.303612
355.500135	2493.344610
355.889717	2495.482059
356.279235	2492.641369
356.668689	2494.861997
357.058080	2494.186483
357.447408	2491.933087
357.836672	2488.510143
358.225873	2494.378047
358.615010	2493.072388
359.004084	2497.352327
359.393095	2494.874600
359.782043	2499.023470
360.170927	2494.536843
360.559748	2496.399549
360.948505	2498.219406
361.337199	2498.058089
361.725830	2500.162771
362.114398	2501.707884
362.502903	2500.923985
362.891344	2500.961793
363.279722	2499.731752
363.668037	2500.969355
364.056289	2500.576145
364.444478	2503.419356
364.832603	2503.931033
365.220665	2503.815087
365.608665	2503.830210
365.996601	2502.713594
366.384474	2503.885663
366.772284	2504.924140
367.160031	2505.796260
367.547715	2506.244923
367.935336	2505.208966
368.322893	2506.393637
368.710388	2507.558143
369.097820	2509.584687
369.485189	2506.751559
369.872495	2508.803308
370.259738	2505.430776
370.646918	2506.144100
371.034035	2508.591580
371.421090	2506.933040
371.808081	2509.698113
372.195010	2507.817763
372.581875	2509.357835
372.968678	2507.734584
373.355418	2507.880777
373.742096	2511.717095
374.128710	2511.550737
374.515262	2511.515449
374.901751	2509.708195
375.288177	2512.581653
375.674540	2510.416478
376.060841	2512.178361
376.447079	2510.628206
376.833254	2511.908659
377.219367	2507.724501
377.605417	2508.674759
377.991404	2508.624347
378.377329	2508.780623
378.763191	2508.901611
379.148991	2512.730367
379.534727	2510.222393
379.920402	2513.121057
380.306013	2512.516118
380.691563	2516.581809
381.077049	2512.652229
381.462474	2512.301869
381.847835	2512.226252
382.233134	2514.971160
382.618371	2514.225069
383.003545	2514.467045
383.388657	2515.220697
383.773706	2517.131294
384.158693	2514.537621
384.543618	2517.400996
384.928480	2514.530059
385.313280	2515.727333
385.698017	2518.366377
386.082692	2518.825122
386.467305	2515.911335
386.851856	2519.354443
387.236344	2514.678773
387.620770	2519.626666
388.005133	2517.083403
388.389435	2515.928979
388.773674	2515.558454
389.157851	2514.978722
389.541965	2518.681449
389.926018	2518.467200
390.310008	2519.271264
390.693936	2519.805627
391.077802	2516.985101
391.461606	2519.097344
391.845348	2517.993332
392.229027	2519.258661
392.612645	2519.684639
392.996200	2520.750843
393.379694	2521.050792
393.763125	2521.701100
394.146494	2524.103210
394.529801	2519.856038
394.913047	2519.167921
395.296230	2521.635565
395.679351	2521.869979
396.062410	2523.773015
396.445408	2522.328724
396.828343	2522.109434
397.211217	2516.932169
397.594028	2519.041892
397.976778	2521.272602
398.359466	2521.559948
398.742092	2515.654236
399.124656	2522.200175
399.507158	2521.454084
399.889598	2523.150432
400.271977	2521.703621
400.654294	2524.312418
401.036549	2523.387366
401.418742	2525.345855
401.800874	2524.551873
402.182944	2526.338962
402.564952	2525.033303
402.946898	2525.849970
403.328783	2523.316790
403.710606	2525.484486
404.092367	2524.410721
404.474067	2525.615556
404.855705	2525.978519
405.237282	2526.275948
405.618797	2528.617563
406.000250	2528.239477
406.381642	2523.984743
406.762972	2525.643283
407.144240	2525.885258
407.525447	2525.628159
407.906593	2528.733510
408.287677	2523.329393
408.668700	2527.344672
409.049661	2525.562624
409.430560	2527.085053
409.811399	2528.932636
410.192176	2527.848788
410.572891	2528.695701
410.953545	2527.261493
411.334138	2528.962883
411.714669	2528.620084
412.095139	2527.319466
412.475547	2528.489014
412.855894	2528.426000
413.236180	2527.816020
413.616405	2529.862728
413.996568	2529.885414
414.376670	2530.409694
414.756711	2528.796524
415.136691	2530.225692
415.516609	2530.870959
415.896466	2530.986906
416.276262	2532.610157
416.655997	2526.626308
417.035670	2528.448685
417.415283	2531.017153
417.794834	2524.710669
418.174324	2530.417255
418.553753	2532.380785
418.933121	2532.249715
419.312428	2533.096629
419.691674	2529.373737
420.070859	2530.422297
420.449983	2529.950949
420.829045	2530.472708
421.208047	2528.494055
421.586988	2531.337266
421.965867	2531.367513
422.344686	2531.765764
422.723444	2531.906916
423.102141	2532.521937
423.480777	2531.201155
423.859352	2532.027904
424.237866	2534.281300
424.616319	2534.863553
424.994712	2532.408511
425.373044	2535.087884
425.751314	2531.485980
426.129524	2532.852133
426.507673	2534.266176
426.885762	2531.488501
427.263789	2534.876156
427.641756	2534.190559
428.019662	2533.978831
428.397508	2535.123173
428.775292	2533.930940
429.153016	2535.100487
429.530679	2537.815149
429.908282	2533.018491
430.285824	2535.168543
430.663305	2535.675179
431.040726	2534.611495
431.418086	2537.096784
431.795385	2537.086702
432.172624	2534.505631
432.549802	2536.204500
432.926920	2534.482946
433.303977	2534.886238
433.680974	2536.834644
434.057910	2536.159130
434.434786	2534.888759
434.811601	2533.653676
435.188355	2535.869263
435.565050	2535.390354
435.941683	2536.053265
436.318257	2533.683923
436.694770	2530.901206
437.071222	2533.399098
437.447614	2532.073274
437.823946	2533.814993
438.200218	2537.066537
438.576429	2538.198276
438.952580	2538.122659
439.328670	2537.177443
439.704700	2537.608461
440.080670	2538.362114
440.456580	2539.314892
440.832429	2541.059131
441.208218	2535.919675
441.583947	2540.713812
441.959616	2537.716846
442.335224	2539.236754
442.710773	2539.251877
443.086261	2540.136600
443.461689	2536.086033
443.837057	2539.892104
444.212365	2538.019315
444.587612	2536.469161
444.962800	2537.018646
445.337927	2538.470499
445.712995	2540.224820
446.088002	2540.212217
446.462949	2536.484284
446.837837	2540.388658
447.212664	2540.416384
447.587431	2540.600386
447.962139	2538.548637
448.336786	2541.585932
448.711374	2538.064686
449.085901	2541.742208
449.460369	2539.645088
449.834776	2541.233051
450.209124	2538.614172
450.583412	2540.701209
450.957640	2539.980324
451.331808	2543.161292
451.705917	2541.170037
452.079965	2539.698020
452.453954	2539.123328
452.827883	2543.519214
453.201752	2538.654501
453.575562	2542.326981
453.949311	2537.197607
454.323001	2541.343956
454.696632	2541.870757
455.070202	2542.815973
455.443713	2541.359080
455.817164	2538.762886
456.190556	2537.434542
456.563888	2538.956970
456.937160	2538.684748
457.310373	2541.772454
457.683526	2539.582073
458.056619	2540.784388
458.429653	2542.997455
458.802628	2539.181301
459.175542	2541.510314
459.548398	2541.512835
459.921194	2544.451828
460.293930	2543.660367
460.666607	2543.075593
461.039224	2542.823535
461.411782	2543.836807
461.784280	2543.844369
462.156719	2543.988042
462.529099	2541.666590
462.901419	2544.449307
463.273680	2544.217414
463.645882	2543.887218
464.018024	2545.593649
464.390106	2543.627599
464.762130	2545.089534
465.134094	2545.512991
465.505999	2544.671118
465.877845	2543.690613
466.249631	2544.787064
466.621358	2543.796478
466.993026	2546.874102
467.364634	2548.479710
467.736184	2546.375028
468.107674	2546.001982
468.479105	2544.630789
468.850477	2545.525593
469.221790	2545.696993
469.593043	2545.187836
469.964238	2544.600542
470.335373	2545.328988
470.706449	2544.474513
471.077467	2545.263453
471.448425	2548.109185
471.819324	2545.477702
472.190164	2546.891746
472.560945	2544.028371
472.931667	2544.792106
473.302330	2544.865202
473.672934	2546.170861
474.043479	2542.901673
474.413965	2543.559543
474.784393	2543.410829
475.154761	2545.785213
475.525070	2543.506611
475.895321	2544.842517
476.265513	2542.193391
476.635645	2547.146324
477.005719	2548.270502
477.375734	2547.594987
477.745691	2545.502908
478.115588	2548.325954
478.485427	2547.819318
478.855207	2547.307641
479.224928	2548.336037
479.594591	2548.482230
479.964194	2547.930224
480.333739	2547.647919
480.703226	2547.922662
481.072653	2547.622713
481.442022	2549.578681
481.811333	2547.935265
482.180584	2551.171686
482.549777	2550.566747
482.918912	2549.555996
483.287988	2551.595143
483.657005	2549.046839
484.025964	2552.931048
484.394864	2548.189843
484.763706	2548.822508
485.132489	2548.706562
485.501213	2547.811757
485.869879	2549.608928
486.238487	2551.464073
486.607036	2549.833259
486.975527	2548.988866
487.343959	2550.017262
487.712333	2549.354350
488.080648	2548.038609
488.448905	2549.092210
488.817104	2552.008517
489.185244	2550.239072
489.553326	2551.353167
489.921350	2551.582540
490.289315	2550.002138
490.657222	2551.050698
491.025070	2551.658157
491.392861	2552.643703
491.760593	2550.780996
492.128267	2554.697973
492.495883	2551.799309
492.863440	2551.869886
493.230939	2551.060780
493.598380	2550.375183
493.965763	2548.479710
494.333088	2548.101623
494.700354	2547.300080
495.067563	2550.415513
495.434713	2546.533824
495.801805	2550.460883
496.168839	2552.126984
496.535815	2552.278219
496.902733	2550.982642
497.269593	2555.847356
497.636395	2550.055070
498.003139	2553.916594
498.369825	2549.397200
498.736453	2554.856769
499.103023	2552.008517
499.469535	2553.198230
499.835989	2552.374001
500.202385	2553.495658
500.568723	2553.372149
500.935003	2554.428271
501.301226	2554.597150
501.667390	2555.620504
502.033497	2553.185627
502.399546	2551.499361
502.765537	2552.537838
503.131470	2554.130843
503.497345	2553.404917
503.863163	2554.251831
504.228923	2556.895916
504.594625	2553.795606
504.960269	2556.023796
505.325856	2555.401214
505.691385	2552.598332
506.056856	2556.737120
506.422270	2555.207129
506.787625	2556.870710
507.152924	2555.570092
507.518164	2555.875082
507.883347	2555.847356
508.248472	2556.374157
508.613540	2557.077397
508.978550	2557.833571
509.343503	2558.166287
509.708398	2559.303067
510.073236	2557.944476
510.438016	2559.381205
510.802738	2559.124106
511.167403	2560.525547
511.532010	2557.861297
511.896561	2561.425393
512.261053	2558.483879
512.625488	2557.959599
512.989866	2556.890875
513.354186	2556.139743
513.718449	2555.796944
514.082655	2559.013201
514.446803	2560.500341
514.810894	2563.615774
515.174927	2562.264745
515.538904	2560.394477
515.902822	2565.801114
516.266684	2563.041082
516.630488	2564.936556
516.994235	2562.670558
517.357925	2565.743141
517.721558	2566.620302
518.085133	2563.860270
518.448651	2565.841443
518.812112	2564.976886
519.175516	2566.174160
519.538863	2567.850343
519.902152	2566.751372
520.265385	2568.780436
520.628560	2568.596434
520.991678	2567.003429
521.354739	2567.106773
521.717743	2569.057700
522.080690	2567.389078
522.443580	2568.336815
522.806413	2570.065930
523.169189	2572.899059
523.531908	2572.465520
523.894569	2569.897052
524.257174	2571.724470
524.619722	2573.756055
524.982213	2574.744121
525.344647	2574.018195
525.707025	2575.959039
526.069345	2573.302351
526.431608	2576.556416
526.793815	2574.693710
527.155964	2575.984245
527.518057	2577.594894
527.880093	2577.889801
528.242072	2579.099678
528.603995	2579.437435
528.965860	2578.429205
529.327669	2581.690831
529.689421	2579.792837
530.051117	2581.587487
530.412755	2582.719227
530.774337	2583.833322
531.135862	2583.651840
531.497331	2585.280133
531.858743	2582.056315
532.220098	2586.923549
532.581396	2585.401120
532.942638	2585.680904
533.303824	2590.976637
533.664953	2593.880341
534.026025	2592.075608
534.387040	2597.638521
534.747999	2599.536516
535.108902	2600.045672
535.469748	2600.181783
535.830537	2601.613471
536.191270	2603.075406
536.551947	2608.310644
536.912567	2607.582197
537.273131	2611.151334
537.633638	2610.221241
537.994089	2612.908176
538.354483	2614.060080
538.714821	2620.207767
539.075103	2618.902108
539.435328	2623.300515
539.795497	2624.487707
540.155609	2632.394757
540.515665	2630.196813
540.875665	2633.897020
541.235609	2639.613689
541.595496	2638.771816
541.955328	2646.174751
542.315102	2648.120636
542.674821	2652.287150
543.034483	2656.345278
543.394090	2657.960968
543.753640	2664.058244
544.113134	2669.164933
544.472571	2669.878256
544.831953	2675.909997
545.191278	2679.297652
545.550548	2686.158662
545.909761	2691.308201
546.268918	2694.330373
546.628019	2704.558874
546.987064	2705.829245
547.346053	2705.798998
547.704986	2717.988508
548.063863	2721.923128
548.422684	2729.401680
548.781449	2733.442165
549.140158	2742.236458
549.498811	2746.450862
549.857408	2751.655854
550.215949	2762.393511
550.574434	2765.072885
550.932864	2777.648043
551.291237	2783.679783
551.649555	2797.472380
552.007817	2800.250056
552.366022	2805.689461
552.724173	2818.393169
553.082267	2824.190496
553.440305	2840.390244
553.798288	2841.832014
554.156215	2859.655013
554.514086	2869.838144
554.871902	2873.334184
555.229661	2889.090310
555.587365	2895.472411
555.945014	2901.176477
556.302606	2922.830753
556.660143	2925.994077
557.017625	2949.485854
557.375050	2956.913994
557.732421	2975.036942
558.089735	2986.296359
558.446994	2997.495283
558.804197	3014.191584
559.161345	3030.219933
559.518437	3030.040972
559.875474	3057.563151
560.232455	3072.215265
560.589381	3082.413519
560.946251	3111.697582
561.303065	3116.897532
561.659825	3136.552991
562.016528	3145.029691
562.373177	3146.262253
562.729770	3179.052438
563.086307	3183.796164
563.442789	3212.717264
563.799216	3229.887434
564.155587	3247.496184
564.511904	3262.879265
564.868164	3277.410391
565.224370	3294.141981
565.580520	3318.347081
565.936615	3324.545180
566.292654	3344.921523
566.648638	3369.643342
567.004567	3393.235942
567.360441	3410.244795
567.716260	3425.627876
568.072023	3449.890949
568.427732	3474.237202
568.783385	3479.911021
569.138982	3518.369983
569.494525	3539.028632
569.850013	3544.410063
570.205445	3589.301538
570.560823	3593.246241
570.916145	3612.359776
571.271412	3648.431752
571.626625	3663.401459
571.981782	3676.967204
572.336884	3705.744631
572.691931	3718.430694
573.046923	3749.837083
573.401860	3762.132457
573.756743	3784.978966
574.111570	3816.445848
574.466342	3833.452181
574.821059	3869.206565
575.175722	3877.358110
575.530330	3911.327926
575.884882	3929.254269
576.239380	3950.958957
576.593823	3966.248776
576.948211	4004.405270
577.302544	3991.729288
577.656823	4039.655538
578.011047	4058.222108
578.365216	4085.068772
578.719330	4097.364147
579.073389	4130.875217
579.427394	4137.549704
579.781344	4165.263448
580.135239	4181.924461
580.489080	4209.544943
580.842866	4221.240420
581.196597	4254.912807
581.550273	4290.596615
581.903895	4320.974608
582.257463	4355.302345
582.610975	4369.596537
582.964434	4393.884816
583.317837	4411.312085
583.671186	4426.115433
584.024481	4458.915700
584.377721	4465.234787
584.730906	4483.498887
585.084037	4522.971122
585.437113	4527.014127
585.790135	4567.035848
586.143103	4564.167431
586.496016	4580.541099
586.848874	4631.514726
587.201679	4656.107995
587.554428	4648.367303
587.907124	4696.608625
588.259765	4710.945666
588.612352	4753.722377
588.964884	4729.290425
589.317362	4770.761477
589.669786	4792.982883
590.022155	4839.099359
590.374470	4880.900607
590.726731	4880.335997
591.078937	4861.061146
591.431090	4937.152322
591.783188	4912.453188
592.135232	4942.914361
592.487222	4959.472030
592.839157	5015.043190
593.191038	5016.220299
593.542866	5022.441083
593.894639	5010.675030
594.246358	5054.764962
594.598022	5095.227783
594.949633	5082.264456
595.301190	5097.823977
595.652692	5138.949710
596.004141	5223.704109
596.355535	5144.442047
596.706876	5163.260675
597.058162	5165.859389
597.409395	5223.875508
597.760573	5282.340290
598.111698	5262.687352
598.462768	5284.959170
598.813785	5290.577536
599.164748	5310.031348
599.515657	5326.210932
599.866511	5316.521834
600.217312	5393.623761
600.568060	5355.532803
600.918753	5431.220687
601.269392	5444.970434
601.619978	5426.446714
601.970510	5487.094315
602.320988	5504.055277
602.671412	5566.457200
603.021783	5549.793666
603.372100	5563.256068
603.722363	5598.574392
604.072572	5606.390701
604.422728	5636.728364
604.772830	5627.961798
605.122878	5658.206200
605.472872	5671.149363
605.822813	5715.859356
606.172701	5706.591195
606.522534	5781.291013
606.872314	5795.207118
607.222041	5806.844622
607.571714	5864.371749
607.921333	5864.989290
608.270899	5894.603548
608.620411	5970.432584
608.969870	5933.455721
609.319276	5949.161436
609.668627	5988.479915
610.017926	6026.505339
610.367171	6087.447847
610.716362	6090.260811
611.065500	6111.176559
611.414585	6152.042672
611.763616	6161.746893
612.112594	6180.996539
612.461518	6212.302105
612.810389	6274.651096
613.159207	6259.908241
613.507971	6240.625828
613.856682	6349.454257
614.205340	6337.065621
614.553945	6410.744605
614.902496	6370.788420
615.250994	6422.578714
615.599439	6428.607934
615.947830	6463.543130
616.296169	6460.984745
616.644454	6496.819787
616.992686	6510.027610
617.340864	6567.826959
617.688990	6521.206368
618.037063	6599.467761
618.385082	6581.170893
618.733048	6668.604666
619.080961	6636.797506
619.428821	6668.072824
619.776628	6695.337905
620.124382	6675.871489
620.472083	6685.318611
620.819731	6725.431073
621.167326	6662.900600
621.514868	6689.265835
621.862357	6628.928264
622.209793	6662.676269
622.557176	6635.827083
622.904506	6633.921527
623.251783	6602.557989
623.599007	6582.625266
623.946179	6605.149142
624.293297	6594.842503
624.640363	6540.024996
624.987376	6550.324073
625.334336	6523.169898
625.681243	6503.184243
626.028097	6507.570047
626.374899	6498.682493
626.721647	6519.477253
627.068343	6473.418751
627.414987	6464.911803
627.761577	6444.298525
628.108115	6485.867880
628.454600	6413.519761
628.801032	6471.273740
629.147412	6444.338855
629.493739	6450.857067
629.840014	6414.654020
630.186236	6467.838193
630.532405	6383.928187
630.878521	6433.265960
631.224585	6409.854842
631.570597	6354.432396
631.916556	6397.473768
632.262462	6404.334778
632.608316	6382.173866
632.954117	6376.588267
633.299866	6370.788420
633.645562	6382.720831
633.991206	6321.977448
634.336797	6287.120390
634.682336	6261.876812
635.027823	6240.867803
635.373257	6242.879223
635.718639	6197.929775
636.063968	6219.485749
636.409245	6134.449045
636.754470	6146.250387
637.099642	6115.078412
637.444762	6076.024593
637.789829	6091.334577
638.134845	6051.816972
638.479808	6046.511158
638.824719	6059.093878
639.169577	5997.692624
639.514383	6030.142531
639.859137	5969.305887
640.203839	5985.694678
640.548489	5982.054965
640.893086	5962.336491
641.237632	5950.036076
641.582125	5966.976873
641.926566	5952.901972
642.270955	5972.882585
642.615292	5970.437626
642.959576	5994.965360
643.303809	5985.810624
643.647990	6000.855948
643.992118	5998.640361
644.336195	5952.743176
644.680219	5984.348690
645.024192	5979.214274
645.368112	6072.077369
645.711981	6095.027222
646.055797	6171.448594
646.399562	6135.021216
646.743274	6249.556232
647.086935	6304.724099
647.430544	6305.369367
647.774101	6328.800650
648.117606	6339.286250
648.461059	6340.670046
648.804460	6307.368184
649.147810	6225.184773
649.491108	6206.010745
649.834354	6186.025090
650.177548	6114.402897
650.520690	6036.675867
650.863781	6024.085585
651.206820	6045.674326
651.549807	5971.619776
651.892742	5921.200676
652.235626	5933.259116
652.578458	5925.878867
652.921238	5840.670764
653.263967	5884.271703
653.606644	5824.801212
653.949269	5831.899156
654.291843	5781.459891
654.634365	5830.651471
654.976836	5791.083454
655.319255	5791.688393
655.661622	5778.120127
656.003938	5777.341269
656.346203	5742.779118
656.688416	5777.898316
657.030577	5729.231017
657.372687	5706.825609
657.714746	5699.631882
658.056753	5740.334158
658.398708	5683.787536
658.740612	5680.783008
659.082465	5728.560543
659.424266	5720.449327
659.766016	5723.713474
660.107715	5703.367377
660.449362	5718.853802
660.790958	5718.909254
661.132503	5704.950299
661.473996	5739.071349
661.815438	5734.642696
662.156829	5727.257405
662.498168	5728.517694
662.839456	5701.494588
663.180693	5741.871710
663.521879	5746.038224
663.863013	5732.532973
664.204097	5754.023412
664.545129	5793.785513
664.886110	5795.890194
665.227040	5821.703423
665.567918	5791.683351
665.908746	5822.174770
666.249522	5828.047715
666.590248	5813.501465
666.930922	5843.950034
667.271545	5860.386717
667.612118	5863.943251
667.952639	5837.094065
668.293109	5862.161203
668.633528	5815.621270
668.973896	5821.073278
669.314213	5814.945756
669.654480	5800.144928
669.994695	5791.990862
670.334859	5791.002796
670.674973	5780.262617
671.015035	5784.217402
671.355047	5782.939470
671.695008	5772.204333
672.034918	5749.262042
672.374777	5760.183702
672.714585	5747.114510
673.054342	5749.793883
673.394049	5741.289457
673.733705	5773.520074
674.073310	5764.312407
674.412864	5727.771603
674.752368	5714.283996
675.091820	5719.360438
675.431223	5664.865565
675.770574	5662.032436
676.109875	5615.217761
676.449125	5618.834789
676.788324	5588.103915
677.127473	5536.038878
677.466571	5525.326426
677.805619	5516.229664
678.144616	5508.136092
678.483562	5484.291434
678.822458	5456.986024
679.161303	5450.356907
679.500098	5437.449032
679.838842	5425.254481
680.177535	5431.157672
680.516179	5450.669458
680.854771	5458.687413
681.193314	5538.609867
681.531805	5644.847143
681.870247	5796.411954
682.208638	5893.126490
682.546978	5905.414303
682.885268	5882.393874
683.223508	5801.112830
683.561697	5748.047124
683.899836	5721.139965
684.237925	5678.244787
684.575963	5641.930835
684.913951	5601.039516
685.251889	5668.492675
685.589776	5632.975225
685.927614	5605.848777
686.265401	5672.497872
686.603137	5656.842568
686.940824	5732.583384
687.278460	5753.889821
687.616046	5765.247541
687.953582	5833.766904
688.291068	5812.904088
688.628504	5875.842894
688.965889	5837.719168
689.303224	5782.634480
689.640510	5736.921297
689.977745	5665.838507
690.314930	5567.863682
690.652065	5511.319580
690.989150	5425.821611
691.326185	5348.661710
691.663170	5297.027692
692.000105	5219.096495
692.336990	5148.303571
692.673825	5118.739724
693.010610	5051.102563
693.347345	4989.038398
693.684030	4973.589782
694.020665	4929.882978
694.357251	4841.912323
694.693786	4851.291389
695.030272	4818.894414
695.366707	4784.788488
695.703093	4751.002675
696.039429	4776.994864
696.375716	4759.277729
696.711952	4733.923246
697.048139	4719.903797
697.384276	4701.846384
697.720363	4713.042786
698.056400	4716.604362
698.392388	4670.611394
698.728326	4654.474661
699.064214	4627.499447
699.400053	4622.453252
699.735842	4590.840176
700.071581	4566.899736
700.407270	4541.683885
700.742910	4523.613869
701.078501	4471.059840
701.414042	4468.982885
701.749533	4436.795117
702.084974	4374.385633
702.420366	4432.991567
702.755709	4374.509141
703.091002	4319.986542
703.426246	4372.901013
703.761440	4324.637006
704.096584	4285.832724
704.431679	4305.352072
704.766725	4293.144918
705.101721	4281.366262
705.436668	4313.511179
705.771565	4263.712141
706.106413	4286.246099
706.441212	4318.169206
706.775961	4326.903005
707.110661	4305.921722
707.445311	4332.770908
707.779913	4360.719065
708.114465	4370.723234
708.448967	4391.129825
708.783421	4452.687355
709.117825	4497.485568
709.452180	4499.275178
709.786485	4542.616498
710.120742	4629.026916
710.454949	4611.289617
710.789107	4676.930481
711.123216	4752.336060
711.457275	4740.025562
711.791286	4816.391481
712.125247	4833.019727
712.459159	4738.004060
712.793023	4813.104649
713.126837	4770.612763
713.460602	4761.122791
713.794318	4680.832334
714.127985	4688.590670
714.461602	4607.775932
714.795171	4581.645111
715.128691	4513.556767
715.462162	4453.514104
715.795584	4408.617588
716.128957	4393.927666
716.462281	4337.648224
716.795556	4314.801715
717.128782	4275.896610
717.461960	4208.025035
717.795088	4221.351325
718.128167	4178.912372
718.461198	4118.988176
718.794180	4119.353660
719.127113	4101.187862
719.459997	4074.457143
719.792833	4031.551883
720.125619	4022.608876
720.458357	3988.548320
720.791046	3993.879340
721.123686	3965.772387
721.456278	3922.736057
721.788821	3943.861012
722.121315	3918.577105
722.453761	3888.690624
722.786158	3900.454157
723.118506	3929.211419
723.450805	3875.616392
723.783056	3898.430133
724.115259	3912.061413
724.447412	3921.642126
724.779518	3914.808842
725.111574	3918.521652
725.443582	3945.764047
725.775542	3933.395577
726.107453	3978.947443
726.439315	3983.429028
726.771129	3998.398735
727.102895	4032.590361
727.434612	4081.169440
727.766281	4090.152776
728.097901	4090.775358
728.429473	4092.622941
728.760996	4103.005198
729.092471	4096.814661
729.423897	4087.957353
729.755276	4090.495574
730.086606	4092.360801
730.417887	4123.958754
730.749120	4191.187581
731.080305	4254.504474
731.411442	4278.432310
731.742530	4248.109770
732.073570	4255.237962
732.404562	4309.589162
732.735506	4297.573572
733.066401	4264.186010
733.397249	4196.143036
733.728048	4121.271819
734.058798	4038.828789
734.389501	3969.071822
734.720156	3909.180394
735.050762	3867.477449
735.381320	3858.700800
735.711831	3804.962100
736.042293	3781.482926
736.372707	3800.984630
736.703073	3772.872635
737.033391	3764.035493
737.363661	3781.780354
737.693883	3808.538799
738.024056	3816.607165
738.354182	3808.748007
738.684260	3874.310733
739.014290	3894.969381
739.344272	3889.459400
739.674207	3930.499434
740.004093	3936.001853
740.333931	3931.469856
740.663722	3938.472018
740.993464	3929.067746
741.323159	3906.790887
741.652806	3877.083367
741.982405	3847.020447
742.311956	3818.742094
742.641460	3807.669200
742.970915	3785.893936
743.300323	3746.068820
743.629683	3706.024415
743.958996	3702.145247
744.288260	3676.039632
744.617477	3646.082575
744.946647	3628.456180
745.275768	3605.385340
745.604842	3601.977520
745.933869	3554.326013
746.262847	3546.413922
746.591778	3587.247268
746.920662	3556.050088
747.249498	3527.252496
747.578286	3569.719176
747.907027	3588.739450
748.235720	3584.318358
748.564365	3610.355917
748.892963	3610.471864
749.221514	3593.498299
749.550017	3571.183632
749.878473	3570.354362
750.206881	3543.621123
750.535242	3533.637118
750.863555	3540.336811
751.191821	3530.340203
751.520039	3510.329343
751.848210	3493.380984
752.176334	3524.000952
752.504411	3531.562683
752.832440	3489.219511
753.160421	3475.527737
753.488356	3486.562823
753.816243	3497.280316
754.144082	3455.574850
754.471875	3438.918878
754.799620	3460.545428
755.127318	3451.670477
755.454969	3452.761887
755.782572	3454.304480
756.110129	3431.195830
756.437638	3420.548913
756.765100	3436.239505
757.092515	3441.585648
757.419882	3452.489664
757.747203	3425.711055
758.074477	3425.602670
758.401703	3442.621606
758.728882	3466.002477
759.056014	3472.077068
759.383099	3473.407932
759.710138	3468.691933
760.037129	3485.421002
760.364073	3515.783871
760.690970	3502.182838
761.017820	3477.720639
761.344623	3498.454905
761.671379	3544.021895
761.998088	3593.778083
762.324751	3718.942371
762.651366	3966.641986
762.977935	4429.762708
763.304456	4864.574830
763.630931	4955.771823
763.957359	4596.461063
764.283740	4260.642078
764.610074	4070.580496
764.936362	3883.208369
765.262602	3723.958319
765.588796	3613.083182
765.914943	3527.585213
766.241044	3444.363324
766.567097	3413.123294
766.893104	3366.716952
767.219064	3334.476253
767.544978	3309.668735
767.870845	3253.250661
768.196665	3236.569483
768.522438	3245.900659
768.848165	3242.225658
769.173846	3203.864998
769.499479	3186.223480
769.825066	3172.645132
770.150607	3158.076197
770.476101	3171.284020
770.801548	3168.445851
771.126949	3120.557410
771.452303	3102.973865
771.777611	3111.838734
772.102872	3118.654374
772.428087	3094.267792
772.753256	3081.755649
773.078378	3074.483784
773.403453	3038.195038
773.728482	3031.465098
774.053465	3051.995197
774.378401	3036.811242
774.703291	3006.115656
775.028135	3008.288393
775.352932	3001.515603
775.677683	2991.307266
776.002388	2987.014724
776.327046	2990.329283
776.651658	2980.899804
776.976224	2966.575366
777.300743	2968.155767
777.625216	2957.924746
777.949643	2951.998869
778.274024	2955.862914
778.598359	2945.009309
778.922647	2951.333437
779.246889	2949.445525
779.571086	2930.805858
779.895236	2928.514654
780.219339	2938.639812
780.543397	2951.540124
780.867409	2953.400310
781.191374	2945.778085
781.515294	2944.817746
781.839167	2943.769186
782.162995	2934.828699
782.486776	2945.795729
782.810511	2940.915893
783.134201	2928.854932
783.457844	2938.629729
783.781441	2928.837288
784.104993	2906.832651
784.428498	2910.018661
784.751958	2921.220104
785.075372	2916.879671
785.398739	2899.175139
785.722061	2913.660894
786.045337	2928.527257
786.368568	2910.641243
786.691752	2902.477094
787.014891	2952.475258
787.337983	2981.305617
787.661030	3007.703619
787.984031	3075.887746
788.306987	3119.864251
788.629897	3112.163889
788.952760	3096.959769
789.275579	3078.930082
789.598351	3021.884385
789.921078	2979.452993
790.243759	2969.068216
790.566395	2955.661268
790.888984	2930.337031
791.211529	2917.091399
791.534027	2904.216293
791.856480	2895.028790
792.178888	2877.717467
792.501249	2871.733618
792.823566	2871.080788
793.145836	2865.167515
793.468062	2861.442102
793.790241	2858.331710
794.112375	2866.931919
794.434464	2880.462376
794.756507	2881.783158
795.078505	2887.648540
795.400457	2899.749830
795.722364	2936.837599
796.044226	2960.488172
796.366042	2963.825416
796.687812	2952.823098
797.009538	2969.786581
797.331218	2960.457925
797.652852	2946.380503
797.974442	2929.359047
798.295986	2924.370826
798.617484	2919.811102
798.938938	2907.692168
799.260346	2887.731719
799.581709	2884.313817
799.903026	2878.934906
800.224299	2872.628422
800.545526	2866.967207
800.866708	2849.310565
801.187845	2836.677434
801.508936	2839.167764
801.829983	2847.021882
802.150984	2834.461847
802.471940	2820.026503
802.792851	2822.582368
803.113717	2820.767552
803.434538	2826.133861
803.755314	2822.163952
804.076045	2813.455359
804.396731	2810.211376
804.717372	2813.281439
805.037967	2807.365645
805.358518	2816.958961
805.679024	2827.278202
805.999485	2821.790907
806.319901	2825.964982
806.640272	2815.900318
806.960598	2822.973057
807.280879	2831.958914
807.601115	2839.031653
807.921306	2828.059581
808.241453	2821.092707
808.561554	2830.771722
808.881611	2831.187617
809.201623	2824.782831
809.521590	2824.876093
809.841513	2819.129177
810.161390	2824.223263
810.481223	2816.827891
810.801011	2808.840182
811.120755	2806.191056
811.440453	2808.464616
811.760107	2806.879173
812.079716	2808.598207
812.399281	2797.752164
812.718801	2789.076339
813.038276	2784.408230
813.357707	2791.233952
813.677093	2799.372895
813.996434	2792.045578
814.315731	2786.689352
814.634983	2784.756070
814.954191	2783.170627
815.273354	2798.412556
815.592473	2808.187353
815.911547	2807.889925
816.230577	2818.660350
816.549562	2827.000939
816.868502	2822.597491
817.187399	2833.889676
817.506250	2849.055987
817.825058	2839.964266
818.143821	2855.924559
818.462539	2871.375696
818.781213	2896.455436
819.099843	2931.730910
819.418429	2989.666371
819.736970	3048.846996
820.055466	3119.292080
820.373919	3221.246896
820.692327	3361.786704
821.010691	3522.844007
821.329011	3957.252837
821.647286	4836.132640
821.965517	6183.945614
822.283704	6897.152937
822.601847	6867.619337
822.919945	6249.601602
823.237999	5761.915338
823.556010	5193.129511
823.873976	4657.156555
824.191897	4254.300307
824.509775	3971.148778
824.827609	3707.955177
825.145398	3589.735078
825.463144	3579.650249
825.780845	3669.002181
826.098502	3771.662758
826.416116	4052.553330
826.733685	4355.912324
827.051210	4415.834000
827.368692	4297.059374
827.686129	4038.554046
828.003522	3725.052250
828.320872	3470.710915
828.638177	3283.177471
828.955439	3152.770383
829.272656	3068.978844
829.589830	3005.135151
829.906960	2955.089097
830.224046	2914.734660
830.541088	2881.115205
830.858086	2866.379912
831.175041	2849.348374
831.491952	2848.761080
831.808819	2861.507637
832.125642	2884.139897
832.442421	2928.181938
832.759157	3010.536748
833.075849	3184.575022
833.392497	3458.783545
833.709101	3656.699245
834.025662	3603.389043
834.342179	3446.389868
834.658653	3277.932151
834.975083	3128.411527
835.291469	3038.946170
835.607811	2955.018520
835.924110	2896.132802
836.240366	2846.590863
836.556578	2805.036632
836.872746	2782.361522
837.188871	2762.471649
837.504952	2749.281470
837.820990	2739.675552
838.136984	2727.846484
838.452935	2722.132336
838.768842	2721.847511
839.084706	2734.505848
839.400526	2813.646922
839.716303	2941.697271
840.032037	3017.233921
840.347727	3001.785305
840.663373	2945.911676
840.978977	2873.054400
841.294537	2802.047227
841.610054	2755.988725
841.925527	2736.968452
842.240957	2713.116232
842.556344	2693.022193
842.871687	2676.230110
843.186987	2667.808862
843.502244	2660.884837
843.817458	2658.545742
844.132629	2647.626603
844.447756	2640.672331
844.762840	2632.901392
845.077881	2635.568163
845.392879	2633.092956
845.707833	2630.138840
846.022745	2623.754219
846.337613	2626.700773
846.652438	2621.798251
846.967221	2626.113479
847.281960	2621.135339
847.596656	2620.548045
847.911309	2618.917232
848.225919	2616.164762
848.540485	2613.886160
848.855009	2612.986314
849.169490	2612.709051
849.483928	2613.694596
849.798323	2613.457662
850.112675	2611.239554
850.426984	2611.352980
850.741251	2611.932713
851.055474	2612.101592
851.369654	2616.628548
851.683792	2615.607714
851.997887	2611.988166
852.311938	2612.782148
852.625947	2613.818105
852.939914	2616.976387
853.253837	2615.804319
853.567718	2612.726695
853.881555	2611.968001
854.195350	2614.649895
854.509103	2612.260388
854.822812	2607.614965
855.136479	2610.138062
855.450103	2611.612600
855.763685	2612.267950
856.077224	2611.995727
856.390720	2609.497836
856.704173	2610.574122
857.017584	2615.262395
857.330953	2617.389762
857.644278	2617.878754
857.957561	2618.279526
858.270802	2616.079062
858.584000	2616.994032
858.897155	2617.031840
859.210268	2619.822119
859.523339	2611.146293
859.836367	2607.186467
860.149352	2608.522372
860.462295	2611.678135
860.775195	2608.134204
861.088054	2605.485077
861.400869	2607.604882
861.713642	2604.812083
862.026373	2605.313678
862.339062	2606.485746
862.651708	2614.080245
862.964312	2616.653754
863.276873	2611.723505
863.589392	2614.392796
863.901869	2619.433950
864.214303	2626.811679
864.526696	2627.676237
864.839045	2628.782770
865.151353	2632.510703
865.463619	2630.627832
865.775842	2630.723614
866.088023	2629.317132
866.400162	2629.697739
866.712258	2629.899385
867.024313	2628.480301
867.336325	2625.843777
867.648296	2628.840743
867.960224	2633.324849
868.272110	2628.331587
868.583954	2628.215640
868.895755	2626.189096
869.207515	2629.475928
869.519233	2637.267032
869.830909	2631.958697
870.142542	2630.136320
870.454134	2634.159160
870.765684	2637.277114
871.077191	2637.934985
871.388657	2642.658546
871.700081	2639.913637
872.011463	2640.014461
872.322803	2638.386168
872.634101	2643.959163
872.945357	2650.822694
873.256571	2654.028868
873.567744	2653.524753
873.878874	2651.480565
874.189963	2653.010555
874.501010	2656.768735
874.812015	2662.364416
875.122979	2661.273006
875.433900	2655.614311
875.744780	2653.393683
876.055618	2658.417193
876.366415	2660.763850
876.677169	2658.888541
876.987882	2656.572130
877.298554	2653.751605
877.609183	2666.533450
877.919771	2672.769358
878.230317	2681.339319
878.540822	2688.568334
878.851285	2704.299254
879.161707	2725.709035
879.472087	2763.416866
879.782425	2806.480922
880.092722	2916.488982
880.402977	3099.954214
880.713191	3349.445959
881.023363	3623.631796
881.333494	3810.262873
881.643583	3977.455261
881.953631	3976.275631
882.263637	3802.920433
882.573602	3587.937906
882.883526	3462.902167
883.193408	3356.881661
883.503248	3258.853904
883.813048	3148.371976
884.122806	3041.015564
884.432522	2955.857873
884.742197	2894.822102
885.051831	2859.521422
885.361424	2824.094714
885.670975	2793.174797
885.980485	2763.391660
886.289954	2745.571181
886.599382	2732.559963
886.908768	2721.419013
887.218113	2704.826055
887.527417	2689.523632
887.836680	2684.762263
888.145901	2680.547858
888.455082	2671.551919
888.764221	2659.657317
889.073319	2653.640699
889.382376	2652.022489
889.691392	2654.845535
890.000366	2654.694301
890.309300	2651.961995
890.618193	2653.131543
890.927044	2656.115906
891.235855	2654.648930
891.544625	2656.284785
891.853353	2654.961482
892.162041	2663.919612
892.470687	2681.563651
892.779293	2691.351051
893.087858	2703.810262
893.396381	2726.553428
893.704864	2764.851074
894.013306	2830.257524
894.321707	2919.362439
894.630068	2963.898513
894.938387	2983.838797
895.246665	2976.866881
895.554903	2937.177877
895.863100	2895.933677
896.171256	2841.189267
896.479371	2780.279525
896.787446	2742.922055
897.095480	2727.037379
897.403473	2723.811040
897.711425	2707.654142
898.019336	2687.761749
898.327207	2676.451921
898.635038	2677.326561
898.942827	2672.502177
899.250576	2663.349962
899.558284	2651.941831
899.865952	2648.395379
900.173579	2645.887405
900.481165	2642.890439
900.788711	2637.330046
901.096216	2631.527678
901.403681	2627.472070
901.711105	2625.818571
902.018489	2622.055350
902.325832	2631.494911
902.633135	2631.918367
902.940397	2644.387662
903.247619	2682.859227
903.554800	2745.147724
903.861941	2865.069212
904.169041	2986.256030
904.476101	3042.603527
904.783121	3037.451468
905.090100	2982.318889
905.397039	2909.900193
905.703938	2841.985769
906.010796	2786.477624
906.317614	2735.690519
906.624391	2698.998481
906.931129	2674.947136
907.237826	2654.749753
907.544483	2636.478091
907.851099	2622.824126
908.157675	2613.412292
908.464211	2605.855602
908.770707	2599.728080
909.077163	2590.729620
909.383578	2590.492686
909.689954	2591.400093
909.996289	2588.919846
910.302584	2584.614700
910.608839	2583.132601
910.915054	2585.910277
911.221229	2588.060329
911.527363	2592.065526
911.833458	2588.551842
912.139513	2586.308528
912.445527	2589.791965
912.751502	2594.437389
913.057436	2601.318564
913.363331	2605.666559
913.669186	2615.849690
913.975000	2630.211937
914.280775	2646.782210
914.586510	2662.891217
914.892205	2695.696525
915.197859	2761.022317
915.503475	2838.267918
915.809050	2901.322670
916.114585	2913.955802
916.420081	2923.637338
916.725536	2935.675613
917.030952	2908.473547
917.336328	2866.647093
917.641665	2820.636482
917.946961	2773.005140
918.252218	2740.991293
918.557435	2717.756615
918.862612	2695.809951
919.167750	2681.162879
919.472848	2667.619819
919.777906	2650.358908
920.082925	2638.918010
920.387904	2627.250259
920.692843	2624.215484
920.997743	2619.514608
921.302603	2612.711571
921.607423	2605.853082
921.912204	2603.677824
922.216946	2598.271186
922.521647	2597.880497
922.826310	2594.394539
923.130932	2587.783066
923.435516	2584.954978
923.740059	2584.319793
924.044564	2581.237127
924.349028	2581.222004
924.653454	2572.710016
924.957840	2568.301527
925.262186	2566.693398
925.566493	2569.995354
925.870761	2566.239695
926.174989	2566.695919
926.479178	2566.012843
926.783328	2563.850188
927.087438	2562.468912
927.391509	2562.272307
927.695541	2559.832388
927.999533	2561.037224
928.303486	2554.869372
928.607400	2555.645710
928.911275	2555.953220
929.215110	2559.179559
929.518906	2555.549928
929.822663	2558.105793
930.126381	2556.903478
930.430060	2555.459187
930.733699	2555.474311
931.037299	2556.966492
931.340861	2557.528581
931.644383	2560.507903
931.947866	2560.260886
932.251309	2558.856925
932.554714	2557.019424
932.858080	2556.961451
933.161407	2555.587737
933.464694	2553.808209
933.767943	2557.949517
934.071153	2555.209650
934.374323	2555.557490
934.677455	2557.578992
934.980548	2554.390462
935.283602	2555.605381
935.586617	2555.136553
935.889593	2552.910884
936.192530	2554.574465
936.495428	2552.946172
936.798287	2553.417520
937.101108	2553.147818
937.403890	2556.858107
937.706632	2562.834395
938.009336	2564.215671
938.312002	2566.544684
938.614628	2571.197669
938.917216	2574.308061
939.219765	2572.793195
939.522275	2575.275963
939.824747	2575.391909
940.127179	2567.978893
940.429573	2569.027453
940.731929	2565.876732
941.034246	2561.984961
941.336524	2566.630384
941.638763	2566.232133
941.940964	2563.146947
942.243126	2566.428738
942.545250	2563.988819
942.847335	2564.855898
943.149381	2559.260217
943.451389	2560.918757
943.753359	2558.299877
944.055290	2558.163766
944.357182	2555.854918
944.659036	2556.023796
944.960851	2555.781821
945.262628	2554.947510
945.564367	2557.306770
945.866067	2558.105793
946.167729	2557.432799
946.469352	2555.607901
946.770937	2556.051523
947.072484	2558.060422
947.373992	2555.408776
947.675462	2555.602860
947.976893	2554.143446
948.278286	2553.856100
948.579641	2554.758467
948.880958	2554.942469
949.182236	2553.969526
949.483476	2552.810061
949.784678	2553.752757
950.085841	2552.195040
950.386967	2555.060936
950.688054	2552.444577
950.989103	2552.550441
951.290114	2554.123281
951.591087	2557.097562
951.892021	2557.926832
952.192917	2558.771225
952.493776	2562.252142
952.794596	2561.490928
953.095378	2560.623849
953.396122	2561.599313
953.696828	2561.075032
953.997496	2557.420196
954.298126	2556.893395
954.598718	2556.485062
954.899272	2555.370967
955.199788	2554.733261
955.500266	2554.057746
955.800706	2549.455173
956.101108	2545.049204
956.401472	2545.339071
956.701798	2546.609442
957.002087	2545.926365
957.302337	2547.519370
957.602550	2545.946530
957.902724	2546.382590
958.202861	2545.606252
958.502960	2545.250851
958.803022	2543.110881
959.103045	2544.217414
959.403031	2543.388144
959.702979	2543.254554
960.002889	2545.593649
960.302762	2543.763710
960.602596	2541.510314
960.902393	2543.360418
961.202153	2542.357228
961.501875	2539.690458
961.801559	2539.640046
962.101205	2542.241282
962.400814	2542.427804
962.700385	2539.945036
962.999918	2544.766900
963.299414	2538.042001
963.598873	2542.929399
963.898293	2541.298586
964.197677	2542.720191
964.497022	2540.875129
964.796331	2542.468134
965.095601	2541.628782
965.394835	2539.834131
965.694030	2542.407640
965.993189	2541.152392
966.292309	2540.073586
966.591393	2540.071065
966.890439	2539.952598
967.189447	2540.005530
967.488419	2541.870757
967.787353	2539.244316
968.086249	2539.304810
968.385108	2540.348328
968.683930	2540.539892
968.982714	2538.009233
969.281462	2541.500232
969.580172	2540.625592
969.878844	2540.721374
970.177480	2539.496373
970.476078	2542.132897
970.774639	2540.454193
971.073162	2538.273894
971.371649	2543.085675
971.670098	2536.640560
971.968510	2539.942516
972.266885	2536.874973
972.565223	2540.875129
972.863524	2541.212886
973.161788	2539.957639
973.460014	2541.492670
973.758204	2540.960829
974.056356	2542.747918
974.354471	2540.789429
974.652550	2541.618699
974.950591	2541.225489
975.248595	2539.219110
975.546563	2540.565098
975.844493	2539.866898
976.142386	2542.223638
976.440243	2542.400078
976.738062	2542.301776
977.035845	2538.226003
977.333590	2543.403268
977.631299	2540.996117
977.928971	2540.852444
978.226606	2541.157434
978.524204	2538.972093
978.821765	2541.119625
979.119290	2540.590304
979.416777	2538.452855
979.714228	2541.994265
980.011642	2538.838503
980.309020	2544.890408
980.606360	2541.389327
980.903664	2540.925541
981.200931	2542.296734
981.498162	2539.209028
981.795356	2541.722043
982.092513	2546.594318
982.389633	2549.828218
982.686717	2550.138249
982.983764	2550.622200
983.280775	2555.809547
983.577749	2552.603373
983.874686	2553.404917
984.171587	2548.998948
984.468451	2546.861499
984.765279	2546.979966
985.062070	2544.242620
985.358824	2545.213042
985.655543	2541.222969
985.952224	2540.459234
986.248869	2539.443441
986.545478	2538.576363
986.842050	2539.405633
987.138586	2534.883718
987.435086	2535.201310
987.731549	2534.911444
988.027975	2540.754141
988.324366	2535.407998
988.620719	2537.512679
988.917037	2535.990251
989.213318	2535.723070
989.509563	2538.694830
989.805772	2539.745911
990.101944	2536.103677
990.398080	2538.105015
990.694180	2537.237937
990.990244	2535.549150
991.286271	2538.541075
991.582262	2538.530993
991.878217	2536.869932
992.174136	2538.266332
992.470019	2535.909592
992.765865	2538.561239
993.061676	2537.716846
993.357450	2539.188863
993.653188	2537.275745
993.948890	2537.633667
994.244556	2537.205169
994.540186	2538.369676
994.835780	2539.758513
995.131337	2540.983514
995.426859	2539.854295
995.722345	2541.182639
996.017795	2542.155582
996.313208	2541.744728
996.608586	2541.626261
996.903928	2541.507794
997.199234	2542.110212
997.494504	2541.018802
997.789738	2537.406815
998.084936	2541.863195
998.380099	2538.079809
998.675225	2536.267514
998.970316	2535.846578
999.265371	2536.393543
999.560390	2537.318595
999.855373	2538.783050
1000.150320	2540.670962
1000.445232	2534.130065
1000.740108	2536.484284
1001.034948	2539.098122
1001.329752	2535.919675
1001.624521	2537.452186
1001.919254	2531.569159
1002.213951	2533.787267
1002.508613	2533.494880
1002.803239	2535.629808
1003.097829	2531.299457
1003.392384	2538.001671
1003.686903	2537.099305
1003.981386	2535.561753
1004.275834	2537.522762
1004.570246	2537.162319
1004.864623	2537.021167
1005.158964	2537.363965
1005.453270	2536.811959
1005.747540	2537.104346
1006.041775	2536.519572
1006.335974	2534.795498
1006.630138	2539.327495
1006.924266	2534.392205
1007.218359	2533.991433
1007.512416	2537.026208
1007.806438	2536.396064
1008.100425	2536.174253
1008.394376	2533.933460
1008.688292	2536.174253
1008.982172	2537.227854
1009.276017	2537.739531
1009.569827	2533.474715
1009.863602	2537.747093
1010.157341	2535.682741
1010.451045	2535.163502
1010.744714	2535.251722
1011.038347	2535.405477
1011.331945	2535.309695
1011.625508	2537.134593
1011.919036	2535.153419
1012.212528	2534.825744
1012.505986	2534.649304
1012.799408	2535.660055
1013.092795	2536.562422
1013.386147	2535.619726
1013.679464	2537.336239
1013.972745	2535.612164
1014.265992	2537.053934
1014.559204	2533.144520
1014.852380	2534.341794
1015.145521	2537.172402
1015.438628	2534.525796
1015.731699	2537.631147
1016.024736	2534.508152
1016.317737	2533.467153
1016.610703	2535.246681
1016.903635	2531.823737
1017.196531	2530.457585
1017.489393	2534.596372
1017.782219	2533.149561
1018.075011	2533.671320
1018.367768	2535.655014
1018.660490	2536.249870
1018.953177	2536.249870
1019.245829	2536.249870
