Dividing Wavelength (nm)	Counts (n)	Blue Motor Position (mm): 26.600000	Red Motor Position (mm): 0.000000	
326.493990	2132.607203
326.888308	2132.607203
327.282561	2132.607203
327.676750	2097.598910
328.070874	2097.588827
328.464933	2101.394898
328.858929	2108.147524
329.252859	2118.323093
329.646726	2130.971348
330.040528	2140.415950
330.434265	2159.529485
330.827938	2176.250992
331.221547	2195.896368
331.615091	2212.378421
332.008571	2231.307954
332.401986	2255.165214
332.795338	2271.538882
333.188625	2292.197530
333.581847	2309.037505
333.975006	2327.470484
334.368100	2346.077383
334.761129	2363.915506
335.154095	2378.970912
335.546996	2404.978224
335.939833	2423.680905
336.332606	2439.784871
336.725315	2453.859772
337.117960	2461.615588
337.510540	2472.970787
337.903056	2481.316417
338.295508	2486.261789
338.687896	2498.093377
339.080220	2504.813235
339.472480	2511.144924
339.864676	2516.909484
340.256807	2522.243024
340.648875	2524.405679
341.040879	2526.429703
341.432818	2526.391894
341.824694	2530.893644
342.216506	2532.794159
342.608253	2530.119827
342.999937	2531.097811
343.391557	2528.970444
343.783113	2528.657893
344.174605	2526.979188
344.566033	2524.385515
344.957397	2525.484486
345.348697	2523.150432
345.739934	2519.432581
346.131106	2519.311593
346.522215	2518.215142
346.913260	2513.700789
347.304241	2514.106602
347.695159	2513.322703
348.086012	2511.507887
348.476802	2507.658966
348.867528	2506.181908
349.258191	2504.825838
349.648789	2506.549913
350.039324	2501.198728
350.429796	2504.001609
350.820203	2500.596310
351.210548	2500.581186
351.600828	2498.342914
351.991045	2498.690754
352.381198	2497.604385
352.771288	2498.400887
353.161314	2495.121617
353.551276	2495.787049
353.941175	2495.439209
354.331010	2496.996926
354.720782	2494.582213
355.110490	2496.535660
355.500135	2496.016422
355.889717	2497.097749
356.279235	2496.220588
356.668689	2496.636483
357.058080	2495.643376
357.447408	2494.965341
357.836672	2494.753613
358.225873	2493.727738
358.615010	2493.291678
359.004084	2499.330980
359.393095	2498.380723
359.782043	2501.070178
360.170927	2499.678820
360.559748	2502.973214
360.948505	2500.692092
361.337199	2502.804335
361.725830	2502.721156
362.114398	2502.703512
362.502903	2502.905158
362.891344	2502.958090
363.279722	2505.957577
363.668037	2507.275839
364.056289	2505.057731
364.444478	2507.727022
364.832603	2506.000427
365.220665	2505.453462
365.608665	2504.654439
365.996601	2506.260046
366.384474	2506.655777
366.772284	2509.788854
367.160031	2505.755931
367.547715	2511.507887
367.935336	2508.125273
368.322893	2511.482682
368.710388	2509.012516
369.097820	2511.180212
369.485189	2510.691220
369.872495	2513.519308
370.259738	2510.766838
370.646918	2507.560664
371.034035	2512.979904
371.421090	2512.838752
371.808081	2510.572753
372.195010	2513.216838
372.581875	2510.088802
372.968678	2513.216838
373.355418	2512.354801
373.742096	2512.816067
374.128710	2512.558968
374.515262	2512.049811
374.901751	2515.503002
375.288177	2513.683145
375.674540	2515.535769
376.060841	2515.089627
376.447079	2512.969822
376.833254	2513.625172
377.219367	2509.582167
377.605417	2512.193484
377.991404	2511.523011
378.377329	2512.929493
378.763191	2512.566530
379.148991	2516.080214
379.534727	2515.934020
379.920402	2516.549041
380.306013	2517.711027
380.691563	2518.131963
381.077049	2516.753208
381.462474	2515.281191
381.847835	2516.438136
382.233134	2516.271778
382.618371	2517.479134
383.003545	2519.344361
383.388657	2519.367046
383.773706	2520.617252
384.158693	2517.232118
384.543618	2518.827643
384.928480	2518.799916
385.313280	2518.520132
385.698017	2518.714217
386.082692	2520.753363
386.467305	2522.462315
386.851856	2523.273940
387.236344	2521.030627
387.620770	2522.290915
388.005133	2522.391738
388.389435	2518.545338
388.773674	2522.545494
389.157851	2520.864269
389.541965	2521.093641
389.926018	2523.803262
390.310008	2523.561286
390.693936	2524.713190
391.077802	2523.183200
391.461606	2522.106913
391.845348	2523.364681
392.229027	2523.488189
392.612645	2521.489372
392.996200	2522.789990
393.379694	2526.412059
393.763125	2525.671009
394.146494	2524.829136
394.529801	2527.536236
394.913047	2526.288550
395.296230	2526.638911
395.679351	2523.525998
396.062410	2525.965917
396.445408	2525.376102
396.828343	2526.792666
397.211217	2520.735719
397.594028	2522.845442
397.976778	2524.047758
398.359466	2526.114631
398.742092	2521.877541
399.124656	2529.474560
399.507158	2528.894827
399.889598	2528.846936
400.271977	2526.154960
400.654294	2527.390043
401.036549	2526.628828
401.418742	2526.142357
401.800874	2529.393901
402.182944	2528.534384
402.564952	2530.213089
402.946898	2530.079498
403.328783	2528.635208
403.710606	2530.044210
404.092367	2529.930784
404.474067	2531.738038
404.855705	2529.593027
405.237282	2527.684950
405.618797	2530.984385
406.000250	2530.770136
406.381642	2530.550846
406.762972	2528.975485
407.144240	2534.314067
407.525447	2531.352389
407.906593	2534.195600
408.287677	2531.851464
408.668700	2530.475229
409.049661	2533.656197
409.430560	2531.773326
409.811399	2532.511855
410.192176	2535.430683
410.572891	2533.326001
410.953545	2530.465146
411.334138	2534.510672
411.714669	2533.497400
412.095139	2530.596216
412.475547	2531.886752
412.855894	2534.997144
413.236180	2533.751979
413.616405	2536.166691
413.996568	2534.649304
414.376670	2535.667617
414.756711	2537.048893
415.136691	2537.341280
415.516609	2539.037628
415.896466	2539.158616
416.276262	2535.980169
416.655997	2533.681402
417.035670	2532.060672
417.415283	2537.157278
417.794834	2533.913296
418.174324	2534.737524
418.553753	2537.621064
418.933121	2538.019315
419.312428	2537.772299
419.691674	2539.398071
420.070859	2538.074768
420.449983	2539.299768
420.829045	2538.566281
421.208047	2539.761034
421.586988	2538.820859
421.965867	2541.170037
422.344686	2539.758513
422.723444	2539.566950
423.102141	2539.370345
423.480777	2540.030736
423.859352	2540.678524
424.237866	2539.362783
424.616319	2541.275901
424.994712	2539.004861
425.373044	2541.502753
425.751314	2541.026364
426.129524	2541.457382
426.507673	2542.077444
426.885762	2541.195242
427.263789	2544.454348
427.641756	2544.502239
428.019662	2544.242620
428.397508	2539.506456
428.775292	2542.591642
429.153016	2546.639688
429.530679	2544.726571
429.908282	2542.228679
430.285824	2541.540561
430.663305	2544.872764
431.040726	2543.917465
431.418086	2541.432177
431.795385	2545.359235
432.172624	2543.632640
432.549802	2547.332847
432.926920	2546.564071
433.303977	2546.271684
433.680974	2546.445604
434.057910	2548.578012
434.434786	2549.424926
434.811601	2547.577343
435.188355	2546.490974
435.565050	2551.411141
435.941683	2550.223949
436.318257	2549.480379
436.694770	2548.734288
437.071222	2549.069525
437.447614	2548.290666
437.823946	2547.090872
438.200218	2552.578168
438.576429	2555.812068
438.952580	2556.590926
439.328670	2556.187634
439.704700	2558.977912
440.080670	2560.843139
440.456580	2560.515464
440.832429	2563.736762
441.208218	2565.488563
441.583947	2568.082236
441.959616	2569.581980
442.335224	2572.856209
442.710773	2578.245202
443.086261	2582.283167
443.461689	2582.764597
443.837057	2590.764908
444.212365	2594.646597
444.587612	2597.792277
444.962800	2607.158740
445.337927	2614.997735
445.712995	2613.757611
446.088002	2629.727986
446.462949	2635.202679
446.837837	2642.880357
447.212664	2651.800678
447.587431	2668.348266
447.962139	2695.378933
448.336786	2738.710171
448.711374	2740.081364
449.085901	2720.791389
449.460369	2725.809858
449.834776	2737.684296
450.209124	2773.000099
450.583412	2802.420273
450.957640	2821.800989
451.331808	2827.731906
451.705917	2817.579022
452.079965	2830.922957
452.453954	2863.377905
452.827883	2872.459544
453.201752	2896.213461
453.575562	2905.887435
453.949311	2947.416460
454.323001	2954.443829
454.696632	2987.952378
455.070202	3032.218750
455.443713	3070.024884
455.817164	3109.408898
456.190556	3149.481030
456.563888	3191.796475
456.937160	3223.996846
457.310373	3211.588045
457.683526	3246.215731
458.056619	3270.884617
458.429653	3299.074750
458.802628	3321.732216
459.175542	3376.670710
459.548398	3486.456959
459.921194	3561.066036
460.293930	3609.715691
460.666607	3781.621558
461.039224	3906.382554
461.411782	3987.595542
461.784280	4043.194428
462.156719	4061.859300
462.529099	4085.174637
462.901419	4032.454250
463.273680	4047.935633
463.645882	4099.000001
464.018024	4130.303046
464.390106	4227.748550
464.762130	4406.918719
465.134094	4643.605933
465.505999	5076.784722
465.877845	5598.357622
466.249631	5899.622017
466.621358	5847.831723
466.993026	5702.432243
467.364634	5675.706566
467.736184	5617.037617
468.107674	5559.258433
468.479105	5666.360267
468.850477	5624.480881
469.221790	5604.475062
469.593043	5528.789699
469.964238	5545.942225
470.335373	5622.340911
470.706449	5723.864709
471.077467	5784.958452
471.448425	6544.007507
471.819324	7202.848506
472.190164	7285.127699
472.560945	6699.839655
472.931667	6340.430592
473.302330	6333.017575
473.672934	6197.327357
474.043479	6472.889429
474.413965	6507.118864
474.784393	6510.798906
475.154761	6674.533063
475.525070	6798.885725
475.895321	6752.610453
476.265513	6929.459172
476.635645	7111.470031
477.005719	7182.255393
477.375734	7322.908626
477.745691	7566.839979
478.115588	7731.418528
478.485427	7978.654357
478.855207	8429.875435
479.224928	9104.026418
479.594591	9632.568714
479.964194	9580.899407
480.333739	9616.769738
480.703226	9644.549016
481.072653	9792.292632
481.442022	10044.032732
481.811333	10250.853630
482.180584	10174.502834
482.549777	10019.111788
482.918912	9921.739381
483.287988	10012.520479
483.657005	10078.531868
484.025964	9869.457574
484.394864	10039.830930
484.763706	10075.116486
485.132489	9919.062528
485.501213	9941.062123
485.869879	10050.515656
486.238487	9960.810843
486.607036	10097.635321
486.975527	9948.686868
487.343959	10158.008179
487.712333	10241.484646
488.080648	10212.402229
488.448905	10293.156473
488.817104	10272.311301
489.185244	10550.456965
489.553326	10732.646785
489.921350	11265.204360
490.289315	12252.262283
490.657222	12598.566867
491.025070	12547.656254
491.392861	12460.618213
491.760593	12153.874083
492.128267	11859.551357
492.495883	11577.153481
492.863440	11275.667275
493.230939	10972.343568
493.598380	10929.425705
493.965763	10819.168109
494.333088	10737.635007
494.700354	10682.199959
495.067563	10753.852399
495.434713	10598.892371
495.801805	10737.516540
496.168839	10680.478405
496.535815	10628.304983
496.902733	10635.952413
497.269593	10579.098280
497.636395	10678.240133
498.003139	10678.693836
498.369825	10559.016844
498.736453	10716.472243
499.103023	10651.627881
499.469535	10685.033087
499.835989	10683.029229
500.202385	10659.799592
500.568723	10507.889462
500.935003	10732.175437
501.301226	10544.828517
501.667390	10809.524382
502.033497	10902.662219
502.399546	10774.269072
502.765537	10676.637046
503.131470	10756.337688
503.497345	10926.529562
503.863163	10546.991172
504.228923	10858.337874
504.594625	10922.030332
504.960269	10672.394915
505.325856	10890.487833
505.691385	10689.532317
506.056856	10843.554691
506.422270	10874.406552
506.787625	10763.125602
507.152924	10881.149095
507.518164	10867.071673
507.883347	10783.728797
508.248472	10703.398011
508.613540	10939.049268
508.978550	10828.232103
509.343503	10807.197889
509.708398	10921.253995
510.073236	11031.360357
510.438016	11038.148270
510.802738	10993.564306
511.167403	11049.442975
511.532010	10941.539598
511.896561	11173.725062
512.261053	11246.988151
512.625488	11117.455703
512.989866	11097.515418
513.354186	11085.943450
513.718449	10987.099026
514.082655	11184.079592
514.446803	11079.911709
514.810894	11200.836387
515.174927	11068.899309
515.538904	11088.990827
515.902822	11245.090156
516.266684	11129.002465
516.630488	11076.665206
516.994235	11133.605039
517.357925	11196.979904
517.721558	11279.264138
518.085133	11292.456838
518.448651	11302.695421
518.812112	11184.505569
519.175516	11210.119672
519.538863	11324.715181
519.902152	11243.739127
520.265385	11406.162583
520.628560	11311.804786
520.991678	11292.600511
521.354739	11357.447393
521.717743	11291.657815
522.080690	11270.253076
522.443580	11409.212481
522.806413	11358.276663
523.169189	11388.001827
523.531908	11448.273862
523.894569	11264.995152
524.257174	11270.222829
524.619722	11392.075079
524.982213	11332.196253
525.344647	11387.974100
525.707025	11338.780000
526.069345	11429.606469
526.431608	11354.722649
526.793815	11462.111829
527.155964	11253.241702
527.518057	11304.238014
527.880093	11251.855385
528.242072	11326.043525
528.603995	11226.362270
528.965860	11150.651701
529.327669	11206.255628
529.689421	11153.933492
530.051117	11116.419745
530.412755	11223.622403
530.774337	11109.251225
531.135862	11086.487894
531.497331	11122.310334
531.858743	10976.981430
532.220098	11139.485545
532.581396	11011.180618
532.942638	10988.442493
533.303824	10952.259612
533.664953	10969.470111
534.026025	10885.928109
534.387040	10983.171967
534.747999	10983.141720
535.108902	11044.366533
535.469748	10798.456528
535.830537	10906.979968
536.191270	10883.692358
536.551947	10903.894782
536.912567	10905.046685
537.273131	10835.430871
537.633638	10810.267952
537.994089	10797.528956
538.354483	10752.992882
538.714821	10894.530838
539.075103	10900.923021
539.435328	10870.860100
539.795497	10690.195229
540.155609	10850.161123
540.515665	10934.693711
540.875665	10675.250728
541.235609	10749.113714
541.595496	10739.916129
541.955328	10897.651313
542.315102	10773.928794
542.674821	10734.597712
543.034483	10728.623945
543.394090	10735.643751
543.753640	10662.509212
544.113134	10884.967769
544.472571	10734.479245
544.831953	10877.925277
545.191278	10687.258757
545.550548	10713.729856
545.909761	10854.456186
546.268918	10828.917700
546.628019	10907.065667
546.987064	10771.675398
547.346053	10695.624552
547.704986	10792.250868
548.063863	10782.274424
548.422684	10768.345716
548.781449	10686.089209
549.140158	10795.522577
549.498811	10674.529843
549.857408	10524.558037
550.215949	10754.537996
550.574434	10610.292940
550.932864	10702.488082
551.291237	10765.250448
551.649555	10706.221057
552.007817	10727.930786
552.366022	10685.784219
552.724173	10683.795484
553.082267	10663.088945
553.440305	10799.341251
553.798288	10604.362023
554.156215	10753.625547
554.514086	10737.942517
554.871902	10589.225958
555.229661	10618.575556
555.587365	10604.089801
555.945014	10492.327420
556.302606	10620.992789
556.660143	10507.508855
557.017625	10664.596250
557.375050	10566.056815
557.732421	10693.797133
558.089735	10607.500141
558.446994	10607.038876
558.804197	10643.728393
559.161345	10644.477005
559.518437	10499.488379
559.875474	10589.104971
560.232455	10615.301327
560.589381	10563.795858
560.946251	10559.818388
561.303065	10672.788125
561.659825	10604.591395
562.016528	10529.596670
562.373177	10412.657024
562.729770	10529.374859
563.086307	10445.338825
563.442789	10536.787876
563.799216	10416.795812
564.155587	10464.142329
564.511904	10417.657849
564.868164	10408.735007
565.224370	10429.847359
565.580520	10350.156799
565.936615	10357.186688
566.292654	10226.628365
566.648638	10361.143994
567.004567	10312.542230
567.360441	10298.757194
567.716260	10207.340911
568.072023	10303.359768
568.427732	10254.042160
568.783385	10161.950361
569.138982	10235.465508
569.494525	10249.913455
569.850013	10122.636923
570.205445	10205.445437
570.560823	10111.382547
570.916145	10020.583805
571.271412	10091.580895
571.626625	10035.349344
571.981782	10016.334112
572.336884	9987.798661
572.691931	9994.213529
573.046923	9934.581720
573.401860	9898.618128
573.756743	9831.164969
574.111570	9878.755982
574.466342	9858.140184
574.821059	9886.176561
575.175722	9779.137741
575.530330	9791.501171
575.884882	9780.582032
576.239380	9704.987409
576.593823	9684.883288
576.948211	9703.686792
577.302544	9579.548378
577.656823	9596.181665
578.011047	9598.200647
578.365216	9572.016894
578.719330	9497.977468
579.073389	9506.013067
579.427394	9455.689749
579.781344	9434.489176
580.135239	9384.748111
580.489080	9394.598526
580.842866	9290.695304
581.196597	9299.575296
581.550273	9337.550308
581.903895	9308.193149
582.257463	9375.979024
582.610975	9248.972194
582.964434	9281.606103
583.317837	9205.424187
583.671186	9183.200260
584.024481	9178.317902
584.377721	9092.293133
584.730906	9081.147141
585.084037	9104.434752
585.437113	9045.647336
585.790135	9058.474552
586.143103	8957.711969
586.496016	8940.569525
586.848874	8993.599943
587.201679	8980.782809
587.554428	8872.198876
587.907124	8915.658663
588.259765	8890.657061
588.612352	8888.466680
588.964884	8767.814224
589.317362	8776.051469
589.669786	8780.933827
590.022155	8829.964089
590.374470	8841.437755
590.726731	8779.245040
591.078937	8637.031570
591.431090	8745.156758
591.783188	8619.374928
592.135232	8613.625492
592.487222	8613.501984
592.839157	8661.342534
593.191038	8596.835930
593.542866	8538.819811
593.894639	8443.877240
594.246358	8494.797935
594.598022	8509.069441
594.949633	8411.157631
595.301190	8387.907829
595.652692	8415.520749
596.004141	8524.394549
596.355535	8301.792318
596.706876	8282.915718
597.058162	8218.583033
597.409395	8293.333262
597.760573	8358.744754
598.111698	8266.799149
598.462768	8256.890761
598.813785	8218.318373
599.164748	8181.026437
599.515657	8178.163062
599.866511	8085.163855
600.217312	8213.360398
600.568060	8066.839261
600.918753	8172.569901
601.269392	8143.306003
601.619978	8056.842653
601.970510	8121.661809
602.320988	8114.052187
602.671412	8172.973194
603.021783	8104.937781
603.372100	8077.314779
603.722363	8079.273267
604.072572	8060.983961
604.422728	8075.885612
604.772830	7998.224116
605.122878	8007.661156
605.472872	8003.199735
605.822813	8030.605968
606.172701	7973.537586
606.522534	8050.808392
606.872314	8051.930049
607.222041	8024.307046
607.571714	8073.622134
607.921333	8036.068058
608.270899	8039.072586
608.620411	8128.298488
608.969870	8035.954632
609.319276	8024.821244
609.668627	8050.735295
610.017926	8079.936179
610.367171	8122.420503
610.716362	8099.785722
611.065500	8093.015452
611.414585	8118.153166
611.763616	8110.662012
612.112594	8094.915967
612.461518	8105.451979
612.810389	8164.378026
613.159207	8104.453831
613.507971	8055.841984
613.856682	8173.862957
614.205340	8125.145247
614.553945	8207.623565
614.902496	8109.139583
615.250994	8162.059096
615.599439	8143.023699
615.947830	8151.631469
616.296169	8127.781770
616.644454	8140.513204
616.992686	8138.075806
617.340864	8199.441772
617.688990	8097.386133
618.037063	8190.960031
618.385082	8142.118812
618.733048	8229.131648
619.080961	8166.686875
619.428821	8181.608690
619.776628	8185.508023
620.124382	8136.812997
620.472083	8119.174000
620.819731	8149.549472
621.167326	8045.111888
621.514868	8049.696817
621.862357	7938.191536
622.209793	7955.376829
622.557176	7888.276551
622.904506	7861.268569
623.251783	7798.173488
623.599007	7750.511898
623.946179	7755.227898
624.293297	7710.722071
624.640363	7629.614947
624.987376	7616.386959
625.334336	7562.118938
625.681243	7508.710434
626.028097	7499.659042
626.374899	7475.103582
626.721647	7463.418187
627.068343	7402.553816
627.414987	7371.979218
627.761577	7328.325346
628.108115	7364.006633
628.454600	7255.803307
628.801032	7308.117881
629.147412	7271.325020
629.493739	7261.467043
629.840014	7197.313319
630.186236	7255.891527
630.532405	7136.897611
630.878521	7191.231167
631.224585	7146.591750
631.570597	7069.860347
631.916556	7101.506191
632.262462	7098.806653
632.608316	7060.098153
632.954117	7036.417333
633.299866	7027.980962
633.645562	7017.729775
633.991206	6937.338495
634.336797	6883.446040
634.682336	6840.167734
635.027823	6807.354864
635.373257	6796.629809
635.718639	6731.137659
636.063968	6744.491675
636.409245	6638.556868
636.754470	6631.668132
637.099642	6594.779488
637.444762	6541.159255
637.789829	6546.817951
638.134845	6493.578325
638.479808	6474.563092
638.824719	6477.108875
639.169577	6406.288225
639.514383	6427.372851
639.859137	6357.419280
640.203839	6364.711309
640.548489	6351.503486
640.893086	6332.044632
641.237632	6300.270239
641.582125	6321.319577
641.926566	6292.947963
642.270955	6305.840714
642.615292	6302.261495
642.959576	6316.366644
643.303809	6304.643440
643.647990	6311.549821
643.992118	6304.560261
644.336195	6249.263845
644.680219	6273.216887
645.024192	6266.348315
645.368112	6360.582604
645.711981	6382.030193
646.055797	6455.981399
646.399562	6417.469505
646.743274	6543.889040
647.086935	6596.798470
647.430544	6590.358396
647.774101	6608.995542
648.117606	6613.116685
648.461059	6606.641323
648.804460	6570.155972
649.147810	6483.249001
649.491108	6452.669361
649.834354	6422.379588
650.177548	6344.208936
650.520690	6249.667137
650.863781	6235.955199
651.206820	6251.996150
651.549807	6176.739285
651.892742	6115.698474
652.235626	6121.664679
652.578458	6110.967351
652.921238	6014.358678
653.263967	6058.075565
653.606644	6000.520711
653.949269	5998.884857
654.291843	5942.716321
654.634365	5992.023846
654.976836	5943.976609
655.319255	5940.833450
655.661622	5922.140851
656.003938	5920.038690
656.346203	5878.406321
656.688416	5909.459829
657.030577	5858.375296
657.372687	5837.157080
657.714746	5820.687630
658.056753	5865.584146
658.398708	5807.215146
658.740612	5798.642664
659.082465	5844.333162
659.424266	5836.658005
659.766016	5835.218756
660.107715	5813.756043
660.449362	5827.072251
660.790958	5824.513866
661.132503	5808.246062
661.473996	5844.428944
661.815438	5831.886553
662.156829	5827.828424
662.498168	5821.398433
662.839456	5794.864319
663.180693	5832.788920
663.521879	5835.349826
663.863013	5822.762065
664.204097	5841.318552
664.545129	5879.870776
664.886110	5878.623091
665.227040	5908.633079
665.567918	5876.125199
665.908746	5909.933697
666.249522	5911.181383
666.590248	5898.772583
666.930922	5923.756541
667.271545	5939.006031
667.612118	5937.786072
667.952639	5912.857566
668.293109	5931.182161
668.633528	5888.526437
668.973896	5893.335698
669.314213	5887.858484
669.654480	5866.554568
669.994695	5860.575760
670.334859	5850.395150
670.674973	5845.202761
671.015035	5846.803328
671.355047	5845.414490
671.695008	5830.099464
672.034918	5803.283046
672.374777	5815.243184
672.714585	5804.455115
673.054342	5809.279499
673.394049	5802.045443
673.733705	5829.471841
674.073310	5817.095808
674.412864	5777.736999
674.752368	5766.215442
675.091820	5767.397593
675.431223	5706.344178
675.770574	5706.359302
676.109875	5667.711296
676.449125	5665.987221
676.788324	5633.812057
677.127473	5577.106638
677.466571	5568.350154
677.805619	5562.714144
678.144616	5548.634201
678.483562	5523.032701
678.822458	5493.123535
679.161303	5481.735569
679.500098	5476.699456
679.838842	5465.250996
680.177535	5467.539680
680.516179	5481.924612
680.854771	5495.003886
681.193314	5572.650258
681.531805	5680.798131
681.870247	5835.927038
682.208638	5934.602583
682.546978	5946.240087
682.885268	5923.118835
683.223508	5837.189847
683.561697	5780.013080
683.899836	5754.560294
684.237925	5710.856011
684.575963	5669.316903
684.913951	5635.057222
685.251889	5700.065421
685.589776	5663.983363
685.927614	5635.508405
686.265401	5704.894847
686.603137	5691.586201
686.940824	5769.892964
687.278460	5792.326098
687.616046	5803.724147
687.953582	5868.288725
688.291068	5848.812227
688.628504	5913.558287
688.965889	5873.569334
689.303224	5818.908103
689.640510	5769.497233
689.977745	5696.609710
690.314930	5599.980873
690.652065	5541.581627
690.989150	5452.527123
691.326185	5371.997211
691.663170	5317.073840
692.000105	5244.677830
692.336990	5163.323689
692.673825	5145.654445
693.010610	5075.746244
693.347345	5009.387015
693.684030	4992.572247
694.020665	4949.931647
694.357251	4862.765056
694.693786	4871.148494
695.030272	4839.243032
695.366707	4806.248680
695.703093	4770.403555
696.039429	4793.474396
696.375716	4776.047127
696.711952	4748.671141
697.048139	4738.467846
697.384276	4719.371955
697.720363	4728.814036
698.056400	4741.200151
698.392388	4689.629147
698.728326	4669.532588
699.064214	4647.812776
699.400053	4642.002846
699.735842	4609.268114
700.071581	4584.158127
700.407270	4558.027306
700.742910	4540.562228
701.078501	4485.263291
701.414042	4481.915965
701.749533	4454.015699
702.084974	4389.415833
702.420366	4443.424235
702.755709	4388.102612
703.091002	4332.854087
703.426246	4385.178743
703.761440	4340.040252
704.096584	4303.542298
704.431679	4320.246161
704.766725	4306.715704
705.101721	4294.755567
705.436668	4325.637675
705.771565	4268.909571
706.106413	4300.283192
706.441212	4329.922656
706.775961	4341.056044
707.110661	4323.255730
707.445311	4351.196325
707.779913	4375.771950
708.114465	4383.822673
708.448967	4408.068102
708.783421	4468.352740
709.117825	4511.121890
709.452180	4513.183722
709.786485	4558.833890
710.120742	4645.448475
710.454949	4631.494561
710.789107	4695.260116
711.123216	4771.295840
711.457275	4760.787554
711.791286	4834.484182
712.125247	4852.324826
712.459159	4754.866719
712.793023	4827.320703
713.126837	4790.651350
713.460602	4781.738590
713.794318	4700.099624
714.127985	4706.827044
714.461602	4619.652891
714.795171	4597.023151
715.128691	4526.928427
715.462162	4470.381805
715.795584	4423.000000
716.128957	4404.914860
716.462281	4352.164227
716.795556	4324.863858
717.128782	4289.848003
717.461960	4219.959967
717.795088	4231.332810
718.128167	4192.311759
718.461198	4132.112820
718.794180	4129.322541
719.127113	4110.312350
719.459997	4088.065738
719.792833	4041.359448
720.125619	4035.912481
720.458357	4001.269672
720.791046	4005.990712
721.123686	3975.390909
721.456278	3936.117800
721.788821	3954.918783
722.121315	3927.008435
722.453761	3901.606060
722.786158	3915.320519
723.118506	3936.644600
723.450805	3890.936458
723.783056	3910.843975
724.115259	3932.241152
724.447412	3931.442129
724.779518	3925.254113
725.111574	3928.523301
725.443582	3959.513795
725.775542	3943.906382
726.107453	3997.834126
726.439315	3998.139115
726.771129	4010.673944
727.102895	4045.470509
727.434612	4090.591356
727.766281	4105.679530
728.097901	4106.342442
728.429473	4111.194552
728.760996	4118.451293
729.092471	4113.168164
729.423897	4096.650823
729.755276	4103.040486
730.086606	4105.566104
730.417887	4140.125734
730.749120	4205.464129
731.080305	4272.564407
731.411442	4294.158190
731.742530	4268.062657
732.073570	4268.160959
732.404562	4324.062314
732.735506	4311.761899
733.066401	4276.158750
733.397249	4215.659863
733.728048	4134.083911
734.058798	4050.539389
734.389501	3981.783092
734.720156	3920.099533
735.050762	3876.985065
735.381320	3870.547512
735.711831	3818.608503
736.042293	3788.399389
736.372707	3814.066424
736.703073	3785.644398
737.033391	3775.995630
737.363661	3796.543373
737.693883	3817.912824
738.024056	3827.246521
738.354182	3820.796364
738.684260	3888.877147
739.014290	3906.070002
739.344272	3899.304774
739.674207	3943.215744
740.004093	3950.527938
740.333931	3944.826393
740.663722	3947.553657
740.993464	3941.746248
741.323159	3919.892846
741.652806	3889.983680
741.982405	3861.057539
742.311956	3830.130061
742.641460	3821.671004
742.970915	3797.019762
743.300323	3758.807816
743.629683	3721.470510
743.958996	3708.585321
744.288260	3687.198226
744.617477	3655.965757
744.946647	3641.185094
745.275768	3615.996969
745.604842	3613.816670
745.933869	3565.663568
746.262847	3558.137125
746.591778	3596.412086
746.920662	3565.456881
747.249498	3534.675595
747.578286	3582.460693
747.907027	3597.213629
748.235720	3594.514092
748.564365	3621.544758
748.892963	3620.667598
749.221514	3599.192282
749.550017	3577.298551
749.878473	3579.143613
750.206881	3548.140517
750.535242	3548.765620
750.863555	3545.148593
751.191821	3545.395609
751.520039	3522.314686
751.848210	3502.109742
752.176334	3536.051830
752.504411	3543.769837
752.832440	3498.359123
753.160421	3483.926300
753.488356	3491.969461
753.816243	3506.740041
754.144082	3459.779173
754.471875	3444.196966
754.799620	3466.940132
755.127318	3461.157928
755.454969	3459.068370
755.782572	3465.919298
756.110129	3442.097326
756.437638	3429.955707
756.765100	3446.052111
757.092515	3452.600570
757.419882	3462.314873
757.747203	3432.950152
758.074477	3434.273455
758.401703	3451.171403
758.728882	3473.092860
759.056014	3479.472440
759.383099	3484.674911
759.710138	3479.444714
760.037129	3499.594206
760.364073	3529.266437
760.690970	3510.803211
761.017820	3492.075325
761.344623	3508.063344
761.671379	3551.571022
761.998088	3604.430041
762.324751	3733.652458
762.651366	3979.244871
762.977935	4453.448569
763.304456	4891.582812
763.630931	4981.945494
763.957359	4625.072131
764.283740	4282.014050
764.610074	4088.259823
764.936362	3893.409144
765.262602	3734.111203
765.588796	3628.625059
765.914943	3537.972510
766.241044	3453.260961
766.567097	3422.358688
766.893104	3374.129969
767.219064	3346.396061
767.544978	3319.647699
767.870845	3263.217022
768.196665	3245.265474
768.522438	3251.589601
768.848165	3246.528283
769.173846	3209.770709
769.499479	3195.020293
769.825066	3178.828107
770.150607	3163.129954
770.476101	3178.223169
770.801548	3173.789474
771.126949	3123.410703
771.452303	3106.301027
771.777611	3118.341823
772.102872	3123.241824
772.428087	3098.041096
772.753256	3085.783531
773.078378	3079.419074
773.403453	3046.981769
773.728482	3034.232691
774.053465	3057.227915
774.378401	3046.664177
774.703291	3012.550689
775.028135	3014.431039
775.352932	3007.174298
775.677683	2997.603668
776.002388	2992.592761
776.327046	2996.093842
776.651658	2984.022799
776.976224	2970.149544
777.300743	2974.845378
777.625216	2964.768112
777.949643	2958.832153
778.274024	2961.879531
778.598359	2949.942078
778.922647	2955.502471
779.246889	2953.710341
779.571086	2940.235337
779.895236	2934.377516
780.219339	2945.062242
780.543397	2957.138326
780.867409	2957.423151
781.191374	2953.551545
781.515294	2949.463169
781.839167	2949.538786
782.162995	2943.587704
782.486776	2951.371246
782.810511	2950.103395
783.134201	2935.519337
783.457844	2939.154009
783.781441	2930.402566
784.104993	2912.118301
784.428498	2912.682910
784.751958	2928.600354
785.075372	2920.597522
785.398739	2904.813669
785.722061	2922.987029
786.045337	2931.836774
786.368568	2919.178437
786.691752	2910.200142
787.014891	2958.091104
787.337983	2987.692759
787.661030	3013.732839
787.984031	3081.775813
788.306987	3127.294912
788.629897	3117.094137
788.952760	3104.029987
789.275579	3089.176227
789.598351	3027.038965
789.921078	2986.984477
790.243759	2977.665904
790.566395	2958.005404
790.888984	2935.065633
791.211529	2919.493509
791.534027	2906.986407
791.856480	2899.089439
792.178888	2884.825494
792.501249	2875.242261
792.823566	2871.514327
793.145836	2871.156406
793.468062	2866.649614
793.790241	2866.856301
794.112375	2869.863350
794.434464	2883.650905
794.756507	2889.163407
795.078505	2894.978378
795.400457	2907.276273
795.722364	2945.931841
796.044226	2968.990078
796.366042	2969.035449
796.687812	2962.928091
797.009538	2977.486943
797.331218	2966.814820
797.652852	2951.615742
797.974442	2934.707712
798.295986	2929.306115
798.617484	2926.064653
798.938938	2912.851789
799.260346	2893.697925
799.581709	2890.784138
799.903026	2882.032695
800.224299	2878.904659
800.545526	2868.146837
800.866708	2852.335258
801.187845	2840.470902
801.508936	2845.728826
801.829983	2851.291739
802.150984	2836.969821
802.471940	2825.211329
802.792851	2823.469611
803.113717	2824.268634
803.434538	2829.569407
803.755314	2826.315342
804.076045	2818.178920
804.396731	2817.024496
804.717372	2816.230514
805.037967	2811.471665
805.358518	2820.054229
805.679024	2833.050324
805.999485	2823.618325
806.319901	2831.875735
806.640272	2820.538180
806.960598	2824.571103
807.280879	2837.405881
807.601115	2843.757734
807.921306	2829.881958
808.241453	2824.921463
808.561554	2833.274655
808.881611	2833.506548
809.201623	2828.805672
809.521590	2828.757781
809.841513	2824.765187
810.161390	2829.990343
810.481223	2821.072542
810.801011	2812.552992
811.120755	2807.595017
811.440453	2814.221614
811.760107	2813.238589
812.079716	2811.186839
812.399281	2800.849953
812.718801	2795.216464
813.038276	2790.160187
813.357707	2793.691515
813.677093	2800.376085
813.996434	2795.087915
814.315731	2793.283182
814.634983	2786.754887
814.954191	2787.634569
815.273354	2800.434058
815.592473	2810.213897
815.911547	2810.317240
816.230577	2820.986842
816.549562	2829.297185
816.868502	2828.682164
817.187399	2839.470233
817.506250	2853.628314
817.825058	2847.150431
818.143821	2861.658872
818.462539	2878.912221
818.781213	2904.475912
819.099843	2939.332970
819.418429	2997.013853
819.736970	3056.890157
820.055466	3130.460757
820.373919	3235.478073
820.692327	3374.288765
821.010691	3538.796739
821.329011	3983.519769
821.647286	4879.514289
821.965517	6253.997488
822.283704	6987.006463
822.601847	6956.497400
822.919945	6325.193704
823.237999	5824.851623
823.556010	5247.349641
823.873976	4694.297256
824.191897	4293.049136
824.509775	3998.040813
824.827609	3732.583734
825.145398	3610.265177
825.463144	3600.893672
825.780845	3694.023948
826.098502	3797.385246
826.416116	4082.444852
826.733685	4393.748705
827.051210	4450.257519
827.368692	4344.100901
827.686129	4071.177873
828.003522	3747.566043
828.320872	3492.118175
828.638177	3297.648103
828.955439	3164.463339
829.272656	3082.098447
829.589830	3014.950278
829.906960	2966.184676
830.224046	2919.385124
830.541088	2890.290105
830.858086	2871.761344
831.175041	2853.744260
831.491952	2855.899353
831.808819	2869.311343
832.125642	2891.878068
832.442421	2938.246602
832.759157	3019.383973
833.075849	3196.149512
833.392497	3477.604693
833.709101	3680.589273
834.025662	3625.837301
834.342179	3466.433496
834.658653	3294.204995
834.975083	3143.895432
835.291469	3048.620144
835.607811	2964.440437
835.924110	2904.619585
836.240366	2856.285002
836.556578	2814.934937
836.872746	2792.179169
837.188871	2771.898607
837.504952	2750.914804
837.820990	2745.339288
838.136984	2730.510734
838.452935	2724.244580
838.768842	2719.667212
839.084706	2741.225706
839.400526	2819.174548
839.716303	2949.354784
840.032037	3030.139274
840.347727	3015.214938
840.663373	2955.595733
840.978977	2879.864999
841.294537	2807.937816
841.610054	2761.544077
841.925527	2734.289079
842.240957	2714.926007
842.556344	2694.312729
842.871687	2679.118691
843.186987	2666.432627
843.502244	2666.997237
843.817458	2663.460867
844.132629	2649.461583
844.447756	2640.952115
844.762840	2632.780405
845.077881	2637.864408
845.392879	2635.830303
845.707833	2633.355096
846.022745	2621.952006
846.337613	2628.250928
846.652438	2624.946452
846.967221	2626.405866
847.281960	2625.216153
847.596656	2622.342696
847.911309	2622.662809
848.225919	2618.264402
848.540485	2614.349946
848.855009	2617.440174
849.169490	2616.094186
849.483928	2618.135853
849.798323	2614.130656
850.112675	2614.662498
850.426984	2614.581839
850.741251	2612.910697
851.055474	2612.409102
851.369654	2617.021758
851.683792	2613.707199
851.997887	2613.694596
852.311938	2611.665532
852.625947	2613.722323
852.939914	2618.367746
853.253837	2619.093672
853.567718	2614.236520
853.881555	2612.399020
854.195350	2617.452777
854.509103	2613.971860
854.822812	2612.842641
855.136479	2611.085799
855.450103	2613.745008
855.763685	2615.274998
856.077224	2614.435646
856.390720	2610.622013
856.704173	2617.193157
857.017584	2616.061418
857.330953	2619.877572
857.644278	2620.830350
857.957561	2617.941768
858.270802	2615.713578
858.584000	2614.135697
858.897155	2620.260699
859.210268	2620.883282
859.523339	2616.454628
859.836367	2609.961622
860.149352	2612.454472
860.462295	2614.967488
860.775195	2607.924996
861.088054	2610.518669
861.400869	2609.011364
861.713642	2606.084975
862.026373	2608.671087
862.339062	2607.400716
862.651708	2612.620831
862.964312	2618.140894
863.276873	2614.390276
863.589392	2616.235338
863.901869	2622.728344
864.214303	2624.863273
864.526696	2627.703963
864.839045	2629.909468
865.151353	2632.172946
865.463619	2635.278297
865.775842	2632.233440
866.088023	2633.123203
866.400162	2636.110087
866.712258	2631.119345
867.024313	2630.927781
867.336325	2628.528192
867.648296	2629.601957
867.960224	2635.878194
868.272110	2634.443986
868.583954	2626.582306
868.895755	2627.759416
869.207515	2632.089767
869.519233	2641.899852
869.830909	2637.917341
870.142542	2631.701598
870.454134	2632.500621
870.765684	2637.682927
871.077191	2640.715181
871.388657	2643.313896
871.700081	2639.948926
872.011463	2641.977990
872.322803	2643.417239
872.634101	2647.921510
872.945357	2655.248827
873.256571	2659.274189
873.567744	2654.565751
873.878874	2655.037099
874.189963	2655.175731
874.501010	2662.072029
874.812015	2667.425735
875.122979	2666.798111
875.433900	2658.538180
875.744780	2653.973416
876.055618	2663.574293
876.366415	2668.733914
876.677169	2668.207113
876.987882	2659.148160
877.298554	2660.083294
877.609183	2670.881446
877.919771	2677.997034
878.230317	2684.469876
878.540822	2697.438244
878.851285	2705.967876
879.161707	2729.615929
879.472087	2771.759975
879.782425	2813.904021
880.092722	2927.340065
880.402977	3117.923407
880.713191	3376.020402
881.023363	3663.991274
881.333494	3853.674770
881.643583	4026.155328
881.953631	4023.584339
882.263637	3844.565405
882.573602	3625.590284
882.883526	3498.296109
883.193408	3386.029613
883.503248	3285.710651
883.813048	3171.173115
884.122806	3056.844787
884.432522	2971.707260
884.742197	2908.599576
885.051831	2874.024822
885.361424	2837.307578
885.670975	2801.966569
885.980485	2770.131682
886.289954	2752.041502
886.599382	2737.432238
886.908768	2728.247256
887.218113	2708.014585
887.527417	2697.644931
887.836680	2688.772501
888.145901	2685.412572
888.455082	2675.620130
888.764221	2664.433810
889.073319	2656.814106
889.382376	2657.131698
889.691392	2658.291164
890.000366	2658.470125
890.309300	2654.969043
890.618193	2657.713952
890.927044	2660.814261
891.235855	2660.100938
891.544625	2660.242090
891.853353	2657.860145
892.162041	2667.448420
892.470687	2688.666636
892.779293	2699.583255
893.087858	2710.759493
893.396381	2730.714901
893.704864	2770.933226
894.013306	2842.809997
894.321707	2935.506734
894.630068	2983.564054
894.938387	3002.851509
895.246665	2998.397649
895.554903	2952.997018
895.863100	2909.940523
896.171256	2852.680577
896.479371	2791.097841
896.787446	2750.798857
897.095480	2736.877711
897.403473	2727.448233
897.711425	2713.789227
898.019336	2695.716690
898.327207	2679.592559
898.635038	2681.581295
898.942827	2678.453259
899.250576	2669.192659
899.558284	2654.754794
899.865952	2653.202119
900.173579	2650.880668
900.481165	2650.888229
900.788711	2639.016312
901.096216	2633.861732
901.403681	2629.934673
901.711105	2630.907616
902.018489	2629.463326
902.325832	2634.721249
902.633135	2634.852319
902.940397	2651.019299
903.247619	2685.294104
903.554800	2756.626431
903.861941	2882.231821
904.169041	3004.174812
904.476101	3064.882907
904.783121	3062.758060
905.090100	3003.458968
905.397039	2928.370981
905.703938	2855.422964
906.010796	2794.548511
906.317614	2741.835686
906.624391	2706.661035
906.931129	2682.798733
907.237826	2655.120278
907.544483	2640.334574
907.851099	2628.311422
908.157675	2618.907149
908.464211	2609.853237
908.770707	2598.581217
909.077163	2595.647266
909.383578	2593.121647
909.689954	2592.201637
909.996289	2592.589806
910.302584	2589.257603
910.608839	2588.612335
910.915054	2586.452201
911.221229	2591.752974
911.527363	2593.605598
911.833458	2588.924887
912.139513	2590.898499
912.445527	2591.695001
912.751502	2596.597523
913.057436	2602.805704
913.363331	2608.698813
913.669186	2622.325052
913.975000	2632.992133
914.280775	2649.620379
914.586510	2669.031342
914.892205	2702.116435
915.197859	2770.061106
915.503475	2854.167717
915.809050	2920.910073
916.114585	2933.059254
916.420081	2943.209618
916.725536	2955.429374
917.030952	2931.272165
917.336328	2884.805330
917.641665	2836.034687
917.946961	2782.847993
918.252218	2753.682397
918.557435	2726.182903
918.862612	2706.103987
919.167750	2687.882737
919.472848	2671.806497
919.777906	2653.612973
920.082925	2642.572846
920.387904	2631.247894
920.692843	2628.109776
920.997743	2625.964765
921.302603	2616.061418
921.607423	2607.990531
921.912204	2606.279059
922.216946	2602.914089
922.521647	2602.357041
922.826310	2596.297574
923.130932	2591.258941
923.435516	2583.709813
923.740059	2586.810123
924.044564	2586.265678
924.349028	2580.354925
924.653454	2573.829152
924.957840	2571.555591
925.262186	2568.891342
925.566493	2570.764130
925.870761	2566.020404
926.174989	2569.917216
926.479178	2564.195507
926.783328	2562.620146
927.087438	2564.266083
927.391509	2563.547718
927.695541	2562.829354
927.999533	2559.411452
928.303486	2559.308108
928.607400	2555.945658
928.911275	2557.946997
929.215110	2556.169990
929.518906	2558.088149
929.822663	2559.686195
930.126381	2557.105124
930.430060	2556.727037
930.733699	2556.825340
931.037299	2559.144271
931.340861	2558.178890
931.644383	2558.551935
931.947866	2559.756771
932.251309	2558.909857
932.554714	2555.991029
932.858080	2558.554456
933.161407	2558.637635
933.464694	2556.598488
933.767943	2558.622511
934.071153	2555.131512
934.374323	2554.536656
934.677455	2556.817778
934.980548	2554.302242
935.283602	2556.613611
935.586617	2553.800647
935.889593	2555.519681
936.192530	2552.850390
936.495428	2557.331976
936.798287	2557.006821
937.101108	2557.251317
937.403890	2560.187789
937.706632	2560.359189
938.009336	2564.303892
938.312002	2567.210117
938.614628	2573.335119
938.917216	2574.643298
939.219765	2578.832497
939.522275	2578.270408
939.824747	2575.712023
940.127179	2572.296641
940.429573	2569.861764
940.731929	2571.081723
941.034246	2563.840105
941.336524	2568.966959
941.638763	2566.393450
941.940964	2567.822617
942.243126	2567.109294
942.545250	2563.867832
942.847335	2562.128634
943.149381	2562.662996
943.451389	2563.003274
943.753359	2558.980433
944.055290	2558.362892
944.357182	2562.105948
944.659036	2556.565720
944.960851	2555.713765
945.262628	2555.008004
945.564367	2558.587223
945.866067	2557.591595
946.167729	2559.091338
946.469352	2558.995557
946.770937	2555.963303
947.072484	2557.256358
947.373992	2556.608570
947.675462	2557.117727
947.976893	2557.188303
948.278286	2555.280226
948.579641	2556.394321
948.880958	2552.021120
949.182236	2554.176213
949.483476	2555.398693
949.784678	2555.940617
950.085841	2552.857952
950.386967	2556.154866
950.688054	2556.787531
950.989103	2556.767367
951.290114	2558.103272
951.591087	2558.589744
951.892021	2560.578479
952.192917	2559.847512
952.493776	2561.644683
952.794596	2561.531257
953.095378	2562.020249
953.396122	2561.863973
953.696828	2559.378684
953.997496	2558.065464
954.298126	2557.357182
954.598718	2556.094372
954.899272	2555.086142
955.199788	2556.462377
955.500266	2553.596481
955.800706	2551.151521
956.101108	2546.904349
956.401472	2546.082641
956.701798	2546.299411
957.002087	2544.003165
957.302337	2544.482075
957.602550	2547.710934
957.902724	2543.521735
958.202861	2544.323278
958.502960	2543.191539
958.803022	2542.379913
959.103045	2542.243802
959.403031	2544.330840
959.702979	2542.551313
960.002889	2540.164326
960.302762	2542.233720
960.602596	2541.122146
960.902393	2542.384955
961.202153	2539.352701
961.501875	2538.835982
961.801559	2539.393030
962.101205	2541.515356
962.400814	2542.982331
962.700385	2540.887732
962.999918	2542.468134
963.299414	2540.093750
963.598873	2540.960829
963.898293	2538.803215
964.197677	2540.590304
964.497022	2540.260108
964.796331	2542.392516
965.095601	2541.071734
965.394835	2539.816487
965.694030	2538.551157
965.993189	2540.439069
966.292309	2540.171888
966.591393	2541.354039
966.890439	2535.730632
967.189447	2538.530993
967.488419	2539.166178
967.787353	2538.853626
968.086249	2540.668442
968.385108	2539.725746
968.683930	2539.516538
968.982714	2541.338915
969.281462	2538.364634
969.580172	2538.478060
969.878844	2538.437731
970.177480	2541.732125
970.476078	2540.565098
970.774639	2540.653318
971.073162	2541.936292
971.371649	2538.770447
971.670098	2535.339942
971.968510	2538.689789
972.266885	2535.276928
972.565223	2542.432846
972.863524	2539.105684
973.161788	2542.127856
973.460014	2540.141641
973.758204	2540.749100
974.056356	2538.972093
974.354471	2540.174409
974.652550	2540.156765
974.950591	2544.814791
975.248595	2540.376055
975.546563	2540.474357
975.844493	2539.113246
976.142386	2542.193391
976.440243	2540.577701
976.738062	2541.180119
977.035845	2537.187525
977.333590	2540.320602
977.631299	2539.508976
977.928971	2539.133410
978.226606	2539.682896
978.524204	2538.558719
978.821765	2538.835982
979.119290	2536.506969
979.416777	2537.800025
979.714228	2538.407484
980.011642	2536.817000
980.309020	2538.110056
980.606360	2539.198945
980.903664	2540.008051
981.200931	2544.348484
981.498162	2540.423946
981.795356	2543.927548
982.092513	2545.409647
982.389633	2547.093392
982.686717	2551.965668
982.983764	2553.457849
983.280775	2557.251317
983.577749	2552.724361
983.874686	2553.853580
984.171587	2549.656819
984.468451	2547.531973
984.765279	2546.561551
985.062070	2545.386962
985.358824	2544.230017
985.655543	2540.665921
985.952224	2540.774306
986.248869	2536.264994
986.545478	2536.776671
986.842050	2536.464119
987.138586	2533.890610
987.435086	2535.281969
987.731549	2532.461443
988.027975	2536.154088
988.324366	2537.089222
988.620719	2536.766589
988.917037	2537.021167
989.213318	2535.995292
989.509563	2532.809283
989.805772	2535.644932
990.101944	2537.265663
990.398080	2537.850437
990.694180	2534.145189
990.990244	2534.097298
991.286271	2535.425642
991.582262	2537.001002
991.878217	2537.177443
992.174136	2536.282638
992.470019	2537.772299
992.765865	2536.486805
993.061676	2534.775333
993.357450	2536.985879
993.653188	2536.789274
993.948890	2535.455889
994.244556	2537.444624
994.540186	2537.590817
994.835780	2538.974614
995.131337	2537.374048
995.426859	2538.583925
995.722345	2539.133410
996.017795	2540.590304
996.313208	2540.015612
996.608586	2538.503266
996.903928	2539.017464
997.199234	2540.895294
997.494504	2538.031918
997.789738	2538.946888
998.084936	2537.986548
998.380099	2539.834131
998.675225	2536.038142
998.970316	2539.077958
999.265371	2537.994110
999.560390	2538.165509
999.855373	2537.343801
1000.150320	2536.945550
1000.445232	2534.757689
1000.740108	2535.266845
1001.034948	2537.258101
1001.329752	2533.270548
1001.624521	2536.007895
1001.919254	2530.971782
1002.213951	2532.693336
1002.508613	2533.250384
1002.803239	2532.917668
1003.097829	2532.831968
1003.392384	2534.692154
1003.686903	2532.209386
1003.981386	2533.792308
1004.275834	2533.235260
1004.570246	2536.023018
1004.864623	2533.026053
1005.158964	2532.176618
1005.453270	2534.296423
1005.747540	2536.678368
1006.041775	2531.460774
1006.335974	2538.362114
1006.630138	2533.406660
1006.924266	2530.961700
1007.218359	2532.196783
1007.512416	2532.806762
1007.806438	2530.533202
1008.100425	2532.771474
1008.394376	2531.954807
1008.688292	2530.697039
1008.982172	2534.152750
1009.276017	2531.163346
1009.569827	2533.419263
1009.863602	2536.950591
1010.157341	2533.444468
1010.451045	2534.422452
1010.744714	2530.598737
1011.038347	2531.478418
1011.331945	2532.458923
1011.625508	2532.282482
1011.919036	2534.840868
1012.212528	2534.528316
1012.505986	2530.961700
1012.799408	2535.667617
1013.092795	2528.254600
1013.386147	2533.920857
1013.679464	2534.001516
1013.972745	2534.253573
1014.265992	2533.537730
1014.559204	2532.070754
1014.852380	2533.477236
1015.145521	2535.798687
1015.438628	2532.065713
1015.731699	2531.889272
1016.024736	2532.227030
1016.317737	2535.488656
1016.610703	2535.380271
1016.903635	2529.983716
1017.196531	2529.509848
1017.489393	2530.145033
1017.782219	2528.937677
1018.075011	2533.517565
1018.367768	2530.467667
1018.660490	2533.353728
1018.953177	2533.353728
1019.245829	2533.353728
