Dividing Wavelength (nm)	Counts (n)	Blue Motor Position (mm): 21.400000	Red Motor Position (mm): 0.000000	
326.493990	2134.371606
326.888308	2134.371606
327.282561	2134.371606
327.676750	2101.752820
328.070874	2100.323653
328.464933	2103.280290
328.858929	2110.244644
329.252859	2119.359050
329.646726	2129.771553
330.040528	2142.815539
330.434265	2161.775319
330.827938	2177.541527
331.221547	2195.271265
331.615091	2213.353884
332.008571	2234.385578
332.401986	2253.836870
332.795338	2274.528286
333.188625	2294.193827
333.581847	2311.449697
333.975006	2328.478715
334.368100	2348.300532
334.761129	2362.511544
335.154095	2379.046529
335.546996	2403.584345
335.939833	2422.460946
336.332606	2439.719336
336.725315	2452.085286
337.117960	2461.676082
337.510540	2470.268728
337.903056	2480.267857
338.295508	2488.706748
338.687896	2497.140599
339.080220	2504.178050
339.472480	2509.027640
339.864676	2515.664319
340.256807	2516.289422
340.648875	2523.480628
341.040879	2527.077491
341.432818	2526.722090
341.824694	2530.507996
342.216506	2529.214940
342.608253	2529.615712
342.999937	2529.494724
343.391557	2529.071267
343.783113	2529.182173
344.174605	2526.553211
344.566033	2522.734537
344.957397	2525.050947
345.348697	2518.666326
345.739934	2519.432581
346.131106	2515.903773
346.522215	2516.622138
346.913260	2512.874040
347.304241	2511.127280
347.695159	2512.662312
348.086012	2507.913545
348.476802	2508.001765
348.867528	2507.240551
349.258191	2502.489263
349.648789	2504.677124
350.039324	2504.084788
350.429796	2504.293996
350.820203	2498.814262
351.210548	2498.083295
351.600828	2495.134220
351.991045	2496.432317
352.381198	2496.258397
352.771288	2495.953407
353.161314	2495.315701
353.551276	2496.850733
353.941175	2494.068016
354.331010	2495.870228
354.720782	2494.340238
355.110490	2495.126658
355.500135	2492.694301
355.889717	2494.980464
356.279235	2497.732934
356.668689	2497.362410
357.058080	2496.828047
357.447408	2494.839312
357.836672	2495.008191
358.225873	2494.365444
358.615010	2492.860659
359.004084	2496.439878
359.393095	2499.106649
359.782043	2499.986330
360.170927	2499.726711
360.559748	2499.169663
360.948505	2498.350476
361.337199	2502.844664
361.725830	2501.281907
362.114398	2503.041269
362.502903	2501.455827
362.891344	2501.324757
363.279722	2503.154695
363.668037	2503.250477
364.056289	2504.046980
364.444478	2502.620333
364.832603	2504.324243
365.220665	2503.910868
365.608665	2505.763493
365.996601	2507.389265
366.384474	2507.152330
366.772284	2508.107629
367.160031	2507.779954
367.547715	2504.667042
367.935336	2507.588390
368.322893	2508.657115
368.710388	2509.415808
369.097820	2510.159379
369.485189	2510.234996
369.872495	2509.156189
370.259738	2510.318175
370.646918	2509.811539
371.034035	2509.559481
371.421090	2508.919255
371.808081	2510.794564
372.195010	2515.253465
372.581875	2509.506549
372.968678	2510.615603
373.355418	2512.430418
373.742096	2513.776407
374.128710	2509.952691
374.515262	2511.245747
374.901751	2512.380007
375.288177	2512.904287
375.674540	2511.873371
376.060841	2512.526200
376.447079	2514.396468
376.833254	2513.640295
377.219367	2508.175685
377.605417	2510.111488
377.991404	2511.578463
378.377329	2512.206087
378.763191	2509.156189
379.148991	2518.051305
379.534727	2515.979391
379.920402	2514.671211
380.306013	2515.061901
380.691563	2517.222035
381.077049	2514.414113
381.462474	2516.964936
381.847835	2517.451408
382.233134	2517.910153
382.618371	2514.716582
383.003545	2518.131963
383.388657	2518.071470
383.773706	2519.414937
384.158693	2519.082221
384.543618	2518.721778
384.928480	2520.052643
385.313280	2519.414937
385.698017	2518.368898
386.082692	2519.024248
386.467305	2519.301511
386.851856	2520.927283
387.236344	2517.993332
387.620770	2518.943589
388.005133	2520.816378
388.389435	2518.968795
388.773674	2517.143897
389.157851	2518.588188
389.541965	2520.113137
389.926018	2520.498785
390.310008	2516.521315
390.693936	2520.720596
391.077802	2522.462315
391.461606	2520.758405
391.845348	2524.221677
392.229027	2521.202026
392.612645	2520.619773
392.996200	2520.763446
393.379694	2522.404341
393.763125	2523.762932
394.146494	2521.978364
394.529801	2524.962727
394.913047	2524.072963
395.296230	2523.513395
395.679351	2524.566996
396.062410	2519.462828
396.445408	2526.248221
396.828343	2526.230577
397.211217	2519.997190
397.594028	2523.536080
397.976778	2520.955010
398.359466	2522.137160
398.742092	2520.118178
399.124656	2525.686133
399.507158	2527.536236
399.889598	2526.376771
400.271977	2524.486338
400.654294	2527.478263
401.036549	2530.555887
401.418742	2526.742254
401.800874	2526.729651
402.182944	2523.664630
402.564952	2528.113448
402.946898	2528.478932
403.328783	2527.863911
403.710606	2525.731503
404.092367	2527.420289
404.474067	2527.924405
404.855705	2524.546832
405.237282	2526.550690
405.618797	2528.380629
406.000250	2527.468180
406.381642	2529.693850
406.762972	2529.245187
407.144240	2530.790301
407.525447	2530.545805
407.906593	2529.414066
408.287677	2530.691998
408.668700	2528.854498
409.049661	2529.401463
409.430560	2531.284334
409.811399	2529.134282
410.192176	2533.454551
410.572891	2532.141330
410.953545	2529.459436
411.334138	2532.710980
411.714669	2529.645959
412.095139	2529.396422
412.475547	2530.770136
412.855894	2533.522606
413.236180	2530.608819
413.616405	2533.424304
413.996568	2532.350538
414.376670	2531.957328
414.756711	2533.625950
415.136691	2532.411032
415.516609	2531.985054
415.896466	2533.194931
416.276262	2533.207534
416.655997	2530.374406
417.035670	2529.441792
417.415283	2530.923891
417.794834	2527.006915
418.174324	2530.661751
418.553753	2532.595034
418.933121	2532.892462
419.312428	2532.874818
419.691674	2534.931609
420.070859	2535.332380
420.449983	2535.657535
420.829045	2532.469005
421.208047	2534.772812
421.586988	2534.079654
421.965867	2537.300951
422.344686	2536.761547
422.723444	2535.707946
423.102141	2535.458409
423.480777	2535.276928
423.859352	2536.201979
424.237866	2535.208872
424.616319	2538.256250
424.994712	2536.806918
425.373044	2535.667617
425.751314	2534.137627
426.129524	2533.275590
426.507673	2536.859850
426.885762	2538.263811
427.263789	2539.191384
427.641756	2534.969417
428.019662	2536.302803
428.397508	2536.779192
428.775292	2536.612833
429.153016	2538.072247
429.530679	2541.210366
429.908282	2537.555529
430.285824	2538.677186
430.663305	2536.670807
431.040726	2540.111394
431.418086	2537.593338
431.795385	2541.132228
432.172624	2537.474871
432.549802	2540.083668
432.926920	2540.837320
433.303977	2541.376724
433.680974	2539.410674
434.057910	2540.267670
434.434786	2539.040149
434.811601	2538.475540
435.188355	2540.996117
435.565050	2537.558050
435.941683	2540.938143
436.318257	2536.955632
436.694770	2537.124511
437.071222	2536.738862
437.447614	2536.940508
437.823946	2536.985879
438.200218	2539.824048
438.576429	2541.038967
438.952580	2539.710622
439.328670	2541.568288
439.704700	2540.953267
440.080670	2540.852444
440.456580	2542.248843
440.832429	2542.798329
441.208218	2543.173895
441.583947	2542.460572
441.959616	2542.256405
442.335224	2541.462423
442.710773	2539.776158
443.086261	2542.901673
443.461689	2542.563916
443.837057	2543.645243
444.212365	2543.299924
444.587612	2545.109698
444.962800	2543.836807
445.337927	2544.008206
445.712995	2545.349153
446.088002	2543.466282
446.462949	2543.614996
446.837837	2543.831766
447.212664	2543.657846
447.587431	2545.979297
447.962139	2547.239586
448.336786	2547.605069
448.711374	2544.587939
449.085901	2546.977446
449.460369	2545.200439
449.834776	2542.667259
450.209124	2546.889226
450.583412	2548.472148
450.957640	2544.620706
451.331808	2545.918803
451.705917	2547.443752
452.079965	2545.810419
452.453954	2544.729091
452.827883	2546.221273
453.201752	2547.103475
453.575562	2546.637168
453.949311	2545.407126
454.323001	2546.581715
454.696632	2544.991231
455.070202	2547.829401
455.443713	2544.719009
455.817164	2545.354194
456.190556	2544.759338
456.563888	2546.170861
456.937160	2540.434028
457.310373	2551.227138
457.683526	2550.017262
458.056619	2547.809236
458.429653	2548.699000
458.802628	2549.528270
459.175542	2547.358053
459.548398	2548.890564
459.921194	2550.269319
460.293930	2548.076417
460.666607	2550.415513
461.039224	2549.147663
461.411782	2550.387786
461.784280	2550.539021
462.156719	2551.431305
462.529099	2551.758980
462.901419	2551.486758
463.273680	2552.031203
463.645882	2557.208467
464.018024	2550.798640
464.390106	2551.534649
464.762130	2553.813250
465.134094	2550.990204
465.505999	2555.648230
465.877845	2554.045143
466.249631	2556.212840
466.621358	2557.203426
466.993026	2557.699980
467.364634	2559.431616
467.736184	2553.243600
468.107674	2556.424568
468.479105	2555.489434
468.850477	2558.851884
469.221790	2559.421534
469.593043	2558.710731
469.964238	2558.292316
470.335373	2560.376833
470.706449	2556.817778
471.077467	2559.000598
471.448425	2563.421690
471.819324	2564.777760
472.190164	2567.673903
472.560945	2561.654765
472.931667	2562.662996
473.302330	2562.781463
473.672934	2562.282389
474.043479	2565.912020
474.413965	2568.508214
474.784393	2564.351783
475.154761	2567.137020
475.525070	2568.692216
475.895321	2570.960735
476.265513	2572.450396
476.635645	2580.934658
477.005719	2582.540266
477.375734	2585.620411
477.745691	2592.156267
478.115588	2595.216247
478.485427	2604.171857
478.855207	2609.157558
479.224928	2625.047275
479.594591	2636.301651
479.964194	2638.192083
480.333739	2640.543782
480.703226	2649.522077
481.072653	2658.238232
481.442022	2669.590910
481.811333	2680.489885
482.180584	2687.900381
482.549777	2693.543953
482.918912	2698.703574
483.287988	2709.600028
483.657005	2717.829711
484.025964	2724.884806
484.394864	2736.303020
484.763706	2748.384145
485.132489	2752.868251
485.501213	2766.048348
485.869879	2778.704165
486.238487	2791.622121
486.607036	2806.526293
486.975527	2815.733960
487.343959	2837.683144
487.712333	2852.342819
488.080648	2865.646424
488.448905	2889.105434
488.817104	2902.527506
489.185244	2933.611261
489.553326	2966.411528
489.921350	3018.063190
490.289315	3101.716097
490.657222	3140.752272
491.025070	3174.485153
491.392861	3189.096937
491.760593	3194.480890
492.128267	3195.993236
492.495883	3200.265614
492.863440	3206.975390
493.230939	3216.266236
493.598380	3238.762385
493.965763	3263.096035
494.333088	3276.167747
494.700354	3307.397695
495.067563	3340.981862
495.434713	3364.340048
495.801805	3413.287131
496.168839	3439.170936
496.535815	3477.768530
496.902733	3503.561594
497.269593	3547.752348
497.636395	3586.236517
498.003139	3638.152840
498.369825	3653.346877
498.736453	3721.815829
499.103023	3750.129470
499.469535	3801.788694
499.835989	3842.226309
500.202385	3884.670304
500.568723	3913.520827
500.935003	3983.124039
501.301226	4023.473434
501.667390	4100.870269
502.033497	4177.808359
502.399546	4200.604457
502.765537	4233.167790
503.131470	4304.479952
503.497345	4394.910691
503.863163	4367.050754
504.228923	4493.374507
504.594625	4557.865989
504.960269	4562.866813
505.325856	4666.051671
505.691385	4686.102860
506.056856	4772.326756
506.422270	4845.337787
506.787625	4868.441395
507.152924	4971.966530
507.518164	5018.519065
507.883347	5066.911622
508.248472	5096.745170
508.613540	5235.530656
508.978550	5267.378146
509.343503	5325.394265
509.708398	5426.968473
510.073236	5527.967991
510.438016	5596.830152
510.802738	5654.160674
511.167403	5737.979939
511.532010	5780.025683
511.896561	5917.301343
512.261053	6019.427559
512.625488	6043.441095
512.989866	6103.902174
513.354186	6169.754766
513.718449	6200.836000
514.082655	6345.401169
514.446803	6379.759153
514.810894	6496.177040
515.174927	6520.384660
515.538904	6590.988541
515.902822	6739.090079
516.266684	6745.971254
516.630488	6804.675490
516.994235	6883.660289
517.357925	6999.442990
517.721558	7110.330730
518.085133	7193.900458
518.448651	7266.057014
518.812112	7277.301307
519.175516	7360.450099
519.538863	7494.718711
519.902152	7509.002821
520.265385	7689.554266
520.628560	7691.157353
520.991678	7769.237264
521.354739	7859.521809
521.717743	7884.551138
522.080690	7945.995242
522.443580	8110.369625
522.806413	8140.384655
523.169189	8230.147440
523.531908	8327.779467
523.894569	8287.162890
524.257174	8359.185855
524.619722	8494.397163
524.982213	8511.857199
525.344647	8619.871482
525.707025	8645.604052
526.069345	8773.082230
526.431608	8786.496740
526.793815	8916.069518
527.155964	8826.606681
527.518057	8922.459180
527.880093	8940.929968
528.242072	9047.885608
528.603995	9040.643991
528.965860	9032.250470
529.327669	9137.424062
529.689421	9142.097212
530.051117	9174.501749
530.412755	9307.462182
530.774337	9266.356613
531.135862	9316.518614
531.497331	9368.127427
531.858743	9306.731214
532.220098	9482.622113
532.581396	9420.764635
532.942638	9457.315521
533.303824	9468.509403
533.664953	9534.004074
534.026025	9498.095935
534.387040	9624.429771
534.747999	9660.673146
535.108902	9754.554554
535.469748	9586.789996
535.830537	9717.759172
536.191270	9736.623170
536.551947	9793.283219
536.912567	9821.680038
537.273131	9791.838928
537.633638	9805.694540
537.994089	9835.931380
538.354483	9828.057098
538.714821	9973.479263
539.075103	10019.295790
539.435328	10016.545840
539.795497	9890.602694
540.155609	10056.948168
540.515665	10171.684829
540.875665	9958.955699
541.235609	10047.017095
541.595496	10068.333614
541.955328	10235.203368
542.315102	10148.787909
542.674821	10134.942380
543.034483	10148.724894
543.394090	10182.926603
543.753640	10135.254931
544.113134	10365.610456
544.472571	10248.290203
544.831953	10399.862576
545.191278	10233.552390
545.550548	10281.488722
545.909761	10430.590929
546.268918	10422.724209
546.628019	10515.231902
546.987064	10411.099308
547.346053	10344.488022
547.704986	10452.232603
548.063863	10454.511204
548.422684	10460.643768
548.781449	10393.125074
549.140158	10510.846098
549.498811	10408.306509
549.857408	10276.878587
550.215949	10510.105049
550.574434	10375.612105
550.932864	10481.115894
551.291237	10550.530062
551.649555	10512.217292
552.007817	10529.301763
552.366022	10498.671712
552.724173	10508.640594
553.082267	10501.136836
553.440305	10639.710594
553.798288	10453.621441
554.156215	10608.667168
554.514086	10599.257855
554.871902	10458.037491
555.229661	10498.835549
555.587365	10474.690943
555.945014	10378.437672
556.302606	10512.441624
556.660143	10409.362630
557.017625	10567.604450
557.375050	10475.295882
557.732421	10602.537125
558.089735	10522.087872
558.446994	10525.740187
558.804197	10568.814327
559.161345	10573.043855
559.518437	10432.052864
559.875474	10523.043170
560.232455	10550.877901
560.589381	10504.441312
560.946251	10501.419141
561.303065	10614.777047
561.659825	10551.810515
562.016528	10483.812911
562.373177	10360.965033
562.729770	10488.090330
563.086307	10404.770139
563.442789	10493.741463
563.799216	10368.181445
564.155587	10429.749057
564.511904	10385.744825
564.868164	10378.130162
565.224370	10392.815043
565.580520	10319.390637
565.936615	10314.881325
566.292654	10193.639054
566.648638	10330.813892
567.004567	10285.249423
567.360441	10275.270459
567.716260	10185.593373
568.072023	10287.457448
568.427732	10234.306043
568.783385	10144.780191
569.138982	10216.440193
569.494525	10228.715403
569.850013	10111.866498
570.205445	10192.114105
570.560823	10087.847920
570.916145	10002.922122
571.271412	10080.959184
571.626625	10026.310555
571.981782	9999.441205
572.336884	9979.755500
572.691931	9980.746086
573.046923	9927.345144
573.401860	9884.495336
573.756743	9827.832767
574.111570	9865.462460
574.466342	9851.311941
574.821059	9877.223472
575.175722	9775.306464
575.530330	9783.216035
575.884882	9778.487432
576.239380	9694.400986
576.593823	9677.845837
576.948211	9696.112458
577.302544	9576.322040
577.656823	9595.034803
578.011047	9597.336089
578.365216	9569.090504
578.719330	9493.642075
579.073389	9511.263429
579.427394	9453.035581
579.781344	9431.099000
580.135239	9383.132421
580.489080	9392.710614
580.842866	9290.057598
581.196597	9302.922623
581.550273	9338.646759
581.903895	9302.473960
582.257463	9375.626143
582.610975	9247.515301
582.964434	9280.975959
583.317837	9202.001243
583.671186	9182.275208
584.024481	9180.273870
584.377721	9097.654400
584.730906	9078.969363
585.084037	9110.716029
585.437113	9046.884939
585.790135	9065.643073
586.143103	8959.045354
586.496016	8934.089122
586.848874	8994.739244
587.201679	8985.914704
587.554428	8866.671251
587.907124	8914.564733
588.259765	8885.147080
588.612352	8892.620590
588.964884	8767.458823
589.317362	8781.616903
589.669786	8781.684959
590.022155	8827.599788
590.374470	8845.266512
590.726731	8780.371738
591.078937	8636.497207
591.431090	8752.675639
591.783188	8623.851473
592.135232	8612.932334
592.487222	8612.667673
592.839157	8665.440992
593.191038	8599.870704
593.542866	8546.361377
593.894639	8443.027805
594.246358	8495.448243
594.598022	8512.391562
594.949633	8415.828260
595.301190	8391.522336
595.652692	8416.428157
596.004141	8522.529322
596.355535	8306.094943
596.706876	8285.232128
597.058162	8219.122437
597.409395	8299.291906
597.760573	8354.840380
598.111698	8269.034901
598.462768	8254.796162
598.813785	8220.481027
599.164748	8187.942900
599.515657	8177.938730
599.866511	8086.930780
600.217312	8214.237558
600.568060	8074.753873
600.918753	8173.232813
601.269392	8145.829101
601.619978	8059.022952
601.970510	8123.108620
602.320988	8122.072663
602.671412	8177.762290
603.021783	8110.296528
603.372100	8086.792148
603.722363	8087.392045
604.072572	8066.370434
604.422728	8076.316630
604.772830	8003.260229
605.122878	8012.351950
605.472872	8005.997575
605.822813	8033.139148
606.172701	7977.199984
606.522534	8058.977582
606.872314	8055.048002
607.222041	8027.125051
607.571714	8078.151610
607.921333	8040.489150
608.270899	8043.803709
608.620411	8132.664128
608.969870	8036.874643
609.319276	8030.369034
609.668627	8046.805716
610.017926	8084.954647
610.367171	8127.499465
610.716362	8104.090868
611.065500	8095.636852
611.414585	8128.222871
611.763616	8113.563196
612.112594	8093.375895
612.461518	8114.810881
612.810389	8170.543357
613.159207	8110.682176
613.507971	8058.823827
613.856682	8179.045263
614.205340	8128.858056
614.553945	8211.898463
614.902496	8107.947350
615.250994	8163.848705
615.599439	8145.632496
615.947830	8159.175556
616.296169	8133.611864
616.644454	8141.584449
616.992686	8139.865416
617.340864	8203.981331
617.688990	8104.796629
618.037063	8196.091925
618.385082	8142.701065
618.733048	8225.237356
619.080961	8164.630084
619.428821	8185.644134
619.776628	8183.700769
620.124382	8141.657546
620.472083	8128.331256
620.819731	8144.599059
621.167326	8044.189357
621.514868	8056.386429
621.862357	7946.489275
622.209793	7963.157850
622.557176	7893.784011
622.904506	7860.333435
623.251783	7798.241543
623.599007	7751.701611
623.946179	7756.253773
624.293297	7715.647278
624.640363	7635.097202
624.987376	7614.410827
625.334336	7565.090698
625.681243	7515.349633
626.028097	7502.693817
626.374899	7481.231104
626.721647	7472.058725
627.068343	7407.100937
627.414987	7376.914508
627.761577	7331.455903
628.108115	7366.819597
628.454600	7264.602641
628.801032	7314.323541
629.147412	7273.580936
629.493739	7261.295644
629.840014	7200.713578
630.186236	7258.933863
630.532405	7140.519680
630.878521	7192.577155
631.224585	7146.140567
631.570597	7066.266005
631.916556	7102.925275
632.262462	7097.004440
632.608316	7061.381127
632.954117	7045.327572
633.299866	7026.450972
633.645562	7020.643562
633.991206	6937.706499
634.336797	6888.734210
634.682336	6841.790986
635.027823	6808.663043
635.373257	6797.350694
635.718639	6733.043215
636.063968	6744.050574
636.409245	6637.619214
636.754470	6636.086703
637.099642	6597.368121
637.444762	6538.374018
637.789829	6546.495317
638.134845	6493.480022
638.479808	6475.306663
638.824719	6485.139433
639.169577	6413.973464
639.514383	6430.974756
639.859137	6358.987079
640.203839	6363.882039
640.548489	6354.901224
640.893086	6327.769734
641.237632	6306.125540
641.582125	6322.320246
641.926566	6295.521473
642.270955	6307.645447
642.615292	6303.302493
642.959576	6316.371685
643.303809	6306.775848
643.647990	6316.671633
643.992118	6303.940199
644.336195	6249.110090
644.680219	6275.989522
645.024192	6266.098778
645.368112	6357.741914
645.711981	6384.535647
646.055797	6459.641277
646.399562	6415.276603
646.743274	6541.882661
647.086935	6597.857113
647.430544	6587.278251
647.774101	6608.259534
648.117606	6612.075687
648.461059	6610.815399
648.804460	6569.082207
649.147810	6478.477548
649.491108	6449.879083
649.834354	6422.805566
650.177548	6335.734757
650.520690	6252.991778
650.863781	6238.001907
651.206820	6253.954638
651.549807	6177.429923
651.892742	6117.374657
652.235626	6123.660976
652.578458	6110.102793
652.921238	6016.475963
653.263967	6056.790070
653.606644	5996.419733
653.949269	5999.578015
654.291843	5941.471156
654.634365	5988.858002
654.976836	5945.836795
655.319255	5945.224295
655.661622	5920.605820
656.003938	5921.067085
656.346203	5879.545622
656.688416	5910.543677
657.030577	5864.109609
657.372687	5832.355381
657.714746	5822.197456
658.056753	5867.272933
658.398708	5806.874868
658.740612	5796.265760
659.082465	5847.209140
659.424266	5840.506926
659.766016	5834.369322
660.107715	5809.166073
660.449362	5823.712322
660.790958	5823.364483
661.132503	5805.528880
661.473996	5843.892061
661.815438	5829.229865
662.156829	5823.435059
662.498168	5814.842412
662.839456	5791.789216
663.180693	5828.022509
663.521879	5827.944371
663.863013	5820.649821
664.204097	5839.889385
664.545129	5882.439244
664.886110	5871.920877
665.227040	5907.072842
665.567918	5876.878851
665.908746	5900.118571
666.249522	5907.213995
666.590248	5895.185802
666.930922	5922.924751
667.271545	5933.748108
667.612118	5939.041319
667.952639	5904.801803
668.293109	5933.609476
668.633528	5885.902517
668.973896	5891.541047
669.314213	5887.440069
669.654480	5863.063569
669.994695	5856.734401
670.334859	5849.644018
670.674973	5840.741340
671.015035	5841.628583
671.355047	5847.073029
671.695008	5829.711295
672.034918	5803.648530
672.374777	5814.071116
672.714585	5800.916225
673.054342	5802.388242
673.394049	5793.382220
673.733705	5824.705430
674.073310	5813.219161
674.412864	5776.184324
674.752368	5767.768118
675.091820	5769.451863
675.431223	5705.053643
675.770574	5710.742585
676.109875	5659.864740
676.449125	5662.428167
676.788324	5630.154700
677.127473	5574.666719
677.466571	5564.614659
677.805619	5554.597886
678.144616	5541.493407
678.483562	5522.329460
678.822458	5492.982383
679.161303	5484.977031
679.500098	5471.043282
679.838842	5459.642712
680.177535	5465.477848
680.516179	5479.230115
680.854771	5489.277135
681.193314	5573.262758
681.531805	5679.109345
681.870247	5826.618548
682.208638	5927.970946
682.546978	5936.861020
682.885268	5913.666672
683.223508	5834.011400
683.561697	5782.049706
683.899836	5752.553915
684.237925	5704.569692
684.575963	5671.971071
684.913951	5632.758456
685.251889	5696.226583
685.589776	5659.852137
685.927614	5632.844155
686.265401	5702.616245
686.603137	5686.638308
686.940824	5762.787458
687.278460	5783.829234
687.616046	5792.084123
687.953582	5858.995358
688.291068	5840.890054
688.628504	5909.033851
688.965889	5865.238827
689.303224	5814.504655
689.640510	5767.798364
689.977745	5692.957394
690.314930	5591.000058
690.652065	5538.093148
690.989150	5443.314415
691.326185	5368.412951
691.663170	5316.068130
692.000105	5244.478704
692.336990	5165.289739
692.673825	5140.504906
693.010610	5070.367333
693.347345	5004.449205
693.684030	4987.629395
694.020665	4947.274959
694.357251	4861.121639
694.693786	4867.838977
695.030272	4838.176828
695.366707	4801.378925
695.703093	4763.648409
696.039429	4788.586997
696.375716	4772.286426
696.711952	4746.498404
697.048139	4735.077670
697.384276	4712.016912
697.720363	4726.832863
698.056400	4736.768977
698.392388	4684.240154
698.728326	4668.869676
699.064214	4642.809431
699.400053	4635.237618
699.735842	4606.545891
700.071581	4579.147220
700.407270	4554.057397
700.742910	4535.609294
701.078501	4480.252384
701.414042	4479.758351
701.749533	4453.846820
702.084974	4387.273343
702.420366	4443.971200
702.755709	4387.850555
703.091002	4329.040454
703.426246	4380.571128
703.761440	4330.860310
704.096584	4299.282523
704.431679	4316.314061
704.766725	4302.652534
705.101721	4293.162562
705.436668	4320.064679
705.771565	4267.734982
706.106413	4293.646513
706.441212	4327.782686
706.775961	4335.485569
707.110661	4316.432528
707.445311	4341.620653
707.779913	4369.094942
708.114465	4380.074575
708.448967	4402.679109
708.783421	4464.201350
709.117825	4503.136702
709.452180	4508.717259
709.786485	4554.274167
710.120742	4637.934635
710.454949	4624.162203
710.789107	4691.204508
711.123216	4761.919293
711.457275	4753.515690
711.791286	4824.638809
712.125247	4843.931305
712.459159	4745.540585
712.793023	4821.299045
713.126837	4783.366882
713.460602	4768.503040
713.794318	4691.403633
714.127985	4699.618194
714.461602	4620.010813
714.795171	4589.824383
715.128691	4520.281666
715.462162	4464.428202
715.795584	4416.660749
716.128957	4398.079056
716.462281	4347.503680
716.795556	4323.744722
717.128782	4283.465903
717.461960	4218.031726
717.795088	4225.966502
718.128167	4185.511242
718.461198	4129.483858
718.794180	4123.605873
719.127113	4104.673820
719.459997	4084.884770
719.792833	4039.093449
720.125619	4027.203888
720.458357	3990.900018
720.791046	4002.040968
721.123686	3973.578614
721.456278	3934.676030
721.788821	3947.813277
722.121315	3921.311931
722.453761	3896.007859
722.786158	3909.558481
723.118506	3932.508333
723.450805	3887.022002
723.783056	3907.514293
724.115259	3919.832352
724.447412	3925.901901
724.779518	3918.151127
725.111574	3925.859052
725.443582	3951.180767
725.775542	3942.308337
726.107453	3991.716685
726.439315	3988.734843
726.771129	4003.613808
727.102895	4039.126217
727.434612	4087.617076
727.766281	4095.829115
728.097901	4099.113427
728.429473	4106.486114
728.760996	4108.157257
729.092471	4105.339252
729.423897	4091.440791
729.755276	4099.020166
730.086606	4099.519240
730.417887	4130.676091
730.749120	4197.247048
731.080305	4260.800875
731.411442	4287.140904
731.742530	4256.122684
732.073570	4258.802057
732.404562	4312.240809
732.735506	4306.957679
733.066401	4267.866052
733.397249	4205.824572
733.728048	4130.749188
734.058798	4048.263308
734.389501	3976.631032
734.720156	3917.788164
735.050762	3870.187069
735.381320	3863.013507
735.711831	3815.997186
736.042293	3786.403092
736.372707	3807.936381
736.703073	3779.098460
737.033391	3767.387860
737.363661	3789.664719
737.693883	3813.900066
738.024056	3823.120336
738.354182	3814.797391
738.684260	3880.173595
739.014290	3896.620359
739.344272	3892.821850
739.674207	3937.428500
740.004093	3941.955456
740.333931	3935.709466
740.663722	3939.659210
740.993464	3939.389508
741.323159	3914.798760
741.652806	3880.909603
741.982405	3856.767517
742.311956	3822.916169
742.641460	3814.373934
742.970915	3790.861993
743.300323	3750.099223
743.629683	3714.233934
743.958996	3706.490721
744.288260	3678.116587
744.617477	3651.738749
744.946647	3635.239053
745.275768	3610.728963
745.604842	3607.492542
745.933869	3556.319789
746.262847	3552.909449
746.591778	3586.647371
746.920662	3561.275244
747.249498	3531.504710
747.578286	3577.069179
747.907027	3593.215994
748.235720	3589.800613
748.564365	3615.570991
748.892963	3615.777678
749.221514	3597.979885
749.550017	3574.165474
749.878473	3572.083477
750.206881	3543.908469
750.535242	3539.094167
750.863555	3543.762275
751.191821	3535.978734
751.520039	3517.364273
751.848210	3495.011797
752.176334	3530.950183
752.504411	3535.091491
752.832440	3495.163032
753.160421	3479.278356
753.488356	3489.595077
753.816243	3498.076818
754.144082	3458.443267
754.471875	3443.385340
754.799620	3461.266313
755.127318	3454.606949
755.454969	3455.640385
755.782572	3459.877475
756.110129	3434.338990
756.437638	3424.478493
756.765100	3440.514403
757.092515	3447.188891
757.419882	3457.994604
757.747203	3425.544697
758.074477	3433.030810
758.401703	3446.954477
758.728882	3466.239411
759.056014	3478.015547
759.383099	3479.048983
759.710138	3473.780978
760.037129	3495.848628
760.364073	3522.924666
760.690970	3506.460257
761.017820	3485.317658
761.344623	3501.479597
761.671379	3546.847461
761.998088	3598.259669
762.324751	3723.587795
762.651366	3967.640135
762.977935	4437.992391
763.304456	4873.815265
763.630931	4963.663750
763.957359	4606.495479
764.283740	4267.578706
764.610074	4079.979727
764.936362	3884.876991
765.262602	3725.475707
765.588796	3619.271198
765.914943	3533.493445
766.241044	3445.434569
766.567097	3415.601021
766.893104	3370.470091
767.219064	3340.482788
767.544978	3314.137718
767.870845	3254.485744
768.196665	3240.292375
768.522438	3246.946698
768.848165	3244.836976
769.173846	3207.217365
769.499479	3188.887730
769.825066	3173.106397
770.150607	3157.761125
770.476101	3173.055986
770.801548	3169.592713
771.126949	3126.964716
771.452303	3105.655759
771.777611	3115.821246
772.102872	3119.523973
772.428087	3096.480859
772.753256	3082.864703
773.078378	3080.548292
773.403453	3042.603527
773.728482	3033.557177
774.053465	3053.273129
774.378401	3040.249308
774.703291	3007.925430
775.028135	3012.217973
775.352932	3004.741941
775.677683	2993.938749
776.002388	2992.333141
776.327046	2992.812051
776.651658	2983.732933
776.976224	2968.790953
777.300743	2970.240284
777.625216	2958.701083
777.949643	2957.095476
778.274024	2957.549180
778.598359	2946.584670
778.922647	2950.927624
779.246889	2949.816050
779.571086	2935.615119
779.895236	2933.182763
780.219339	2941.283897
780.543397	2952.374435
780.867409	2956.167903
781.191374	2947.418981
781.515294	2946.493929
781.839167	2948.860751
782.162995	2941.664504
782.486776	2948.689352
782.810511	2943.844803
783.134201	2931.504058
783.457844	2935.698298
783.781441	2928.111362
784.104993	2910.757190
784.428498	2909.761562
784.751958	2926.432658
785.075372	2919.427974
785.398739	2901.126065
785.722061	2918.775145
786.045337	2930.213523
786.368568	2913.106367
786.691752	2907.309040
787.014891	2953.914508
787.337983	2981.214876
787.661030	3008.462313
787.984031	3077.964701
788.306987	3123.463635
788.629897	3113.141872
788.952760	3099.782815
789.275579	3082.516863
789.598351	3023.525281
789.921078	2983.506081
790.243759	2974.444607
790.566395	2952.059363
790.888984	2933.200407
791.211529	2916.718354
791.534027	2904.995151
791.856480	2897.619943
792.178888	2883.933210
792.501249	2872.227651
792.823566	2872.928371
793.145836	2868.787063
793.468062	2863.529140
793.790241	2861.381608
794.112375	2868.741693
794.434464	2879.549927
794.756507	2884.596122
795.078505	2888.230794
795.400457	2906.358783
795.722364	2940.358845
796.044226	2962.635704
796.366042	2965.889769
796.687812	2956.682101
797.009538	2978.749752
797.331218	2962.302988
797.652852	2948.941409
797.974442	2929.883327
798.295986	2925.603388
798.617484	2924.065836
798.938938	2907.631674
799.260346	2892.117523
799.581709	2886.927655
799.903026	2880.313662
800.224299	2873.389637
800.545526	2867.476363
800.866708	2850.442304
801.187845	2840.014678
801.508936	2839.878567
801.829983	2850.162520
802.150984	2835.659121
802.471940	2821.206133
802.792851	2824.636638
803.113717	2823.880465
803.434538	2829.655107
803.755314	2818.176399
804.076045	2817.069866
804.396731	2813.954433
804.717372	2816.590956
805.037967	2810.319761
805.358518	2815.776810
805.679024	2827.056392
805.999485	2823.278047
806.319901	2828.442709
806.640272	2820.641523
806.960598	2825.879282
807.280879	2837.201714
807.601115	2844.564319
807.921306	2829.002277
808.241453	2824.767708
808.561554	2829.773574
808.881611	2832.631908
809.201623	2828.354489
809.521590	2825.506237
809.841513	2821.153201
810.161390	2827.903306
810.481223	2817.934424
810.801011	2809.099802
811.120755	2807.978145
811.440453	2812.517704
811.760107	2807.244657
812.079716	2810.186170
812.399281	2797.701753
812.718801	2792.441309
813.038276	2786.192799
813.357707	2792.242183
813.677093	2800.998667
813.996434	2793.323511
814.315731	2793.124385
814.634983	2783.757921
814.954191	2786.661626
815.273354	2802.490849
815.592473	2809.404792
815.911547	2809.848413
816.230577	2817.412664
816.549562	2826.068326
816.868502	2823.908191
817.187399	2837.083247
817.506250	2854.049250
817.825058	2844.939885
818.143821	2858.336751
818.462539	2874.292003
818.781213	2896.223543
819.099843	2934.546395
819.418429	2991.219046
819.736970	3049.996379
820.055466	3122.402472
820.373919	3226.283009
820.692327	3359.588761
821.010691	3525.548586
821.329011	3961.343733
821.647286	4845.809135
821.965517	6197.798705
822.283704	6917.788900
822.601847	6887.640280
822.919945	6266.706237
823.237999	5778.972082
823.556010	5212.364034
823.873976	4667.342206
824.191897	4269.993419
824.509775	3983.396261
824.827609	3718.597052
825.145398	3593.647013
825.463144	3585.790375
825.780845	3674.895290
826.098502	3782.400416
826.416116	4054.456366
826.733685	4362.576730
827.051210	4424.865227
827.368692	4305.573883
827.686129	4048.984193
828.003522	3731.653641
828.320872	3478.930516
828.638177	3291.311373
828.955439	3158.484531
829.272656	3075.754155
829.589830	3009.263856
829.906960	2960.715024
830.224046	2919.216246
830.541088	2884.568395
830.858086	2868.146837
831.175041	2851.805937
831.491952	2850.843076
831.808819	2865.679192
832.125642	2890.395969
832.442421	2933.699481
832.759157	3011.489526
833.075849	3186.767924
833.392497	3459.406127
833.709101	3656.502640
834.025662	3611.543109
834.342179	3453.737350
834.658653	3278.900052
834.975083	3135.196921
835.291469	3041.570091
835.607811	2957.687811
835.924110	2900.397618
836.240366	2853.353571
836.556578	2810.130718
836.872746	2787.813530
837.188871	2767.472474
837.504952	2748.369021
837.820990	2741.714698
838.136984	2729.426886
838.452935	2721.718962
838.768842	2718.979094
839.084706	2738.818555
839.400526	2814.652633
839.716303	2941.044442
840.032037	3018.988242
840.347727	3005.611540
840.663373	2947.040894
840.978977	2873.717312
841.294537	2800.156795
841.610054	2755.479569
841.925527	2734.324367
842.240957	2714.603373
842.556344	2693.286854
842.871687	2680.252951
843.186987	2667.657628
843.502244	2665.210148
843.817458	2661.608243
844.132629	2649.731285
844.447756	2640.286683
844.762840	2634.000364
845.077881	2636.498256
845.392879	2634.075981
845.707833	2632.893831
846.022745	2622.468725
846.337613	2625.327059
846.652438	2626.484004
846.967221	2624.306225
847.281960	2623.361009
847.596656	2619.486882
847.911309	2624.999384
848.225919	2618.781121
848.540485	2613.840790
848.855009	2614.654936
849.169490	2612.456993
849.483928	2613.535800
849.798323	2612.436828
850.112675	2613.437497
850.426984	2612.479678
850.741251	2610.775768
851.055474	2611.826849
851.369654	2615.103599
851.683792	2617.389762
851.997887	2614.846500
852.311938	2613.001438
852.625947	2614.541510
852.939914	2616.379011
853.253837	2615.620317
853.567718	2615.010337
853.881555	2612.474637
854.195350	2615.033023
854.509103	2612.739298
854.822812	2611.733587
855.136479	2610.856427
855.450103	2612.673763
855.763685	2615.461521
856.077224	2615.423712
856.390720	2609.671756
856.704173	2612.588063
857.017584	2615.388424
857.330953	2617.566202
857.644278	2617.349433
857.957561	2618.236676
858.270802	2614.964967
858.584000	2613.949175
858.897155	2618.975205
859.210268	2621.092490
859.523339	2612.809874
859.836367	2613.026643
860.149352	2611.063114
860.462295	2614.780965
860.775195	2608.870212
861.088054	2608.058586
861.400869	2608.134204
861.713642	2604.315530
862.026373	2606.082454
862.339062	2609.886005
862.651708	2617.505709
862.964312	2619.393621
863.276873	2613.800461
863.589392	2616.419340
863.901869	2622.544342
864.214303	2625.730351
864.526696	2631.162194
864.839045	2630.821917
865.151353	2634.310395
865.463619	2632.210754
865.775842	2632.452730
866.088023	2633.350055
866.400162	2633.776033
866.712258	2633.443317
867.024313	2629.181021
867.336325	2625.992491
867.648296	2628.651700
867.960224	2634.875004
868.272110	2633.944911
868.583954	2625.788324
868.895755	2626.148767
869.207515	2631.757051
869.519233	2635.704274
869.830909	2634.963224
870.142542	2630.582462
870.454134	2632.805611
870.765684	2636.523462
871.077191	2641.622589
871.388657	2644.974956
871.700081	2640.470685
872.011463	2641.730973
872.322803	2644.301962
872.634101	2646.638537
872.945357	2652.556851
873.256571	2657.129178
873.567744	2654.124650
873.878874	2654.969043
874.189963	2656.153715
874.501010	2659.422903
874.812015	2666.414983
875.122979	2663.934736
875.433900	2654.469969
875.744780	2656.940135
876.055618	2661.134375
876.366415	2668.071002
876.677169	2664.186793
876.987882	2658.880979
877.298554	2657.696308
877.609183	2666.561177
877.919771	2673.449913
878.230317	2679.514422
878.540822	2692.409693
878.851285	2706.023329
879.161707	2726.964282
879.472087	2765.735796
879.782425	2810.158444
880.092722	2918.805392
880.402977	3101.030500
880.713191	3354.471989
881.023363	3632.985657
881.333494	3815.523317
881.643583	3985.750480
881.953631	3984.454903
882.263637	3811.644149
882.573602	3596.391921
882.883526	3474.128817
883.193408	3363.251159
883.503248	3264.658792
883.813048	3155.535456
884.122806	3047.196018
884.432522	2963.714511
884.742197	2899.540622
885.051831	2865.391846
885.361424	2831.290961
885.670975	2795.544139
885.980485	2766.184459
886.289954	2749.906573
886.599382	2734.740262
886.908768	2723.075032
887.218113	2706.325798
887.527417	2693.639735
887.836680	2688.447346
888.145901	2681.798064
888.455082	2674.735408
888.764221	2662.636638
889.073319	2653.459218
889.382376	2656.773777
889.691392	2658.150012
890.000366	2654.759836
890.309300	2652.261944
890.618193	2654.986687
890.927044	2656.718324
891.235855	2658.283602
891.544625	2655.679846
891.853353	2655.216060
892.162041	2665.608399
892.470687	2683.756552
892.779293	2693.808613
893.087858	2701.876980
893.396381	2725.875393
893.704864	2765.871907
894.013306	2832.377330
894.321707	2925.033737
894.630068	2972.849082
894.938387	2989.860455
895.246665	2980.189002
895.554903	2938.559153
895.863100	2898.993657
896.171256	2847.778055
896.479371	2785.479475
896.787446	2748.739546
897.095480	2728.322873
897.403473	2726.354302
897.711425	2707.127342
898.019336	2692.744930
898.327207	2678.871674
898.635038	2677.361849
898.942827	2677.991993
899.250576	2666.470436
899.558284	2653.953251
899.865952	2652.239259
900.173579	2649.045688
900.481165	2645.773979
900.788711	2639.477578
901.096216	2631.762092
901.403681	2630.607667
901.711105	2629.826289
902.018489	2626.683129
902.325832	2631.396608
902.633135	2633.755868
902.940397	2646.293218
903.247619	2686.224197
903.554800	2748.626120
903.861941	2872.721684
904.169041	2988.252327
904.476101	3047.259033
904.783121	3043.362221
905.090100	2987.806185
905.397039	2916.688107
905.703938	2845.532221
906.010796	2789.819909
906.317614	2735.372927
906.624391	2701.617361
906.931129	2677.152641
907.237826	2655.969713
907.544483	2639.923720
907.851099	2627.275465
908.157675	2620.227932
908.464211	2609.611262
908.770707	2596.554673
909.077163	2595.319591
909.383578	2592.889754
909.689954	2592.156267
909.996289	2588.990422
910.302584	2590.752305
910.608839	2585.869948
910.915054	2586.426995
911.221229	2588.743405
911.527363	2591.715166
911.833458	2589.008066
912.139513	2590.739702
912.445527	2593.522419
912.751502	2596.829416
913.057436	2601.840323
913.363331	2605.404419
913.669186	2619.572582
913.975000	2633.720580
914.280775	2646.721716
914.586510	2664.209478
914.892205	2697.002184
915.197859	2764.583893
915.503475	2841.648012
915.809050	2905.327867
916.114585	2918.878488
916.420081	2927.062802
916.725536	2939.005295
917.030952	2914.311203
917.336328	2874.778475
917.641665	2825.342399
917.946961	2776.538989
918.252218	2743.816859
918.557435	2718.306100
918.862612	2699.361444
919.167750	2681.982066
919.472848	2665.900786
919.777906	2652.826553
920.082925	2642.769451
920.387904	2631.222688
920.692843	2627.116668
920.997743	2620.956378
921.302603	2615.267436
921.607423	2611.569750
921.912204	2600.459047
922.216946	2603.256887
922.521647	2595.115424
922.826310	2594.863366
923.130932	2591.236256
923.435516	2586.875658
923.740059	2585.229721
924.044564	2583.064546
924.349028	2582.436922
924.653454	2575.417115
924.957840	2572.185736
925.262186	2571.459809
925.566493	2570.749007
925.870761	2567.378995
926.174989	2567.149623
926.479178	2564.208110
926.783328	2564.785322
927.087438	2562.005125
927.391509	2563.935887
927.695541	2562.272307
927.999533	2559.504713
928.303486	2559.696277
928.607400	2559.005639
928.911275	2557.137891
929.215110	2558.294836
929.518906	2556.550597
929.822663	2559.844991
930.126381	2555.005483
930.430060	2558.612429
930.733699	2555.406255
931.037299	2559.003118
931.340861	2559.819785
931.644383	2559.560166
931.947866	2558.357851
932.251309	2558.788869
932.554714	2559.013201
932.858080	2558.108313
933.161407	2557.566389
933.464694	2555.630586
933.767943	2554.521533
934.071153	2556.807696
934.374323	2554.965154
934.677455	2556.061605
934.980548	2554.645041
935.283602	2556.359033
935.586617	2553.951882
935.889593	2555.673436
936.192530	2558.153684
936.495428	2556.414486
936.798287	2553.442726
937.101108	2556.520350
937.403890	2560.102090
937.706632	2563.310784
938.009336	2565.753223
938.312002	2570.701116
938.614628	2570.857392
938.917216	2579.076993
939.219765	2577.322671
939.522275	2578.099009
939.824747	2576.344687
940.127179	2570.943091
940.429573	2571.122052
940.731929	2569.382854
941.034246	2565.992678
941.336524	2568.863615
941.638763	2567.903275
941.940964	2570.375961
942.243126	2563.852708
942.545250	2564.918912
942.847335	2564.586196
943.149381	2563.575445
943.451389	2561.266596
943.753359	2558.420865
944.055290	2557.687377
944.357182	2557.889023
944.659036	2557.636966
944.960851	2557.742830
945.262628	2557.342058
945.564367	2560.018911
945.866067	2559.305588
946.167729	2558.272151
946.469352	2554.206460
946.770937	2556.049002
947.072484	2557.563869
947.373992	2553.909032
947.675462	2557.221070
947.976893	2557.654610
948.278286	2556.563200
948.579641	2556.129661
948.880958	2555.391132
949.182236	2554.458518
949.483476	2551.259906
949.784678	2553.147818
950.085841	2552.358877
950.386967	2554.579506
950.688054	2553.838456
950.989103	2554.579506
951.290114	2557.500854
951.591087	2558.839281
951.892021	2559.819785
952.192917	2562.466391
952.493776	2558.284754
952.794596	2561.306926
953.095378	2562.352965
953.396122	2563.114179
953.696828	2560.298695
953.997496	2560.966648
954.298126	2557.364743
954.598718	2558.052861
954.899272	2556.628735
955.199788	2554.410627
955.500266	2554.080432
955.800706	2550.297046
956.101108	2547.269833
956.401472	2548.187323
956.701798	2544.116591
957.002087	2546.662374
957.302337	2546.059956
957.602550	2548.840152
957.902724	2546.042312
958.202861	2547.032898
958.502960	2545.583567
958.803022	2546.201108
959.103045	2543.423432
959.403031	2544.638350
959.702979	2545.205480
960.002889	2544.537527
960.302762	2542.616848
960.602596	2541.583411
960.902393	2543.809081
961.202153	2542.926879
961.501875	2543.103319
961.801559	2541.774975
962.101205	2540.287835
962.400814	2544.119112
962.700385	2542.584080
962.999918	2541.230530
963.299414	2539.350180
963.598873	2543.173895
963.898293	2541.205325
964.197677	2541.190201
964.497022	2542.531148
964.796331	2540.615510
965.095601	2540.912938
965.394835	2542.921837
965.694030	2539.471168
965.993189	2540.224820
966.292309	2539.907227
966.591393	2543.055428
966.890439	2540.207176
967.189447	2541.142310
967.488419	2544.131714
967.787353	2539.075437
968.086249	2538.495704
968.385108	2541.369162
968.683930	2540.895294
968.982714	2542.720191
969.281462	2540.668442
969.580172	2541.921168
969.878844	2541.800181
970.177480	2541.260777
970.476078	2540.428987
970.774639	2541.129707
971.073162	2541.722043
971.371649	2541.548123
971.670098	2537.454706
971.968510	2539.952598
972.266885	2536.935467
972.565223	2542.009389
972.863524	2543.312527
973.161788	2542.263967
973.460014	2541.984183
973.758204	2541.956457
974.056356	2542.069882
974.354471	2541.717002
974.652550	2543.922507
974.950591	2542.999975
975.248595	2539.929913
975.546563	2542.410160
975.844493	2541.689275
976.142386	2542.836138
976.440243	2543.173895
976.738062	2542.669780
977.035845	2540.040818
977.333590	2540.852444
977.631299	2541.051569
977.928971	2540.953267
978.226606	2542.410160
978.524204	2541.558205
978.821765	2539.340098
979.119290	2538.878832
979.416777	2539.201466
979.714228	2538.548637
980.011642	2540.323123
980.309020	2538.452855
980.606360	2540.199614
980.903664	2541.084337
981.200931	2543.015099
981.498162	2542.548792
981.795356	2545.190357
982.092513	2547.587425
982.389633	2548.963660
982.686717	2551.486758
982.983764	2553.024310
983.280775	2553.488096
983.577749	2555.343241
983.874686	2552.086655
984.171587	2551.509443
984.468451	2547.864689
984.765279	2546.553989
985.062070	2546.375028
985.358824	2544.487116
985.655543	2541.837989
985.952224	2541.399409
986.248869	2541.563247
986.545478	2534.437576
986.842050	2536.141486
987.138586	2536.343132
987.435086	2537.162319
987.731549	2535.181146
988.027975	2539.319933
988.324366	2540.935623
988.620719	2539.859337
988.917037	2538.914120
989.213318	2540.388658
989.509563	2540.547454
989.805772	2539.962680
990.101944	2535.871784
990.398080	2537.767258
990.694180	2535.511341
990.990244	2538.732639
991.286271	2534.634181
991.582262	2540.340767
991.878217	2537.263142
992.174136	2535.153419
992.470019	2536.083512
992.765865	2541.956457
993.061676	2535.917154
993.357450	2537.933616
993.653188	2537.865560
993.948890	2537.613502
994.244556	2537.038811
994.540186	2538.752803
994.835780	2539.019984
995.131337	2540.121477
995.426859	2540.854964
995.722345	2539.514017
996.017795	2542.347146
996.313208	2541.951415
996.608586	2543.675490
996.903928	2540.058462
997.199234	2541.114584
997.494504	2537.805066
997.789738	2538.883873
998.084936	2543.080634
998.380099	2539.337577
998.675225	2541.321271
998.970316	2537.910931
999.265371	2538.956970
999.560390	2537.759696
999.855373	2536.456558
1000.150320	2536.958153
1000.445232	2536.408667
1000.740108	2535.899510
1001.034948	2538.987217
1001.329752	2534.626619
1001.624521	2535.864222
1001.919254	2533.114273
1002.213951	2532.151412
1002.508613	2534.064530
1002.803239	2536.262473
1003.097829	2531.433048
1003.392384	2538.140303
1003.686903	2536.012936
1003.981386	2539.771116
1004.275834	2538.094933
1004.570246	2537.762217
1004.864623	2535.725590
1005.158964	2536.297761
1005.453270	2537.018646
1005.747540	2535.007226
1006.041775	2535.682741
1006.335974	2536.186856
1006.630138	2535.229037
1006.924266	2536.214582
1007.218359	2534.452699
1007.512416	2535.042514
1007.806438	2531.508665
1008.100425	2535.463450
1008.394376	2536.970755
1008.688292	2536.184335
1008.982172	2535.090405
1009.276017	2536.146527
1009.569827	2534.437576
1009.863602	2536.872453
1010.157341	2533.005888
1010.451045	2534.349355
1010.744714	2534.949253
1011.038347	2534.324150
1011.331945	2535.712988
1011.625508	2536.590148
1011.919036	2533.404139
1012.212528	2535.637370
1012.505986	2535.024870
1012.799408	2535.957483
1013.092795	2534.818183
1013.386147	2537.457227
1013.679464	2535.160981
1013.972745	2534.984541
1014.265992	2531.291896
1014.559204	2536.998482
1014.852380	2531.468336
1015.145521	2534.901362
1015.438628	2534.772812
1015.731699	2535.622247
1016.024736	2535.183666
1016.317737	2535.960004
1016.610703	2535.816331
1016.903635	2531.680064
1017.196531	2528.539426
1017.489393	2534.518234
1017.782219	2528.075639
1018.075011	2531.483459
1018.367768	2534.034283
1018.660490	2534.525796
1018.953177	2534.525796
1019.245829	2534.525796
