Dividing Wavelength (nm)	Counts (n)	Blue Motor Position (mm): 40.100000	Red Motor Position (mm): 0.000000	
326.493990	2132.677779
326.888308	2132.677779
327.282561	2132.677779
327.676750	2096.769640
328.070874	2096.053796
328.464933	2099.091091
328.858929	2106.909921
329.252859	2114.617845
329.646726	2124.160749
330.040528	2138.356638
330.434265	2156.041006
330.827938	2175.777123
331.221547	2190.593075
331.615091	2208.816846
332.008571	2230.405587
332.401986	2249.078021
332.795338	2267.571494
333.188625	2288.580503
333.581847	2304.253450
333.975006	2323.578713
334.368100	2344.925479
334.761129	2361.631863
335.154095	2375.857999
335.546996	2399.327091
335.939833	2427.207192
336.332606	2439.434511
336.725315	2448.357353
337.117960	2462.137347
337.510540	2468.640436
337.903056	2480.567806
338.295508	2486.246665
338.687896	2499.010867
339.080220	2503.285765
339.472480	2513.846983
339.864676	2517.048115
340.256807	2521.459125
340.648875	2523.957017
341.040879	2522.963909
341.432818	2526.928777
341.824694	2530.306350
342.216506	2531.400280
342.608253	2528.415917
342.999937	2527.937008
343.391557	2527.861390
343.783113	2529.083870
344.174605	2528.957841
344.566033	2529.479601
344.957397	2522.913498
345.348697	2522.477438
345.739934	2521.751512
346.131106	2519.218332
346.522215	2516.254134
346.913260	2517.050636
347.304241	2514.545183
347.695159	2510.643329
348.086012	2511.230624
348.476802	2510.000582
348.867528	2508.427742
349.258191	2505.264418
349.648789	2505.380365
350.039324	2502.635457
350.429796	2503.812566
350.820203	2500.374499
351.210548	2499.041114
351.600828	2500.099756
351.991045	2496.933912
352.381198	2497.289313
352.771288	2498.075733
353.161314	2497.463233
353.551276	2500.291320
353.941175	2493.700011
354.331010	2497.271669
354.720782	2495.845022
355.110490	2495.953407
355.500135	2495.756802
355.889717	2496.323932
356.279235	2495.789570
356.668689	2497.460712
357.058080	2496.427276
357.447408	2497.566576
357.836672	2495.313181
358.225873	2494.627584
358.615010	2495.199755
359.004084	2499.646052
359.393095	2499.298213
359.782043	2498.370640
360.170927	2501.241578
360.559748	2501.866681
360.948505	2502.683348
361.337199	2503.868019
361.725830	2503.396671
362.114398	2503.807525
362.502903	2503.255518
362.891344	2506.592762
363.279722	2504.833400
363.668037	2508.463030
364.056289	2506.852382
364.444478	2507.041425
364.832603	2508.702485
365.220665	2507.071672
365.608665	2506.575118
365.996601	2508.248781
366.384474	2509.556961
366.772284	2509.521673
367.160031	2509.488905
367.547715	2507.527896
367.935336	2508.707526
368.322893	2510.892867
368.710388	2512.105264
369.097820	2511.701972
369.485189	2512.392610
369.872495	2512.037208
370.259738	2512.216169
370.646918	2512.561488
371.034035	2507.537979
371.421090	2518.802437
371.808081	2512.775737
372.195010	2516.407889
372.581875	2513.557116
372.968678	2516.065090
373.355418	2515.371932
373.742096	2518.638599
374.128710	2515.760101
374.515262	2517.143897
374.901751	2518.010976
375.288177	2516.843949
375.674540	2517.990811
376.060841	2519.893847
376.447079	2515.865965
376.833254	2519.430061
377.219367	2516.619617
377.605417	2517.980729
377.991404	2517.605163
378.377329	2516.576768
378.763191	2515.777745
379.148991	2522.116996
379.534727	2520.982736
379.920402	2524.602284
380.306013	2523.977181
380.691563	2523.629342
381.077049	2522.611029
381.462474	2521.653209
381.847835	2525.852491
382.233134	2524.161183
382.618371	2524.824095
383.003545	2526.210413
383.388657	2522.968951
383.773706	2527.195958
384.158693	2525.975999
384.543618	2527.097656
384.928480	2525.355937
385.313280	2527.979857
385.698017	2529.371216
386.082692	2531.715352
386.467305	2530.744930
386.851856	2533.822555
387.236344	2536.612833
387.620770	2540.000489
388.005133	2544.320758
388.389435	2550.211346
388.773674	2551.746377
389.157851	2561.778273
389.541965	2568.437638
389.926018	2576.004410
390.310008	2588.345154
390.693936	2600.678337
391.077802	2619.907818
391.461606	2629.617081
391.845348	2650.933600
392.229027	2668.950684
392.612645	2684.553055
392.996200	2715.281408
393.379694	2738.702609
393.763125	2766.229829
394.146494	2786.921245
394.529801	2822.968016
394.913047	2857.167204
395.296230	2876.648743
395.679351	2914.691810
396.062410	2947.739094
396.445408	2973.990903
396.828343	3013.029598
397.211217	3048.501677
397.594028	3055.796227
397.976778	3111.563991
398.359466	3154.864982
398.742092	3200.759647
399.124656	3204.613609
399.507158	3272.333949
399.889598	3318.556289
400.271977	3384.363511
400.654294	3408.810587
401.036549	3450.047225
401.418742	3467.983651
401.800874	3561.295408
402.182944	3613.660394
402.564952	3684.337371
402.946898	3715.065724
403.328783	3746.837596
403.710606	3729.445615
404.092367	3891.680028
404.474067	3904.658479
404.855705	3941.000157
405.237282	3919.134152
405.618797	4034.687481
406.000250	4092.648147
406.381642	4183.961087
406.762972	4182.216848
407.144240	4222.984659
407.525447	4250.952981
407.906593	4324.059794
408.287677	4386.993558
408.668700	4350.724977
409.049661	4421.336419
409.430560	4475.730469
409.811399	4437.579017
410.192176	4594.749591
410.572891	4562.251793
410.953545	4678.490718
411.334138	4580.054627
411.714669	4657.970701
412.095139	4573.097835
412.475547	4718.678796
412.855894	4716.400195
413.236180	4735.012135
413.616405	4699.645920
413.996568	4792.022544
414.376670	4743.761057
414.756711	4710.045820
415.136691	4743.544288
415.516609	4827.144262
415.896466	4865.570458
416.276262	4908.178290
416.655997	4893.311927
417.035670	5074.674999
417.415283	5167.825439
417.794834	5113.083550
418.174324	5071.844391
418.553753	4983.732583
418.933121	5169.572199
419.312428	5238.872941
419.691674	5176.176111
420.070859	5306.210154
420.449983	5219.552719
420.829045	5334.884237
421.208047	5243.745216
421.586988	5314.190300
421.965867	5325.926106
422.344686	5458.884018
422.723444	5315.042255
423.102141	5132.791941
423.480777	5433.227066
423.859352	5205.165266
424.237866	5460.119101
424.616319	5455.672803
424.994712	5562.371345
425.373044	5440.007418
425.751314	5583.584521
426.129524	5386.056989
426.507673	5577.313325
426.885762	5661.775337
427.263789	5596.499957
427.641756	5476.921267
428.019662	5599.585143
428.397508	5601.299135
428.775292	5552.515889
429.153016	5650.430221
429.530679	5582.840950
429.908282	5666.186347
430.285824	5535.262540
430.663305	5809.453419
431.040726	5546.610178
431.418086	5544.807965
431.795385	5650.334439
432.172624	5661.709802
432.549802	5652.912989
432.926920	5671.497202
433.303977	5674.610115
433.680974	5719.720880
434.057910	5733.906687
434.434786	5737.634620
434.811601	5705.179672
435.188355	5944.899140
435.565050	5814.734027
435.941683	5799.814733
436.318257	6014.724162
436.694770	5996.094578
437.071222	6025.471902
437.447614	5962.626358
437.823946	5875.835333
438.200218	6029.918200
438.576429	5894.497684
438.952580	5993.546275
439.328670	6033.792327
439.704700	5947.933915
440.080670	5934.219456
440.456580	6201.128387
440.832429	6086.994144
441.208218	5930.836842
441.583947	6090.893476
441.959616	6090.543116
442.335224	6020.387898
442.710773	6153.353372
443.086261	6182.352610
443.461689	5976.091280
443.837057	6126.973014
444.212365	6284.551922
444.587612	6171.642678
444.962800	6326.965670
445.337927	6308.489841
445.712995	5921.977014
446.088002	6494.581514
446.462949	6321.833775
446.837837	6256.119814
447.212664	6431.191525
447.587431	6570.345016
447.962139	7115.760053
448.336786	8043.486116
448.711374	7777.456866
449.085901	6852.989909
449.460369	6775.099041
449.834776	6712.563527
450.209124	7104.321675
450.583412	7248.231494
450.957640	7398.916623
451.331808	7166.867271
451.705917	6714.907664
452.079965	6636.149717
452.453954	6851.023859
452.827883	6725.862091
453.201752	6820.721483
453.575562	6619.929805
453.949311	6825.981927
454.323001	6709.480862
454.696632	6788.805938
455.070202	6928.168636
455.443713	7082.405259
455.817164	7182.179776
456.190556	7265.505007
456.563888	7333.802560
456.937160	7381.834674
457.310373	7036.029164
457.683526	7064.690644
458.056619	6955.844571
458.429653	6940.458969
458.802628	6875.821295
459.175542	6984.407748
459.548398	7338.684917
459.921194	7500.319433
460.293930	7501.680545
460.666607	8031.788118
461.039224	8339.031322
461.411782	8463.119324
461.784280	8482.167324
462.156719	8373.928709
462.529099	8256.742047
462.901419	7847.123091
463.273680	7737.215855
463.645882	7748.964264
464.018024	7615.925694
464.390106	7780.065663
464.762130	8168.998244
465.134094	8637.613823
465.505999	9653.101333
465.877845	10876.198682
466.249631	11527.180522
466.621358	11143.823458
466.993026	10514.992447
467.364634	10260.774621
467.736184	9901.789014
468.107674	9562.736130
468.479105	9600.091080
468.850477	9362.491417
469.221790	9136.945153
469.593043	8803.992065
469.964238	8663.487545
470.335373	8681.318106
470.706449	8732.662258
471.077467	8725.188748
471.448425	10027.580926
471.819324	11095.940058
472.190164	11121.450817
472.560945	9872.691474
472.931667	9085.570754
473.302330	8951.947409
473.672934	8596.840971
474.043479	8955.393038
474.413965	8897.124861
474.784393	8778.758569
475.154761	8936.370244
475.525070	9023.466259
475.895321	8850.602573
476.265513	9026.899285
476.635645	9199.077374
477.005719	9198.149802
477.375734	9310.975866
477.745691	9549.004027
478.115588	9677.787864
478.485427	9927.445967
478.855207	10459.938006
479.224928	11278.661720
479.594591	11900.180537
479.964194	11715.888555
480.333739	11655.747590
480.703226	11572.755074
481.072653	11660.624906
481.442022	11900.039384
481.811333	12081.619225
482.180584	11892.510421
482.549777	11603.738005
482.918912	11421.391909
483.287988	11448.150354
483.657005	11457.322733
484.025964	11146.800259
484.394864	11275.619384
484.763706	11247.154509
485.132489	11003.165183
485.501213	10977.543519
485.869879	11040.505010
486.238487	10883.248736
486.607036	10994.254944
486.975527	10775.710842
487.343959	10961.983997
487.712333	11016.998109
488.080648	10948.012439
488.448905	10987.368728
488.817104	10931.275809
489.185244	11196.228772
489.553326	11348.643018
489.921350	11890.851882
490.289315	12951.750106
490.657222	13296.232312
491.025070	13193.014687
491.392861	13072.677304
491.760593	12688.422914
492.128267	12339.549862
492.495883	12013.238494
492.863440	11675.516474
493.230939	11343.354848
493.598380	11270.338775
493.965763	11136.813733
494.333088	11041.571214
494.700354	10961.242948
495.067563	11026.634275
495.434713	10853.420229
495.801805	10979.252470
496.168839	10901.379246
496.535815	10835.206540
496.902733	10839.057981
497.269593	10776.736717
497.636395	10876.133147
498.003139	10857.795950
498.369825	10729.627134
498.736453	10890.505477
499.103023	10815.692233
499.469535	10848.033756
499.835989	10827.468369
500.202385	10795.940993
500.568723	10646.871553
500.935003	10870.081242
501.301226	10672.407517
501.667390	10934.736561
502.033497	11033.714575
502.399546	10885.489529
502.765537	10796.369491
503.131470	10874.177180
503.497345	11048.071782
503.863163	10656.205249
504.228923	10960.690941
504.594625	11030.730212
504.960269	10771.236818
505.325856	10994.393575
505.691385	10790.617534
506.056856	10949.003026
506.422270	10969.752415
506.787625	10855.106495
507.152924	10978.337500
507.518164	10952.728439
507.883347	10869.672909
508.248472	10793.846393
508.613540	11032.111488
508.978550	10912.091698
509.343503	10887.188398
509.708398	11002.635862
510.073236	11122.764037
510.438016	11122.743873
510.802738	11071.137581
511.167403	11129.546910
511.532010	11028.244923
511.896561	11254.557443
512.261053	11330.625934
512.625488	11198.313290
512.989866	11184.729901
513.354186	11171.330514
513.718449	11066.282950
514.082655	11266.646130
514.446803	11159.420788
514.810894	11278.540733
515.174927	11148.995682
515.538904	11172.789928
515.902822	11326.502270
516.266684	11205.330576
516.630488	11147.392595
516.994235	11203.785462
517.357925	11265.169072
517.721558	11348.438851
518.085133	11376.157636
518.448651	11381.002184
518.812112	11266.986408
519.175516	11281.736824
519.538863	11400.990359
519.902152	11315.729324
520.265385	11472.771349
520.628560	11393.496684
520.991678	11369.745288
521.354739	11431.910277
521.717743	11359.456293
522.080690	11343.813593
522.443580	11477.988943
522.806413	11440.197933
523.169189	11465.675925
523.531908	11519.954028
523.894569	11340.252017
524.257174	11345.807369
524.619722	11467.934362
524.982213	11414.210785
525.344647	11462.368928
525.707025	11417.154819
526.069345	11510.048161
526.431608	11424.799729
526.793815	11536.057994
527.155964	11322.270222
527.518057	11373.770649
527.880093	11328.128042
528.242072	11394.958619
528.603995	11300.056377
528.965860	11222.667104
529.327669	11276.700711
529.689421	11229.888557
530.051117	11190.529748
530.412755	11301.407406
530.774337	11185.526403
531.135862	11165.734833
531.497331	11195.225583
531.858743	11038.755729
532.220098	11211.964734
532.581396	11076.201420
532.942638	11060.810777
533.303824	11026.868688
533.664953	11038.967458
534.026025	10956.589963
534.387040	11053.927082
534.747999	11056.724922
535.108902	11120.114911
535.469748	10866.335665
535.830537	10972.764505
536.191270	10954.966711
536.551947	10978.007305
536.912567	10970.690070
537.273131	10904.048537
537.633638	10884.078006
537.994089	10867.986643
538.354483	10819.042080
538.714821	10966.853752
539.075103	10970.052364
539.435328	10940.680081
539.795497	10764.811868
540.155609	10919.514797
540.515665	11008.450833
540.875665	10738.055943
541.235609	10811.001440
541.595496	10802.809565
541.955328	10963.062804
542.315102	10837.086890
542.674821	10800.810747
543.034483	10800.324276
543.394090	10804.397528
543.753640	10726.451207
544.113134	10947.485639
544.472571	10805.219236
544.831953	10947.931781
545.191278	10755.737791
545.550548	10789.100147
545.909761	10918.579663
546.268918	10892.267360
546.628019	10976.925977
546.987064	10838.942035
547.346053	10766.790520
547.704986	10861.949861
548.063863	10851.088695
548.422684	10840.923208
548.781449	10756.544375
549.140158	10863.371466
549.498811	10735.109389
549.857408	10597.160735
550.215949	10828.159007
550.574434	10679.797849
550.932864	10778.929619
551.291237	10835.110758
551.649555	10779.451378
552.007817	10792.394541
552.366022	10755.538665
552.724173	10743.528116
553.082267	10730.133770
553.440305	10872.112827
553.798288	10674.297950
554.156215	10823.710188
554.514086	10802.837291
554.871902	10655.882615
555.229661	10692.965343
555.587365	10661.528707
555.945014	10558.714375
556.302606	10689.144148
556.660143	10574.445295
557.017625	10734.398586
557.375050	10633.008380
557.732421	10763.884295
558.089735	10682.230206
558.446994	10684.100474
558.804197	10714.145751
559.161345	10713.848323
559.518437	10573.739534
559.875474	10654.261884
560.232455	10678.537561
560.589381	10634.188010
560.946251	10627.868923
561.303065	10736.273896
561.659825	10671.280820
562.016528	10607.215316
562.373177	10480.553805
562.729770	10600.271127
563.086307	10511.599751
563.442789	10605.216498
563.799216	10487.359363
564.155587	10528.475013
564.511904	10486.383899
564.868164	10480.705040
565.224370	10491.440177
565.580520	10414.209700
565.936615	10425.098592
566.292654	10291.782758
566.648638	10422.668756
567.004567	10376.771571
567.360441	10367.939469
567.716260	10277.596951
568.072023	10366.227998
568.427732	10321.142438
568.783385	10229.784128
569.138982	10296.823912
569.494525	10316.912910
569.850013	10189.674187
570.205445	10275.814903
570.560823	10166.893213
570.916145	10082.862219
571.271412	10156.372325
571.626625	10103.304098
571.981782	10077.022043
572.336884	10053.217714
572.691931	10057.253158
573.046923	10003.340538
573.401860	9955.149628
573.756743	9890.312828
574.111570	9932.719014
574.466342	9921.878012
574.821059	9946.219224
575.175722	9843.135189
575.530330	9852.141211
575.884882	9841.383388
576.239380	9770.209858
576.593823	9748.762269
576.948211	9762.892623
577.302544	9645.693358
577.656823	9659.266664
578.011047	9658.752467
578.365216	9632.097366
578.719330	9560.210512
579.073389	9564.049351
579.427394	9514.517493
579.781344	9492.575871
580.135239	9444.755486
580.489080	9452.697824
580.842866	9355.665695
581.196597	9359.191982
581.550273	9402.404753
581.903895	9366.478970
582.257463	9435.174773
582.610975	9305.193662
582.964434	9340.832099
583.317837	9257.118699
583.671186	9240.213189
584.024481	9237.496007
584.377721	9155.239500
584.730906	9131.576324
585.084037	9163.633021
585.437113	9101.042055
585.790135	9122.814798
586.143103	9017.903346
586.496016	8988.601639
586.848874	9050.156648
587.201679	9037.185759
587.554428	8922.038244
587.907124	8968.933577
588.259765	8941.418960
588.612352	8936.773536
588.964884	8818.334147
589.317362	8834.468360
589.669786	8829.490221
590.022155	8884.068273
590.374470	8898.717866
590.726731	8840.931119
591.078937	8683.339609
591.431090	8796.939490
591.783188	8673.448865
592.135232	8663.931167
592.487222	8663.117020
592.839157	8715.030823
593.191038	8652.732243
593.542866	8597.108152
593.894639	8496.844643
594.246358	8542.227631
594.598022	8567.471208
594.949633	8459.787121
595.301190	8438.906662
595.652692	8464.873645
596.004141	8579.776665
596.355535	8352.007252
596.706876	8336.525868
597.058162	8269.859129
597.409395	8346.575409
597.760573	8409.201663
598.111698	8315.554668
598.462768	8302.208214
598.813785	8264.482739
599.164748	8238.568687
599.515657	8227.173159
599.866511	8131.376113
600.217312	8259.219774
600.568060	8122.874207
600.918753	8223.944300
601.269392	8192.182510
601.619978	8108.615303
601.970510	8162.795104
602.320988	8163.901637
602.671412	8219.495482
603.021783	8157.269999
603.372100	8130.241853
603.722363	8131.587841
604.072572	8106.775282
604.422728	8115.965305
604.772830	8048.865027
605.122878	8056.759474
605.472872	8048.552476
605.822813	8080.568844
606.172701	8027.785442
606.522534	8100.173891
606.872314	8103.359900
607.222041	8067.204745
607.571714	8122.695246
607.921333	8077.715551
608.270899	8087.530677
608.620411	8181.346550
608.969870	8083.258299
609.319276	8072.669356
609.668627	8091.893796
610.017926	8129.107593
610.367171	8179.877054
610.716362	8151.923856
611.065500	8139.799881
611.414585	8168.095877
611.763616	8157.259917
612.112594	8140.293914
612.461518	8156.614649
612.810389	8208.170530
613.159207	8154.104155
613.507971	8109.910880
613.856682	8222.336172
614.205340	8177.926127
614.553945	8257.309177
614.902496	8157.033065
615.250994	8213.120943
615.599439	8188.376439
615.947830	8199.729118
616.296169	8178.452928
616.644454	8189.175462
616.992686	8190.317283
617.340864	8242.334429
617.688990	8148.339595
618.037063	8243.191426
618.385082	8191.552366
618.733048	8273.269470
619.080961	8209.594656
619.428821	8230.104590
619.776628	8234.155157
620.124382	8182.193464
620.472083	8165.101432
620.819731	8194.418262
621.167326	8088.443126
621.514868	8099.667255
621.862357	7981.989080
622.209793	7999.610433
622.557176	7935.683562
622.904506	7907.672390
623.251783	7839.120260
623.599007	7797.805483
623.946179	7800.056358
624.293297	7751.139522
624.640363	7673.316710
624.987376	7654.230901
625.334336	7602.430525
625.681243	7553.097793
626.028097	7545.762914
626.374899	7517.207298
626.721647	7510.520208
627.068343	7440.710309
627.414987	7413.873727
627.761577	7370.643312
628.108115	7409.324086
628.454600	7291.592979
628.801032	7354.710745
629.147412	7311.840773
629.493739	7300.639329
629.840014	7236.543579
630.186236	7292.356713
630.532405	7174.791965
630.878521	7231.298258
631.224585	7182.653644
631.570597	7114.154446
631.916556	7141.825339
632.262462	7137.031202
632.608316	7098.927640
632.954117	7075.486275
633.299866	7064.932619
633.645562	7054.507513
633.991206	6974.983311
634.336797	6921.746206
634.682336	6876.678291
635.027823	6845.957499
635.373257	6834.786302
635.718639	6765.989676
636.063968	6781.196316
636.409245	6670.356467
636.754470	6670.200191
637.099642	6633.364480
637.444762	6572.795016
637.789829	6587.452171
638.134845	6523.575711
638.479808	6511.454256
638.824719	6514.962899
639.169577	6440.489934
639.514383	6465.610003
639.859137	6392.480505
640.203839	6396.722636
640.548489	6388.994547
640.893086	6359.808787
641.237632	6335.533111
641.582125	6353.565318
641.926566	6326.378375
642.270955	6340.160890
642.615292	6336.279201
642.959576	6352.942735
643.303809	6340.360015
643.647990	6344.324883
643.992118	6339.757597
644.336195	6288.534433
644.680219	6311.116282
645.024192	6293.255474
645.368112	6396.384879
645.711981	6411.926756
646.055797	6487.556667
646.399562	6450.819258
646.743274	6576.223001
647.086935	6625.805270
647.430544	6621.568180
647.774101	6646.453836
648.117606	6652.815772
648.461059	6637.117619
648.804460	6604.455983
649.147810	6508.548031
649.491108	6489.091698
649.834354	6460.954498
650.177548	6373.455190
650.520690	6287.450585
650.863781	6269.524242
651.206820	6287.594258
651.549807	6207.603749
651.892742	6149.151571
652.235626	6153.623074
652.578458	6138.761752
652.921238	6046.364964
653.263967	6086.348876
653.606644	6031.508684
653.949269	6032.138828
654.291843	5975.304860
654.634365	6023.306727
654.976836	5977.578420
655.319255	5974.334437
655.661622	5956.632426
656.003938	5946.809738
656.346203	5907.440847
656.688416	5942.854952
657.030577	5896.514146
657.372687	5862.791347
657.714746	5850.869018
658.056753	5896.259567
658.398708	5834.739846
658.740612	5825.466644
659.082465	5873.050095
659.424266	5866.799064
659.766016	5864.754876
660.107715	5840.398542
660.449362	5852.091498
660.790958	5846.115210
661.132503	5833.308159
661.473996	5876.392380
661.815438	5857.233475
662.156829	5859.494432
662.498168	5853.596282
662.839456	5828.917314
663.180693	5855.648032
663.521879	5864.165061
663.863013	5855.322878
664.204097	5868.094641
664.545129	5908.943110
664.886110	5904.693418
665.227040	5939.744560
665.567918	5907.675260
665.908746	5935.144508
666.249522	5937.697852
666.590248	5923.335605
666.930922	5949.879800
667.271545	5964.216842
667.612118	5967.133149
667.952639	5940.846053
668.293109	5968.219518
668.633528	5920.958701
668.973896	5917.949132
669.314213	5914.027114
669.654480	5896.151183
669.994695	5888.420573
670.334859	5878.277772
670.674973	5872.883737
671.015035	5874.151587
671.355047	5872.364498
671.695008	5861.042067
672.034918	5834.447459
672.374777	5848.492114
672.714585	5829.181974
673.054342	5827.475544
673.394049	5826.043856
673.733705	5857.659452
674.073310	5842.921639
674.412864	5802.569723
674.752368	5794.082941
675.091820	5799.676101
675.431223	5735.522377
675.770574	5738.153859
676.109875	5687.094532
676.449125	5695.203228
676.788324	5661.614020
677.127473	5602.657726
677.466571	5597.508187
677.805619	5585.500159
678.144616	5572.362912
678.483562	5549.864242
678.822458	5518.924161
679.161303	5509.774467
679.500098	5506.064177
679.838842	5487.288400
680.177535	5491.863247
680.516179	5506.714486
680.854771	5517.421897
681.193314	5596.386531
681.531805	5707.478438
681.870247	5857.581314
682.208638	5959.105112
682.546978	5970.679601
682.885268	5950.043638
683.223508	5863.086254
683.561697	5807.744468
683.899836	5782.032062
684.237925	5733.979784
684.575963	5697.398651
684.913951	5659.080841
685.251889	5721.903700
685.589776	5689.478998
685.927614	5659.869781
686.265401	5729.873764
686.603137	5712.068409
686.940824	5789.611437
687.278460	5814.565149
687.616046	5823.077137
687.953582	5891.611623
688.291068	5873.254262
688.628504	5934.940341
688.965889	5902.883643
689.303224	5844.907854
689.640510	5794.103105
689.977745	5721.974276
690.314930	5624.483402
690.652065	5567.949382
690.989150	5474.526719
691.326185	5398.289349
691.663170	5345.631977
692.000105	5268.167086
692.336990	5188.499211
692.673825	5163.721940
693.010610	5096.949337
693.347345	5026.688255
693.684030	5016.200135
694.020665	4971.318742
694.357251	4882.218868
694.693786	4890.060383
695.030272	4854.684086
695.366707	4824.764838
695.703093	4789.595228
696.039429	4808.852436
696.375716	4800.055622
696.711952	4768.986991
697.048139	4759.008027
697.384276	4736.489193
697.720363	4748.071244
698.056400	4754.450824
698.392388	4708.102456
698.728326	4686.521276
699.064214	4667.586702
699.400053	4656.745701
699.735842	4626.279487
700.071581	4603.843832
700.407270	4576.808124
700.742910	4556.043612
701.078501	4504.560828
701.414042	4499.088655
701.749533	4474.266014
702.084974	4408.852002
702.420366	4464.206391
702.755709	4407.934512
703.091002	4350.102395
703.426246	4397.516967
703.761440	4354.450390
704.096584	4315.923372
704.431679	4337.577648
704.766725	4322.736491
705.101721	4308.165036
705.436668	4340.378009
705.771565	4282.480357
706.106413	4311.308195
706.441212	4346.709698
706.775961	4354.092468
707.110661	4333.829550
707.445311	4362.904405
707.779913	4387.195205
708.114465	4396.604518
708.448967	4419.501439
708.783421	4483.309844
709.117825	4521.859547
709.452180	4530.008573
709.786485	4574.708484
710.120742	4661.292822
710.454949	4642.045696
710.789107	4709.082960
711.123216	4784.556595
711.457275	4775.535450
711.791286	4848.556563
712.125247	4864.194223
712.459159	4771.482362
712.793023	4846.668651
713.126837	4802.634172
713.460602	4797.724089
713.794318	4713.372982
714.127985	4723.815732
714.461602	4638.448833
714.795171	4613.111994
715.128691	4543.297054
715.462162	4485.651460
715.795584	4436.089356
716.128957	4420.229886
716.462281	4370.672823
716.795556	4344.168957
717.128782	4303.030621
717.461960	4235.058223
717.795088	4244.986775
718.128167	4205.554870
718.461198	4143.987258
718.794180	4140.203872
719.127113	4121.228969
719.459997	4100.053602
719.792833	4056.001479
720.125619	4046.778688
720.458357	4009.171681
720.791046	4018.739791
721.123686	3988.795337
721.456278	3947.369655
721.788821	3964.650730
722.121315	3939.825568
722.453761	3912.061413
722.786158	3923.666150
723.118506	3949.423925
723.450805	3900.081111
723.783056	3924.810492
724.115259	3939.253397
724.447412	3945.078451
724.779518	3935.787604
725.111574	3942.462092
725.443582	3970.609374
725.775542	3955.816108
726.107453	4004.680012
726.439315	4005.688243
726.771129	4021.671222
727.102895	4055.754463
727.434612	4105.800518
727.766281	4116.586066
728.097901	4115.756796
728.429473	4123.386583
728.760996	4129.009990
729.092471	4125.617293
729.423897	4107.527113
729.755276	4110.284624
730.086606	4115.386272
730.417887	4153.431860
730.749120	4218.147672
731.080305	4279.974903
731.411442	4305.556239
731.742530	4277.630767
732.073570	4281.565388
732.404562	4334.673943
732.735506	4326.945854
733.066401	4290.586532
733.397249	4229.270978
733.728048	4146.966580
734.058798	4063.293508
734.389501	3994.340606
734.720156	3930.466666
735.050762	3888.352867
735.381320	3883.606621
735.711831	3829.217612
736.042293	3802.328097
736.372707	3826.049247
736.703073	3794.814257
737.033391	3784.648771
737.363661	3804.657110
737.693883	3828.988239
738.024056	3832.948066
738.354182	3831.770956
738.684260	3898.296543
739.014290	3913.717432
739.344272	3912.411774
739.674207	3954.901139
740.004093	3955.710244
740.333931	3958.699648
740.663722	3954.681849
740.993464	3950.762352
741.323159	3929.027417
741.652806	3897.374012
741.982405	3872.531206
742.311956	3842.369982
742.641460	3828.872293
742.970915	3810.157009
743.300323	3766.183024
743.629683	3731.520050
743.958996	3722.763566
744.288260	3694.843135
744.617477	3662.491531
744.946647	3645.228099
745.275768	3624.413175
745.604842	3624.244296
745.933869	3575.375351
746.262847	3566.903692
746.591778	3603.318467
746.920662	3572.643046
747.249498	3539.520144
747.578286	3584.905652
747.907027	3607.316102
748.235720	3605.168570
748.564365	3627.866365
748.892963	3629.534987
749.221514	3613.163840
749.550017	3588.384048
749.878473	3588.436981
750.206881	3556.024882
750.535242	3552.838873
750.863555	3553.466496
751.191821	3549.002555
751.520039	3535.681306
751.848210	3507.796163
752.176334	3540.606513
752.504411	3552.047412
752.832440	3509.812625
753.160421	3487.855879
753.488356	3497.870131
753.816243	3515.292359
754.144082	3468.434834
754.471875	3451.456228
754.799620	3475.106801
755.127318	3467.229998
755.454969	3463.159266
755.782572	3471.983806
756.110129	3447.667801
756.437638	3434.911161
756.765100	3450.775672
757.092515	3460.447126
757.419882	3472.137561
757.747203	3441.686472
758.074477	3442.694702
758.401703	3458.569296
758.728882	3480.289107
759.056014	3483.948985
759.383099	3489.418637
759.710138	3488.652381
760.037129	3506.470340
760.364073	3534.554608
760.690970	3518.438039
761.017820	3496.539267
761.344623	3515.441073
761.671379	3562.895975
761.998088	3610.567646
762.324751	3735.621029
762.651366	3986.148731
762.977935	4460.838901
763.304456	4905.594699
763.630931	5001.895861
763.957359	4642.610305
764.283740	4297.366884
764.610074	4104.499900
764.936362	3906.284251
765.262602	3747.394644
765.588796	3637.734424
765.914943	3546.439128
766.241044	3459.796817
766.567097	3431.606684
766.893104	3385.195302
767.219064	3350.958305
767.544978	3323.846980
767.870845	3268.721962
768.196665	3248.806884
768.522438	3260.081425
768.848165	3251.493819
769.173846	3217.150959
769.499479	3199.148998
769.825066	3183.571833
770.150607	3164.957372
770.476101	3184.191895
770.801548	3175.508507
771.126949	3130.836322
771.452303	3112.965432
771.777611	3122.001700
772.102872	3128.101497
772.428087	3101.143926
772.753256	3091.280909
773.078378	3082.113571
773.403453	3049.071328
773.728482	3036.594472
774.053465	3058.576423
774.378401	3048.058056
774.703291	3016.691997
775.028135	3016.417254
775.352932	3010.539268
775.677683	3000.545181
776.002388	2997.880931
776.327046	2996.877741
776.651658	2989.373984
776.976224	2975.528455
777.300743	2975.261274
777.625216	2968.574183
777.949643	2961.307360
778.274024	2962.905406
778.598359	2955.028603
778.922647	2957.539097
779.246889	2956.210753
779.571086	2942.788681
779.895236	2935.196703
780.219339	2947.514763
780.543397	2959.250569
780.867409	2964.203503
781.191374	2956.666978
781.515294	2953.843932
781.839167	2953.344857
782.162995	2942.829010
782.486776	2952.329065
782.810511	2950.294959
783.134201	2935.594955
783.457844	2944.911007
783.781441	2934.571600
784.104993	2916.307500
784.428498	2915.657191
784.751958	2925.981474
785.075372	2921.333530
785.398739	2909.133938
785.722061	2921.187337
786.045337	2935.118566
786.368568	2922.961823
786.691752	2911.866243
787.014891	2957.614715
787.337983	2992.081083
787.661030	3016.588653
787.984031	3083.295721
788.306987	3129.959162
788.629897	3121.888274
788.952760	3105.033177
789.275579	3090.877617
789.598351	3032.024666
789.921078	2989.681494
790.243759	2981.852582
790.566395	2962.335755
790.888984	2936.285593
791.211529	2921.620876
791.534027	2913.917993
791.856480	2901.904923
792.178888	2884.477655
792.501249	2877.414998
792.823566	2876.850389
793.145836	2875.022971
793.468062	2869.273535
793.790241	2865.109542
794.112375	2874.896942
794.434464	2882.446070
794.756507	2888.931514
795.078505	2892.896382
795.400457	2907.639236
795.722364	2948.117181
796.044226	2968.241467
796.366042	2973.527117
796.687812	2958.965744
797.009538	2979.967191
797.331218	2969.935295
797.652852	2956.011628
797.974442	2934.642177
798.295986	2931.909871
798.617484	2928.670930
798.938938	2914.729619
799.260346	2896.783111
799.581709	2892.306567
799.903026	2886.463869
800.224299	2875.885008
800.545526	2869.011395
800.866708	2856.796679
801.187845	2842.762107
801.508936	2843.094823
801.829983	2853.890454
802.150984	2838.968638
802.471940	2826.421206
802.792851	2827.167297
803.113717	2825.586895
803.434538	2834.045952
803.755314	2824.256031
804.076045	2818.776297
804.396731	2818.819146
804.717372	2822.436174
805.037967	2811.239772
805.358518	2821.695125
805.679024	2831.543019
805.999485	2826.222081
806.319901	2831.424552
806.640272	2822.569765
806.960598	2829.982782
807.280879	2835.943946
807.601115	2848.171265
807.921306	2833.279696
808.241453	2829.405569
808.561554	2835.291117
808.881611	2839.316478
809.201623	2832.344562
809.521590	2829.103100
809.841513	2825.869200
810.161390	2830.600323
810.481223	2822.761329
810.801011	2814.367807
811.120755	2812.459731
811.440453	2813.041984
811.760107	2812.303455
812.079716	2810.276911
812.399281	2801.311219
812.718801	2796.380971
813.038276	2791.493572
813.357707	2795.092956
813.677093	2806.173412
813.996434	2797.694191
814.315731	2790.997018
814.634983	2790.261010
814.954191	2791.322173
815.273354	2804.015798
815.592473	2809.798002
815.911547	2813.339412
816.230577	2824.634117
816.549562	2833.181394
816.868502	2832.047134
817.187399	2839.868484
817.506250	2857.467152
817.825058	2850.215452
818.143821	2862.919160
818.462539	2879.063455
818.781213	2907.074627
819.099843	2944.018723
819.418429	3001.971827
819.736970	3063.733524
820.055466	3135.779174
820.373919	3240.068044
820.692327	3379.672718
821.010691	3549.824263
821.329011	3999.099455
821.647286	4903.779883
821.965517	6288.380678
822.283704	7046.285391
822.601847	7023.842174
822.919945	6387.426748
823.237999	5881.574686
823.556010	5291.404285
823.873976	4734.288729
824.191897	4320.530986
824.509775	4023.851521
824.827609	3751.621651
825.145398	3626.527939
825.463144	3616.745580
825.780845	3707.123386
826.098502	3810.736742
826.416116	4094.364660
826.733685	4413.338628
827.051210	4477.618381
827.368692	4362.435578
827.686129	4096.134105
828.003522	3761.976181
828.320872	3507.534023
828.638177	3312.148982
828.955439	3172.635050
829.272656	3092.072370
829.589830	3022.267513
829.906960	2969.514358
830.224046	2927.884510
830.541088	2892.306567
830.858086	2874.937271
831.175041	2859.201309
831.491952	2859.765918
831.808819	2872.429297
832.125642	2894.975858
832.442421	2940.074020
832.759157	3021.985208
833.075849	3203.063454
833.392497	3482.262719
833.709101	3689.252496
834.025662	3640.975886
834.342179	3480.647029
834.658653	3301.612971
834.975083	3152.067142
835.291469	3056.766649
835.607811	2971.387147
835.924110	2910.474885
836.240366	2859.609643
836.556578	2817.148004
836.872746	2792.398459
837.188871	2770.776950
837.504952	2754.980495
837.820990	2745.361973
838.136984	2731.859242
838.452935	2725.399004
838.768842	2722.432285
839.084706	2741.054307
839.400526	2819.847542
839.716303	2951.736729
840.032037	3034.444420
840.347727	3023.474869
840.663373	2957.851649
840.978977	2884.646533
841.294537	2811.922848
841.610054	2761.140785
841.925527	2740.585480
842.240957	2717.943137
842.556344	2695.973789
842.871687	2680.210101
843.186987	2672.308092
843.502244	2666.800632
843.817458	2659.629590
844.132629	2649.239772
844.447756	2639.749800
844.762840	2633.773512
845.077881	2639.260808
845.392879	2634.144037
845.707833	2630.133799
846.022745	2623.784466
846.337613	2626.594909
846.652438	2628.989457
846.967221	2625.372429
847.281960	2623.814713
847.596656	2620.588374
847.911309	2623.229939
848.225919	2618.334978
848.540485	2614.821294
848.855009	2617.966974
849.169490	2615.459000
849.483928	2615.310286
849.798323	2613.492950
850.112675	2612.575460
850.426984	2612.078907
850.741251	2611.819287
851.055474	2613.157713
851.369654	2617.462859
851.683792	2613.903804
851.997887	2612.817436
852.311938	2610.490943
852.625947	2613.732405
852.939914	2615.990842
853.253837	2615.842128
853.567718	2610.687548
853.881555	2612.023454
854.195350	2616.472272
854.509103	2612.827518
854.822812	2610.415326
855.136479	2612.371293
855.450103	2614.705348
855.763685	2614.246603
856.077224	2611.960439
856.390720	2610.395161
856.704173	2614.717951
857.017584	2615.597632
857.330953	2619.922942
857.644278	2620.351440
857.957561	2619.396141
858.270802	2617.528394
858.584000	2615.080914
858.897155	2618.806326
859.210268	2620.361522
859.523339	2618.753394
859.836367	2609.127311
860.149352	2610.806015
860.462295	2612.446911
860.775195	2609.462548
861.088054	2609.331478
861.400869	2609.086982
861.713642	2605.464913
862.026373	2604.958277
862.339062	2609.681838
862.651708	2614.856582
862.964312	2615.247272
863.276873	2613.127467
863.589392	2615.837087
863.901869	2624.275978
864.214303	2621.949486
864.526696	2630.043058
864.839045	2628.913840
865.151353	2632.304016
865.463619	2632.104890
865.775842	2631.789818
866.088023	2631.784777
866.400162	2633.753347
866.712258	2633.932308
867.024313	2629.115486
867.336325	2627.630866
867.648296	2630.748820
867.960224	2637.055303
868.272110	2634.973307
868.583954	2627.640948
868.895755	2629.796042
869.207515	2633.276958
869.519233	2639.916158
869.830909	2638.681075
870.142542	2633.627319
870.454134	2632.926598
870.765684	2638.277783
871.077191	2640.374903
871.388657	2646.131901
871.700081	2643.071920
872.011463	2644.039822
872.322803	2645.007723
872.634101	2647.636685
872.945357	2652.851759
873.256571	2659.536329
873.567744	2657.096410
873.878874	2654.578354
874.189963	2656.947696
874.501010	2661.217554
874.812015	2668.217196
875.122979	2666.616629
875.433900	2656.851914
875.744780	2654.646410
876.055618	2663.702842
876.366415	2668.605365
876.677169	2665.830209
876.987882	2662.250990
877.298554	2661.530105
877.609183	2673.112156
877.919771	2679.017868
878.230317	2686.090607
878.540822	2696.125023
878.851285	2710.431818
879.161707	2733.863101
879.472087	2774.623351
879.782425	2823.015907
880.092722	2938.523865
880.402977	3132.706591
880.713191	3394.140829
881.023363	3691.347095
881.333494	3888.602404
881.643583	4061.609763
881.953631	4058.547262
882.263637	3881.335581
882.573602	3657.266375
882.883526	3524.598329
883.193408	3406.955442
883.503248	3300.708084
883.813048	3186.679704
884.122806	3072.358938
884.432522	2985.923314
884.742197	2917.708941
885.051831	2880.233003
885.361424	2843.145234
885.670975	2807.738690
885.980485	2778.131994
886.289954	2758.582399
886.599382	2744.736870
886.908768	2732.900241
887.218113	2713.285111
887.527417	2701.405632
887.836680	2690.375587
888.145901	2686.980370
888.455082	2677.140038
888.764221	2666.687206
889.073319	2657.129178
889.382376	2658.197902
889.691392	2656.012562
890.000366	2657.880310
890.309300	2657.129178
890.618193	2659.143119
890.927044	2660.710918
891.235855	2665.484890
891.544625	2660.479025
891.853353	2659.871566
892.162041	2669.958914
892.470687	2689.987419
892.779293	2701.103163
893.087858	2711.276211
893.396381	2734.319326
893.704864	2777.375821
894.013306	2849.267716
894.321707	2944.953857
894.630068	2995.088132
894.938387	3015.250227
895.246665	3009.611696
895.554903	2964.415231
895.863100	2916.708272
896.171256	2860.605271
896.479371	2797.721917
896.787446	2757.198602
897.095480	2737.250757
897.403473	2730.490569
897.711425	2715.268805
898.019336	2700.014274
898.327207	2682.650019
898.635038	2684.724454
898.942827	2679.819411
899.250576	2669.782474
899.558284	2658.896102
899.865952	2653.416368
900.173579	2653.285298
900.481165	2650.744557
900.788711	2642.300624
901.096216	2636.740231
901.403681	2629.808645
901.711105	2632.356948
902.018489	2631.396608
902.325832	2633.087915
902.633135	2635.573204
902.940397	2652.030051
903.247619	2689.730320
903.554800	2754.272212
903.861941	2889.017214
904.169041	3018.499250
904.476101	3086.464086
904.783121	3076.759865
905.090100	3019.000845
905.397039	2940.086623
905.703938	2868.421580
906.010796	2799.561939
906.317614	2748.530338
906.624391	2711.891232
906.931129	2684.921059
907.237826	2659.566576
907.544483	2643.732312
907.851099	2628.528192
908.157675	2618.229114
908.464211	2610.301900
908.770707	2600.494335
909.077163	2597.094077
909.383578	2593.845053
909.689954	2595.296905
909.996289	2591.999991
910.302584	2591.662233
910.608839	2587.430185
910.915054	2587.372212
911.221229	2588.173755
911.527363	2592.902357
911.833458	2590.711976
912.139513	2588.277099
912.445527	2592.471339
912.751502	2601.026177
913.057436	2605.764861
913.363331	2611.602517
913.669186	2621.717593
913.975000	2635.679068
914.280775	2653.645741
914.586510	2671.183915
914.892205	2712.745708
915.197859	2779.810698
915.503475	2860.859849
915.809050	2930.158070
916.114585	2949.899229
916.420081	2961.652679
916.725536	2971.666931
917.030952	2943.081068
917.336328	2895.016187
917.641665	2845.549865
917.946961	2792.839560
918.252218	2758.718510
918.557435	2731.113152
918.862612	2707.676827
919.167750	2688.893488
919.472848	2675.879750
919.777906	2657.056081
920.082925	2644.609472
920.387904	2638.305509
920.692843	2632.304016
920.997743	2626.985598
921.302603	2615.257354
921.607423	2609.928854
921.912204	2606.004316
922.216946	2601.701691
922.521647	2600.022987
922.826310	2594.429827
923.130932	2593.345979
923.435516	2588.340113
923.740059	2584.067735
924.044564	2582.605801
924.349028	2583.583784
924.653454	2570.403688
924.957840	2569.385375
925.262186	2570.582649
925.566493	2570.123904
925.870761	2566.138872
926.174989	2567.084088
926.479178	2565.264231
926.783328	2560.686864
927.087438	2561.201061
927.391509	2561.148129
927.695541	2561.062430
927.999533	2559.489590
928.303486	2557.601677
928.607400	2558.224260
928.911275	2552.648744
929.215110	2552.996583
929.518906	2557.331976
929.822663	2554.768549
930.126381	2556.638817
930.430060	2554.753426
930.733699	2554.093034
931.037299	2555.897768
931.340861	2556.240566
931.644383	2557.465566
931.947866	2556.167469
932.251309	2556.396842
932.554714	2558.309960
932.858080	2556.661502
933.161407	2554.866852
933.464694	2553.009186
933.767943	2553.173024
934.071153	2553.901471
934.374323	2554.143446
934.677455	2553.422561
934.980548	2553.452808
935.283602	2554.302242
935.586617	2552.477345
935.889593	2550.624721
936.192530	2554.806358
936.495428	2553.372149
936.798287	2553.810730
937.101108	2555.580175
937.403890	2559.066133
937.706632	2562.433623
938.009336	2563.719118
938.312002	2568.336815
938.614628	2571.091805
938.917216	2572.788153
939.219765	2577.221848
939.522275	2578.560275
939.824747	2574.610531
940.127179	2570.028122
940.429573	2568.346897
940.731929	2565.924622
941.034246	2563.179714
941.336524	2568.858574
941.638763	2565.695250
941.940964	2565.929664
942.243126	2564.336659
942.545250	2562.378171
942.847335	2563.215002
943.149381	2559.693756
943.451389	2560.744837
943.753359	2555.640669
944.055290	2558.942624
944.357182	2558.413303
944.659036	2557.394990
944.960851	2559.081256
945.262628	2556.845504
945.564367	2556.636297
945.866067	2553.624207
946.167729	2557.289126
946.469352	2553.856100
946.770937	2556.328786
947.072484	2557.029507
947.373992	2556.233004
947.675462	2556.991698
947.976893	2554.329969
948.278286	2555.358364
948.579641	2552.595812
948.880958	2553.253682
949.182236	2554.544218
949.483476	2552.580688
949.784678	2554.498847
950.085841	2553.460370
950.386967	2553.624207
950.688054	2552.467262
950.989103	2553.593960
951.290114	2550.778476
951.591087	2556.961451
951.892021	2559.161915
952.192917	2560.152501
952.493776	2560.102090
952.794596	2559.771894
953.095378	2561.352296
953.396122	2562.234498
953.696828	2562.441185
953.997496	2558.297357
954.298126	2556.079249
954.598718	2555.267623
954.899272	2553.669578
955.199788	2553.243600
955.500266	2549.717313
955.800706	2548.336037
956.101108	2544.008206
956.401472	2545.742363
956.701798	2540.640715
957.002087	2544.013247
957.302337	2544.345963
957.602550	2542.150541
957.902724	2539.478729
958.202861	2539.680376
958.502960	2539.458565
958.803022	2541.918648
959.103045	2539.133410
959.403031	2538.841023
959.702979	2541.653987
960.002889	2539.330015
960.302762	2539.655170
960.602596	2538.815818
960.902393	2540.615510
961.202153	2536.784233
961.501875	2537.978986
961.801559	2537.578214
962.101205	2541.578370
962.400814	2535.352545
962.700385	2536.098636
962.999918	2539.251877
963.299414	2536.902700
963.598873	2534.898841
963.898293	2536.849768
964.197677	2538.667104
964.497022	2539.171219
964.796331	2536.822041
965.095601	2538.825900
965.394835	2538.281455
965.694030	2537.185004
965.993189	2537.855478
966.292309	2537.432021
966.591393	2537.535365
966.890439	2535.188707
967.189447	2539.188863
967.488419	2534.510672
967.787353	2535.430683
968.086249	2536.370858
968.385108	2537.774819
968.683930	2538.251208
968.982714	2536.880015
969.281462	2536.378420
969.580172	2539.730787
969.878844	2537.694161
970.177480	2539.239275
970.476078	2538.067206
970.774639	2537.227854
971.073162	2537.477391
971.371649	2534.392205
971.670098	2534.760209
971.968510	2537.921013
972.266885	2532.227030
972.565223	2537.195087
972.863524	2536.741383
973.161788	2538.566281
973.460014	2536.486805
973.758204	2538.147865
974.056356	2539.496373
974.354471	2538.175591
974.652550	2539.274563
974.950591	2538.888914
975.248595	2536.917823
975.546563	2537.938657
975.844493	2534.959335
976.142386	2538.168029
976.440243	2537.542926
976.738062	2537.724408
977.035845	2534.979500
977.333590	2536.464119
977.631299	2534.417411
977.928971	2537.822710
978.226606	2537.875642
978.524204	2537.142155
978.821765	2538.662063
979.119290	2535.150899
979.416777	2534.349355
979.714228	2534.503111
980.011642	2533.172246
980.309020	2537.394212
980.606360	2535.244160
980.903664	2536.834644
981.200931	2538.616692
981.498162	2540.149203
981.795356	2542.775644
982.092513	2543.246992
982.389633	2544.111550
982.686717	2550.939793
982.983764	2546.027188
983.280775	2554.471121
983.577749	2552.358878
983.874686	2549.946685
984.171587	2547.884853
984.468451	2546.821170
984.765279	2544.774462
985.062070	2542.095088
985.358824	2541.928730
985.655543	2538.435211
985.952224	2537.817669
986.248869	2537.847916
986.545478	2534.200641
986.842050	2534.616537
987.138586	2531.511186
987.435086	2530.686957
987.731549	2531.548994
988.027975	2534.016639
988.324366	2532.647966
988.620719	2535.707946
988.917037	2534.122503
989.213318	2535.476053
989.509563	2531.836340
989.805772	2534.435055
990.101944	2533.399098
990.398080	2533.262987
990.694180	2533.343645
990.990244	2530.424817
991.286271	2533.391536
991.582262	2533.615868
991.878217	2532.779036
992.174136	2534.074613
992.470019	2534.256094
992.765865	2531.881711
993.061676	2533.371372
993.357450	2534.495549
993.653188	2533.391536
993.948890	2532.569828
994.244556	2533.878007
994.540186	2534.530837
994.835780	2533.764582
995.131337	2533.915816
995.426859	2534.102339
995.722345	2537.353883
996.017795	2538.034439
996.313208	2536.264994
996.608586	2536.708615
996.903928	2536.375899
997.199234	2537.603420
997.494504	2536.990920
997.789738	2535.662576
998.084936	2535.549150
998.380099	2535.221475
998.675225	2533.499921
998.970316	2535.332380
999.265371	2535.912113
999.560390	2534.694674
999.855373	2535.879346
1000.150320	2533.812473
1000.445232	2532.312729
1000.740108	2533.136958
1001.034948	2533.179808
1001.329752	2533.391536
1001.624521	2531.790970
1001.919254	2527.533715
1002.213951	2531.324663
1002.508613	2527.185876
1002.803239	2529.141843
1003.097829	2524.635052
1003.392384	2528.254600
1003.686903	2530.404652
1003.981386	2532.509334
1004.275834	2533.883049
1004.570246	2530.636546
1004.864623	2533.063861
1005.158964	2531.964890
1005.453270	2532.700898
1005.747540	2532.196783
1006.041775	2533.023532
1006.335974	2530.147554
1006.630138	2531.841381
1006.924266	2531.301978
1007.218359	2531.329704
1007.512416	2530.596216
1007.806438	2531.022194
1008.100425	2531.995137
1008.394376	2533.351207
1008.688292	2528.894827
1008.982172	2531.443130
1009.276017	2531.183511
1009.569827	2529.580424
1009.863602	2531.682585
1010.157341	2530.258459
1010.451045	2531.501103
1010.744714	2531.891793
1011.038347	2532.262318
1011.331945	2530.820548
1011.625508	2532.557225
1011.919036	2531.291896
1012.212528	2530.079498
1012.505986	2528.375588
1012.799408	2532.582431
1013.092795	2530.419776
1013.386147	2529.633356
1013.679464	2530.329035
1013.972745	2531.652338
1014.265992	2527.858870
1014.559204	2532.191742
1014.852380	2530.918850
1015.145521	2530.155115
1015.438628	2527.667306
1015.731699	2530.341638
1016.024736	2529.434230
1016.317737	2532.350538
1016.610703	2532.037986
1016.903635	2527.730320
1017.196531	2528.579755
1017.489393	2528.867101
1017.782219	2526.248221
1018.075011	2526.782583
1018.367768	2530.006401
1018.660490	2529.010773
1018.953177	2529.010773
1019.245829	2529.010773
