Dividing Wavelength (nm)	Counts (n)	Blue Motor Position (mm): 19.900000	Red Motor Position (mm): 0.000000	
326.493990	2133.648201
326.888308	2133.648201
327.282561	2133.648201
327.676750	2099.549836
328.070874	2098.939857
328.464933	2101.689806
328.858929	2108.656681
329.252859	2120.412651
329.646726	2131.798097
330.040528	2143.090282
330.434265	2161.863539
330.827938	2179.878102
331.221547	2194.726821
331.615091	2213.817670
332.008571	2234.158726
332.401986	2254.903074
332.795338	2272.796650
333.188625	2294.420679
333.581847	2310.179326
333.975006	2331.881493
334.368100	2348.358505
334.761129	2363.013139
335.154095	2380.700027
335.546996	2402.712226
335.939833	2421.359454
336.332606	2438.869902
336.725315	2449.395831
337.117960	2460.430917
337.510540	2468.826958
337.903056	2479.408340
338.295508	2488.058960
338.687896	2497.112873
339.080220	2501.060096
339.472480	2510.003103
339.864676	2514.134328
340.256807	2518.762108
340.648875	2522.061543
341.040879	2524.478776
341.432818	2527.425331
341.824694	2527.448016
342.216506	2527.609333
342.608253	2530.465146
342.999937	2526.890968
343.391557	2528.882224
343.783113	2528.289888
344.174605	2527.231246
344.566033	2521.817047
344.957397	2521.973323
345.348697	2519.929135
345.739934	2517.932838
346.131106	2514.701458
346.522215	2518.784793
346.913260	2514.333454
347.304241	2508.856240
347.695159	2509.793895
348.086012	2509.103257
348.476802	2507.850530
348.867528	2501.856598
349.258191	2503.532782
349.648789	2504.173008
350.039324	2502.038080
350.429796	2501.085302
350.820203	2500.810559
351.210548	2495.517347
351.600828	2496.427276
351.991045	2495.298057
352.381198	2493.332007
352.771288	2496.094559
353.161314	2494.546925
353.551276	2495.230002
353.941175	2492.031389
354.331010	2492.177583
354.720782	2495.953407
355.110490	2493.263952
355.500135	2494.841833
355.889717	2495.358551
356.279235	2492.666575
356.668689	2494.264621
357.058080	2497.032214
357.447408	2493.528612
357.836672	2491.040803
358.225873	2493.180772
358.615010	2492.210350
359.004084	2497.954745
359.393095	2495.779487
359.782043	2497.899293
360.170927	2497.569097
360.559748	2498.771412
360.948505	2498.030362
361.337199	2501.365086
361.725830	2499.998933
362.114398	2501.024808
362.502903	2502.564880
362.891344	2501.591938
363.279722	2502.683348
363.668037	2503.706702
364.056289	2500.384581
364.444478	2505.105622
364.832603	2504.296517
365.220665	2503.212669
365.608665	2505.861795
365.996601	2505.892042
366.384474	2504.493122
366.772284	2506.396157
367.160031	2507.114522
367.547715	2505.894563
367.935336	2506.600324
368.322893	2507.341374
368.710388	2508.712567
369.097820	2508.944461
369.485189	2505.423215
369.872495	2508.987310
370.259738	2508.762979
370.646918	2510.650891
371.034035	2509.677948
371.421090	2509.294821
371.808081	2508.876405
372.195010	2510.512259
372.581875	2510.169461
372.968678	2510.860099
373.355418	2511.442352
373.742096	2509.708195
374.128710	2511.492764
374.515262	2513.350429
374.901751	2513.105933
375.288177	2512.748011
375.674540	2512.478309
376.060841	2513.383197
376.447079	2510.930675
376.833254	2511.588546
377.219367	2510.862620
377.605417	2511.996879
377.991404	2508.273987
378.377329	2510.794564
378.763191	2509.909842
379.148991	2513.741118
379.534727	2512.662312
379.920402	2517.453928
380.306013	2514.346057
380.691563	2517.171624
381.077049	2514.323372
381.462474	2513.158865
381.847835	2515.765142
382.233134	2515.392096
382.618371	2515.876047
383.003545	2517.514422
383.388657	2517.295132
383.773706	2515.989473
384.158693	2515.631551
384.543618	2515.697086
384.928480	2516.107940
385.313280	2515.760101
385.698017	2517.138856
386.082692	2519.440143
386.467305	2518.270595
386.851856	2517.085924
387.236344	2518.434433
387.620770	2519.041892
388.005133	2519.833353
388.389435	2519.944258
388.773674	2515.369411
389.157851	2518.346213
389.541965	2519.619104
389.926018	2518.986439
390.310008	2518.706655
390.693936	2519.946779
391.077802	2519.261182
391.461606	2520.007273
391.845348	2518.678929
392.229027	2519.561131
392.612645	2523.094979
392.996200	2517.557272
393.379694	2522.338806
393.763125	2522.434588
394.146494	2520.718075
394.529801	2521.413755
394.913047	2522.200175
395.296230	2523.856194
395.679351	2523.110103
396.062410	2521.096162
396.445408	2521.630524
396.828343	2525.292923
397.211217	2517.645492
397.594028	2521.045750
397.976778	2521.310411
398.359466	2523.084897
398.742092	2517.514422
399.124656	2524.514064
399.507158	2524.657737
399.889598	2524.771163
400.271977	2523.331914
400.654294	2528.105886
401.036549	2527.042203
401.418742	2527.385001
401.800874	2524.135978
402.182944	2528.506658
402.564952	2523.026924
402.946898	2525.943231
403.328783	2526.583458
403.710606	2527.768129
404.092367	2527.274096
404.474067	2525.900382
404.855705	2528.095804
405.237282	2526.545649
405.618797	2526.442306
406.000250	2526.898530
406.381642	2528.178983
406.762972	2529.272913
407.144240	2526.603623
407.525447	2529.199817
407.906593	2527.019518
408.287677	2526.835516
408.668700	2530.429858
409.049661	2527.836185
409.430560	2528.509179
409.811399	2528.541946
410.192176	2528.872142
410.572891	2530.228212
410.953545	2530.576052
411.334138	2530.444982
411.714669	2528.514220
412.095139	2529.114117
412.475547	2529.167049
412.855894	2528.851977
413.236180	2531.924560
413.616405	2532.617719
413.996568	2531.851464
414.376670	2532.340456
414.756711	2530.618902
415.136691	2533.358769
415.516609	2533.328522
415.896466	2532.405991
416.276262	2534.707277
416.655997	2531.002029
417.035670	2529.398942
417.415283	2531.712832
417.794834	2527.442975
418.174324	2533.333563
418.553753	2530.238294
418.933121	2532.232071
419.312428	2531.332225
419.691674	2532.211906
420.070859	2534.137627
420.449983	2533.769623
420.829045	2531.675023
421.208047	2535.070240
421.586988	2533.711649
421.965867	2536.968235
422.344686	2533.638553
422.723444	2531.473377
423.102141	2532.269879
423.480777	2536.391023
423.859352	2535.140817
424.237866	2536.645601
424.616319	2533.913296
424.994712	2537.759696
425.373044	2534.634181
425.751314	2537.026208
426.129524	2534.924047
426.507673	2534.639222
426.885762	2534.377082
427.263789	2535.473533
427.641756	2534.566125
428.019662	2534.064530
428.397508	2536.275076
428.775292	2536.887576
429.153016	2536.317926
429.530679	2537.656352
429.908282	2536.882535
430.285824	2537.908410
430.663305	2534.374561
431.040726	2536.007895
431.418086	2537.278266
431.795385	2537.711805
432.172624	2534.266176
432.549802	2535.594520
432.926920	2538.505787
433.303977	2538.934285
433.680974	2536.910262
434.057910	2539.176260
434.434786	2539.302289
434.811601	2537.459747
435.188355	2539.307330
435.565050	2538.881353
435.941683	2540.285314
436.318257	2541.109543
436.694770	2535.922195
437.071222	2537.588297
437.447614	2533.235260
437.823946	2534.545960
438.200218	2538.135262
438.576429	2538.445293
438.952580	2537.671476
439.328670	2538.117618
439.704700	2539.425797
440.080670	2539.768596
440.456580	2539.055272
440.832429	2541.724563
441.208218	2539.569470
441.583947	2541.215407
441.959616	2539.476209
442.335224	2540.776827
442.710773	2540.585263
443.086261	2540.247505
443.461689	2540.156765
443.837057	2541.389327
444.212365	2540.885211
444.587612	2539.640046
444.962800	2541.265818
445.337927	2540.670962
445.712995	2540.262629
446.088002	2543.085675
446.462949	2544.479554
446.837837	2543.315048
447.212664	2540.676003
447.587431	2542.725232
447.962139	2543.209183
448.336786	2545.535676
448.711374	2542.107691
449.085901	2542.455531
449.460369	2541.858154
449.834776	2544.338402
450.209124	2543.458720
450.583412	2545.981818
450.957640	2543.080634
451.331808	2541.381765
451.705917	2540.968390
452.079965	2544.252702
452.453954	2545.639019
452.827883	2545.069369
453.201752	2545.830583
453.575562	2546.425439
453.949311	2541.409491
454.323001	2546.422919
454.696632	2545.422250
455.070202	2543.521735
455.443713	2545.218083
455.817164	2544.129194
456.190556	2541.800181
456.563888	2543.141128
456.937160	2541.691796
457.310373	2544.338402
457.683526	2545.482744
458.056619	2546.420398
458.429653	2545.197918
458.802628	2542.349667
459.175542	2547.327806
459.548398	2545.364277
459.921194	2547.453835
460.293930	2545.694472
460.666607	2548.618341
461.039224	2548.431819
461.411782	2548.731767
461.784280	2547.592467
462.156719	2549.130018
462.529099	2548.295707
462.901419	2546.236396
463.273680	2546.518701
463.645882	2547.284956
464.018024	2548.124308
464.390106	2549.455173
464.762130	2549.210677
465.134094	2548.880481
465.505999	2549.868547
465.877845	2548.593136
466.249631	2553.309135
466.621358	2549.530790
466.993026	2555.176882
467.364634	2553.530946
467.736184	2549.654298
468.107674	2552.237890
468.479105	2547.602549
468.850477	2551.683363
469.221790	2552.109340
469.593043	2550.347457
469.964238	2551.300235
470.335373	2550.392827
470.706449	2549.157745
471.077467	2550.370142
471.448425	2552.416851
471.819324	2550.317210
472.190164	2555.524722
472.560945	2553.740154
472.931667	2552.431974
473.302330	2553.273847
473.672934	2553.576316
474.043479	2549.868548
474.413965	2553.941800
474.784393	2545.933927
475.154761	2551.600184
475.525070	2551.217056
475.895321	2551.164124
476.265513	2550.566747
476.635645	2553.299053
477.005719	2553.775442
477.375734	2556.507747
477.745691	2555.081101
478.115588	2555.985988
478.485427	2556.709393
478.855207	2556.439692
479.224928	2557.692418
479.594591	2562.612584
479.964194	2559.393808
480.333739	2558.796431
480.703226	2560.732234
481.072653	2559.618139
481.442022	2562.058058
481.811333	2563.131823
482.180584	2562.562173
482.549777	2562.380691
482.918912	2561.616957
483.287988	2563.484704
483.657005	2562.935218
484.025964	2564.503017
484.394864	2566.118707
484.763706	2569.077864
485.132489	2564.732390
485.501213	2568.283882
485.869879	2570.582649
486.238487	2567.537792
486.607036	2574.471899
486.975527	2573.682958
487.343959	2575.906107
487.712333	2578.575398
488.080648	2578.847620
488.448905	2578.782085
488.817104	2584.014803
489.185244	2589.003025
489.553326	2592.378077
489.921350	2598.750096
490.289315	2609.492795
490.657222	2613.984463
491.025070	2620.197685
491.392861	2624.444857
491.760593	2623.572737
492.128267	2624.830505
492.495883	2626.811679
492.863440	2631.585651
493.230939	2634.020529
493.598380	2639.384316
493.965763	2640.009419
494.333088	2647.298928
494.700354	2652.612304
495.067563	2660.347955
495.434713	2662.263593
495.801805	2676.131807
496.168839	2683.766635
496.535815	2692.155115
496.902733	2699.437062
497.269593	2707.631457
497.636395	2716.440873
498.003139	2730.626680
498.369825	2734.490725
498.736453	2749.324320
499.103023	2758.219436
499.469535	2771.596138
499.835989	2782.550565
500.202385	2795.763429
500.568723	2805.192907
500.935003	2823.285609
501.301226	2834.792042
501.667390	2856.474045
502.033497	2879.370966
502.399546	2883.469424
502.765537	2898.300498
503.131470	2918.623910
503.497345	2942.403033
503.863163	2946.098199
504.228923	2978.573312
504.594625	2999.131137
504.960269	3006.055162
505.325856	3037.688402
505.691385	3051.397820
506.056856	3078.849423
506.422270	3108.899742
506.787625	3121.910960
507.152924	3157.922442
507.518164	3172.662776
507.883347	3195.637835
508.248472	3215.825135
508.613540	3261.210643
508.978550	3285.897174
509.343503	3307.112870
509.708398	3348.004189
510.073236	3388.671177
510.438016	3420.811053
510.802738	3448.597893
511.167403	3488.848986
511.532010	3520.830066
511.896561	3568.423600
512.261053	3620.531487
512.625488	3640.938077
512.989866	3674.005526
513.354186	3709.333932
513.718449	3736.573807
514.082655	3806.177018
514.446803	3837.038962
514.810894	3893.144484
515.174927	3920.013834
515.538904	3961.240390
515.902822	4035.206720
516.266684	4056.001479
516.630488	4102.354889
516.994235	4148.181498
517.357925	4216.766396
517.721558	4278.654121
518.085133	4332.095393
518.448651	4380.692116
518.812112	4405.875200
519.175516	4468.992967
519.538863	4543.327301
519.902152	4568.719593
520.265385	4675.375285
520.628560	4696.533007
520.991678	4762.367956
521.354739	4827.179551
521.717743	4859.213563
522.080690	4909.854474
522.443580	5012.139485
522.806413	5058.790323
523.169189	5120.499087
523.531908	5195.032547
523.894569	5209.157860
524.257174	5270.347385
524.619722	5373.086101
524.982213	5396.214914
525.344647	5493.156303
525.707025	5525.638978
526.069345	5620.989882
526.431608	5663.728784
526.793815	5759.157827
527.155964	5751.709522
527.518057	5820.649821
527.880093	5874.890116
528.242072	5953.403567
528.603995	5990.403115
528.965860	6016.876735
529.327669	6105.321258
529.689421	6138.403831
530.051117	6191.497263
530.412755	6304.134284
530.774337	6299.050280
531.135862	6372.860334
531.497331	6430.566422
531.858743	6434.982473
532.220098	6568.356280
532.581396	6577.193423
532.942638	6619.957531
533.303824	6665.211969
533.664953	6744.854638
534.026025	6757.071875
534.387040	6865.723863
534.747999	6927.707371
535.108902	7020.056268
535.469748	6957.220806
535.830537	7068.617703
536.191270	7114.819878
536.551947	7188.713111
536.912567	7247.210660
537.273131	7259.143071
537.633638	7301.972714
537.994089	7359.545212
538.354483	7384.408183
538.714821	7527.057713
539.075103	7589.333607
539.435328	7630.154350
539.795497	7569.471461
540.155609	7737.354487
540.515665	7835.656987
540.875665	7730.175884
541.235609	7830.278076
541.595496	7874.400775
541.955328	8043.534007
542.315102	8010.922783
542.674821	8029.827110
543.034483	8085.473886
543.394090	8137.485991
543.753640	8141.145869
544.113134	8344.914348
544.472571	8297.998850
544.831953	8447.864792
545.191278	8360.612502
545.550548	8429.232688
545.909761	8570.387516
546.268918	8602.484543
546.628019	8705.213176
546.987064	8665.060385
547.346053	8639.413515
547.704986	8765.061754
548.063863	8807.009195
548.422684	8830.488369
548.781449	8819.521339
549.140158	8939.427704
549.498811	8890.082369
549.857408	8809.617992
550.215949	9039.872694
550.574434	8959.196589
550.932864	9082.654446
551.291237	9155.284870
551.649555	9175.520062
552.007817	9211.516421
552.366022	9216.996155
552.724173	9246.902800
553.082267	9269.043548
553.440305	9419.448894
553.798288	9283.216752
554.156215	9453.527094
554.514086	9468.060740
554.871902	9370.748827
555.229661	9431.708980
555.587365	9440.034445
555.945014	9381.980518
556.302606	9526.066777
556.660143	9460.642682
557.017625	9625.027147
557.375050	9560.334020
557.732421	9707.439931
558.089735	9663.680195
558.446994	9686.355305
558.804197	9752.608669
559.161345	9777.504407
559.518437	9669.545577
559.875474	9771.344117
560.232455	9826.436367
560.589381	9804.136823
560.946251	9830.202109
561.303065	9939.103635
561.659825	9904.160877
562.016528	9867.572183
562.373177	9770.592985
562.729770	9900.435464
563.086307	9842.288275
563.442789	9943.008009
563.799216	9853.177168
564.155587	9914.505325
564.511904	9894.675946
564.868164	9901.927646
565.224370	9936.278068
565.580520	9883.739163
565.936615	9896.523529
566.292654	9792.161562
566.648638	9936.008367
567.004567	9908.403008
567.360441	9903.828161
567.716260	9831.669085
568.072023	9935.960476
568.427732	9906.852853
568.783385	9826.799330
569.138982	9906.585672
569.494525	9930.914281
569.850013	9827.295884
570.205445	9918.177805
570.560823	9830.930556
570.916145	9755.976160
571.271412	9834.098921
571.626625	9793.164752
571.981782	9780.551785
572.336884	9755.431715
572.691931	9768.316904
573.046923	9733.908509
573.401860	9693.526346
573.756743	9643.016505
574.111570	9685.972177
574.466342	9678.589407
574.821059	9711.850940
575.175722	9621.394996
575.530330	9634.191965
575.884882	9629.614598
576.239380	9566.643024
576.593823	9547.900014
576.948211	9570.071009
577.302544	9456.846693
577.656823	9481.480292
578.011047	9486.077824
578.365216	9464.133681
578.719330	9392.634996
579.073389	9412.260208
579.427394	9363.834884
579.781344	9344.479374
580.135239	9298.599833
580.489080	9310.381010
580.842866	9213.638747
581.196597	9222.231393
581.550273	9261.781766
581.903895	9236.412159
582.257463	9304.250967
582.610975	9184.379890
582.964434	9210.419970
583.317837	9133.280234
583.671186	9121.388152
584.024481	9118.953275
584.377721	9039.718939
584.730906	9019.362760
585.084037	9056.337103
585.437113	8993.481476
585.790135	9013.968725
586.143103	8918.554806
586.496016	8894.455570
586.848874	8952.630486
587.201679	8941.761758
587.554428	8826.291609
587.907124	8875.962097
588.259765	8850.423612
588.612352	8854.935445
588.964884	8727.220333
589.317362	8745.028209
589.669786	8744.453517
590.022155	8799.863360
590.374470	8805.050707
590.726731	8749.250175
591.078937	8606.479657
591.431090	8721.107934
591.783188	8591.068850
592.135232	8586.146163
592.487222	8585.611801
592.839157	8639.806725
593.191038	8574.559071
593.542866	8514.942385
593.894639	8421.048374
594.246358	8474.701375
594.598022	8489.441709
594.949633	8389.682315
595.301190	8367.501238
595.652692	8397.969972
596.004141	8504.348401
596.355535	8286.512581
596.706876	8266.194211
597.058162	8196.754837
597.409395	8274.751569
597.760573	8337.634922
598.111698	8250.349864
598.462768	8234.959221
598.813785	8197.011936
599.164748	8170.729880
599.515657	8161.567583
599.866511	8071.741783
600.217312	8194.390536
600.568060	8056.630925
600.918753	8158.434506
601.269392	8131.988613
601.619978	8040.053090
601.970510	8107.372659
602.320988	8099.044672
602.671412	8164.935074
603.021783	8101.663552
603.372100	8072.460148
603.722363	8071.986279
604.072572	8050.508443
604.422728	8060.406749
604.772830	7986.369843
605.122878	8003.713933
605.472872	7994.536512
605.822813	8024.294443
606.172701	7971.649674
606.522534	8048.207157
606.872314	8040.232051
607.222041	8014.338164
607.571714	8067.345897
607.921333	8024.107921
608.270899	8032.927419
608.620411	8122.110472
608.969870	8022.595574
609.319276	8019.228084
609.668627	8034.676700
610.017926	8071.426711
610.367171	8122.168445
610.716362	8092.032427
611.065500	8091.876152
611.414585	8116.847507
611.763616	8105.961136
612.112594	8084.059843
612.461518	8095.309177
612.810389	8157.733786
613.159207	8105.527596
613.507971	8050.707569
613.856682	8166.429776
614.205340	8124.477294
614.553945	8205.876805
614.902496	8096.284641
615.250994	8156.024834
615.599439	8139.394068
615.947830	8146.436560
616.296169	8123.050647
616.644454	8136.966752
616.992686	8132.069271
617.340864	8191.612860
617.688990	8091.624094
618.037063	8182.044750
618.385082	8134.725959
618.733048	8221.201913
619.080961	8160.128334
619.428821	8174.286414
619.776628	8179.163731
620.124382	8133.374930
620.472083	8116.887837
620.819731	8143.265674
621.167326	8041.817494
621.514868	8049.991725
621.862357	7935.350845
622.209793	7953.183927
622.557176	7892.080101
622.904506	7851.531580
623.251783	7795.751213
623.599007	7747.252792
623.946179	7748.530725
624.293297	7707.911628
624.640363	7626.640666
624.987376	7607.900177
625.334336	7562.328146
625.681243	7506.583067
626.028097	7494.378433
626.374899	7473.893705
626.721647	7462.472971
627.068343	7400.451655
627.414987	7370.938220
627.761577	7323.994995
628.108115	7361.657455
628.454600	7255.132833
628.801032	7308.604352
629.147412	7263.622137
629.493739	7249.948007
629.840014	7190.878287
630.186236	7250.361381
630.532405	7131.261601
630.878521	7183.349323
631.224585	7145.845659
631.570597	7067.163330
631.916556	7098.809173
632.262462	7092.870694
632.608316	7055.435086
632.954117	7037.591922
633.299866	7024.951228
633.645562	7013.031420
633.991206	6939.503671
634.336797	6878.866152
634.682336	6836.132290
635.027823	6803.566437
635.373257	6793.506814
635.718639	6723.283541
636.063968	6739.100161
636.409245	6635.675849
636.754470	6637.677187
637.099642	6594.703871
637.444762	6535.205653
637.789829	6541.842332
638.134845	6487.780998
638.479808	6474.648792
638.824719	6477.607949
639.169577	6406.419295
639.514383	6427.057779
639.859137	6354.603796
640.203839	6362.467996
640.548489	6350.994329
640.893086	6328.321740
641.237632	6302.261495
641.582125	6320.838147
641.926566	6293.817562
642.270955	6301.245703
642.615292	6299.887112
642.959576	6312.409338
643.303809	6300.623120
643.647990	6312.517723
643.992118	6295.057686
644.336195	6244.429378
644.680219	6269.025168
645.024192	6257.362458
645.368112	6352.557087
645.711981	6378.869390
646.055797	6452.392098
646.399562	6407.684625
646.743274	6537.370828
647.086935	6590.025680
647.430544	6585.728097
647.774101	6607.407579
648.117606	6612.363033
648.461059	6606.903463
648.804460	6561.712040
649.147810	6471.344316
649.491108	6445.314318
649.834354	6414.911119
650.177548	6337.294994
650.520690	6250.592189
650.863781	6226.941616
651.206820	6250.730821
651.549807	6169.505229
651.892742	6116.452126
652.235626	6118.622343
652.578458	6105.016269
652.921238	6013.980592
653.263967	6055.360903
653.606644	5998.305124
653.949269	5995.421584
654.291843	5935.996462
654.634365	5985.709801
654.976836	5942.839829
655.319255	5939.139622
655.661622	5919.559780
656.003938	5909.545528
656.346203	5876.173090
656.688416	5907.176186
657.030577	5864.984249
657.372687	5834.346636
657.714746	5816.810983
658.056753	5858.292117
658.398708	5801.727850
658.740612	5795.065966
659.082465	5843.786197
659.424266	5830.535524
659.766016	5832.514177
660.107715	5805.506195
660.449362	5824.009750
660.790958	5812.979706
661.132503	5806.017872
661.473996	5840.804354
661.815438	5828.627447
662.156829	5821.824410
662.498168	5816.576569
662.839456	5788.633453
663.180693	5827.220965
663.521879	5834.331513
663.863013	5818.240150
664.204097	5838.485424
664.545129	5877.871959
664.886110	5873.322317
665.227040	5910.614253
665.567918	5870.244693
665.908746	5901.257871
666.249522	5900.925155
666.590248	5887.550974
666.930922	5919.199338
667.271545	5932.250885
667.612118	5935.638541
667.952639	5905.764663
668.293109	5924.369041
668.633528	5884.622064
668.973896	5888.680193
669.314213	5875.429520
669.654480	5858.518969
669.994695	5856.116859
670.334859	5845.608574
670.674973	5834.417213
671.015035	5835.795968
671.355047	5842.687225
671.695008	5824.536551
672.034918	5798.531759
672.374777	5812.382329
672.714585	5797.135359
673.054342	5795.774248
673.394049	5792.247961
673.733705	5823.732487
674.073310	5808.009128
674.412864	5769.580412
674.752368	5764.045225
675.091820	5767.836173
675.431223	5702.255803
675.770574	5698.114495
676.109875	5654.208565
676.449125	5659.451365
676.788324	5625.791581
677.127473	5568.634979
677.466571	5560.763217
677.805619	5553.629984
678.144616	5540.616246
678.483562	5518.319222
678.822458	5486.159181
679.161303	5485.002237
679.500098	5472.777438
679.838842	5453.280776
680.177535	5461.573474
680.516179	5475.761802
680.854771	5484.538450
681.193314	5570.066667
681.531805	5671.600546
681.870247	5824.284493
682.208638	5924.883239
682.546978	5935.630979
682.885268	5912.265231
683.223508	5826.759700
683.561697	5774.697183
683.899836	5745.539150
684.237925	5702.838056
684.575963	5667.028220
684.913951	5625.879801
685.251889	5687.523031
685.589776	5654.531199
685.927614	5629.428774
686.265401	5696.609710
686.603137	5680.195713
686.940824	5760.702940
687.278460	5780.434017
687.616046	5791.910203
687.953582	5854.307085
688.291068	5841.580692
688.628504	5902.543366
688.965889	5864.732191
689.303224	5812.473070
689.640510	5764.458600
689.977745	5688.311971
690.314930	5589.069296
690.652065	5528.731726
690.989150	5438.679074
691.326185	5365.698290
691.663170	5312.453623
692.000105	5235.601232
692.336990	5158.116177
692.673825	5137.944000
693.010610	5066.707455
693.347345	5003.198999
693.684030	4983.667048
694.020665	4941.762457
694.357251	4855.465465
694.693786	4860.897308
695.030272	4833.793544
695.366707	4798.523112
695.703093	4763.600518
696.039429	4787.745125
696.375716	4768.588740
696.711952	4742.934308
697.048139	4732.955344
697.384276	4712.228640
697.720363	4723.263726
698.056400	4736.958020
698.392388	4679.677910
698.728326	4663.584026
699.064214	4639.658710
699.400053	4635.961023
699.735842	4602.454994
700.071581	4578.128907
700.407270	4551.395668
700.742910	4533.214746
701.078501	4477.126869
701.414042	4478.913958
701.749533	4449.471099
702.084974	4384.838465
702.420366	4441.077577
702.755709	4382.685892
703.091002	4328.009538
703.426246	4377.543916
703.761440	4331.031710
704.096584	4295.468890
704.431679	4314.625274
704.766725	4302.458450
705.101721	4287.803815
705.436668	4316.175429
705.771565	4261.443622
706.106413	4291.093168
706.441212	4331.581195
706.775961	4333.017924
707.110661	4312.041683
707.445311	4342.396991
707.779913	4366.208881
708.114465	4377.228843
708.448967	4399.730034
708.783421	4458.920742
709.117825	4501.548738
709.452180	4506.776415
709.786485	4549.049011
710.120742	4634.090755
710.454949	4618.468220
710.789107	4684.784598
711.123216	4757.309158
711.457275	4747.194083
711.791286	4824.681659
712.125247	4841.186397
712.459159	4741.888269
712.793023	4815.796625
713.126837	4781.126090
713.460602	4768.364409
713.794318	4689.185526
714.127985	4698.183985
714.461602	4614.115183
714.795171	4585.738528
715.128691	4521.708313
715.462162	4465.897698
715.795584	4416.196963
716.128957	4397.237183
716.462281	4345.772043
716.795556	4318.108712
717.128782	4280.683186
717.461960	4214.308833
717.795088	4226.856265
718.128167	4183.777085
718.461198	4121.423053
718.794180	4118.501705
719.127113	4102.410342
719.459997	4078.749686
719.792833	4036.252759
720.125619	4030.455432
720.458357	3991.283146
720.791046	4001.158767
721.123686	3968.368581
721.456278	3933.188889
721.788821	3949.154223
722.121315	3917.377310
722.453761	3895.985174
722.786158	3907.622677
723.118506	3930.181841
723.450805	3879.591342
723.783056	3903.824168
724.115259	3918.688010
724.447412	3924.308897
724.779518	3916.734563
725.111574	3921.974842
725.443582	3953.509780
725.775542	3936.392542
726.107453	3990.143845
726.439315	3985.352229
726.771129	4001.950228
727.102895	4037.568500
727.434612	4083.790840
727.766281	4097.432202
728.097901	4098.682408
728.429473	4104.174745
728.760996	4107.063327
729.092471	4101.553345
729.423897	4086.908793
729.755276	4093.800051
730.086606	4095.602263
730.417887	4130.635762
730.749120	4192.964588
731.080305	4259.964043
731.411442	4284.965646
731.742530	4254.539762
732.073570	4260.793313
732.404562	4309.964728
732.735506	4303.867452
733.066401	4265.252214
733.397249	4203.961865
733.728048	4123.096716
734.058798	4042.902041
734.389501	3975.249756
734.720156	3915.580139
735.050762	3868.069784
735.381320	3859.885471
735.711831	3811.825631
736.042293	3783.816980
736.372707	3804.364723
736.703073	3778.748100
737.033391	3768.817027
737.363661	3783.685910
737.693883	3806.887821
738.024056	3816.667659
738.354182	3814.847803
738.684260	3874.459447
739.014290	3897.515164
739.344272	3893.043661
739.674207	3934.111420
740.004093	3940.856484
740.333931	3933.393056
740.663722	3936.836164
740.993464	3931.726955
741.323159	3907.695774
741.652806	3879.011609
741.982405	3852.719471
742.311956	3822.091941
742.641460	3811.578614
742.970915	3785.117598
743.300323	3749.035539
743.629683	3715.937844
743.958996	3704.368396
744.288260	3678.371165
744.617477	3645.631392
744.946647	3632.292498
745.275768	3612.344653
745.604842	3607.447172
745.933869	3557.370870
746.262847	3549.050446
746.591778	3586.556630
746.920662	3557.673339
747.249498	3527.464225
747.578286	3573.033735
747.907027	3592.394286
748.235720	3588.131991
748.564365	3611.354066
748.892963	3617.347998
749.221514	3597.011983
749.550017	3573.900813
749.878473	3571.221440
750.206881	3542.554919
750.535242	3538.390926
750.863555	3538.935370
751.191821	3534.151315
751.520039	3519.332844
751.848210	3493.330572
752.176334	3527.827188
752.504411	3532.268444
752.832440	3492.140860
753.160421	3479.394302
753.488356	3485.839418
753.816243	3499.730317
754.144082	3452.822380
754.471875	3441.343673
754.799620	3459.217084
755.127318	3449.028912
755.454969	3452.230045
755.782572	3458.123154
756.110129	3432.577107
756.437638	3424.327258
756.765100	3437.298147
757.092515	3447.897173
757.419882	3453.883543
757.747203	3427.561158
758.074477	3430.593413
758.401703	3446.621761
758.728882	3465.962148
759.056014	3472.440031
759.383099	3478.832214
759.710138	3471.343580
760.037129	3490.792351
760.364073	3518.687576
760.690970	3503.440606
761.017820	3481.509066
761.344623	3501.620750
761.671379	3546.706309
761.998088	3596.170111
762.324751	3718.655026
762.651366	3967.955207
762.977935	4431.552317
763.304456	4869.247979
763.630931	4958.020178
763.957359	4598.908543
764.283740	4262.744240
764.610074	4076.241712
764.936362	3882.447155
765.262602	3725.072414
765.588796	3615.568471
765.914943	3530.267106
766.241044	3445.805094
766.567097	3411.210176
766.893104	3368.461191
767.219064	3336.651511
767.544978	3310.051862
767.870845	3254.150507
768.196665	3240.879670
768.522438	3247.695310
768.848165	3243.445617
769.173846	3203.829710
769.499479	3190.745395
769.825066	3174.016326
770.150607	3154.212153
770.476101	3175.044721
770.801548	3166.850326
771.126949	3119.990280
771.452303	3104.990327
771.777611	3112.519290
772.102872	3115.904425
772.428087	3093.955241
772.753256	3083.681369
773.078378	3076.429670
773.403453	3042.343908
773.728482	3031.568442
774.053465	3050.437480
774.378401	3041.164278
774.703291	3010.231758
775.028135	3009.228568
775.352932	3003.418638
775.677683	2992.769201
776.002388	2989.502533
776.327046	2992.557473
776.651658	2980.844352
776.976224	2968.480922
777.300743	2969.186683
777.625216	2959.099334
777.949643	2952.565999
778.274024	2955.958696
778.598359	2946.017540
778.922647	2953.478448
779.246889	2946.526697
779.571086	2935.499173
779.895236	2927.894592
780.219339	2938.607044
780.543397	2954.131277
780.867409	2956.140177
781.191374	2949.553910
781.515294	2947.567695
781.839167	2945.402519
782.162995	2937.306426
782.486776	2945.079886
782.810511	2944.497632
783.134201	2932.408945
783.457844	2938.551591
783.781441	2927.370312
784.104993	2908.695358
784.428498	2910.278280
784.751958	2923.322266
785.075372	2919.165834
785.398739	2900.997516
785.722061	2917.204825
786.045337	2929.354006
786.368568	2913.902870
786.691752	2902.451889
787.014891	2954.584981
787.337983	2981.676142
787.661030	3008.459792
787.984031	3076.495205
788.306987	3119.750825
788.629897	3113.290587
788.952760	3095.409614
789.275579	3082.108529
789.598351	3024.372194
789.921078	2981.285453
790.243759	2973.421253
790.566395	2951.882923
790.888984	2930.183276
791.211529	2912.597211
791.534027	2904.906931
791.856480	2897.796383
792.178888	2878.942468
792.501249	2872.968700
792.823566	2869.936446
793.145836	2866.137937
793.468062	2863.617360
793.790241	2857.948582
794.112375	2864.948225
794.434464	2880.142262
794.756507	2882.705689
795.078505	2889.851525
795.400457	2901.126065
795.722364	2937.989503
796.044226	2963.790128
796.366042	2963.916157
796.687812	2956.215794
797.009538	2970.078968
797.331218	2961.874490
797.652852	2947.005606
797.974442	2929.207813
798.295986	2924.143974
798.617484	2921.850249
798.938938	2907.886252
799.260346	2889.332286
799.581709	2883.038405
799.903026	2877.039432
800.224299	2870.785881
800.545526	2864.610467
800.866708	2847.037005
801.187845	2835.306240
801.508936	2839.399657
801.829983	2850.233097
802.150984	2832.488235
802.471940	2822.998263
802.792851	2822.297542
803.113717	2822.713438
803.434538	2825.554128
803.755314	2819.494661
804.076045	2816.192705
804.396731	2812.863023
804.717372	2811.557364
805.037967	2808.827579
805.358518	2815.693631
805.679024	2825.133192
805.999485	2819.857624
806.319901	2828.039417
806.640272	2816.180102
806.960598	2825.360043
807.280879	2834.393791
807.601115	2841.287569
807.921306	2827.121927
808.241453	2823.530105
808.561554	2829.705518
808.881611	2831.812720
809.201623	2826.232163
809.521590	2822.065649
809.841513	2821.546411
810.161390	2826.544715
810.481223	2819.315700
810.801011	2809.399750
811.120755	2805.520582
811.440453	2807.925213
811.760107	2808.807415
812.079716	2806.959832
812.399281	2796.950621
812.718801	2789.164559
813.038276	2786.376801
813.357707	2792.421144
813.677093	2799.478760
813.996434	2792.499282
814.315731	2787.705145
814.634983	2781.323044
814.954191	2785.890329
815.273354	2799.075467
815.592473	2809.482929
815.911547	2810.410502
816.230577	2818.075576
816.549562	2825.019766
816.868502	2825.055054
817.187399	2833.622495
817.506250	2849.983559
817.825058	2844.256809
818.143821	2854.873479
818.462539	2870.783360
818.781213	2897.647669
819.099843	2935.274841
819.418429	2992.675940
819.736970	3048.458827
820.055466	3121.517750
820.373919	3223.311249
820.692327	3359.646734
821.010691	3521.540869
821.329011	3959.380204
821.647286	4838.033155
821.965517	6185.803280
822.283704	6905.047384
822.601847	6873.456993
822.919945	6259.278097
823.237999	5769.661071
823.556010	5199.153690
823.873976	4660.889529
824.191897	4261.257099
824.509775	3978.670179
824.827609	3713.954150
825.145398	3589.959409
825.463144	3580.852565
825.780845	3671.169877
826.098502	3775.793984
826.416116	4052.651632
826.733685	4359.912480
827.051210	4418.084875
827.368692	4302.697904
827.686129	4045.215931
828.003522	3725.077456
828.320872	3475.245433
828.638177	3285.614869
828.955439	3153.082934
829.272656	3072.704257
829.589830	3008.568177
829.906960	2960.059674
830.224046	2914.550658
830.541088	2882.355329
830.858086	2868.885366
831.175041	2849.552541
831.491952	2852.229393
831.808819	2866.253883
832.125642	2887.983777
832.442421	2930.211002
832.759157	3010.824093
833.075849	3182.180474
833.392497	3458.884368
833.709101	3656.248062
834.025662	3606.322994
834.342179	3452.484623
834.658653	3278.602624
834.975083	3133.727424
835.291469	3037.670758
835.607811	2959.747123
835.924110	2899.223030
836.240366	2850.313755
836.556578	2806.400264
836.872746	2785.658436
837.188871	2766.633122
837.504952	2749.357087
837.820990	2741.500449
838.136984	2728.390929
838.452935	2722.278530
838.768842	2719.626883
839.084706	2736.134141
839.400526	2817.339568
839.716303	2942.748352
840.032037	3018.093437
840.347727	3006.823938
840.663373	2944.492591
840.978977	2871.859647
841.294537	2800.933132
841.610054	2758.345465
841.925527	2734.929305
842.240957	2716.786192
842.556344	2689.639579
842.871687	2678.057528
843.186987	2670.921775
843.502244	2663.876762
843.817458	2660.118582
844.132629	2649.632982
844.447756	2640.039666
844.762840	2633.143368
845.077881	2637.808956
845.392879	2633.309726
845.707833	2629.385188
846.022745	2622.125926
846.337613	2627.530043
846.652438	2624.681791
846.967221	2625.500979
847.281960	2626.176493
847.596656	2621.813375
847.911309	2619.721296
848.225919	2617.805657
848.540485	2615.937910
848.855009	2615.862292
849.169490	2613.984463
849.483928	2612.215018
849.798323	2613.528238
850.112675	2611.186622
850.426984	2613.291304
850.741251	2610.402723
851.055474	2610.006992
851.369654	2615.358177
851.683792	2613.112343
851.997887	2613.119905
852.311938	2611.211828
852.625947	2611.557147
852.939914	2616.847838
853.253837	2617.878754
853.567718	2609.719647
853.881555	2612.575460
854.195350	2614.223917
854.509103	2617.195678
854.822812	2608.643360
855.136479	2609.888525
855.450103	2613.876078
855.763685	2615.579988
856.077224	2615.390945
856.390720	2609.434821
856.704173	2610.092692
857.017584	2617.024278
857.330953	2617.490585
857.644278	2617.649382
857.957561	2619.645678
858.270802	2614.987652
858.584000	2615.287601
858.897155	2620.328755
859.210268	2620.898405
859.523339	2614.859103
859.836367	2611.395830
860.149352	2611.869699
860.462295	2613.412292
860.775195	2609.676797
861.088054	2605.041456
861.400869	2608.368617
861.713642	2603.554315
862.026373	2605.253184
862.339062	2608.708895
862.651708	2614.105450
862.964312	2618.645009
863.276873	2613.182919
863.589392	2615.252313
863.901869	2619.312962
864.214303	2625.261524
864.526696	2627.822430
864.839045	2630.978192
865.151353	2632.840899
865.463619	2632.135137
865.775842	2631.116824
866.088023	2632.220837
866.400162	2633.544140
866.712258	2632.056999
867.024313	2629.788480
867.336325	2626.027779
867.648296	2628.760085
867.960224	2634.524644
868.272110	2633.798718
868.583954	2625.778242
868.895755	2628.341669
869.207515	2632.765281
869.519233	2637.929943
869.830909	2632.956845
870.142542	2629.705301
870.454134	2633.425672
870.765684	2638.386168
871.077191	2638.948257
871.388657	2642.777013
871.700081	2639.936323
872.011463	2640.745428
872.322803	2639.681744
872.634101	2644.773310
872.945357	2652.871923
873.256571	2660.037924
873.567744	2654.628766
873.878874	2652.203971
874.189963	2654.560710
874.501010	2658.835608
874.812015	2664.983296
875.122979	2665.699139
875.433900	2656.030206
875.744780	2654.170021
876.055618	2658.170176
876.366415	2666.299037
876.677169	2666.757782
876.987882	2658.245793
877.298554	2654.648930
877.609183	2667.294665
877.919771	2674.253977
878.230317	2678.264215
878.540822	2689.558921
878.851285	2702.817155
879.161707	2725.333469
879.472087	2763.275713
879.782425	2808.293217
880.092722	2919.049888
880.402977	3101.292640
880.713191	3353.055425
881.023363	3629.648413
881.333494	3816.014830
881.643583	3983.892815
881.953631	3982.020026
882.263637	3805.584683
882.573602	3591.897733
882.883526	3466.798979
883.193408	3356.455683
883.503248	3263.063267
883.813048	3149.082779
884.122806	3040.723177
884.432522	2961.342648
884.742197	2897.183883
885.051831	2861.280785
885.361424	2832.067299
885.670975	2793.494910
885.980485	2765.234202
886.289954	2747.171747
886.599382	2736.146744
886.908768	2724.063098
887.218113	2706.300592
887.527417	2692.545804
887.836680	2684.749660
888.145901	2680.525173
888.455082	2670.800787
888.764221	2661.749395
889.073319	2652.861841
889.382376	2651.394865
889.691392	2652.231697
890.000366	2655.203457
890.309300	2649.348157
890.618193	2654.921152
890.927044	2658.639003
891.235855	2657.819816
891.544625	2655.858807
891.853353	2655.183292
892.162041	2663.876762
892.470687	2685.132787
892.779293	2696.021680
893.087858	2703.376723
893.396381	2723.679970
893.704864	2766.146650
894.013306	2832.183245
894.321707	2921.595670
894.630068	2971.344297
894.938387	2985.724188
895.246665	2978.351501
895.554903	2939.564863
895.863100	2893.912174
896.171256	2842.371417
896.479371	2782.439660
896.787446	2745.722416
897.095480	2730.803121
897.403473	2724.010166
897.711425	2709.058104
898.019336	2693.133099
898.327207	2677.271108
898.635038	2676.714061
898.942827	2674.596776
899.250576	2664.310302
899.558284	2651.500730
899.865952	2647.994607
900.173579	2647.087199
900.481165	2647.737508
900.788711	2638.802063
901.096216	2628.593727
901.403681	2628.888634
901.711105	2631.449540
902.018489	2628.172790
902.325832	2632.278810
902.633135	2632.810652
902.940397	2645.547127
903.247619	2682.425688
903.554800	2746.617220
903.861941	2870.803525
904.169041	2990.440188
904.476101	3046.414640
904.783121	3041.456665
905.090100	2985.474651
905.397039	2913.343302
905.703938	2843.195646
906.010796	2785.993673
906.317614	2734.571383
906.624391	2702.461754
906.931129	2677.505522
907.237826	2654.548107
907.544483	2637.912299
907.851099	2626.383181
908.157675	2617.049484
908.464211	2609.717126
908.770707	2598.112390
909.077163	2593.701380
909.383578	2589.968406
909.689954	2592.597367
909.996289	2588.534198
910.302584	2588.660226
910.608839	2586.694176
910.915054	2584.539083
911.221229	2588.350195
911.527363	2590.044023
911.833458	2587.553693
912.139513	2589.731472
912.445527	2593.081318
912.751502	2597.441916
913.057436	2600.189345
913.363331	2609.936416
913.669186	2618.977726
913.975000	2629.949797
914.280775	2647.248516
914.586510	2664.627894
914.892205	2698.184335
915.197859	2761.402925
915.503475	2840.337312
915.809050	2903.651683
916.114585	2913.285328
916.420081	2927.277051
916.725536	2939.093515
917.030952	2916.395720
917.336328	2870.685058
917.641665	2820.472645
917.946961	2774.502363
918.252218	2740.489698
918.557435	2720.302397
918.862612	2698.564942
919.167750	2681.004082
919.472848	2665.109324
919.777906	2650.313538
920.082925	2639.606127
920.387904	2629.798562
920.692843	2628.243366
920.997743	2622.924949
921.302603	2613.855913
921.607423	2609.646550
921.912204	2604.338215
922.216946	2601.159767
922.521647	2599.118100
922.826310	2593.146853
923.130932	2591.732810
923.435516	2585.126377
923.740059	2583.379618
924.044564	2582.426840
924.349028	2581.385841
924.653454	2572.707495
924.957840	2570.985941
925.262186	2567.638615
925.566493	2571.217834
925.870761	2568.019222
926.174989	2569.448389
926.479178	2561.937070
926.783328	2565.549057
927.087438	2564.240877
927.391509	2563.386402
927.695541	2560.341545
927.999533	2557.243756
928.303486	2558.607388
928.607400	2557.205947
928.911275	2558.685526
929.215110	2556.830381
929.518906	2556.409445
929.822663	2556.106975
930.126381	2556.709393
930.430060	2556.588406
930.733699	2556.449774
931.037299	2558.456153
931.340861	2556.364074
931.644383	2557.566389
931.947866	2558.935063
932.251309	2560.202913
932.554714	2555.368446
932.858080	2559.383725
933.161407	2557.105124
933.464694	2555.945658
933.767943	2556.197716
934.071153	2556.608570
934.374323	2553.425082
934.677455	2556.026317
934.980548	2554.715617
935.283602	2552.779814
935.586617	2555.446584
935.889593	2557.400031
936.192530	2553.535987
936.495428	2554.597150
936.798287	2552.648744
937.101108	2557.803324
937.403890	2560.396997
937.706632	2563.706515
938.009336	2565.032338
938.312002	2569.135837
938.614628	2571.270766
938.917216	2576.445511
939.219765	2574.890315
939.522275	2575.732187
939.824747	2577.115984
940.127179	2569.266907
940.429573	2568.760272
940.731929	2568.651887
941.034246	2566.617781
941.336524	2567.182390
941.638763	2567.653738
941.940964	2568.805642
942.243126	2564.742472
942.545250	2562.713408
942.847335	2562.902451
943.149381	2562.300033
943.451389	2560.288613
943.753359	2559.860114
944.055290	2558.897254
944.357182	2557.258879
944.659036	2557.957079
944.960851	2558.105793
945.262628	2558.146122
945.564367	2557.533622
945.866067	2557.198385
946.167729	2558.456153
946.469352	2557.261400
946.770937	2559.003118
947.072484	2556.238045
947.373992	2557.095042
947.675462	2554.501368
947.976893	2555.461708
948.278286	2556.782490
948.579641	2552.552962
948.880958	2552.351316
949.182236	2553.173024
949.483476	2554.564382
949.784678	2556.149825
950.085841	2554.564382
950.386967	2555.065977
950.688054	2552.386604
950.989103	2555.572613
951.290114	2557.722665
951.591087	2555.754095
951.892021	2554.629917
952.192917	2560.376833
952.493776	2562.095866
952.794596	2561.332131
953.095378	2560.422203
953.396122	2561.783315
953.696828	2558.733417
953.997496	2558.889692
954.298126	2556.454815
954.598718	2561.107800
954.899272	2554.856769
955.199788	2556.931204
955.500266	2550.531459
955.800706	2549.901315
956.101108	2546.019627
956.401472	2548.109185
956.701798	2543.342774
957.002087	2545.986859
957.302337	2545.931406
957.602550	2551.685883
957.902724	2546.891746
958.202861	2545.702034
958.502960	2545.611293
958.803022	2545.371838
959.103045	2543.877136
959.403031	2542.876467
959.702979	2545.132383
960.002889	2543.776313
960.302762	2544.615665
960.602596	2539.824048
960.902393	2543.478885
961.202153	2542.374872
961.501875	2543.730943
961.801559	2541.611138
962.101205	2540.676003
962.400814	2543.131045
962.700385	2542.160623
962.999918	2543.098278
963.299414	2543.216745
963.598873	2543.073072
963.898293	2540.035777
964.197677	2541.512835
964.497022	2540.577701
964.796331	2541.419574
965.095601	2541.205325
965.394835	2543.693134
965.694030	2541.916127
965.993189	2539.216589
966.292309	2540.411343
966.591393	2541.714481
966.890439	2538.180632
967.189447	2541.754810
967.488419	2540.610468
967.787353	2539.781199
968.086249	2542.258926
968.385108	2539.508976
968.683930	2541.472506
968.982714	2543.161292
969.281462	2540.227341
969.580172	2544.136756
969.878844	2540.761703
970.177480	2544.522404
970.476078	2540.950746
970.774639	2542.889070
971.073162	2543.695655
971.371649	2539.307330
971.670098	2537.691640
971.968510	2539.456044
972.266885	2534.976979
972.565223	2542.750438
972.863524	2540.005530
973.161788	2543.146169
973.460014	2539.735828
973.758204	2542.140459
974.056356	2539.647608
974.354471	2541.827907
974.652550	2542.077444
974.950591	2542.931920
975.248595	2544.560213
975.546563	2543.383103
975.844493	2542.009389
976.142386	2543.667928
976.440243	2541.568288
976.738062	2539.970242
977.035845	2539.965201
977.333590	2538.256250
977.631299	2540.076106
977.928971	2542.334543
978.226606	2539.869419
978.524204	2542.183308
978.821765	2537.928575
979.119290	2539.403112
979.416777	2539.516538
979.714228	2541.903524
980.011642	2538.548637
980.309020	2542.458051
980.606360	2539.743390
980.903664	2540.696168
981.200931	2542.871426
981.498162	2539.851775
981.795356	2540.776827
982.092513	2546.811088
982.389633	2549.669422
982.686717	2552.442057
982.983764	2553.142777
983.280775	2555.499516
983.577749	2552.157231
983.874686	2552.300904
984.171587	2548.328475
984.468451	2548.595656
984.765279	2545.026519
985.062070	2544.164482
985.358824	2543.645243
985.655543	2541.414533
985.952224	2540.156765
986.248869	2540.486960
986.545478	2536.559901
986.842050	2539.660211
987.138586	2534.689633
987.435086	2535.206352
987.731549	2533.542771
988.027975	2538.238606
988.324366	2536.325488
988.620719	2538.646939
988.917037	2534.185518
989.213318	2538.861188
989.509563	2538.079809
989.805772	2537.406815
990.101944	2535.581918
990.398080	2537.918492
990.694180	2534.513193
990.990244	2535.763399
991.286271	2535.100487
991.582262	2537.575694
991.878217	2536.365817
992.174136	2536.292720
992.470019	2536.305323
992.765865	2538.863709
993.061676	2537.555529
993.357450	2536.020498
993.653188	2536.834644
993.948890	2537.285827
994.244556	2537.623585
994.540186	2539.088040
994.835780	2539.924872
995.131337	2537.210210
995.426859	2542.773123
995.722345	2540.025695
996.017795	2541.969059
996.313208	2540.353370
996.608586	2539.070396
996.903928	2541.598535
997.199234	2540.791950
997.494504	2541.084337
997.789738	2539.647608
998.084936	2538.278935
998.380099	2539.801363
998.675225	2540.028215
998.970316	2539.698020
999.265371	2538.057124
999.560390	2538.546116
999.855373	2537.679038
1000.150320	2535.218954
1000.445232	2539.342618
1000.740108	2536.824562
1001.034948	2534.787936
1001.329752	2535.481094
1001.624521	2536.133924
1001.919254	2532.484128
1002.213951	2534.803059
1002.508613	2535.150899
1002.803239	2534.742565
1003.097829	2531.957328
1003.392384	2536.620395
1003.686903	2534.203162
1003.981386	2538.722556
1004.275834	2536.814480
1004.570246	2538.354552
1004.864623	2535.758358
1005.158964	2535.652494
1005.453270	2534.326670
1005.747540	2533.799870
1006.041775	2535.246681
1006.335974	2534.119983
1006.630138	2536.451517
1006.924266	2536.365817
1007.218359	2534.155271
1007.512416	2535.062679
1007.806438	2536.874973
1008.100425	2538.392361
1008.394376	2536.638039
1008.688292	2536.277597
1008.982172	2535.922195
1009.276017	2536.915303
1009.569827	2534.553522
1009.863602	2539.408153
1010.157341	2537.535365
1010.451045	2533.336083
1010.744714	2537.185004
1011.038347	2534.805580
1011.331945	2534.218285
1011.625508	2534.649304
1011.919036	2535.039993
1012.212528	2536.091074
1012.505986	2533.227699
1012.799408	2534.994623
1013.092795	2534.611495
1013.386147	2534.767771
1013.679464	2534.540919
1013.972745	2534.513193
1014.265992	2533.633512
1014.559204	2536.136444
1014.852380	2535.531506
1015.145521	2535.481094
1015.438628	2534.767771
1015.731699	2533.396577
1016.024736	2534.813142
1016.317737	2536.731301
1016.610703	2536.204500
1016.903635	2530.878521
1017.196531	2532.282482
1017.489393	2530.434899
1017.782219	2530.573531
1018.075011	2531.440610
1018.367768	2533.908254
1018.660490	2536.040663
1018.953177	2536.040663
1019.245829	2536.040663
