Dividing Wavelength (nm)	Counts (n)	Blue Motor Position (mm): 34.500000	Red Motor Position (mm): 0.000000	
326.493990	2129.630401
326.888308	2129.630401
327.282561	2129.630401
327.676750	2097.074630
328.070874	2095.958014
328.464933	2099.932964
328.858929	2103.751638
329.252859	2114.191868
329.646726	2129.363220
330.040528	2140.239509
330.434265	2157.694505
330.827938	2172.439880
331.221547	2191.351768
331.615091	2208.940354
332.008571	2231.343242
332.401986	2252.637076
332.795338	2269.792122
333.188625	2289.364402
333.581847	2306.824438
333.975006	2326.179948
334.368100	2344.978411
334.761129	2363.804600
335.154095	2377.239275
335.546996	2401.088974
335.939833	2426.650145
336.332606	2438.849737
336.725315	2452.329782
337.117960	2463.483335
337.510540	2468.766464
337.903056	2484.628455
338.295508	2485.576192
338.687896	2495.214878
339.080220	2505.123266
339.472480	2513.494102
339.864676	2517.043074
340.256807	2518.663805
340.648875	2522.016173
341.040879	2528.370547
341.432818	2526.928777
341.824694	2530.203006
342.216506	2527.836185
342.608253	2531.443130
342.999937	2531.642256
343.391557	2527.997502
343.783113	2529.940866
344.174605	2525.418951
344.566033	2525.625639
344.957397	2524.662778
345.348697	2522.575741
345.739934	2519.435102
346.131106	2518.386542
346.522215	2516.841428
346.913260	2517.529546
347.304241	2515.271109
347.695159	2512.800943
348.086012	2509.592249
348.476802	2507.379182
348.867528	2506.925478
349.258191	2505.042608
349.648789	2503.472288
350.039324	2503.227792
350.429796	2504.677124
350.820203	2500.472802
351.210548	2498.685713
351.600828	2498.786536
351.991045	2501.218892
352.381198	2498.073212
352.771288	2499.542709
353.161314	2495.086329
353.551276	2495.769405
353.941175	2498.748727
354.331010	2496.767553
354.720782	2497.972389
355.110490	2494.814106
355.500135	2495.834940
355.889717	2498.547081
356.279235	2495.988695
356.668689	2499.527585
357.058080	2497.622029
357.447408	2496.512975
357.836672	2495.484580
358.225873	2495.189672
358.615010	2494.103304
359.004084	2499.870384
359.393095	2500.442555
359.782043	2500.301402
360.170927	2502.416166
360.559748	2503.840292
360.948505	2503.258039
361.337199	2504.495642
361.725830	2501.584376
362.114398	2503.568070
362.502903	2505.284583
362.891344	2503.661331
363.279722	2506.507063
363.668037	2506.832217
364.056289	2506.527227
364.444478	2505.403050
364.832603	2505.766013
365.220665	2507.628719
365.608665	2508.460510
365.996601	2507.913545
366.384474	2509.809018
366.772284	2506.938081
367.160031	2508.452948
367.547715	2506.960767
367.935336	2510.091323
368.322893	2510.073679
368.710388	2509.945130
369.097820	2512.178361
369.485189	2511.414626
369.872495	2509.125942
370.259738	2510.350943
370.646918	2512.478309
371.034035	2510.335819
371.421090	2514.915707
371.808081	2511.830521
372.195010	2512.410254
372.581875	2513.325223
372.968678	2511.744822
373.355418	2510.708864
373.742096	2513.274812
374.128710	2514.469565
374.515262	2515.868485
374.901751	2515.936541
375.288177	2513.126098
375.674540	2516.508712
376.060841	2512.808505
376.447079	2516.299504
376.833254	2516.793537
377.219367	2512.581653
377.605417	2514.940913
377.991404	2510.539986
378.377329	2513.662981
378.763191	2514.620800
379.148991	2515.061901
379.534727	2517.043074
379.920402	2519.137674
380.306013	2515.669360
380.691563	2516.203722
381.077049	2518.331089
381.462474	2519.508198
381.847835	2517.756398
382.233134	2517.889988
382.618371	2515.341685
383.003545	2519.969464
383.388657	2520.319824
383.773706	2520.387880
384.158693	2520.587005
384.543618	2521.259999
384.928480	2521.144053
385.313280	2522.273271
385.698017	2521.665812
386.082692	2521.330576
386.467305	2525.292922
386.851856	2524.748478
387.236344	2522.560617
387.620770	2524.730834
388.005133	2523.251255
388.389435	2526.127233
388.773674	2522.898374
389.157851	2523.891482
389.541965	2524.680422
389.926018	2525.403828
390.310008	2524.841739
390.693936	2525.242511
391.077802	2525.061029
391.461606	2525.461801
391.845348	2529.403983
392.229027	2527.851308
392.612645	2525.081194
392.996200	2527.818541
393.379694	2528.254600
393.763125	2529.174611
394.146494	2530.737369
394.529801	2529.419107
394.913047	2532.842050
395.296230	2530.979344
395.679351	2530.225692
396.062410	2530.535722
396.445408	2530.225692
396.828343	2531.664941
397.211217	2530.172759
397.594028	2531.455733
397.976778	2529.288037
398.359466	2530.694519
398.742092	2528.932636
399.124656	2534.230888
399.507158	2533.547812
399.889598	2537.212731
400.271977	2536.867412
400.654294	2537.734490
401.036549	2535.939839
401.418742	2536.655683
401.800874	2539.214069
402.182944	2540.691127
402.564952	2541.159954
402.946898	2539.395550
403.328783	2542.800850
403.710606	2543.151210
404.092367	2542.722712
404.474067	2546.551468
404.855705	2547.428629
405.237282	2548.951058
405.618797	2555.083621
406.000250	2556.031358
406.381642	2561.064950
406.762972	2565.743141
407.144240	2571.288410
407.525447	2581.007755
407.906593	2588.345154
408.287677	2599.352514
408.668700	2604.885180
409.049661	2616.537807
409.430560	2631.746968
409.811399	2640.334574
410.192176	2663.218892
410.572891	2672.040911
410.953545	2692.941535
411.334138	2701.761033
411.714669	2723.732902
412.095139	2734.493245
412.475547	2763.278234
412.855894	2783.049639
413.236180	2806.392702
413.616405	2822.806699
413.996568	2855.110413
414.376670	2872.794781
414.756711	2889.866648
415.136691	2918.442429
415.516609	2962.839871
415.896466	2997.545694
416.276262	3035.049358
416.655997	3059.254458
417.035670	3131.985706
417.415283	3191.678008
417.794834	3213.942264
418.174324	3231.243504
418.553753	3248.242275
418.933121	3338.428517
419.312428	3399.610481
419.691674	3425.854728
420.070859	3505.688961
420.449983	3521.929038
420.829045	3609.289713
421.208047	3618.981332
421.586988	3693.222404
421.965867	3744.501021
422.344686	3858.068135
422.723444	3832.446471
423.102141	3793.637148
423.480777	3982.067917
423.859352	3913.694747
424.237866	4098.805917
424.616319	4142.018687
424.994712	4248.505501
425.373044	4228.809713
425.751314	4361.157645
426.129524	4297.422337
426.507673	4463.172955
426.885762	4560.008479
427.263789	4571.867793
427.641756	4527.840876
428.019662	4659.046987
428.397508	4707.439544
428.775292	4721.075865
429.153016	4835.447043
429.530679	4817.959280
429.908282	4926.195374
430.285824	4863.521229
430.663305	5111.825782
431.040726	4942.223723
431.418086	4978.729238
431.795385	5096.982104
432.172624	5143.534640
432.549802	5171.692004
432.926920	5210.213982
433.303977	5248.388119
433.680974	5308.604702
434.057910	5352.258573
434.434786	5382.593717
434.811601	5382.591196
435.188355	5615.565601
435.565050	5526.087640
435.941683	5530.952354
436.318257	5754.598103
436.694770	5754.809832
437.071222	5811.757226
437.447614	5761.731336
437.823946	5699.374783
438.200218	5860.880750
438.576429	5752.621971
438.952580	5853.891190
439.328670	5911.551908
439.704700	5834.477706
440.080670	5830.853117
440.456580	6107.854438
440.832429	5999.494836
441.208218	5856.603331
441.583947	6013.413462
441.959616	6028.100864
442.335224	5959.097550
442.710773	6102.573830
443.086261	6133.952492
443.461689	5932.780206
443.837057	6087.941881
444.212365	6244.084059
444.587612	6139.391897
444.962800	6294.183046
445.337927	6279.379698
445.712995	5895.422736
446.088002	6468.125539
446.462949	6300.804602
446.837837	6233.260702
447.212664	6409.741416
447.587431	6556.350772
447.962139	7098.466375
448.336786	8013.009820
448.711374	7754.781756
449.085901	6832.079203
449.460369	6756.285455
449.834776	6692.908068
450.209124	7086.493634
450.583412	7239.774958
450.957640	7379.672019
451.331808	7146.306925
451.705917	6705.881478
452.079965	6626.044724
452.453954	6836.296128
452.827883	6712.876079
453.201752	6810.389638
453.575562	6613.260358
453.949311	6809.825029
454.323001	6701.898966
454.696632	6776.727333
455.070202	6912.682212
455.443713	7069.298259
455.817164	7169.226531
456.190556	7249.746361
456.563888	7328.688309
456.937160	7369.504011
457.310373	7024.018615
457.683526	7050.724127
458.056619	6943.937365
458.429653	6935.576612
458.802628	6865.988524
459.175542	6973.964998
459.548398	7329.736869
459.921194	7491.381467
460.293930	7491.396591
460.666607	8024.448198
461.039224	8327.686205
461.411782	8453.833518
461.784280	8466.658214
462.156719	8361.214919
462.529099	8240.149089
462.901419	7829.151378
463.273680	7722.636838
463.645882	7736.865495
464.018024	7603.320288
464.390106	7767.775330
464.762130	8158.757140
465.134094	8626.576217
465.505999	9641.383171
465.877845	10863.132012
466.249631	11510.499344
466.621358	11124.067176
466.993026	10500.458801
467.364634	10240.083205
467.736184	9881.465602
468.107674	9549.666939
468.479105	9583.205735
468.850477	9345.306123
469.221790	9118.653326
469.593043	8794.338255
469.964238	8654.829363
470.335373	8661.594592
470.706449	8718.620124
471.077467	8701.603709
471.448425	10011.731538
471.819324	11076.186297
472.190164	11101.197981
472.560945	9851.947126
472.931667	9063.755161
473.302330	8935.780429
473.672934	8587.149353
474.043479	8939.873846
474.413965	8878.444866
474.784393	8763.904809
475.154761	8925.718286
475.525070	9011.168364
475.895321	8836.343669
476.265513	9012.973097
476.635645	9180.505763
477.005719	9176.162809
477.375734	9288.678842
477.745691	9532.259834
478.115588	9662.283795
478.485427	9907.871166
478.855207	10443.047620
479.224928	11253.561815
479.594591	11883.078422
479.964194	11693.364680
480.333739	11627.804474
480.703226	11543.294571
481.072653	11636.316462
481.442022	11871.942513
481.811333	12062.228427
482.180584	11863.100330
482.549777	11574.360681
482.918912	11399.533466
483.287988	11423.587332
483.657005	11435.212232
484.025964	11120.021650
484.394864	11251.409243
484.763706	11215.241484
485.132489	10976.240380
485.501213	10941.345513
485.869879	11013.905361
486.238487	10863.895746
486.607036	10970.863990
486.975527	10755.299210
487.343959	10939.170256
487.712333	10990.877371
488.080648	10914.899620
488.448905	10971.030348
488.817104	10905.991902
489.185244	11174.496358
489.553326	11324.831128
489.921350	11861.484640
490.289315	12925.647011
490.657222	13265.768620
491.025070	13171.662880
491.392861	13047.353068
491.760593	12664.187567
492.128267	12316.834423
492.495883	11992.680669
492.863440	11659.029381
493.230939	11310.995681
493.598380	11251.086609
493.965763	11122.184305
494.333088	11023.967504
494.700354	10942.694022
495.067563	11002.691315
495.434713	10832.683442
495.801805	10963.168668
496.168839	10880.551719
496.535815	10820.241875
496.902733	10824.821763
497.269593	10754.114539
497.636395	10862.630417
498.003139	10844.623415
498.369825	10709.311284
498.736453	10865.730726
499.103023	10797.493668
499.469535	10820.027626
499.835989	10807.679319
500.202385	10775.748651
500.568723	10623.891453
500.935003	10844.668786
501.301226	10654.551751
501.667390	10911.315360
502.033497	11010.658858
502.399546	10867.175017
502.765537	10776.772005
503.131470	10850.047697
503.497345	11021.371310
503.863163	10637.482404
504.228923	10951.349683
504.594625	11002.822385
504.960269	10756.236865
505.325856	10975.418672
505.691385	10770.120202
506.056856	10927.240365
506.422270	10951.773140
506.787625	10839.161325
507.152924	10945.776688
507.518164	10939.634042
507.883347	10860.024140
508.248472	10771.410738
508.613540	11014.079281
508.978550	10892.302648
509.343503	10872.944617
509.708398	10997.304842
510.073236	11097.636406
510.438016	11109.198292
510.802738	11056.646784
511.167403	11113.037131
511.532010	11008.481080
511.896561	11234.153373
512.261053	11306.486369
512.625488	11177.173211
512.989866	11153.331074
513.354186	11141.486883
513.718449	11041.727489
514.082655	11243.676112
514.446803	11138.270627
514.810894	11263.865934
515.174927	11124.878802
515.538904	11144.771195
515.902822	11304.543004
516.266684	11176.215392
516.630488	11126.449121
516.994235	11182.922647
517.357925	11247.464540
517.721558	11331.210708
518.085133	11350.604027
518.448651	11355.894718
518.812112	11241.669733
519.175516	11256.261353
519.538863	11375.625794
519.902152	11293.739811
520.265385	11452.967176
520.628560	11366.834022
520.991678	11348.597647
521.354739	11405.446739
521.717743	11342.828047
522.080690	11324.763072
522.443580	11453.274687
522.806413	11402.943807
523.169189	11442.418562
523.531908	11492.608289
523.894569	11312.223202
524.257174	11323.381796
524.619722	11444.248501
524.982213	11386.310519
525.344647	11444.258583
525.707025	11389.211703
526.069345	11482.173101
526.431608	11402.585885
526.793815	11508.918943
527.155964	11300.903291
527.518057	11352.905313
527.880093	11302.781121
528.242072	11370.846780
528.603995	11270.784917
528.965860	11199.291273
529.327669	11251.268090
529.689421	11203.072139
530.051117	11169.790441
530.412755	11270.595874
530.774337	11165.339102
531.135862	11145.008129
531.497331	11164.081334
531.858743	11022.956753
532.220098	11185.836434
532.581396	11057.181147
532.942638	11038.198682
533.303824	10999.631334
533.664953	11023.826352
534.026025	10929.755901
534.387040	11029.548062
534.747999	11030.871365
535.108902	11092.131466
535.469748	10849.440238
535.830537	10950.918665
536.191270	10933.856879
536.551947	10948.322470
536.912567	10954.709612
537.273131	10883.157995
537.633638	10859.693945
537.994089	10851.174395
538.354483	10789.369848
538.714821	10938.073805
539.075103	10941.390884
539.435328	10917.324415
539.795497	10742.043496
540.155609	10896.025540
540.515665	10983.164405
540.875665	10714.803621
541.235609	10789.339602
541.595496	10779.703436
541.955328	10946.837851
542.315102	10827.266723
542.674821	10770.946952
543.034483	10771.115830
543.394090	10776.023394
543.753640	10704.749040
544.113134	10930.575088
544.472571	10782.221492
544.831953	10926.348081
545.191278	10728.190405
545.550548	10765.888154
545.909761	10892.894984
546.268918	10877.723631
546.628019	10956.902514
546.987064	10823.458131
547.346053	10738.126520
547.704986	10838.959679
548.063863	10821.648357
548.422684	10817.698612
548.781449	10744.168342
549.140158	10837.129740
549.498811	10714.478467
549.857408	10577.278424
550.215949	10796.742536
550.574434	10652.205093
550.932864	10751.195711
551.291237	10812.770885
551.649555	10756.428429
552.007817	10768.950655
552.366022	10730.884902
552.724173	10730.020344
553.082267	10718.776051
553.440305	10846.390340
553.798288	10651.937912
554.156215	10807.364247
554.514086	10781.757706
554.871902	10632.035437
555.229661	10668.107413
555.587365	10644.048507
555.945014	10536.465242
556.302606	10660.434777
556.660143	10549.937726
557.017625	10705.157373
557.375050	10608.505851
557.732421	10738.688608
558.089735	10656.870681
558.446994	10657.926803
558.804197	10691.558861
559.161345	10689.300424
559.518437	10535.877948
559.875474	10626.374221
560.232455	10665.576754
560.589381	10605.042579
560.946251	10605.493762
561.303065	10714.254136
561.659825	10640.106324
562.016528	10580.681203
562.373177	10466.690632
562.729770	10575.282127
563.086307	10493.852369
563.442789	10581.628940
563.799216	10461.604108
564.155587	10513.331387
564.511904	10469.647269
564.868164	10459.128901
565.224370	10478.350821
565.580520	10402.773842
565.936615	10402.378112
566.292654	10272.069326
566.648638	10403.277958
567.004567	10361.663233
567.360441	10346.537251
567.716260	10251.496377
568.072023	10345.445841
568.427732	10301.063522
568.783385	10204.994253
569.138982	10281.579463
569.494525	10298.656371
569.850013	10172.453605
570.205445	10252.121480
570.560823	10145.115428
570.916145	10067.098531
571.271412	10138.445982
571.626625	10082.655532
571.981782	10059.793899
572.336884	10030.668633
572.691931	10037.002843
573.046923	9982.694492
573.401860	9938.798645
573.756743	9873.767761
574.111570	9919.107898
574.466342	9899.651565
574.821059	9927.244321
575.175722	9823.454525
575.530330	9833.705711
575.884882	9825.838990
576.239380	9750.350232
576.593823	9731.713086
576.948211	9742.463347
577.302544	9632.472932
577.656823	9642.008274
578.011047	9641.965424
578.365216	9619.023133
578.719330	9536.285196
579.073389	9547.363131
579.427394	9499.368826
579.781344	9475.675403
580.135239	9425.866283
580.489080	9432.402138
580.842866	9336.453857
581.196597	9345.588428
581.550273	9381.317606
581.903895	9349.487761
582.257463	9414.564016
582.610975	9293.977095
582.964434	9323.964399
583.317837	9242.217048
583.671186	9219.078152
584.024481	9219.234428
584.377721	9133.870049
584.730906	9116.563768
585.084037	9150.470568
585.437113	9085.603521
585.790135	9103.968445
586.143103	9003.173094
586.496016	8972.190163
586.848874	9032.316005
587.201679	9021.848049
587.554428	8900.973782
587.907124	8952.494375
588.259765	8918.169158
588.612352	8925.292308
588.964884	8800.012074
589.317362	8820.892533
589.669786	8819.455804
590.022155	8867.150161
590.374470	8885.782265
590.726731	8824.317997
591.078937	8675.165378
591.431090	8789.062687
591.783188	8664.498297
592.135232	8652.855752
592.487222	8655.391452
592.839157	8705.702167
593.191038	8636.219944
593.542866	8581.180626
593.894639	8479.659350
594.246358	8535.679172
594.598022	8550.348929
594.949633	8446.480996
595.301190	8420.496368
595.652692	8453.314280
596.004141	8562.251094
596.355535	8338.421342
596.706876	8315.864699
597.058162	8253.843384
597.409395	8330.080753
597.760573	8387.774238
598.111698	8301.257956
598.462768	8286.263044
598.813785	8254.236594
599.164748	8218.668733
599.515657	8210.169347
599.866511	8123.196841
600.217312	8249.238290
600.568060	8104.378213
600.918753	8211.984163
601.269392	8175.874378
601.619978	8085.564627
601.970510	8161.174373
602.320988	8154.998960
602.671412	8207.232875
603.021783	8145.745922
603.372100	8120.207436
603.722363	8115.073021
604.072572	8092.750792
604.422728	8107.125642
604.772830	8030.603447
605.122878	8038.732308
605.472872	8041.565436
605.822813	8062.576966
606.172701	8012.304059
606.522534	8086.083866
606.872314	8081.135973
607.222041	8056.794762
607.571714	8104.506763
607.921333	8069.027122
608.270899	8077.765962
608.620411	8169.313316
608.969870	8072.520642
609.319276	8068.770023
609.668627	8076.291425
610.017926	8114.705017
610.367171	8160.387953
610.716362	8140.745097
611.065500	8129.901575
611.414585	8153.267323
611.763616	8141.637381
612.112594	8125.230946
612.461518	8139.583111
612.810389	8197.695012
613.159207	8139.729305
613.507971	8093.201975
613.856682	8207.071558
614.205340	8163.815938
614.553945	8239.551712
614.902496	8143.386662
615.250994	8198.446144
615.599439	8182.800923
615.947830	8193.261317
616.296169	8165.214858
616.644454	8175.692896
616.992686	8171.037391
617.340864	8232.504179
617.688990	8136.402143
618.037063	8232.557112
618.385082	8174.349429
618.733048	8260.956452
619.080961	8198.294909
619.428821	8220.458342
619.776628	8221.690904
620.124382	8168.940271
620.472083	8153.552148
620.819731	8186.465842
621.167326	8076.324192
621.514868	8085.335255
621.862357	7975.594377
622.209793	7991.610122
622.557176	7922.682426
622.904506	7895.911378
623.251783	7828.254052
623.599007	7781.860314
623.946179	7791.471273
624.293297	7741.271463
624.640363	7660.282806
624.987376	7642.656412
625.334336	7589.588185
625.681243	7537.369393
626.028097	7533.303703
626.374899	7503.346646
626.721647	7498.860019
627.068343	7431.661438
627.414987	7402.334526
627.761577	7355.996240
628.108115	7395.140799
628.454600	7289.576517
628.801032	7337.192736
629.147412	7300.397354
629.493739	7284.971423
629.840014	7224.989254
630.186236	7279.370701
630.532405	7164.777712
630.878521	7217.387194
631.224585	7173.196439
631.570597	7096.691889
631.916556	7129.645911
632.262462	7128.957794
632.608316	7091.602844
632.954117	7063.523617
633.299866	7056.445837
633.645562	7046.847480
633.991206	6964.351518
634.336797	6910.176758
634.682336	6866.976590
635.027823	6835.968453
635.373257	6826.687689
635.718639	6754.705053
636.063968	6771.643330
636.409245	6668.609707
636.754470	6662.323388
637.099642	6619.430731
637.444762	6567.118677
637.789829	6578.922539
638.134845	6521.460947
638.479808	6502.831363
638.824719	6506.841601
639.169577	6432.945847
639.514383	6452.626512
639.859137	6383.187138
640.203839	6388.883642
640.548489	6382.204113
640.893086	6353.023394
641.237632	6326.612789
641.582125	6344.949986
641.926566	6316.933773
642.270955	6329.559343
642.615292	6320.860832
642.959576	6336.501012
643.303809	6326.562377
643.647990	6334.991187
643.992118	6322.184135
644.336195	6272.891733
644.680219	6300.928110
645.024192	6289.905627
645.368112	6385.483383
645.711981	6408.007259
646.055797	6483.329659
646.399562	6442.067815
646.743274	6564.245219
647.086935	6616.519464
647.430544	6613.464525
647.774101	6634.362628
648.117606	6636.454707
648.461059	6632.472196
648.804460	6594.557677
649.147810	6500.406568
649.491108	6474.066539
649.834354	6449.478311
650.177548	6361.842892
650.520690	6281.693587
650.863781	6258.922696
651.206820	6281.398680
651.549807	6199.429518
651.892742	6139.180168
652.235626	6145.867259
652.578458	6130.738756
652.921238	6039.415734
653.263967	6079.873514
653.606644	6021.628022
653.949269	6024.256984
654.291843	5962.870854
654.634365	6012.153174
654.976836	5968.038036
655.319255	5967.329754
655.661622	5939.953768
656.003938	5939.232883
656.346203	5905.147122
656.688416	5930.592346
657.030577	5887.495521
657.372687	5853.515624
657.714746	5842.513306
658.056753	5882.968565
658.398708	5826.293393
658.740612	5814.514737
659.082465	5863.630699
659.424266	5856.903279
659.766016	5856.252970
660.107715	5831.672304
660.449362	5849.361713
660.790958	5838.165310
661.132503	5828.153579
661.473996	5864.767479
661.815438	5850.352300
662.156829	5849.792732
662.498168	5837.126833
662.839456	5815.396939
663.180693	5854.947312
663.521879	5850.455643
663.863013	5836.179096
664.204097	5860.820256
664.545129	5903.478500
664.886110	5894.989197
665.227040	5931.240134
665.567918	5893.461727
665.908746	5926.808960
666.249522	5930.060504
666.590248	5913.333955
666.930922	5944.876455
667.271545	5952.339883
667.612118	5959.110153
667.952639	5928.669145
668.293109	5952.710408
668.633528	5910.268934
668.973896	5914.180869
669.314213	5902.205608
669.654480	5892.329988
669.994695	5881.267176
670.334859	5869.047419
670.674973	5860.273291
671.015035	5868.694538
671.355047	5864.200349
671.695008	5849.422207
672.034918	5826.444628
672.374777	5840.902657
672.714585	5820.107897
673.054342	5826.928578
673.394049	5817.622608
673.733705	5850.682495
674.073310	5837.061298
674.412864	5796.706861
674.752368	5787.625223
675.091820	5789.364421
675.431223	5731.403754
675.770574	5731.204629
676.109875	5682.149161
676.449125	5687.349111
676.788324	5652.507176
677.127473	5597.684628
677.466571	5586.899079
677.805619	5580.716104
678.144616	5559.409667
678.483562	5545.788470
678.822458	5512.831926
679.161303	5509.056102
679.500098	5496.773331
679.838842	5482.317822
680.177535	5484.654397
680.516179	5494.832487
680.854771	5509.492162
681.193314	5590.140541
681.531805	5700.279670
681.870247	5848.897927
682.208638	5953.806859
682.546978	5962.936389
682.885268	5938.590136
683.223508	5855.360686
683.561697	5804.450073
683.899836	5772.322800
684.237925	5726.362600
684.575963	5690.721643
684.913951	5647.387884
685.251889	5714.989757
685.589776	5684.377351
685.927614	5653.528010
686.265401	5727.597683
686.603137	5708.443819
686.940824	5781.381753
687.278460	5809.007277
687.616046	5818.154450
687.953582	5886.610799
688.291068	5866.594898
688.628504	5927.429022
688.965889	5891.278907
689.303224	5835.070042
689.640510	5789.939112
689.977745	5713.923553
690.314930	5617.710612
690.652065	5557.204162
690.989150	5468.615966
691.326185	5391.428339
691.663170	5338.042520
692.000105	5261.764821
692.336990	5186.782698
692.673825	5161.445859
693.010610	5090.080765
693.347345	5021.377400
693.684030	5004.565152
694.020665	4967.512671
694.357251	4879.922623
694.693786	4885.609044
695.030272	4855.120146
695.366707	4816.580525
695.703093	4779.747334
696.039429	4804.726251
696.375716	4790.185043
696.711952	4761.170682
697.048139	4750.085185
697.384276	4731.069952
697.720363	4743.750975
698.056400	4754.115587
698.392388	4698.007545
698.728326	4684.391388
699.064214	4662.011186
699.400053	4650.456861
699.735842	4619.143734
700.071581	4597.804530
700.407270	4570.010128
700.742910	4551.814083
701.078501	4495.983305
701.414042	4498.042616
701.749533	4467.712514
702.084974	4402.444695
702.420366	4458.547696
702.755709	4401.476793
703.091002	4345.088967
703.426246	4395.001431
703.761440	4351.786140
704.096584	4311.361127
704.431679	4336.950024
704.766725	4317.518897
705.101721	4303.932987
705.436668	4334.749561
705.771565	4280.930202
706.106413	4308.855674
706.441212	4340.632587
706.775961	4350.543496
707.110661	4333.738809
707.445311	4360.056153
707.779913	4383.000965
708.114465	4400.221546
708.448967	4421.722067
708.783421	4478.838340
709.117825	4521.264691
709.452180	4523.850803
709.786485	4567.398811
710.120742	4656.039939
710.454949	4638.065705
710.789107	4706.388463
711.123216	4781.988127
711.457275	4771.883134
711.791286	4846.729145
712.125247	4860.224314
712.459159	4767.618318
712.793023	4841.929967
713.126837	4799.919511
713.460602	4791.699910
713.794318	4710.035738
714.127985	4717.597469
714.461602	4632.654027
714.795171	4604.534470
715.128691	4540.811765
715.462162	4483.098115
715.795584	4433.465435
716.128957	4418.682252
716.462281	4362.675032
716.795556	4337.383563
717.128782	4301.543480
717.461960	4230.627048
717.795088	4244.422166
718.128167	4198.550187
718.461198	4144.277124
718.794180	4139.941732
719.127113	4118.300058
719.459997	4097.059157
719.792833	4055.361253
720.125619	4048.157444
720.458357	4007.003984
720.791046	4014.048997
721.123686	3987.333402
721.456278	3945.882515
721.788821	3962.283909
722.121315	3936.808438
722.453761	3910.849016
722.786158	3923.343516
723.118506	3944.453347
723.450805	3897.328641
723.783056	3917.379831
724.115259	3935.500258
724.447412	3939.714663
724.779518	3935.850618
725.111574	3938.136782
725.443582	3965.570741
725.775542	3956.141263
726.107453	4005.819313
726.439315	4004.102800
726.771129	4018.381869
727.102895	4053.092733
727.434612	4100.545115
727.766281	4110.329994
728.097901	4114.695633
728.429473	4118.826859
728.760996	4124.659474
729.092471	4124.982108
729.423897	4105.916464
729.755276	4113.165643
730.086606	4112.943833
730.417887	4148.851971
730.749120	4218.039287
731.080305	4279.087660
731.411442	4305.205878
731.742530	4274.354017
732.073570	4279.581693
732.404562	4335.019262
732.735506	4327.432326
733.066401	4288.650729
733.397249	4223.791244
733.728048	4146.512876
734.058798	4060.067170
734.389501	3992.717354
734.720156	3927.588167
735.050762	3882.013616
735.381320	3879.092267
735.711831	3829.474711
736.042293	3800.896409
736.372707	3821.131601
736.703073	3791.003145
737.033391	3783.406126
737.363661	3801.639980
737.693883	3829.053774
738.024056	3836.940659
738.354182	3829.736851
738.684260	3894.414854
739.014290	3912.343718
739.344272	3911.310282
739.674207	3951.407619
740.004093	3955.369966
740.333931	3952.123463
740.663722	3953.529945
740.993464	3950.144810
741.323159	3925.029782
741.652806	3896.088517
741.982405	3871.401987
742.311956	3837.467460
742.641460	3831.309691
742.970915	3807.071823
743.300323	3763.760750
743.629683	3729.458218
743.958996	3717.278791
744.288260	3695.269113
744.617477	3660.540604
744.946647	3646.937050
745.275768	3620.458390
745.604842	3617.902525
745.933869	3572.779157
746.262847	3563.624421
746.591778	3603.293261
746.920662	3568.781522
747.249498	3541.072820
747.578286	3588.147114
747.907027	3604.672017
748.235720	3605.491204
748.564365	3629.033392
748.892963	3625.101292
749.221514	3609.834158
749.550017	3586.153338
749.878473	3582.924479
750.206881	3555.989594
750.535242	3551.296280
750.863555	3551.936506
751.191821	3547.969118
751.520039	3532.036551
751.848210	3507.861698
752.176334	3543.706822
752.504411	3546.764282
752.832440	3504.973117
753.160421	3486.328409
753.488356	3497.169411
753.816243	3512.701206
754.144082	3467.905513
754.471875	3451.312555
754.799620	3473.937253
755.127318	3463.179431
755.454969	3464.439719
755.782572	3469.828713
756.110129	3448.055969
756.437638	3434.016356
756.765100	3449.621248
757.092515	3458.511323
757.419882	3467.169504
757.747203	3441.084054
758.074477	3442.724949
758.401703	3459.693473
758.728882	3477.420691
759.056014	3485.720950
759.383099	3492.821416
759.710138	3486.872854
760.037129	3503.566635
760.364073	3534.035369
760.690970	3518.372504
761.017820	3496.589678
761.344623	3514.316896
761.671379	3560.866910
761.998088	3613.098305
762.324751	3736.399887
762.651366	3985.450531
762.977935	4458.335968
763.304456	4904.457918
763.630931	4998.263709
763.957359	4635.429182
764.283740	4291.796409
764.610074	4098.727779
764.936362	3906.664858
765.262602	3748.705344
765.588796	3636.602685
765.914943	3544.581463
766.241044	3457.006538
766.567097	3426.792383
766.893104	3380.633057
767.219064	3347.356401
767.544978	3321.684325
767.870845	3266.312291
768.196665	3249.391658
768.522438	3258.695107
768.848165	3251.047677
769.173846	3212.114846
769.499479	3201.440203
769.825066	3181.878005
770.150607	3165.438802
770.476101	3181.147038
770.801548	3176.027746
771.126949	3129.480252
771.452303	3113.895525
771.777611	3120.073459
772.102872	3127.723410
772.428087	3102.111828
772.753256	3090.895261
773.078378	3082.491657
773.403453	3049.623334
773.728482	3039.440203
774.053465	3059.390570
774.378401	3047.432953
774.703291	3013.868950
775.028135	3019.714168
775.352932	3011.459279
775.677683	2999.990654
776.002388	2992.983450
776.327046	2998.758092
776.651658	2985.605721
776.976224	2974.104329
777.300743	2976.715647
777.625216	2966.262814
777.949643	2959.789973
778.274024	2964.581589
778.598359	2951.809826
778.922647	2961.231743
779.246889	2955.313428
779.571086	2940.149637
779.895236	2934.299378
780.219339	2948.175154
780.543397	2960.548666
780.867409	2961.138481
781.191374	2956.044395
781.515294	2952.646658
781.839167	2952.429888
782.162995	2944.555606
782.486776	2954.978191
782.810511	2949.049794
783.134201	2935.975562
783.457844	2946.491409
783.781441	2935.405911
784.104993	2914.044022
784.428498	2913.870102
784.751958	2926.984664
785.075372	2923.362595
785.398739	2907.394740
785.722061	2924.998449
786.045337	2935.443720
786.368568	2918.427305
786.691752	2912.355235
787.014891	2959.825261
787.337983	2989.772235
787.661030	3015.756863
787.984031	3082.453848
788.306987	3131.620222
788.629897	3124.741567
788.952760	3106.386726
789.275579	3093.559510
789.598351	3030.078781
789.921078	2988.852224
790.243759	2978.626244
790.566395	2959.931125
790.888984	2935.743669
791.211529	2922.268664
791.534027	2909.824576
791.856480	2901.383164
792.178888	2885.937069
792.501249	2879.711244
792.823566	2877.127652
793.145836	2872.643546
793.468062	2869.533154
793.790241	2868.119110
794.112375	2871.690768
794.434464	2882.302397
794.756507	2888.482851
795.078505	2894.068450
795.400457	2913.116450
795.722364	2947.184567
796.044226	2970.971252
796.366042	2972.879328
796.687812	2963.275930
797.009538	2983.208653
797.331218	2968.085191
797.652852	2952.936524
797.974442	2936.517486
798.295986	2933.707043
798.617484	2927.597164
798.938938	2914.719537
799.260346	2896.803276
799.581709	2891.114334
799.903026	2887.106616
800.224299	2876.053887
800.545526	2869.293699
800.866708	2852.582274
801.187845	2842.328567
801.508936	2847.304186
801.829983	2852.902387
802.150984	2838.260356
802.471940	2824.979436
802.792851	2828.296516
803.113717	2825.339879
803.434538	2830.799448
803.755314	2825.733089
804.076045	2817.901656
804.396731	2815.383600
804.717372	2819.673622
805.037967	2812.792447
805.358518	2821.027172
805.679024	2829.743327
805.999485	2828.530929
806.319901	2830.675940
806.640272	2824.377018
806.960598	2828.674602
807.280879	2837.715912
807.601115	2843.757734
807.921306	2833.125941
808.241453	2828.409942
808.561554	2833.113338
808.881611	2836.921930
809.201623	2832.765498
809.521590	2832.672237
809.841513	2827.739468
810.161390	2828.707370
810.481223	2824.802996
810.801011	2813.727581
811.120755	2811.615337
811.440453	2813.483085
811.760107	2814.975267
812.079716	2811.448979
812.399281	2801.613688
812.718801	2796.431382
813.038276	2792.279992
813.357707	2797.089253
813.677093	2801.512865
813.996434	2799.940025
814.315731	2797.137144
814.634983	2789.076339
814.954191	2792.285033
815.273354	2804.378761
815.592473	2815.839824
815.911547	2813.467962
816.230577	2822.133705
816.549562	2828.276351
816.868502	2829.723162
817.187399	2840.796057
817.506250	2852.869620
817.825058	2850.245699
818.143821	2861.205168
818.462539	2879.126470
818.781213	2906.348701
819.099843	2939.678289
819.418429	3000.940911
819.736970	3063.098338
820.055466	3136.986530
820.373919	3244.353025
820.692327	3383.052811
821.010691	3549.715878
821.329011	3993.428157
821.647286	4895.313265
821.965517	6279.929184
822.283704	7027.078595
822.601847	7007.597056
822.919945	6370.364963
823.237999	5862.640112
823.556010	5273.152787
823.873976	4725.237337
824.191897	4313.417918
824.509775	4015.190818
824.827609	3746.484715
825.145398	3624.335037
825.463144	3610.179477
825.780845	3701.356306
826.098502	3810.172133
826.416116	4091.244186
826.733685	4410.082043
827.051210	4474.545798
827.368692	4355.178837
827.686129	4090.964402
828.003522	3763.332252
828.320872	3505.714167
828.638177	3309.230154
828.955439	3172.524144
829.272656	3088.009200
829.589830	3019.147038
829.906960	2971.016622
830.224046	2925.227822
830.541088	2889.029817
830.858086	2875.653115
831.175041	2855.823736
831.491952	2862.354551
831.808819	2874.402909
832.125642	2894.597771
832.442421	2940.293310
832.759157	3022.766587
833.075849	3204.263249
833.392497	3487.200529
833.709101	3689.771735
834.025662	3637.293323
834.342179	3475.815083
834.658653	3304.085657
834.975083	3149.801143
835.291469	3053.467214
835.607811	2968.410346
835.924110	2912.309865
836.240366	2858.515712
836.556578	2816.049032
836.872746	2793.855352
837.188871	2771.124790
837.504952	2754.849425
837.820990	2746.072776
838.136984	2731.808831
838.452935	2725.709035
838.768842	2722.575958
839.084706	2741.608834
839.400526	2821.223777
839.716303	2955.545321
840.032037	3037.222096
840.347727	3018.353057
840.663373	2956.969447
840.978977	2882.022613
841.294537	2808.767086
841.610054	2763.063985
841.925527	2739.415932
842.240957	2719.243755
842.556344	2696.704756
842.871687	2680.716737
843.186987	2670.470592
843.502244	2666.571259
843.817458	2661.988850
844.132629	2650.610966
844.447756	2640.435397
844.762840	2634.469191
845.077881	2636.962042
845.392879	2634.857360
845.707833	2631.759571
846.022745	2625.271606
846.337613	2628.492903
846.652438	2624.573406
846.967221	2624.616256
847.281960	2623.229939
847.596656	2621.205916
847.911309	2618.176182
848.225919	2619.312962
848.540485	2617.288939
848.855009	2613.729884
849.169490	2614.677621
849.483928	2617.969495
849.798323	2613.208125
850.112675	2613.273660
850.426984	2612.993876
850.741251	2613.399689
851.055474	2611.295007
851.369654	2617.117540
851.683792	2613.097220
851.997887	2613.029164
852.311938	2609.767537
852.625947	2613.719802
852.939914	2616.530245
853.253837	2617.722478
853.567718	2610.548916
853.881555	2612.023454
854.195350	2614.705348
854.509103	2614.423043
854.822812	2612.061262
855.136479	2612.225100
855.450103	2614.740636
855.763685	2614.942282
856.077224	2610.942126
856.390720	2610.521190
856.704173	2613.215687
857.017584	2620.353961
857.330953	2620.724485
857.644278	2619.368415
857.957561	2620.001080
858.270802	2614.049998
858.584000	2615.184257
858.897155	2623.058540
859.210268	2623.981071
859.523339	2616.366408
859.836367	2613.427415
860.149352	2609.896087
860.462295	2612.840121
860.775195	2609.810387
861.088054	2608.562702
861.400869	2606.768051
861.713642	2606.984821
862.026373	2605.106991
862.339062	2612.945985
862.651708	2614.904473
862.964312	2616.870523
863.276873	2615.900101
863.589392	2618.004783
863.901869	2618.581995
864.214303	2626.476442
864.526696	2629.382667
864.839045	2630.181690
865.151353	2632.465333
865.463619	2632.268728
865.775842	2631.963738
866.088023	2631.885600
866.400162	2635.774850
866.712258	2632.251084
867.024313	2632.394757
867.336325	2628.268572
867.648296	2630.360651
867.960224	2636.747793
868.272110	2630.673202
868.583954	2627.824951
868.895755	2627.245218
869.207515	2635.250570
869.519233	2641.564615
869.830909	2637.574542
870.142542	2629.738068
870.454134	2635.152268
870.765684	2641.017650
871.077191	2640.899183
871.388657	2646.252888
871.700081	2644.438073
872.011463	2641.478916
872.322803	2643.875984
872.634101	2646.850265
872.945357	2655.367295
873.256571	2661.046154
873.567744	2659.067502
873.878874	2656.667912
874.189963	2656.839312
874.501010	2658.996925
874.812015	2667.700477
875.122979	2668.030673
875.433900	2657.746719
875.744780	2655.342089
876.055618	2661.089004
876.366415	2666.344407
876.677169	2669.699295
876.987882	2661.867862
877.298554	2660.907523
877.609183	2672.310613
877.919771	2679.711027
878.230317	2684.389217
878.540822	2695.134437
878.851285	2709.020295
879.161707	2732.368399
879.472087	2771.276024
879.782425	2821.523725
880.092722	2936.507403
880.402977	3127.499079
880.713191	3386.264026
881.023363	3677.614992
881.333494	3875.089591
881.643583	4046.698030
881.953631	4045.067217
882.263637	3862.779093
882.573602	3645.175167
882.883526	3513.013757
883.193408	3399.464288
883.503248	3296.864204
883.813048	3183.002182
884.122806	3068.169739
884.432522	2979.634475
884.742197	2915.831111
885.051831	2875.877446
885.361424	2841.524503
885.670975	2806.284317
885.980485	2774.729215
886.289954	2754.783890
886.599382	2742.206211
886.908768	2731.113152
887.218113	2711.727395
887.527417	2699.497555
887.836680	2690.219312
888.145901	2685.561286
888.455082	2675.932682
888.764221	2664.181752
889.073319	2658.220588
889.382376	2658.971720
889.691392	2659.188489
890.000366	2658.394507
890.309300	2656.282264
890.618193	2658.641524
890.927044	2662.162770
891.235855	2662.833243
891.544625	2660.116062
891.853353	2660.990702
892.162041	2667.055210
892.470687	2688.974147
892.779293	2700.019315
893.087858	2709.400902
893.396381	2732.895200
893.704864	2775.366921
894.013306	2845.554906
894.321707	2940.439503
894.630068	2990.629231
894.938387	3011.658404
895.246665	3004.293279
895.554903	2962.761733
895.863100	2912.640061
896.171256	2857.862883
896.479371	2797.111938
896.787446	2758.879827
897.095480	2737.354100
897.403473	2732.433934
897.711425	2716.009855
898.019336	2697.045034
898.327207	2679.380831
898.635038	2682.506346
898.942827	2679.663136
899.250576	2672.262722
899.558284	2656.935093
899.865952	2653.340751
900.173579	2651.911584
900.481165	2649.885040
900.788711	2639.444810
901.096216	2636.659573
901.403681	2631.376443
901.711105	2633.002216
902.018489	2628.147584
902.325832	2635.011115
902.633135	2637.909779
902.940397	2651.893940
903.247619	2688.893488
903.554800	2758.075763
903.861941	2887.542676
904.169041	3013.395082
904.476101	3076.404464
904.783121	3072.568146
905.090100	3011.061028
905.397039	2938.009667
905.703938	2860.325487
906.010796	2797.835343
906.317614	2748.449680
906.624391	2709.476519
906.931129	2682.831501
907.237826	2661.025990
907.544483	2643.185346
907.851099	2628.692029
908.157675	2616.487396
908.464211	2609.321395
908.770707	2600.920312
909.077163	2595.821185
909.383578	2590.948910
909.689954	2591.553849
909.996289	2588.055288
910.302584	2590.038982
910.608839	2586.868096
910.915054	2587.959506
911.221229	2588.813982
911.527363	2593.996288
911.833458	2588.602253
912.139513	2590.573344
912.445527	2594.374374
912.751502	2598.417380
913.057436	2602.790581
913.363331	2612.646036
913.669186	2620.356481
913.975000	2635.479943
914.280775	2651.349495
914.586510	2668.280210
914.892205	2707.039122
915.197859	2772.173350
915.503475	2859.826412
915.809050	2925.782349
916.114585	2941.803136
916.420081	2955.794858
916.725536	2966.439254
917.030952	2942.624844
917.336328	2892.359499
917.641665	2843.266222
917.946961	2793.036165
918.252218	2756.891092
918.557435	2731.435786
918.862612	2707.563402
919.167750	2692.455063
919.472848	2672.718946
919.777906	2656.090700
920.082925	2642.817342
920.387904	2633.665127
920.692843	2630.673202
920.997743	2625.198509
921.302603	2618.786162
921.607423	2611.892384
921.912204	2606.032043
922.216946	2603.854264
922.521647	2602.140272
922.826310	2594.510485
923.130932	2592.236925
923.435516	2587.568817
923.740059	2582.694021
924.044564	2581.048084
924.349028	2581.859710
924.653454	2573.113308
924.957840	2573.990469
925.262186	2570.325550
925.566493	2568.321691
925.870761	2565.811197
926.174989	2567.527709
926.479178	2565.173491
926.783328	2561.548901
927.087438	2563.648542
927.391509	2561.697615
927.695541	2559.928170
927.999533	2560.212995
928.303486	2556.845504
928.607400	2559.625701
928.911275	2556.575803
929.215110	2557.495813
929.518906	2554.103117
929.822663	2552.832746
930.126381	2557.006821
930.430060	2556.152346
930.733699	2555.938097
931.037299	2559.935732
931.340861	2557.480690
931.644383	2556.878272
931.947866	2557.115206
932.251309	2555.479352
932.554714	2557.732748
932.858080	2558.924980
933.161407	2557.067315
933.464694	2555.060936
933.767943	2555.686039
934.071153	2557.652089
934.374323	2552.535318
934.677455	2553.961964
934.980548	2549.399720
935.283602	2552.285781
935.586617	2553.563713
935.889593	2551.005328
936.192530	2552.802499
936.495428	2557.142933
936.798287	2555.048333
937.101108	2556.684187
937.403890	2556.348951
937.706632	2563.789694
938.009336	2565.022256
938.312002	2568.717422
938.614628	2570.920406
938.917216	2578.192270
939.219765	2575.190263
939.522275	2575.308730
939.824747	2577.279822
940.127179	2572.450396
940.429573	2568.898903
940.731929	2568.563667
941.034246	2564.545867
941.336524	2568.503173
941.638763	2572.082392
941.940964	2565.889334
942.243126	2564.132492
942.545250	2563.197358
942.847335	2562.501679
943.149381	2558.980433
943.451389	2562.181566
943.753359	2560.321380
944.055290	2556.169990
944.357182	2557.528581
944.659036	2557.946997
944.960851	2556.643858
945.262628	2556.931204
945.564367	2555.832233
945.866067	2559.161915
946.167729	2557.808365
946.469352	2556.283416
946.770937	2557.147974
947.072484	2557.490772
947.373992	2554.871893
947.675462	2558.385577
947.976893	2558.015052
948.278286	2552.981460
948.579641	2552.999104
948.880958	2553.525905
949.182236	2555.560010
949.483476	2554.433312
949.784678	2552.991542
950.085841	2552.893240
950.386967	2557.465566
950.688054	2554.355174
950.989103	2553.213353
951.290114	2554.629917
951.591087	2559.540001
951.892021	2559.426575
952.192917	2562.330280
952.493776	2560.086966
952.794596	2560.966648
953.095378	2562.834395
953.396122	2561.014539
953.696828	2559.101421
953.997496	2560.084446
954.298126	2555.065977
954.598718	2557.372305
954.899272	2555.023127
955.199788	2554.259392
955.500266	2551.980791
955.800706	2548.320913
956.101108	2545.623896
956.401472	2545.152548
956.701798	2542.914276
957.002087	2544.424101
957.302337	2546.032229
957.602550	2543.128525
957.902724	2543.879657
958.202861	2541.046528
958.502960	2542.251364
958.803022	2544.570295
959.103045	2542.654656
959.403031	2541.827907
959.702979	2539.980324
960.002889	2541.769934
960.302762	2539.632485
960.602596	2541.948895
960.902393	2538.498225
961.202153	2538.629295
961.501875	2537.973945
961.801559	2536.784233
962.101205	2538.450334
962.400814	2538.258770
962.700385	2541.815304
962.999918	2540.678524
963.299414	2537.215251
963.598873	2540.363452
963.898293	2539.670293
964.197677	2540.078627
964.497022	2537.495035
964.796331	2537.001002
965.095601	2538.951929
965.394835	2541.502753
965.694030	2539.541744
965.993189	2537.772299
966.292309	2538.102494
966.591393	2539.589635
966.890439	2538.495704
967.189447	2537.230375
967.488419	2535.271887
967.787353	2538.029398
968.086249	2537.573173
968.385108	2537.273225
968.683930	2538.122659
968.982714	2537.134593
969.281462	2542.062321
969.580172	2538.594007
969.878844	2538.089892
970.177480	2538.467978
970.476078	2537.686599
970.774639	2540.857485
971.073162	2538.397402
971.371649	2535.718029
971.670098	2535.506300
971.968510	2538.755324
972.266885	2534.803059
972.565223	2538.130221
972.863524	2536.257432
973.161788	2541.475026
973.460014	2540.512166
973.758204	2540.272711
974.056356	2539.907227
974.354471	2540.466796
974.652550	2539.617361
974.950591	2538.316743
975.248595	2538.616692
975.546563	2539.264480
975.844493	2538.069727
976.142386	2539.655170
976.440243	2537.810108
976.738062	2536.486805
977.035845	2538.846065
977.333590	2537.550488
977.631299	2536.118800
977.928971	2537.502597
978.226606	2535.198790
978.524204	2536.380940
978.821765	2536.741383
979.119290	2537.295910
979.416777	2536.892617
979.714228	2534.992103
980.011642	2536.428831
980.309020	2538.586445
980.606360	2537.822710
980.903664	2536.668286
981.200931	2538.780530
981.498162	2538.989738
981.795356	2540.237423
982.092513	2543.922507
982.389633	2547.058104
982.686717	2547.501726
982.983764	2550.110523
983.280775	2555.759136
983.577749	2550.740667
983.874686	2552.071532
984.171587	2549.704710
984.468451	2547.347971
984.765279	2545.069369
985.062070	2542.667259
985.358824	2540.665921
985.655543	2541.023843
985.952224	2540.194573
986.248869	2534.999664
986.545478	2533.326001
986.842050	2536.869932
987.138586	2531.952287
987.435086	2532.315250
987.731549	2532.380785
988.027975	2535.042514
988.324366	2532.297606
988.620719	2532.312729
988.917037	2536.902700
989.213318	2537.026208
989.509563	2535.637370
989.805772	2535.085364
990.101944	2534.306506
990.398080	2535.629808
990.694180	2531.480939
990.990244	2533.920857
991.286271	2533.643594
991.582262	2534.671989
991.878217	2533.928419
992.174136	2534.452699
992.470019	2531.836340
992.765865	2535.060158
993.061676	2532.342976
993.357450	2534.689633
993.653188	2536.423790
993.948890	2532.254756
994.244556	2534.941691
994.540186	2535.297092
994.835780	2536.524613
995.131337	2536.388502
995.426859	2536.547298
995.722345	2533.804911
996.017795	2537.416898
996.313208	2536.766589
996.608586	2536.398584
996.903928	2537.815149
997.199234	2540.534851
997.494504	2539.342618
997.789738	2537.575694
998.084936	2537.762217
998.380099	2533.510003
998.675225	2537.129552
998.970316	2533.620909
999.265371	2536.408667
999.560390	2535.213913
999.855373	2534.868594
1000.150320	2531.246525
1000.445232	2534.452699
1000.740108	2534.545960
1001.034948	2534.276259
1001.329752	2533.976310
1001.624521	2534.051927
1001.919254	2527.735362
1002.213951	2530.233253
1002.508613	2531.395239
1002.803239	2529.683767
1003.097829	2527.011956
1003.392384	2532.196783
1003.686903	2532.874818
1003.981386	2533.270548
1004.275834	2533.222657
1004.570246	2534.858512
1004.864623	2534.515713
1005.158964	2532.879859
1005.453270	2532.572349
1005.747540	2533.225178
1006.041775	2532.569828
1006.335974	2532.123686
1006.630138	2531.475898
1006.924266	2535.750796
1007.218359	2531.319622
1007.512416	2533.522606
1007.806438	2533.268028
1008.100425	2530.689478
1008.394376	2533.671320
1008.688292	2530.581093
1008.982172	2534.208203
1009.276017	2532.814324
1009.569827	2530.427338
1009.863602	2534.591331
1010.157341	2531.632173
1010.451045	2532.123686
1010.744714	2531.911958
1011.038347	2533.651156
1011.331945	2531.617050
1011.625508	2532.358100
1011.919036	2529.305681
1012.212528	2533.406660
1012.505986	2532.269879
1012.799408	2531.899355
1013.092795	2531.047400
1013.386147	2531.269210
1013.679464	2531.634694
1013.972745	2529.751823
1014.265992	2533.121834
1014.559204	2529.202337
1014.852380	2531.690147
1015.145521	2533.381454
1015.438628	2530.790301
1015.731699	2533.240302
1016.024736	2528.786442
1016.317737	2531.591844
1016.610703	2531.967410
1016.903635	2528.105886
1017.196531	2529.391381
1017.489393	2531.065044
1017.782219	2527.067409
1018.075011	2531.191073
1018.367768	2530.260980
1018.660490	2530.971782
1018.953177	2530.971782
1019.245829	2530.971782
