Dividing Wavelength (nm)	Counts (n)	Blue Motor Position (mm): 47.700000	Red Motor Position (mm): 0.000000	
326.493990	2131.611575
326.888308	2131.611575
327.282561	2131.611575
327.676750	2096.878025
328.070874	2095.998343
328.464933	2101.974631
328.858929	2107.310693
329.252859	2116.170520
329.646726	2125.002622
330.040528	2142.238327
330.434265	2154.977323
330.827938	2173.609427
331.221547	2192.463343
331.615091	2214.709955
332.008571	2231.875083
332.401986	2252.551376
332.795338	2270.684406
333.188625	2287.814247
333.581847	2308.707309
333.975006	2326.739517
334.368100	2346.042095
334.761129	2363.741586
335.154095	2377.153576
335.546996	2398.104611
335.939833	2423.930442
336.332606	2439.187494
336.725315	2453.824484
337.117960	2465.056175
337.510540	2470.470374
337.903056	2482.438074
338.295508	2492.185145
338.687896	2496.694457
339.080220	2508.276508
339.472480	2512.697600
339.864676	2515.510563
340.256807	2519.276305
340.648875	2525.623118
341.040879	2528.826771
341.432818	2530.112266
341.824694	2530.747451
342.216506	2531.720394
342.608253	2532.436238
342.999937	2530.122348
343.391557	2531.954807
343.783113	2531.750641
344.174605	2529.714014
344.566033	2527.369878
344.957397	2523.684794
345.348697	2523.480628
345.739934	2521.806965
346.131106	2519.238497
346.522215	2519.246058
346.913260	2517.247241
347.304241	2518.812519
347.695159	2516.531397
348.086012	2512.546365
348.476802	2511.248268
348.867528	2507.570746
349.258191	2507.238030
349.648789	2506.650736
350.039324	2505.919768
350.429796	2505.950015
350.820203	2501.334839
351.210548	2503.275683
351.600828	2500.886176
351.991045	2499.068840
352.381198	2501.647390
352.771288	2499.751917
353.161314	2502.169150
353.551276	2502.020436
353.941175	2498.176556
354.331010	2501.125631
354.720782	2498.894920
355.110490	2500.669407
355.500135	2500.278717
355.889717	2499.235198
356.279235	2496.659169
356.668689	2502.466578
357.058080	2501.236536
357.447408	2499.426762
357.836672	2497.574138
358.225873	2500.896258
358.615010	2499.134375
359.004084	2504.367093
359.393095	2505.037566
359.782043	2506.202073
360.170927	2503.797442
360.559748	2506.348266
360.948505	2507.328771
361.337199	2507.626199
361.725830	2505.760972
362.114398	2507.016219
362.502903	2509.020078
362.891344	2509.229286
363.279722	2510.030829
363.668037	2510.270284
364.056289	2511.623834
364.444478	2512.599297
364.832603	2514.141890
365.220665	2511.230624
365.608665	2514.547703
365.996601	2514.013341
366.384474	2513.410923
366.772284	2514.978722
367.160031	2513.322703
367.547715	2516.445698
367.935336	2514.257837
368.322893	2516.216325
368.710388	2518.893178
369.097820	2520.849145
369.485189	2518.719258
369.872495	2521.996008
370.259738	2524.617408
370.646918	2524.503982
371.034035	2530.389529
371.421090	2533.613347
371.808081	2538.029398
372.195010	2543.161292
372.581875	2551.736295
372.968678	2561.624518
373.355418	2564.288768
373.742096	2575.616241
374.128710	2588.388004
374.515262	2600.557349
374.901751	2609.228134
375.288177	2620.585854
375.674540	2638.086219
376.060841	2653.582726
376.447079	2668.655776
376.833254	2687.837367
377.219367	2698.577545
377.605417	2728.854715
377.991404	2741.997003
378.377329	2761.223964
378.763191	2779.709875
379.148991	2814.962664
379.534727	2839.238340
379.920402	2867.814121
380.306013	2880.984135
380.691563	2929.870724
381.077049	2955.189920
381.462474	2975.246150
381.847835	3014.494053
382.233134	3043.571429
382.618371	3049.993859
383.003545	3116.171606
383.388657	3130.629635
383.773706	3168.047600
384.158693	3186.425126
384.543618	3218.900239
384.928480	3258.760642
385.313280	3307.198569
385.698017	3311.445741
386.082692	3369.010677
386.467305	3383.670353
386.851856	3412.916607
387.236344	3440.441307
387.620770	3480.503356
388.005133	3509.174919
388.389435	3536.576110
388.773674	3555.019172
389.157851	3598.211778
389.541965	3619.934110
389.926018	3585.598811
390.310008	3658.559431
390.693936	3680.092719
391.077802	3722.743401
391.461606	3713.266032
391.845348	3778.014612
392.229027	3776.459416
392.612645	3790.897281
392.996200	3868.425186
393.379694	3910.556629
393.763125	3976.268069
394.146494	3943.437555
394.529801	4005.055578
394.913047	4053.306982
395.296230	4020.332795
395.679351	4073.728697
396.062410	4095.325000
396.445408	4081.134152
396.828343	4113.606744
397.211217	4138.457112
397.594028	4060.024320
397.976778	4123.424391
398.359466	4151.047394
398.742092	4183.260367
399.124656	4102.175928
399.507158	4177.488246
399.889598	4207.417576
400.271977	4271.190693
400.654294	4239.381012
401.036549	4250.133793
401.418742	4218.556006
401.800874	4319.731963
402.182944	4342.225592
402.564952	4406.860746
402.946898	4395.878592
403.328783	4388.682345
403.710606	4304.164880
404.092367	4495.295187
404.474067	4461.642965
404.855705	4466.734530
405.237282	4396.624683
405.618797	4504.270962
406.000250	4540.842012
406.381642	4620.320844
406.762972	4583.822890
407.144240	4596.715641
407.525447	4593.499385
407.906593	4648.715143
408.287677	4695.184499
408.668700	4623.060711
409.049661	4673.525181
409.430560	4715.482705
409.811399	4646.365965
410.192176	4807.481242
410.572891	4745.979165
410.953545	4845.403322
411.334138	4725.159200
411.714669	4793.267709
412.095139	4687.579918
412.475547	4831.956044
412.855894	4811.856963
413.236180	4818.791071
413.616405	4773.609729
413.996568	4863.130539
414.376670	4804.625428
414.756711	4762.856948
415.136691	4794.437256
415.516609	4874.344586
415.896466	4906.779370
416.276262	4940.595430
416.655997	4920.710598
417.035670	5104.702632
417.415283	5192.844686
417.794834	5140.013394
418.174324	5092.845838
418.553753	5000.282691
418.933121	5179.072254
419.312428	5250.540692
419.691674	5189.797308
420.070859	5316.993182
420.449983	5231.059153
420.829045	5346.249518
421.208047	5252.496659
421.586988	5319.939736
421.965867	5335.007745
422.344686	5465.881140
422.723444	5319.743131
423.102141	5138.705214
423.480777	5440.889620
423.859352	5204.053692
424.237866	5469.921625
424.616319	5459.438545
424.994712	5569.539866
425.373044	5443.274086
425.751314	5588.451755
426.129524	5388.582607
426.507673	5582.427576
426.885762	5668.631307
427.263789	5596.941058
427.641756	5482.877390
428.019662	5604.182675
428.397508	5610.925218
428.775292	5553.685437
429.153016	5656.900542
429.530679	5582.951856
429.908282	5665.823384
430.285824	5538.766142
430.663305	5816.974820
431.040726	5540.384353
431.418086	5547.250404
431.795385	5657.810470
432.172624	5667.905380
432.549802	5657.654194
432.926920	5670.448642
433.303977	5680.294016
433.680974	5717.273400
434.057910	5737.992542
434.434786	5744.057050
434.811601	5709.008428
435.188355	5948.707732
435.565050	5822.837682
435.941683	5805.450743
436.318257	6016.095356
436.694770	5999.618345
437.071222	6036.106216
437.447614	5962.845648
437.823946	5877.642586
438.200218	6033.386514
438.576429	5900.035392
438.952580	5994.670452
439.328670	6042.821033
439.704700	5949.226971
440.080670	5935.963695
440.456580	6203.724582
440.832429	6091.803404
441.208218	5938.111227
441.583947	6090.396923
441.959616	6091.778199
442.335224	6021.943094
442.710773	6158.583569
443.086261	6183.254976
443.461689	5978.475745
443.837057	6127.081399
444.212365	6280.486231
444.587612	6177.588719
444.962800	6330.381051
445.337927	6306.117978
445.712995	5921.687147
446.088002	6494.407595
446.462949	6324.049362
446.837837	6259.250371
447.212664	6432.867709
447.587431	6572.674029
447.962139	7119.878676
448.336786	8044.322947
448.711374	7786.692260
449.085901	6856.869077
449.460369	6781.052643
449.834776	6713.080246
450.209124	7109.952644
450.583412	7257.408914
450.957640	7405.192860
451.331808	7165.158320
451.705917	6718.892696
452.079965	6639.996118
452.453954	6852.195927
452.827883	6725.531896
453.201752	6819.234343
453.575562	6623.619929
453.949311	6826.990158
454.323001	6721.559466
454.696632	6791.518079
455.070202	6925.937926
455.443713	7085.223264
455.817164	7187.667072
456.190556	7264.642970
456.563888	7339.350350
456.937160	7385.721403
457.310373	7038.229627
457.683526	7064.821714
458.056619	6957.102339
458.429653	6940.698424
458.802628	6880.270113
459.175542	6986.366237
459.548398	7339.441090
459.921194	7501.856985
460.293930	7508.455855
460.666607	8036.448665
461.039224	8344.097682
461.411782	8469.566960
461.784280	8487.820978
462.156719	8382.526397
462.529099	8247.713341
462.901419	7844.758790
463.273680	7735.685865
463.645882	7752.724965
464.018024	7621.221426
464.390106	7790.140409
464.762130	8172.111156
465.134094	8650.249475
465.505999	9672.411473
465.877845	10892.136290
466.249631	11538.576051
466.621358	11160.343319
466.993026	10523.892605
467.364634	10270.483883
467.736184	9907.004088
468.107674	9572.095032
468.479105	9605.724569
468.850477	9371.643632
469.221790	9140.025298
469.593043	8812.531779
469.964238	8675.475409
470.335373	8690.929066
470.706449	8743.929237
471.077467	8731.890962
471.448425	10038.767247
471.819324	11105.301481
472.190164	11134.696449
472.560945	9882.229337
472.931667	9094.949821
473.302330	8956.832287
473.672934	8606.293134
474.043479	8965.959297
474.413965	8908.850585
474.784393	8784.976832
475.154761	8934.752034
475.525070	9031.842136
475.895321	8859.890899
476.265513	9042.143734
476.635645	9205.119197
477.005719	9207.228920
477.375734	9319.951640
477.745691	9555.529801
478.115588	9691.663640
478.485427	9937.182955
478.855207	10470.564759
479.224928	11287.803853
479.594591	11912.130592
479.964194	11730.003786
480.333739	11668.284939
480.703226	11583.175139
481.072653	11671.193685
481.442022	11912.685119
481.811333	12098.744025
482.180584	11904.526011
482.549777	11612.933070
482.918912	11428.310893
483.287988	11458.066303
483.657005	11472.418468
484.025964	11150.389561
484.394864	11284.012905
484.763706	11254.333112
485.132489	11010.074084
485.501213	10971.542025
485.869879	11054.216948
486.238487	10895.148380
486.607036	11004.080153
486.975527	10783.985896
487.343959	10974.798610
487.712333	11016.710763
488.080648	10952.050404
488.448905	10996.576395
488.817104	10934.691190
489.185244	11197.552075
489.553326	11356.766837
489.921350	11899.920917
490.289315	12953.086011
490.657222	13300.373620
491.025070	13212.965054
491.392861	13082.152153
491.760593	12696.259388
492.128267	12346.332734
492.495883	12019.665965
492.863440	11675.554283
493.230939	11344.582368
493.598380	11280.242122
493.965763	11144.440999
494.333088	11050.942719
494.700354	10976.389094
495.067563	11030.750377
495.434713	10862.940448
495.801805	10988.951650
496.168839	10914.181256
496.535815	10850.549292
496.902733	10848.900834
497.269593	10780.444486
497.636395	10880.065247
498.003139	10869.967816
498.369825	10741.360420
498.736453	10893.353729
499.103023	10819.909158
499.469535	10854.796464
499.835989	10837.903557
500.202385	10803.719493
500.568723	10651.763992
500.935003	10879.503159
501.301226	10681.466471
501.667390	10941.227046
502.033497	11034.604339
502.399546	10897.767259
502.765537	10804.374843
503.131470	10874.542663
503.497345	11052.228213
503.863163	10661.647175
504.228923	10967.360388
504.594625	11035.922601
504.960269	10784.951277
505.325856	11003.145018
505.691385	10797.612135
506.056856	10953.066196
506.422270	10973.840791
506.787625	10867.875737
507.152924	10988.379479
507.518164	10958.656836
507.883347	10880.733200
508.248472	10809.526902
508.613540	11044.371575
508.978550	10925.435632
509.343503	10893.857844
509.708398	11012.168684
510.073236	11123.099274
510.438016	11132.954730
510.802738	11084.675600
511.167403	11133.121088
511.532010	11039.375791
511.896561	11262.333423
512.261053	11335.029382
512.625488	11200.750688
512.989866	11191.883298
513.354186	11183.968686
513.718449	11074.789897
514.082655	11265.353074
514.446803	11173.374702
514.810894	11287.879470
515.174927	11152.514407
515.538904	11182.141268
515.902822	11328.080151
516.266684	11213.242667
516.630488	11161.401961
516.994235	11208.050278
517.357925	11274.331369
517.721558	11360.467044
518.085133	11373.140505
518.448651	11388.556353
518.812112	11267.119998
519.175516	11286.241095
519.538863	11403.669733
519.902152	11318.063379
520.265385	11484.781898
520.628560	11388.805891
520.991678	11373.891637
521.354739	11437.700042
521.717743	11371.615556
522.080690	11348.509427
522.443580	11479.985240
522.806413	11436.084352
523.169189	11473.698921
523.531908	11525.937878
523.894569	11350.009171
524.257174	11363.196829
524.619722	11468.509053
524.982213	11416.741445
525.344647	11468.347737
525.707025	11421.853175
526.069345	11519.976714
526.431608	11427.647981
526.793815	11547.650128
527.155964	11325.995634
527.518057	11383.353883
527.880093	11332.420585
528.242072	11404.909857
528.603995	11307.930659
528.965860	11222.226003
529.327669	11278.495362
529.689421	11226.639533
530.051117	11194.325737
530.412755	11299.660647
530.774337	11181.811073
531.135862	11168.542756
531.497331	11192.231137
531.858743	11043.275124
532.220098	11214.883562
532.581396	11075.339383
532.942638	11064.689945
533.303824	11032.890347
533.664953	11040.021059
534.026025	10959.723040
534.387040	11060.717516
534.747999	11060.427650
535.108902	11119.008378
535.469748	10878.106759
535.830537	10980.386729
536.191270	10960.239758
536.551947	10984.681793
536.912567	10986.776392
537.273131	10909.916440
537.633638	10881.988448
537.994089	10871.613753
538.354483	10822.139869
538.714821	10969.099586
539.075103	10977.230967
539.435328	10939.437437
539.795497	10761.356157
540.155609	10916.207800
540.515665	11016.809066
540.875665	10753.093705
541.235609	10812.899434
541.595496	10818.719446
541.955328	10972.076387
542.315102	10850.725732
542.674821	10804.871397
543.034483	10798.237238
543.394090	10813.834568
543.753640	10731.721734
544.113134	10952.640219
544.472571	10808.642180
544.831953	10947.397419
545.191278	10760.647874
545.550548	10787.045877
545.909761	10929.375294
546.268918	10901.308670
546.628019	10984.472585
546.987064	10846.037459
547.346053	10769.109451
547.704986	10872.022086
548.063863	10853.301762
548.422684	10850.443427
548.781449	10763.428071
549.140158	10863.252999
549.498811	10748.171019
549.857408	10601.249110
550.215949	10827.962402
550.574434	10688.995434
550.932864	10777.578590
551.291237	10838.279123
551.649555	10786.120825
552.007817	10799.515171
552.366022	10761.698955
552.724173	10753.567574
553.082267	10741.892262
553.440305	10877.559794
553.798288	10681.897490
554.156215	10835.972795
554.514086	10804.523557
554.871902	10656.588377
555.229661	10697.676301
555.587365	10673.224184
555.945014	10567.518750
556.302606	10685.078458
556.660143	10586.939795
557.017625	10736.256252
557.375050	10632.436209
557.732421	10767.864286
558.089735	10682.227685
558.446994	10683.054434
558.804197	10721.878881
559.161345	10724.205373
559.518437	10569.431868
559.875474	10659.124077
560.232455	10686.298417
560.589381	10637.295881
560.946251	10636.509461
561.303065	10736.140305
561.659825	10682.174753
562.016528	10611.439803
562.373177	10489.436318
562.729770	10607.653896
563.086307	10519.257264
563.442789	10612.417787
563.799216	10491.470424
564.155587	10542.600327
564.511904	10489.491771
564.868164	10485.373148
565.224370	10499.919398
565.580520	10422.678838
565.936615	10430.598491
566.292654	10302.283482
566.648638	10425.297718
567.004567	10386.541327
567.360441	10366.502740
567.716260	10282.242374
568.072023	10376.925326
568.427732	10323.849538
568.783385	10230.174817
569.138982	10295.614035
569.494525	10318.886522
569.850013	10202.065343
570.205445	10275.610737
570.560823	10175.979892
570.916145	10085.347508
571.271412	10161.063118
571.626625	10105.376012
571.981782	10084.195604
572.336884	10057.185102
572.691931	10061.757429
573.046923	10007.116362
573.401860	9966.303181
573.756743	9897.677953
574.111570	9939.539695
574.466342	9922.475389
574.821059	9953.614596
575.175722	9846.462351
575.530330	9853.512404
575.884882	9848.365386
576.239380	9780.251836
576.593823	9754.786447
576.948211	9771.724724
577.302544	9656.438577
577.656823	9665.515175
578.011047	9669.240587
578.365216	9642.572883
578.719330	9563.028517
579.073389	9581.274973
579.427394	9523.619297
579.781344	9496.497889
580.135239	9452.970046
580.489080	9462.061767
580.842866	9359.824647
581.196597	9370.113642
581.550273	9407.201410
581.903895	9374.151606
582.257463	9435.603271
582.610975	9319.460128
582.964434	9344.809570
583.317837	9268.075647
583.671186	9247.275846
584.024481	9241.019774
584.377721	9163.270058
584.730906	9139.133013
585.084037	9175.260443
585.437113	9104.502807
585.790135	9120.090055
586.143103	9025.230663
586.496016	9000.249225
586.848874	9058.557731
587.201679	9048.576246
587.554428	8936.168598
587.907124	8970.665214
588.259765	8942.396943
588.612352	8946.165206
588.964884	8823.324890
589.317362	8840.391716
589.669786	8847.225000
590.022155	8890.941886
590.374470	8902.944873
590.726731	8840.825255
591.078937	8692.068367
591.431090	8805.146489
591.783188	8681.161831
592.135232	8670.290582
592.487222	8667.533071
592.839157	8721.032316
593.191038	8655.174682
593.542866	8603.996889
593.894639	8506.886622
594.246358	8553.595433
594.598022	8574.664935
594.949633	8464.732493
595.301190	8442.090151
595.652692	8471.296075
596.004141	8583.292870
596.355535	8357.446657
596.706876	8333.770878
597.058162	8271.986496
597.409395	8356.420782
597.760573	8410.867764
598.111698	8322.075401
598.462768	8308.247516
598.813785	8271.409284
599.164748	8242.951971
599.515657	8230.999395
599.866511	8143.016137
600.217312	8273.904655
600.568060	8126.213971
600.918753	8231.138027
601.269392	8198.098304
601.619978	8108.118749
601.970510	8178.722630
602.320988	8170.865991
602.671412	8227.989826
603.021783	8165.524889
603.372100	8138.801732
603.722363	8145.342629
604.072572	8114.762990
604.422728	8129.170608
604.772830	8053.903660
605.122878	8062.758447
605.472872	8059.990854
605.822813	8084.271571
606.172701	8027.533385
606.522534	8106.739994
606.872314	8109.283256
607.222041	8072.180364
607.571714	8128.709342
607.921333	8091.062005
608.270899	8100.942667
608.620411	8181.754884
608.969870	8093.302798
609.319276	8086.492199
609.668627	8103.042307
610.017926	8130.882080
610.367171	8180.761776
610.716362	8159.445257
611.065500	8147.243144
611.414585	8174.707351
611.763616	8163.621853
612.112594	8145.740881
612.461518	8161.055906
612.810389	8222.343734
613.159207	8161.950711
613.507971	8108.554809
613.856682	8227.140392
614.205340	8185.797889
614.553945	8268.059438
614.902496	8166.228130
615.250994	8215.991880
615.599439	8200.119807
615.947830	8209.138431
616.296169	8185.092128
616.644454	8196.822892
616.992686	8199.167029
617.340864	8252.414217
617.688990	8157.522057
618.037063	8253.800534
618.385082	8193.652007
618.733048	8284.402858
619.080961	8220.690235
619.428821	8241.109429
619.776628	8241.348884
620.124382	8195.025721
620.472083	8173.976383
620.819731	8203.860343
621.167326	8099.533664
621.514868	8101.161957
621.862357	7995.111204
622.209793	8014.590222
622.557176	7945.176054
622.904506	7912.058194
623.251783	7844.267278
623.599007	7800.096688
623.946179	7804.974004
624.293297	7764.869105
624.640363	7682.214346
624.987376	7665.379413
625.334336	7612.565765
625.681243	7561.440903
626.028097	7549.392545
626.374899	7527.400512
626.721647	7520.050509
627.068343	7450.764891
627.414987	7421.165756
627.761577	7374.073817
628.108115	7416.303563
628.454600	7305.017571
628.801032	7360.480346
629.147412	7317.537277
629.493739	7305.781306
629.840014	7244.601863
630.186236	7301.912221
630.532405	7183.064498
630.878521	7232.616520
631.224585	7189.592792
631.570597	7109.055318
631.916556	7144.716441
632.262462	7141.842983
632.608316	7106.227231
632.954117	7087.680826
633.299866	7072.554844
633.645562	7059.899027
633.991206	6980.929352
634.336797	6930.444717
634.682336	6888.280506
635.027823	6853.501586
635.373257	6840.104720
635.718639	6774.363032
636.063968	6782.312932
636.409245	6684.073446
636.754470	6678.883578
637.099642	6636.898329
637.444762	6579.313228
637.789829	6587.474856
638.134845	6528.793305
638.479808	6516.162694
638.824719	6517.982551
639.169577	6449.707683
639.514383	6468.332226
639.859137	6397.602317
640.203839	6408.183699
640.548489	6391.356328
640.893086	6364.161823
641.237632	6342.668864
641.582125	6356.597572
641.926566	6328.699827
642.270955	6346.064081
642.615292	6338.648544
642.959576	6352.032807
643.303809	6341.673236
643.647990	6354.024063
643.992118	6340.135684
644.336195	6288.814217
644.680219	6313.130223
645.024192	6304.260313
645.368112	6399.500312
645.711981	6421.903199
646.055797	6497.170147
646.399562	6450.574762
646.743274	6579.219967
647.086935	6632.046218
647.430544	6626.473223
647.774101	6651.989023
648.117606	6657.985475
648.461059	6644.187837
648.804460	6607.808350
649.147810	6515.847622
649.491108	6485.693960
649.834354	6455.678930
650.177548	6381.251335
650.520690	6292.663138
650.863781	6267.555672
651.206820	6291.062572
651.549807	6210.368822
651.892742	6155.518548
652.235626	6156.509135
652.578458	6146.595706
652.921238	6052.200100
653.263967	6090.086892
653.606644	6035.702924
653.949269	6034.016658
654.291843	5976.723944
654.634365	6023.296644
654.976836	5982.546477
655.319255	5979.332742
655.661622	5961.192149
656.003938	5953.895079
656.346203	5912.482000
656.688416	5948.690088
657.030577	5896.486419
657.372687	5867.325865
657.714746	5854.314647
658.056753	5896.809053
658.398708	5841.227811
658.740612	5834.104661
659.082465	5878.512185
659.424266	5867.814857
659.766016	5865.458117
660.107715	5845.265776
660.449362	5860.008630
660.790958	5850.627043
661.132503	5840.446433
661.473996	5876.180652
661.815438	5856.305903
662.156829	5858.188773
662.498168	5855.280028
662.839456	5827.420091
663.180693	5860.842941
663.521879	5863.086254
663.863013	5854.947312
664.204097	5873.498758
664.545129	5913.742289
664.886110	5909.621146
665.227040	5942.991063
665.567918	5913.500313
665.908746	5934.854641
666.249522	5944.352175
666.590248	5928.036481
666.930922	5955.911541
667.271545	5972.282688
667.612118	5972.673377
667.952639	5948.175890
668.293109	5964.219362
668.633528	5925.730153
668.973896	5926.778713
669.314213	5912.746661
669.654480	5900.778962
669.994695	5891.828393
670.334859	5882.769440
670.674973	5874.882554
671.015035	5879.898503
671.355047	5876.722576
671.695008	5863.287901
672.034918	5837.381411
672.374777	5841.489951
672.714585	5835.841338
673.054342	5834.999466
673.394049	5827.036963
673.733705	5860.900914
674.073310	5845.941290
674.412864	5804.586185
674.752368	5801.130474
675.091820	5804.417306
675.431223	5735.444239
675.770574	5744.624180
676.109875	5693.126273
676.449125	5694.469741
676.788324	5662.962529
677.127473	5606.562100
677.466571	5600.852993
677.805619	5588.519810
678.144616	5573.519857
678.483562	5556.044697
678.822458	5519.864336
679.161303	5517.195045
679.500098	5507.445453
679.838842	5491.263350
680.177535	5493.670501
680.516179	5510.850753
680.854771	5521.565725
681.193314	5603.550010
681.531805	5710.661927
681.870247	5860.177509
682.208638	5963.742973
682.546978	5977.654037
682.885268	5957.315502
683.223508	5866.733529
683.561697	5812.029448
683.899836	5782.495848
684.237925	5741.395321
684.575963	5704.743612
684.913951	5663.980842
685.251889	5723.756324
685.589776	5694.429411
685.927614	5668.744732
686.265401	5734.604887
686.603137	5718.926898
686.940824	5799.386234
687.278460	5819.525644
687.616046	5833.776986
687.953582	5898.858282
688.291068	5875.590837
688.628504	5942.948214
688.965889	5908.247431
689.303224	5851.184090
689.640510	5801.695083
689.977745	5725.487960
690.314930	5626.653618
690.652065	5572.196554
690.989150	5479.207430
691.326185	5402.405451
691.663170	5350.932750
692.000105	5273.223363
692.336990	5194.800654
692.673825	5168.488351
693.010610	5103.528043
693.347345	5032.876272
693.684030	5016.865567
694.020665	4972.899144
694.357251	4885.160382
694.693786	4897.831322
695.030272	4864.605077
695.366707	4824.767358
695.703093	4793.333244
696.039429	4814.155730
696.375716	4799.191064
696.711952	4772.906488
697.048139	4762.105816
697.384276	4739.337445
697.720363	4750.932099
698.056400	4761.178244
698.392388	4711.865677
698.728326	4689.732491
699.064214	4671.009646
699.400053	4663.619314
699.735842	4629.881392
700.071581	4604.090849
700.407270	4577.332404
700.742910	4561.011669
701.078501	4506.756250
701.414042	4504.989326
701.749533	4474.361796
702.084974	4406.470056
702.420366	4464.869303
702.755709	4407.349738
703.091002	4347.536447
703.426246	4399.064601
703.761440	4356.073641
704.096584	4321.231707
704.431679	4342.943956
704.766725	4324.957119
705.101721	4313.760717
705.436668	4342.001260
705.771565	4287.463538
706.106413	4314.194256
706.441212	4349.313454
706.775961	4358.357284
707.110661	4335.757791
707.445311	4367.355744
707.779913	4386.174371
708.114465	4403.495776
708.448967	4428.078962
708.783421	4487.375534
709.117825	4527.931617
709.452180	4531.505795
709.786485	4576.699739
710.120742	4663.107637
710.454949	4649.095750
710.789107	4715.452458
711.123216	4789.204539
711.457275	4778.030821
711.791286	4852.521431
712.125247	4872.620511
712.459159	4771.537815
712.793023	4853.643088
713.126837	4809.051561
713.460602	4800.136281
713.794318	4721.839600
714.127985	4727.079879
714.461602	4646.766737
714.795171	4614.818424
715.128691	4545.391653
715.462162	4492.464579
715.795584	4442.625212
716.128957	4424.116615
716.462281	4371.098800
716.795556	4347.594421
717.128782	4308.381805
717.461960	4237.167946
717.795088	4248.533227
718.128167	4208.743400
718.461198	4149.144358
718.794180	4145.625633
719.127113	4121.612097
719.459997	4104.593161
719.792833	4061.153538
720.125619	4052.545768
720.458357	4017.471940
720.791046	4019.564019
721.123686	3993.428157
721.456278	3950.301086
721.788821	3966.841112
722.121315	3939.659210
722.453761	3914.874377
722.786158	3925.952313
723.118506	3953.229996
723.450805	3903.879621
723.783056	3923.207405
724.115259	3942.348666
724.447412	3945.685910
724.779518	3939.976803
725.111574	3943.571146
725.443582	3973.528202
725.775542	3958.631593
726.107453	4009.237216
726.439315	4009.275024
726.771129	4024.143907
727.102895	4062.794434
727.434612	4109.309161
727.766281	4119.025985
728.097901	4119.656129
728.429473	4127.268271
728.760996	4134.036020
729.092471	4128.531080
729.423897	4111.262608
729.755276	4117.682517
730.086606	4119.489771
730.417887	4156.663239
730.749120	4218.689596
731.080305	4288.325575
731.411442	4311.474553
731.742530	4281.930871
732.073570	4288.013023
732.404562	4338.580837
732.735506	4330.472142
733.066401	4293.971667
733.397249	4230.203592
733.728048	4153.210049
734.058798	4067.578489
734.389501	3998.895288
734.720156	3932.218467
735.050762	3888.814132
735.381320	3883.430180
735.711831	3832.227181
736.042293	3806.119045
736.372707	3828.471521
736.703073	3801.776091
737.033391	3792.747384
737.363661	3807.555774
737.693883	3831.085359
738.024056	3842.133048
738.354182	3839.436031
738.684260	3901.855597
739.014290	3921.246396
739.344272	3919.532403
739.674207	3957.542703
740.004093	3966.213488
740.333931	3956.403403
740.663722	3960.907674
740.993464	3957.083958
741.323159	3932.634362
741.652806	3902.231163
741.982405	3876.725446
742.311956	3842.559025
742.641460	3837.767409
742.970915	3810.623316
743.300323	3771.282151
743.629683	3736.513313
743.958996	3724.215418
744.288260	3701.686502
744.617477	3667.731810
744.946647	3656.021210
745.275768	3625.050881
745.604842	3628.380563
745.933869	3579.614961
746.262847	3569.663724
746.591778	3607.915999
746.920662	3578.384920
747.249498	3548.095147
747.578286	3590.702979
747.907027	3609.045217
748.235720	3606.829630
748.564365	3630.916263
748.892963	3635.324752
749.221514	3616.657360
749.550017	3593.233638
749.878473	3590.075356
750.206881	3560.972774
750.535242	3556.614697
750.863555	3556.612176
751.191821	3554.993966
751.520039	3534.471429
751.848210	3512.791947
752.176334	3546.267729
752.504411	3555.556055
752.832440	3514.027029
753.160421	3492.403000
753.488356	3501.398939
753.816243	3518.284284
754.144082	3473.057572
754.471875	3461.692291
754.799620	3478.428921
755.127318	3472.548415
755.454969	3468.606233
755.782572	3477.458499
756.110129	3449.495219
756.437638	3441.593210
756.765100	3453.457566
757.092515	3468.984320
757.419882	3471.908189
757.747203	3446.092440
758.074477	3446.904066
758.401703	3462.531643
758.728882	3484.468224
759.056014	3491.984584
759.383099	3493.272599
759.710138	3493.093638
760.037129	3505.058817
760.364073	3538.774053
760.690970	3523.035571
761.017820	3501.144361
761.344623	3520.714120
761.671379	3566.850760
761.998088	3616.266670
762.324751	3746.938419
762.651366	3991.935976
762.977935	4466.631186
763.304456	4917.176750
763.630931	5012.804918
763.957359	4651.825535
764.283740	4303.023059
764.610074	4113.342084
764.936362	3910.634767
765.262602	3754.202722
765.588796	3643.257008
765.914943	3553.763924
766.241044	3461.934266
766.567097	3432.854370
766.893104	3385.749828
767.219064	3351.820343
767.544978	3329.309070
767.870845	3273.006943
768.196665	3253.900970
768.522438	3260.580499
768.848165	3254.818460
769.173846	3221.037688
769.499479	3201.558670
769.825066	3186.397400
770.150607	3171.861232
770.476101	3183.660053
770.801548	3179.687624
771.126949	3134.949904
771.452303	3119.466000
771.777611	3120.811988
772.102872	3130.611991
772.428087	3106.122066
772.753256	3093.597319
773.078378	3085.682708
773.403453	3055.566854
773.728482	3042.830379
774.053465	3063.622618
774.378401	3048.375648
774.703291	3020.523273
775.028135	3022.073428
775.352932	3014.226872
775.677683	3003.229595
776.002388	3000.525016
776.327046	3003.670696
776.651658	2989.908346
776.976224	2982.444918
777.300743	2980.365442
777.625216	2973.658187
777.949643	2962.953297
778.274024	2967.500417
778.598359	2955.149590
778.922647	2961.758543
779.246889	2960.974644
779.571086	2946.075513
779.895236	2937.936571
780.219339	2949.667336
780.543397	2962.597895
780.867409	2967.008905
781.191374	2956.435085
781.515294	2954.849642
781.839167	2955.547842
782.162995	2946.987962
782.486776	2954.660598
782.810511	2951.099023
783.134201	2941.722477
783.457844	2943.922941
783.781441	2938.541509
784.104993	2918.770104
784.428498	2918.772624
784.751958	2932.845005
785.075372	2927.758481
785.398739	2910.873136
785.722061	2927.950045
786.045337	2937.918927
786.368568	2922.964344
786.691752	2913.459248
787.014891	2961.357771
787.337983	2993.598471
787.661030	3021.886906
787.984031	3089.113213
788.306987	3134.329842
788.629897	3128.993781
788.952760	3111.190946
789.275579	3095.434820
789.598351	3036.959956
789.921078	2992.013028
790.243759	2983.004486
790.566395	2964.984882
790.888984	2941.094853
791.211529	2924.212029
791.534027	2914.003693
791.856480	2903.634039
792.178888	2892.281361
792.501249	2880.656460
792.823566	2876.794936
793.145836	2878.335009
793.468062	2868.711446
793.790241	2870.798484
794.112375	2876.172354
794.434464	2888.452604
794.756507	2890.922770
795.078505	2896.699932
795.400457	2910.845410
795.722364	2951.290587
796.044226	2976.284628
796.366042	2977.726398
796.687812	2965.698205
797.009538	2987.221411
797.331218	2970.179791
797.652852	2956.805609
797.974442	2939.282559
798.295986	2935.995726
798.617484	2932.928184
798.938938	2916.735998
799.260346	2900.841240
799.581709	2893.904612
799.903026	2886.846997
800.224299	2884.399517
800.545526	2869.810417
800.866708	2858.866072
801.187845	2847.077334
801.508936	2849.290401
801.829983	2857.860362
802.150984	2841.123732
802.471940	2827.936073
802.792851	2830.749037
803.113717	2829.846670
803.434538	2835.275993
803.755314	2827.527740
804.076045	2823.174703
804.396731	2822.446257
804.717372	2821.886688
805.037967	2818.582212
805.358518	2823.172183
805.679024	2834.038390
805.999485	2831.144767
806.319901	2834.003102
806.640272	2827.336176
806.960598	2834.338338
807.280879	2841.837055
807.601115	2846.827797
807.921306	2836.054851
808.241453	2833.075529
808.561554	2839.185408
808.881611	2843.596417
809.201623	2836.470747
809.521590	2834.424038
809.841513	2827.678974
810.161390	2832.891527
810.481223	2828.601505
810.801011	2819.129177
811.120755	2813.183136
811.440453	2817.500885
811.760107	2815.444094
812.079716	2815.338230
812.399281	2802.654687
812.718801	2799.617391
813.038276	2793.434416
813.357707	2799.874490
813.677093	2806.004533
813.996434	2802.440437
814.315731	2797.946249
814.634983	2793.371402
814.954191	2792.010290
815.273354	2808.482260
815.592473	2819.219918
815.911547	2819.119095
816.230577	2824.535815
816.549562	2835.646518
816.868502	2835.021415
817.187399	2842.560460
817.506250	2860.854808
817.825058	2852.284846
818.143821	2868.499718
818.462539	2882.541852
818.781213	2907.626633
819.099843	2948.961574
819.418429	3004.568022
819.736970	3070.907086
820.055466	3140.512817
820.373919	3248.723705
820.692327	3390.004562
821.010691	3562.752302
821.329011	4012.503883
821.647286	4920.992903
821.965517	6323.396533
822.283704	7082.755619
822.601847	7065.527476
822.919945	6417.174597
823.237999	5910.563841
823.556010	5313.837419
823.873976	4753.649281
824.191897	4334.547914
824.509775	4037.205537
824.827609	3762.351747
825.145398	3638.329280
825.463144	3624.811426
825.780845	3717.528328
826.098502	3825.701407
826.416116	4108.560549
826.733685	4432.633645
827.051210	4497.503213
827.368692	4383.976428
827.686129	4113.478195
828.003522	3782.213893
828.320872	3520.020961
828.638177	3318.652071
828.955439	3183.839014
829.272656	3096.858946
829.589830	3028.213554
829.906960	2976.466109
830.224046	2932.527413
830.541088	2898.628173
830.858086	2877.223434
831.175041	2863.577031
831.491952	2863.652648
831.808819	2875.741335
832.125642	2900.064902
832.442421	2949.475772
832.759157	3029.549459
833.075849	3211.454455
833.392497	3496.357785
833.709101	3705.074157
834.025662	3653.966939
834.342179	3490.497444
834.658653	3312.723674
834.975083	3159.457473
835.291469	3062.725293
835.607811	2976.345122
835.924110	2912.420770
836.240366	2864.834799
836.556578	2821.294353
836.872746	2794.518264
837.188871	2775.165275
837.504952	2758.925197
837.820990	2750.829104
838.136984	2736.673544
838.452935	2726.800445
838.768842	2725.807337
839.084706	2744.953640
839.400526	2822.232007
839.716303	2957.869293
840.032037	3042.994217
840.347727	3028.102648
840.663373	2965.816672
840.978977	2887.658623
841.294537	2816.117088
841.610054	2766.638163
841.925527	2744.199987
842.240957	2721.829867
842.556344	2697.710466
842.871687	2680.547858
843.186987	2674.599297
843.502244	2670.273987
843.817458	2665.197545
844.132629	2652.773621
844.447756	2644.095275
844.762840	2636.132772
845.077881	2639.606127
845.392879	2640.417753
845.707833	2633.425672
846.022745	2626.610033
846.337613	2627.719086
846.652438	2626.882255
846.967221	2624.144908
847.281960	2624.495268
847.596656	2624.114661
847.911309	2625.304374
848.225919	2620.805144
848.540485	2615.242231
848.855009	2616.124432
849.169490	2616.406737
849.483928	2621.314300
849.798323	2614.087806
850.112675	2614.639813
850.426984	2614.269288
850.741251	2615.557303
851.055474	2612.429267
851.369654	2617.518312
851.683792	2619.416306
851.997887	2613.278701
852.311938	2613.160234
852.625947	2615.542179
852.939914	2618.803806
853.253837	2618.219032
853.567718	2614.307097
853.881555	2615.920266
854.195350	2617.052005
854.509103	2615.395986
854.822812	2615.280039
855.136479	2613.102261
855.450103	2617.266254
855.763685	2617.583847
856.077224	2611.965481
856.390720	2611.945316
856.704173	2616.530245
857.017584	2616.331120
857.330953	2620.525360
857.644278	2620.727006
857.957561	2617.828342
858.270802	2618.544186
858.584000	2620.464866
858.897155	2621.957047
859.210268	2622.577109
859.523339	2618.055194
859.836367	2612.250306
860.149352	2613.094699
860.462295	2613.208125
860.775195	2612.658639
861.088054	2611.854575
861.400869	2609.089502
861.713642	2610.067486
862.026373	2610.493464
862.339062	2611.332816
862.651708	2619.106275
862.964312	2617.223404
863.276873	2618.287087
863.589392	2619.181892
863.901869	2625.473252
864.214303	2629.123048
864.526696	2631.172277
864.839045	2634.007926
865.151353	2635.283338
865.463619	2635.842906
865.775842	2635.237967
866.088023	2637.032618
866.400162	2635.852988
866.712258	2636.142854
867.024313	2633.579428
867.336325	2632.871146
867.648296	2631.860394
867.960224	2636.029428
868.272110	2634.854840
868.583954	2628.508027
868.895755	2631.255456
869.207515	2635.616054
869.519233	2641.983031
869.830909	2639.931282
870.142542	2635.674027
870.454134	2636.755355
870.765684	2641.032774
871.077191	2645.443783
871.388657	2648.160965
871.700081	2645.365645
872.011463	2648.501243
872.322803	2648.549134
872.634101	2652.836635
872.945357	2656.304949
873.256571	2661.053716
873.567744	2659.891730
873.878874	2660.736123
874.189963	2659.624549
874.501010	2665.557987
874.812015	2672.265242
875.122979	2671.456137
875.433900	2659.959786
875.744780	2658.865855
876.055618	2665.928512
876.366415	2670.289110
876.677169	2672.562670
876.987882	2663.491114
877.298554	2665.066475
877.609183	2675.413443
877.919771	2680.905780
878.230317	2688.419620
878.540822	2702.292875
878.851285	2713.307796
879.161707	2738.863926
879.472087	2776.975049
879.782425	2827.729386
880.092722	2943.733898
880.402977	3137.525934
880.713191	3405.067530
881.023363	3710.836196
881.333494	3910.044952
881.643583	4081.817228
881.953631	4081.716405
882.263637	3903.125968
882.573602	3678.076258
882.883526	3538.181718
883.193408	3424.849018
883.503248	3314.654436
883.813048	3198.438196
884.122806	3081.753128
884.432522	2990.077225
884.742197	2926.709921
885.051831	2886.960423
885.361424	2848.393075
885.670975	2811.378403
885.980485	2781.010492
886.289954	2762.887544
886.599382	2750.375401
886.908768	2738.221179
887.218113	2718.480020
887.527417	2704.256405
887.836680	2697.435723
888.145901	2689.957172
888.455082	2681.919052
888.764221	2668.809531
889.073319	2661.368788
889.382376	2661.381391
889.691392	2663.652431
890.000366	2662.639159
890.309300	2660.473983
890.618193	2661.572955
890.927044	2665.676454
891.235855	2665.225271
891.544625	2664.809376
891.853353	2664.716114
892.162041	2673.210459
892.470687	2694.249714
892.779293	2705.420911
893.087858	2715.425081
893.396381	2739.110942
893.704864	2779.898918
894.013306	2852.879702
894.321707	2948.679269
894.630068	3002.564163
894.938387	3021.576875
895.246665	3018.355577
895.554903	2973.310347
895.863100	2926.460384
896.171256	2868.724049
896.479371	2804.867753
896.787446	2762.118768
897.095480	2744.540265
897.403473	2738.947105
897.711425	2721.761811
898.019336	2705.458720
898.327207	2688.275947
898.635038	2688.706966
898.942827	2684.459793
899.250576	2675.617610
899.558284	2663.339879
899.865952	2656.536842
900.173579	2654.858138
900.481165	2653.466780
900.788711	2643.825573
901.096216	2642.121663
901.403681	2637.408184
901.711105	2635.101856
902.018489	2632.165384
902.325832	2636.473050
902.633135	2638.918010
902.940397	2653.708755
903.247619	2693.097811
903.554800	2765.713111
903.861941	2896.349572
904.169041	3030.023328
904.476101	3098.225098
904.783121	3087.981474
905.090100	3028.924356
905.397039	2952.886112
905.703938	2874.226468
906.010796	2809.485450
906.317614	2753.533683
906.624391	2717.665874
906.931129	2688.044054
907.237826	2664.393481
907.544483	2647.354381
907.851099	2633.355096
908.157675	2619.411265
908.464211	2612.661160
908.770707	2601.941146
909.077163	2598.218254
909.383578	2593.915629
909.689954	2593.146853
909.996289	2595.012080
910.302584	2591.868921
910.608839	2589.933118
910.915054	2588.335072
911.221229	2592.088211
911.527363	2592.380598
911.833458	2591.601740
912.139513	2594.260948
912.445527	2597.368820
912.751502	2602.709922
913.057436	2606.221086
913.363331	2615.096037
913.669186	2622.186420
913.975000	2638.965901
914.280775	2657.885351
914.586510	2679.557271
914.892205	2714.540358
915.197859	2783.553755
915.503475	2871.892414
915.809050	2943.126438
916.114585	2959.255610
916.420081	2968.606951
916.725536	2980.582212
917.030952	2953.949796
917.336328	2906.610841
917.641665	2854.092100
917.946961	2800.701239
918.252218	2767.041455
918.557435	2737.180180
918.862612	2712.866695
919.167750	2698.360775
919.472848	2679.794206
919.777906	2662.679488
920.082925	2649.567447
920.387904	2640.327012
920.692843	2637.302320
920.997743	2629.682616
921.302603	2620.938734
921.607423	2614.470934
921.912204	2609.268463
922.216946	2605.132197
922.521647	2603.695468
922.826310	2600.270004
923.130932	2595.508634
923.435516	2589.610484
923.740059	2587.712489
924.044564	2585.481779
924.349028	2582.373907
924.653454	2573.647670
924.957840	2572.803277
925.262186	2571.948801
925.566493	2574.459296
925.870761	2568.714901
926.174989	2566.726166
926.479178	2566.050651
926.783328	2565.826320
927.087438	2564.873542
927.391509	2562.811710
927.695541	2559.885320
927.999533	2560.523026
928.303486	2559.545042
928.607400	2559.497151
928.911275	2556.154866
929.215110	2556.769887
929.518906	2557.599157
929.822663	2556.555638
930.126381	2557.664692
930.430060	2556.172510
930.733699	2555.229815
931.037299	2559.718962
931.340861	2556.500185
931.644383	2557.679815
931.947866	2561.959755
932.251309	2557.977243
932.554714	2556.394321
932.858080	2559.313149
933.161407	2558.153684
933.464694	2556.923642
933.767943	2555.867521
934.071153	2553.634289
934.374323	2558.332645
934.677455	2553.969526
934.980548	2552.497509
935.283602	2556.848025
935.586617	2553.906512
935.889593	2556.840463
936.192530	2552.812581
936.495428	2553.583878
936.798287	2557.636966
937.101108	2558.047820
937.403890	2561.818603
937.706632	2563.343552
938.009336	2565.115517
938.312002	2571.447207
938.614628	2573.894687
938.917216	2580.324678
939.219765	2578.076324
939.522275	2578.504822
939.824747	2577.753690
940.127179	2571.880746
940.429573	2570.436455
940.731929	2569.892011
941.034246	2567.406722
941.336524	2569.851681
941.638763	2570.199521
941.940964	2566.882442
942.243126	2566.469067
942.545250	2565.299519
942.847335	2565.763306
943.149381	2563.073850
943.451389	2561.233829
943.753359	2558.640155
944.055290	2560.999415
944.357182	2559.958417
944.659036	2558.254507
944.960851	2558.325083
945.262628	2557.836091
945.564367	2559.877758
945.866067	2557.326935
946.167729	2558.493962
946.469352	2556.812737
946.770937	2559.328273
947.072484	2555.686039
947.373992	2558.105793
947.675462	2559.794579
947.976893	2555.229815
948.278286	2556.893395
948.579641	2553.036913
948.880958	2556.858107
949.182236	2554.282078
949.483476	2558.289795
949.784678	2553.815771
950.085841	2557.168138
950.386967	2555.537325
950.688054	2555.862479
950.989103	2554.871893
951.290114	2558.241904
951.591087	2557.354661
951.892021	2558.940104
952.192917	2559.993705
952.493776	2559.897923
952.794596	2562.824313
953.095378	2563.235167
953.396122	2563.391443
953.696828	2560.739796
953.997496	2561.846329
954.298126	2559.436657
954.598718	2557.762994
954.899272	2555.428940
955.199788	2555.665874
955.500266	2554.428271
955.800706	2549.588763
956.101108	2546.251520
956.401472	2549.142621
956.701798	2543.244471
957.002087	2547.214380
957.302337	2544.789585
957.602550	2544.782023
957.902724	2543.834286
958.202861	2544.124153
958.502960	2541.084337
958.803022	2542.453010
959.103045	2543.662887
959.403031	2542.185829
959.702979	2540.544933
960.002889	2543.045346
960.302762	2540.068544
960.602596	2542.453010
960.902393	2543.062990
961.202153	2538.596528
961.501875	2539.647608
961.801559	2542.868905
962.101205	2536.091074
962.400814	2539.912269
962.700385	2538.929244
962.999918	2539.544264
963.299414	2538.641898
963.598873	2538.936805
963.898293	2537.699202
964.197677	2543.010058
964.497022	2538.107536
964.796331	2536.617875
965.095601	2537.124511
965.394835	2540.676003
965.694030	2537.850437
965.993189	2539.660211
966.292309	2539.085519
966.591393	2538.551157
966.890439	2538.916641
967.189447	2537.931095
967.488419	2536.917823
967.787353	2537.681558
968.086249	2535.198790
968.385108	2537.190046
968.683930	2537.737011
968.982714	2539.161137
969.281462	2536.670807
969.580172	2537.676517
969.878844	2538.513348
970.177480	2539.655170
970.476078	2539.551826
970.774639	2541.807742
971.073162	2537.941178
971.371649	2536.590148
971.670098	2535.798687
971.968510	2537.437062
972.266885	2533.943543
972.565223	2538.246167
972.863524	2539.831610
973.161788	2538.059645
973.460014	2537.996630
973.758204	2540.403781
974.056356	2537.797505
974.354471	2540.378575
974.652550	2538.165509
974.950591	2536.688451
975.248595	2541.336395
975.546563	2535.110570
975.844493	2538.115097
976.142386	2539.067875
976.440243	2535.118131
976.738062	2541.437218
977.035845	2537.454706
977.333590	2536.277597
977.631299	2537.177443
977.928971	2535.017308
978.226606	2539.153575
978.524204	2534.752648
978.821765	2540.796991
979.119290	2535.501259
979.416777	2535.266845
979.714228	2538.314223
980.011642	2535.329860
980.309020	2536.943029
980.606360	2538.195756
980.903664	2538.510828
981.200931	2537.369007
981.498162	2540.030736
981.795356	2542.339584
982.092513	2544.991231
982.389633	2548.252858
982.686717	2549.518187
982.983764	2552.565565
983.280775	2554.398024
983.577749	2556.858107
983.874686	2552.215205
984.171587	2550.773435
984.468451	2547.801674
984.765279	2547.489123
985.062070	2543.690613
985.358824	2541.530479
985.655543	2541.666590
985.952224	2538.639377
986.248869	2538.480581
986.545478	2534.803059
986.842050	2535.546629
987.138586	2531.301978
987.435086	2531.974972
987.731549	2532.476567
988.027975	2535.407998
988.324366	2536.943029
988.620719	2534.278779
988.917037	2534.939170
989.213318	2532.675692
989.509563	2534.533358
989.805772	2534.697195
990.101944	2535.786084
990.398080	2534.629139
990.694180	2534.949253
990.990244	2535.586959
991.286271	2534.200641
991.582262	2536.517052
991.878217	2534.223327
992.174136	2536.597710
992.470019	2533.719211
992.765865	2533.013450
993.061676	2533.671320
993.357450	2532.688295
993.653188	2535.871784
993.948890	2535.932278
994.244556	2536.607792
994.540186	2535.092926
994.835780	2536.761548
995.131337	2536.242309
995.426859	2534.712318
995.722345	2538.238606
996.017795	2540.189532
996.313208	2540.020653
996.608586	2538.911600
996.903928	2538.160468
997.199234	2538.553678
997.494504	2538.450334
997.789738	2537.157278
998.084936	2538.105015
998.380099	2536.610313
998.675225	2536.262473
998.970316	2534.621578
999.265371	2534.480425
999.560390	2535.743234
999.855373	2535.178625
1000.150320	2533.971269
1000.445232	2535.607123
1000.740108	2535.652494
1001.034948	2531.977493
1001.329752	2532.713501
1001.624521	2535.208872
1001.919254	2526.583458
1002.213951	2531.390198
1002.508613	2529.761905
1002.803239	2530.971782
1003.097829	2528.060516
1003.392384	2533.706608
1003.686903	2531.949766
1003.981386	2533.152081
1004.275834	2534.409849
1004.570246	2534.520755
1004.864623	2530.588655
1005.158964	2530.288706
1005.453270	2533.497400
1005.747540	2532.763912
1006.041775	2530.507996
1006.335974	2531.710311
1006.630138	2533.885569
1006.924266	2533.875487
1007.218359	2535.135775
1007.512416	2532.955476
1007.806438	2532.705939
1008.100425	2528.330218
1008.394376	2530.598737
1008.688292	2532.285003
1008.982172	2532.784077
1009.276017	2531.417924
1009.569827	2531.518748
1009.863602	2535.430683
1010.157341	2532.252235
1010.451045	2531.672503
1010.744714	2530.263500
1011.038347	2533.215096
1011.331945	2532.975641
1011.625508	2530.772657
1011.919036	2529.535053
1012.212528	2532.804242
1012.505986	2530.233253
1012.799408	2530.450023
1013.092795	2530.409694
1013.386147	2533.315919
1013.679464	2530.359282
1013.972745	2531.866587
1014.265992	2526.238139
1014.559204	2533.199972
1014.852380	2530.182842
1015.145521	2532.516896
1015.438628	2531.417924
1015.731699	2532.027904
1016.024736	2529.262831
1016.317737	2529.555218
1016.610703	2531.246525
1016.903635	2529.466998
1017.196531	2529.464477
1017.489393	2531.440610
1017.782219	2527.087573
1018.075011	2530.432379
1018.367768	2529.217461
1018.660490	2530.104704
1018.953177	2530.104704
1019.245829	2530.104704
