Dividing Wavelength (nm)	Counts (n)	Blue Motor Position (mm): 11.700000	Red Motor Position (mm): 0.000000	
326.493990	2141.005765
326.888308	2141.005765
327.282561	2141.005765
327.676750	2107.517380
328.070874	2104.822883
328.464933	2108.139962
328.858929	2114.839656
329.252859	2124.559000
329.646726	2134.774899
330.040528	2146.520787
330.434265	2165.019301
330.827938	2182.207115
331.221547	2198.810155
331.615091	2219.892261
332.008571	2240.560992
332.401986	2259.654362
332.795338	2277.212701
333.188625	2296.600978
333.581847	2314.338278
333.975006	2333.287975
334.368100	2354.443178
334.761129	2368.951618
335.154095	2387.881151
335.546996	2404.998389
335.939833	2423.590164
336.332606	2439.968873
336.725315	2451.732406
337.117960	2462.996864
337.510540	2468.363172
337.903056	2478.251395
338.295508	2486.057622
338.687896	2494.990547
339.080220	2502.332987
339.472480	2511.124760
339.864676	2514.555265
340.256807	2521.065915
340.648875	2522.485000
341.040879	2523.720083
341.432818	2526.069260
341.824694	2524.178827
342.216506	2529.658562
342.608253	2528.544467
342.999937	2527.165711
343.391557	2529.028418
343.783113	2528.594878
344.174605	2526.684281
344.566033	2525.721421
344.957397	2522.611029
345.348697	2522.409382
345.739934	2521.665812
346.131106	2515.497961
346.522215	2517.070801
346.913260	2513.547034
347.304241	2510.519821
347.695159	2510.565192
348.086012	2507.623678
348.476802	2507.500170
348.867528	2505.942453
349.258191	2505.622340
349.648789	2505.851713
350.039324	2500.288799
350.429796	2505.473626
350.820203	2496.742348
351.210548	2498.794097
351.600828	2495.696308
351.991045	2497.604385
352.381198	2493.107676
352.771288	2495.908037
353.161314	2495.865187
353.551276	2497.266628
353.941175	2494.292347
354.331010	2495.439209
354.720782	2496.051710
355.110490	2495.663541
355.500135	2494.698160
355.889717	2495.051041
356.279235	2496.462564
356.668689	2496.656648
357.058080	2494.519199
357.447408	2493.889055
357.836672	2493.531133
358.225873	2493.672285
358.615010	2496.316370
359.004084	2498.781494
359.393095	2497.942142
359.782043	2499.290651
360.170927	2499.139416
360.559748	2499.116731
360.948505	2497.841319
361.337199	2501.783502
361.725830	2501.738131
362.114398	2502.070847
362.502903	2501.014726
362.891344	2500.308964
363.279722	2505.287103
363.668037	2503.210148
364.056289	2505.655108
364.444478	2504.029336
364.832603	2503.626043
365.220665	2505.854233
365.608665	2505.138389
365.996601	2504.432628
366.384474	2505.443379
366.772284	2507.278359
367.160031	2506.706188
367.547715	2507.427073
367.935336	2506.769203
368.322893	2507.802639
368.710388	2506.870026
369.097820	2510.837414
369.485189	2507.406909
369.872495	2510.456807
370.259738	2508.185767
370.646918	2508.190808
371.034035	2508.843637
371.421090	2511.107116
371.808081	2507.394306
372.195010	2508.082423
372.581875	2508.843637
372.968678	2512.291787
373.355418	2511.626354
373.742096	2510.557630
374.128710	2512.117867
374.515262	2513.156345
374.901751	2515.276150
375.288177	2514.308248
375.674540	2513.781448
376.060841	2510.779441
376.447079	2510.731550
376.833254	2512.185923
377.219367	2506.237361
377.605417	2511.608710
377.991404	2507.628719
378.377329	2512.745491
378.763191	2508.584018
379.148991	2513.662981
379.534727	2511.976715
379.920402	2517.035512
380.306013	2513.589884
380.691563	2515.056860
381.077049	2512.742970
381.462474	2516.803619
381.847835	2513.736077
382.233134	2514.784637
382.618371	2515.361849
383.003545	2518.683970
383.388657	2515.838238
383.773706	2516.324710
384.158693	2514.678773
384.543618	2515.510563
384.928480	2516.138187
385.313280	2516.596932
385.698017	2516.791017
386.082692	2518.883095
386.467305	2517.345543
386.851856	2518.757067
387.236344	2517.264885
387.620770	2517.395955
388.005133	2518.764628
388.389435	2520.171110
388.773674	2518.618435
389.157851	2519.412417
389.541965	2521.103724
389.926018	2522.515247
390.310008	2516.861593
390.693936	2521.020545
391.077802	2521.454084
391.461606	2521.310411
391.845348	2523.813344
392.229027	2523.722603
392.612645	2520.458456
392.996200	2521.086080
393.379694	2523.964578
393.763125	2521.985926
394.146494	2523.762932
394.529801	2521.542304
394.913047	2524.365350
395.296230	2523.788138
395.679351	2524.554393
396.062410	2523.747809
396.445408	2524.617408
396.828343	2523.780576
397.211217	2519.556089
397.594028	2522.747140
397.976778	2518.126922
398.359466	2522.633714
398.742092	2518.968795
399.124656	2525.696215
399.507158	2525.020700
399.889598	2524.803931
400.271977	2523.631862
400.654294	2525.164373
401.036549	2523.495751
401.418742	2524.922398
401.800874	2523.999867
402.182944	2527.755526
402.564952	2523.964578
402.946898	2526.099507
403.328783	2523.505833
403.710606	2523.722603
404.092367	2529.477080
404.474067	2528.121010
404.855705	2525.620597
405.237282	2526.522964
405.618797	2524.566996
406.000250	2528.773839
406.381642	2526.870804
406.762972	2522.968951
407.144240	2529.618232
407.525447	2530.107224
407.906593	2524.834177
408.287677	2528.645290
408.668700	2531.438089
409.049661	2527.067409
409.430560	2530.954138
409.811399	2527.473222
410.192176	2527.412728
410.572891	2528.063037
410.953545	2531.158305
411.334138	2529.698891
411.714669	2528.839374
412.095139	2528.047913
412.475547	2528.773839
412.855894	2529.986237
413.236180	2529.961031
413.616405	2529.701412
413.996568	2532.272400
414.376670	2530.323994
414.756711	2531.203675
415.136691	2530.548325
415.516609	2531.019673
415.896466	2529.015815
416.276262	2534.808100
416.655997	2528.320135
417.035670	2526.742254
417.415283	2534.586290
417.794834	2527.558921
418.174324	2531.997657
418.553753	2531.564118
418.933121	2532.360620
419.312428	2532.705939
419.691674	2533.031094
420.070859	2530.689478
420.449983	2530.442461
420.829045	2532.597554
421.208047	2531.765764
421.586988	2530.510517
421.965867	2532.741227
422.344686	2530.893644
422.723444	2533.194931
423.102141	2532.660569
423.480777	2536.678368
423.859352	2533.487318
424.237866	2533.048738
424.616319	2534.177956
424.994712	2533.787267
425.373044	2533.446989
425.751314	2534.324150
426.129524	2536.154088
426.507673	2535.581918
426.885762	2535.390354
427.263789	2536.287679
427.641756	2535.052596
428.019662	2534.586290
428.397508	2535.571835
428.775292	2535.821372
429.153016	2535.745755
429.530679	2536.796836
429.908282	2533.232740
430.285824	2536.363296
430.663305	2537.061496
431.040726	2536.428831
431.418086	2535.342463
431.795385	2535.748276
432.172624	2536.002854
432.549802	2537.303472
432.926920	2537.142155
433.303977	2537.099305
433.680974	2538.019315
434.057910	2535.816331
434.434786	2537.522762
434.811601	2538.858668
435.188355	2537.300951
435.565050	2537.618544
435.941683	2535.287010
436.318257	2533.051258
436.694770	2531.586803
437.071222	2537.033770
437.447614	2535.297092
437.823946	2535.070240
438.200218	2534.382123
438.576429	2541.192722
438.952580	2538.581404
439.328670	2538.538554
439.704700	2537.013605
440.080670	2539.065355
440.456580	2540.653318
440.832429	2541.477547
441.208218	2537.996630
441.583947	2540.003009
441.959616	2536.597710
442.335224	2535.866743
442.710773	2541.699358
443.086261	2536.761547
443.461689	2537.069058
443.837057	2539.395550
444.212365	2537.845396
444.587612	2540.388658
444.962800	2540.950746
445.337927	2542.947043
445.712995	2540.431507
446.088002	2538.891435
446.462949	2539.561908
446.837837	2538.435211
447.212664	2538.803215
447.587431	2538.954449
447.962139	2541.064172
448.336786	2543.625078
448.711374	2539.080478
449.085901	2542.261446
449.460369	2540.151723
449.834776	2541.210366
450.209124	2540.358411
450.583412	2540.431507
450.957640	2540.492001
451.331808	2541.061652
451.705917	2540.381096
452.079965	2541.185160
452.453954	2539.839172
452.827883	2541.772454
453.201752	2541.132228
453.575562	2541.633823
453.949311	2540.129038
454.323001	2543.002496
454.696632	2542.795809
455.070202	2543.246992
455.443713	2543.970398
455.817164	2541.202804
456.190556	2541.132228
456.563888	2541.807742
456.937160	2536.496887
457.310373	2542.498381
457.683526	2542.808412
458.056619	2544.615665
458.429653	2543.370500
458.802628	2542.997455
459.175542	2540.703730
459.548398	2542.321940
459.921194	2542.571477
460.293930	2544.575336
460.666607	2543.047866
461.039224	2540.847403
461.411782	2541.490150
461.784280	2545.500388
462.156719	2544.366128
462.529099	2542.253885
462.901419	2544.172044
463.273680	2545.311344
463.645882	2545.490305
464.018024	2543.564585
464.390106	2543.834286
464.762130	2543.287321
465.134094	2545.916283
465.505999	2545.409647
465.877845	2547.519370
466.249631	2544.872764
466.621358	2543.932589
466.993026	2545.427291
467.364634	2549.195553
467.736184	2544.759338
468.107674	2546.985008
468.479105	2543.554502
468.850477	2547.042981
469.221790	2544.235058
469.593043	2545.177754
469.964238	2544.615665
470.335373	2543.141128
470.706449	2544.323278
471.077467	2542.553833
471.448425	2544.489636
471.819324	2547.552137
472.190164	2547.317724
472.560945	2545.485264
472.931667	2546.312013
473.302330	2545.487785
473.672934	2547.156407
474.043479	2544.580377
474.413965	2547.315203
474.784393	2542.294214
475.154761	2544.114070
475.525070	2544.913093
475.895321	2544.471992
476.265513	2542.783206
476.635645	2547.894936
477.005719	2545.097095
477.375734	2546.536345
477.745691	2542.818494
478.115588	2545.603731
478.485427	2546.125491
478.855207	2549.797971
479.224928	2547.637837
479.594591	2547.211859
479.964194	2547.761345
480.333739	2547.078269
480.703226	2547.605069
481.072653	2548.333516
481.442022	2546.261602
481.811333	2548.557847
482.180584	2548.300749
482.549777	2546.465769
482.918912	2546.420398
483.287988	2546.949719
483.657005	2546.838814
484.025964	2549.573640
484.394864	2550.501212
484.763706	2549.223280
485.132489	2547.829401
485.501213	2548.729247
485.869879	2547.340409
486.238487	2549.742519
486.607036	2548.295707
486.975527	2551.491799
487.343959	2548.290666
487.712333	2546.415357
488.080648	2548.817467
488.448905	2550.239072
488.817104	2547.315203
489.185244	2550.715461
489.553326	2550.849052
489.921350	2547.743701
490.289315	2549.974412
490.657222	2549.324103
491.025070	2548.499874
491.392861	2548.404092
491.760593	2548.227652
492.128267	2549.878630
492.495883	2549.757642
492.863440	2548.283105
493.230939	2549.921480
493.598380	2547.821839
493.965763	2546.344781
494.333088	2544.439225
494.700354	2545.041643
495.067563	2548.028526
495.434713	2544.966025
495.801805	2549.492982
496.168839	2548.366284
496.535815	2551.900133
496.902733	2553.331820
497.269593	2552.651264
497.636395	2549.508105
498.003139	2551.464073
498.369825	2549.150183
498.736453	2549.450132
499.103023	2551.227138
499.469535	2550.997766
499.835989	2548.053732
500.202385	2549.979453
500.568723	2549.611449
500.935003	2549.679504
501.301226	2550.977601
501.667390	2550.707900
502.033497	2547.463917
502.399546	2551.335523
502.765537	2551.083466
503.131470	2552.492468
503.497345	2550.801161
503.863163	2550.723023
504.228923	2551.922818
504.594625	2549.757642
504.960269	2551.869886
505.325856	2552.225287
505.691385	2549.041798
506.056856	2551.396017
506.422270	2550.912066
506.787625	2555.373488
507.152924	2550.894422
507.518164	2551.204453
507.883347	2551.045657
508.248472	2552.036244
508.613540	2552.870555
508.978550	2551.985832
509.343503	2551.116233
509.708398	2552.978939
510.073236	2553.251162
510.438016	2553.959444
510.802738	2550.549103
511.167403	2552.469783
511.532010	2552.633620
511.896561	2552.096738
512.261053	2552.225287
512.625488	2548.242775
512.989866	2547.927703
513.354186	2552.542880
513.718449	2548.222611
514.082655	2554.040102
514.446803	2552.096738
514.810894	2552.900802
515.174927	2554.541697
515.538904	2554.075390
515.902822	2553.488096
516.266684	2554.622356
516.630488	2555.156718
516.994235	2551.577499
517.357925	2554.022458
517.721558	2556.210319
518.085133	2551.101110
518.448651	2555.033210
518.812112	2557.568910
519.175516	2553.732592
519.538863	2556.081770
519.902152	2556.348951
520.265385	2556.013714
520.628560	2556.444733
520.991678	2555.628066
521.354739	2555.189485
521.717743	2556.298539
522.080690	2555.716286
522.443580	2558.423386
522.806413	2558.153684
523.169189	2558.045299
523.531908	2557.213509
523.894569	2556.351471
524.257174	2558.803993
524.619722	2557.939435
524.982213	2560.200392
525.344647	2559.424055
525.707025	2560.316339
526.069345	2557.768036
526.431608	2556.583364
526.793815	2560.701987
527.155964	2561.546380
527.518057	2561.415310
527.880093	2559.575289
528.242072	2560.470094
528.603995	2561.808520
528.965860	2562.231977
529.327669	2559.567727
529.689421	2557.165618
530.051117	2563.827502
530.412755	2564.886145
530.774337	2562.408418
531.135862	2562.312636
531.497331	2559.333314
531.858743	2556.417006
532.220098	2562.153839
532.581396	2556.580844
532.942638	2562.678119
533.303824	2565.150805
533.664953	2563.696432
534.026025	2564.215671
534.387040	2565.722976
534.747999	2565.259190
535.108902	2566.761454
535.469748	2565.637277
535.830537	2565.299519
536.191270	2568.112483
536.551947	2566.774057
536.912567	2567.494942
537.273131	2565.629715
537.633638	2566.012843
537.994089	2567.910837
538.354483	2568.271280
538.714821	2567.182390
539.075103	2568.813204
539.435328	2570.073492
539.795497	2569.009809
540.155609	2569.014850
540.515665	2571.790005
540.875665	2569.884449
541.235609	2569.518965
541.595496	2568.964438
541.955328	2570.479305
542.315102	2571.212793
542.674821	2567.873028
543.034483	2573.226734
543.394090	2569.738255
543.753640	2573.987948
544.113134	2571.416960
544.472571	2570.885118
544.831953	2571.732032
545.191278	2570.602813
545.550548	2570.892680
545.909761	2568.808163
546.268918	2572.238668
546.628019	2571.870663
546.987064	2570.877556
547.346053	2571.117011
547.704986	2569.816393
548.063863	2572.183215
548.422684	2572.553740
548.781449	2572.160530
549.140158	2573.246898
549.498811	2573.627506
549.857408	2571.598441
550.215949	2570.464182
550.574434	2569.327401
550.932864	2572.369738
551.291237	2567.810014
551.649555	2572.828483
552.007817	2574.829821
552.366022	2573.808987
552.724173	2571.968966
553.082267	2572.861250
553.440305	2575.104564
553.798288	2572.097515
554.156215	2571.258163
554.514086	2575.601117
554.871902	2570.900241
555.229661	2573.708164
555.587365	2573.849316
555.945014	2571.321178
556.302606	2572.778071
556.660143	2572.697413
557.017625	2569.637432
557.375050	2573.191446
557.732421	2573.390571
558.089735	2569.788667
558.446994	2570.484346
558.804197	2575.238154
559.161345	2571.595921
559.518437	2573.753534
559.875474	2572.652042
560.232455	2572.031980
560.589381	2572.861250
560.946251	2574.101374
561.303065	2572.480643
561.659825	2573.385530
562.016528	2572.904100
562.373177	2570.532237
562.729770	2573.072979
563.086307	2572.485684
563.442789	2572.059707
563.799216	2574.363514
564.155587	2571.142217
564.511904	2571.086764
564.868164	2572.611713
565.224370	2576.100192
565.580520	2572.725139
565.936615	2570.570046
566.292654	2576.448031
566.648638	2570.128945
567.004567	2570.960735
567.360441	2571.737073
567.716260	2573.887125
568.072023	2573.577094
568.427732	2568.341856
568.783385	2573.219172
569.138982	2566.259859
569.494525	2570.605334
569.850013	2569.740776
570.205445	2574.333267
570.560823	2570.812021
570.916145	2574.587845
571.271412	2574.608010
571.626625	2575.112125
571.981782	2571.842937
572.336884	2575.717064
572.691931	2573.007444
573.046923	2573.516600
573.401860	2571.265725
573.756743	2572.551219
574.111570	2574.552557
574.466342	2575.490212
574.821059	2572.699933
575.175722	2576.722774
575.530330	2572.457958
575.884882	2576.019533
576.239380	2573.793864
576.593823	2577.836869
576.948211	2573.834193
577.302544	2575.328895
577.656823	2573.216652
578.011047	2577.509194
578.365216	2574.189594
578.719330	2576.017012
579.073389	2577.297466
579.427394	2572.954512
579.781344	2576.027095
580.135239	2575.948957
580.489080	2578.088927
580.842866	2576.206056
581.196597	2582.920873
581.550273	2579.601273
581.903895	2578.260326
582.257463	2578.761921
582.610975	2580.352405
582.964434	2580.105388
583.317837	2581.285018
583.671186	2577.796540
584.024481	2584.700400
584.377721	2581.978177
584.730906	2580.634709
585.084037	2586.114444
585.437113	2583.372056
585.790135	2585.179310
586.143103	2585.476738
586.496016	2585.776686
586.848874	2582.845255
587.201679	2585.794330
587.554428	2582.376428
587.907124	2585.201995
588.259765	2583.200657
588.612352	2589.658375
588.964884	2589.620566
589.317362	2590.533015
589.669786	2591.614343
590.022155	2595.533840
590.374470	2595.261617
590.726731	2594.248345
591.078937	2594.059302
591.431090	2598.866042
591.783188	2596.176587
592.135232	2597.966196
592.487222	2598.699684
592.839157	2601.696650
593.191038	2599.090374
593.542866	2600.784201
593.894639	2601.484922
594.246358	2604.335694
594.598022	2602.813266
594.949633	2606.936930
595.301190	2605.931219
595.652692	2607.342742
596.004141	2611.723505
596.355535	2609.283587
596.706876	2609.661673
597.058162	2614.027312
597.409395	2614.927158
597.760573	2615.189298
598.111698	2616.162241
598.462768	2618.710544
598.813785	2617.651902
599.164748	2622.393107
599.515657	2620.928652
599.866511	2627.207409
600.217312	2626.204220
600.568060	2627.686319
600.918753	2631.971300
601.269392	2631.807462
601.619978	2633.564304
601.970510	2637.453554
602.320988	2638.381127
602.671412	2644.561581
603.021783	2640.155613
603.372100	2643.462610
603.722363	2647.974442
604.072572	2649.927890
604.422728	2654.359064
604.772830	2651.762870
605.122878	2653.484424
605.472872	2656.882161
605.822813	2659.468273
606.172701	2664.721156
606.522534	2669.444717
606.872314	2672.955880
607.222041	2674.821107
607.571714	2684.472396
607.921333	2682.196315
608.270899	2686.367870
608.620411	2691.466997
608.969870	2692.376926
609.319276	2696.427493
609.668627	2705.211703
610.017926	2711.727395
610.367171	2719.614280
610.716362	2722.449929
611.065500	2724.531925
611.414585	2732.280179
611.763616	2732.897720
612.112594	2736.426528
612.461518	2745.001531
612.810389	2751.348343
613.159207	2754.332706
613.507971	2757.856473
613.856682	2768.858791
614.205340	2772.382558
614.553945	2781.479320
614.902496	2785.870165
615.250994	2792.380815
615.599439	2797.507668
615.947830	2804.522434
616.296169	2815.048363
616.644454	2819.257727
616.992686	2827.409272
617.340864	2840.828824
617.688990	2845.300327
618.037063	2857.252903
618.385082	2863.851774
618.733048	2878.337529
619.080961	2882.241903
619.428821	2896.357134
619.776628	2903.051786
620.124382	2908.914648
620.472083	2919.014600
620.819731	2924.645568
621.167326	2926.193203
621.514868	2931.675458
621.862357	2931.806528
622.209793	2938.044955
622.557176	2942.776078
622.904506	2947.562654
623.251783	2942.922272
623.599007	2950.612552
623.946179	2958.403655
624.293297	2963.762402
624.640363	2967.233236
624.987376	2976.665235
625.334336	2981.741677
625.681243	2986.016575
626.028097	2992.756598
626.374899	2998.813544
626.721647	3007.532220
627.068343	3010.214114
627.414987	3018.302645
627.761577	3023.467307
628.108115	3038.734442
628.454600	3035.235881
628.801032	3055.108109
629.147412	3054.442677
629.493739	3064.872824
629.840014	3068.167218
630.186236	3086.355702
630.532405	3084.185485
630.878521	3100.690222
631.224585	3106.764813
631.570597	3102.963783
631.916556	3125.187710
632.262462	3131.796662
632.608316	3141.962149
632.954117	3147.648571
633.299866	3152.919097
633.645562	3164.115500
633.991206	3164.299502
634.336797	3164.528874
634.682336	3165.274965
635.027823	3172.509021
635.373257	3174.399453
635.718639	3177.824917
636.063968	3188.030733
636.409245	3178.409691
636.754470	3187.516536
637.099642	3189.568285
637.444762	3192.706404
637.789829	3203.776777
638.134845	3203.471788
638.479808	3208.903631
638.824719	3219.847976
639.169577	3215.273129
639.514383	3225.499109
639.859137	3224.178327
640.203839	3234.863053
640.548489	3243.662387
640.893086	3245.404105
641.237632	3250.886360
641.582125	3262.831374
641.926566	3265.165428
642.270955	3283.777368
642.615292	3294.547794
642.959576	3305.615647
643.303809	3311.939774
643.647990	3328.804955
643.992118	3331.257476
644.336195	3330.103052
644.680219	3351.626258
645.024192	3351.510312
645.368112	3389.069428
645.711981	3403.988723
646.055797	3430.792538
646.399562	3440.905093
646.743274	3482.776917
647.086935	3505.361286
647.430544	3519.592463
647.774101	3539.545350
648.117606	3543.517779
648.461059	3554.474727
648.804460	3559.152918
649.147810	3537.223899
649.491108	3542.620454
649.834354	3549.413409
650.177548	3536.634084
650.520690	3525.924152
650.863781	3532.918753
651.206820	3550.456927
651.549807	3535.101573
651.892742	3535.250287
652.235626	3545.957698
652.578458	3551.949109
652.921238	3536.066954
653.263967	3555.787948
653.606644	3548.256464
653.949269	3562.938824
654.291843	3549.723440
654.634365	3576.134045
654.976836	3581.916248
655.319255	3581.840631
655.661622	3589.462855
656.003938	3603.031121
656.346203	3593.291612
656.688416	3617.055611
657.030577	3603.525154
657.372687	3608.916668
657.714746	3610.912965
658.056753	3635.140750
658.398708	3627.493320
658.740612	3629.040954
659.082465	3662.047909
659.424266	3664.346675
659.766016	3674.791946
660.107715	3682.078934
660.449362	3694.066798
660.790958	3703.282027
661.132503	3709.651525
661.473996	3733.637335
661.815438	3734.940473
662.156829	3745.930188
662.498168	3754.245572
662.839456	3746.600662
663.180693	3775.904889
663.521879	3780.918317
663.863013	3786.085499
664.204097	3813.136331
664.545129	3829.406655
664.886110	3845.571115
665.227040	3868.251266
665.567918	3856.122250
665.908746	3882.268194
666.249522	3896.630442
666.590248	3896.753950
666.930922	3917.775561
667.271545	3938.303140
667.612118	3946.489974
667.952639	3941.645425
668.293109	3971.242039
668.633528	3956.526911
668.973896	3966.785659
669.314213	3974.385198
669.654480	3982.887104
669.994695	3983.963391
670.334859	3987.966067
670.674973	4005.171525
671.015035	4010.615971
671.355047	4020.806664
671.695008	4024.239689
672.034918	4013.633102
672.374777	4030.997356
672.714585	4032.544990
673.054342	4043.017987
673.394049	4053.201118
673.733705	4079.742793
674.073310	4083.571550
674.412864	4064.725196
674.752368	4077.126434
675.091820	4091.597067
675.431223	4061.032551
675.770574	4077.401177
676.109875	4059.268147
676.449125	4075.409922
676.788324	4065.728386
677.127473	4047.164337
677.466571	4050.186508
677.805619	4063.064136
678.144616	4061.478693
678.483562	4062.549938
678.822458	4048.543092
679.161303	4057.133218
679.500098	4061.145977
679.838842	4055.086510
680.177535	4072.281886
680.516179	4083.894183
680.854771	4097.613684
681.193314	4145.716374
681.531805	4204.889438
681.870247	4303.350734
682.208638	4356.514742
682.546978	4371.310529
682.885268	4372.124675
683.223508	4333.736289
683.561697	4315.706602
683.899836	4310.700736
684.237925	4289.479999
684.575963	4273.431486
684.913951	4263.392028
685.251889	4309.463133
685.589776	4288.305410
685.927614	4274.825365
686.265401	4330.767049
686.603137	4320.888908
686.940824	4378.794122
687.278460	4392.342223
687.616046	4403.639448
687.953582	4443.593113
688.291068	4441.438020
688.628504	4493.190505
688.965889	4467.246207
689.303224	4446.915234
689.640510	4430.299591
689.977745	4394.159559
690.314930	4346.525696
690.652065	4322.393693
690.989150	4270.885703
691.326185	4245.178339
691.663170	4227.486410
692.000105	4187.862940
692.336990	4143.483143
692.673825	4145.935664
693.010610	4107.645580
693.347345	4059.752098
693.684030	4071.644180
694.020665	4048.104512
694.357251	3995.850432
694.693786	4010.855426
695.030272	3995.855473
695.366707	3979.975838
695.703093	3960.632931
696.039429	3982.204028
696.375716	3984.220490
696.711952	3964.507057
697.048139	3959.486068
697.384276	3954.260912
697.720363	3966.818427
698.056400	3983.489522
698.392388	3950.971559
698.728326	3941.224488
699.064214	3930.252417
699.400053	3931.933642
699.735842	3919.003082
700.071581	3907.257194
700.407270	3893.946027
700.742910	3889.313207
701.078501	3857.773228
701.414042	3865.113148
701.749533	3851.007999
702.084974	3806.204744
702.420366	3856.031509
702.755709	3819.888957
703.091002	3782.415539
703.426246	3830.525791
703.761440	3797.531439
704.096584	3769.711832
704.431679	3796.036737
704.766725	3790.574647
705.101721	3787.900315
705.436668	3811.724808
705.771565	3772.333232
706.106413	3799.850370
706.441212	3827.977488
706.775961	3842.445599
707.110661	3823.246365
707.445311	3843.146320
707.779913	3871.286041
708.114465	3878.439438
708.448967	3894.810585
708.783421	3944.145837
709.117825	3973.273624
709.452180	3978.909634
709.786485	4012.357690
710.120742	4073.978234
710.454949	4058.658167
710.789107	4112.641363
711.123216	4162.339578
711.457275	4154.112415
711.791286	4211.821024
712.125247	4225.817788
712.459159	4149.207373
712.793023	4210.366651
713.126837	4199.868448
713.460602	4193.677911
713.794318	4133.645331
714.127985	4152.620234
714.461602	4098.770628
714.795171	4081.993668
715.128691	4044.679048
715.462162	4007.871063
715.795584	3976.484839
716.128957	3968.386225
716.462281	3930.471707
716.795556	3917.185746
717.128782	3894.472828
717.461960	3847.582535
717.795088	3858.229452
718.128167	3830.248528
718.461198	3785.377217
718.794180	3789.944503
719.127113	3773.268366
719.459997	3765.474742
719.792833	3733.735637
720.125619	3727.537539
720.458357	3703.400494
720.791046	3711.017678
721.123686	3690.023792
721.456278	3657.773011
721.788821	3674.534847
722.121315	3656.212773
722.453761	3632.453815
722.786158	3648.940909
723.118506	3671.454702
723.450805	3630.845687
723.783056	3650.725478
724.115259	3664.450019
724.447412	3675.429652
724.779518	3667.366326
725.111574	3674.300433
725.443582	3699.859083
725.775542	3686.366435
726.107453	3728.702045
726.439315	3731.819999
726.771129	3743.389447
727.102895	3768.398611
727.434612	3810.852688
727.766281	3821.817198
728.097901	3817.804439
728.429473	3827.191068
728.760996	3838.304292
729.092471	3833.308508
729.423897	3823.155624
729.755276	3833.769774
730.086606	3838.873942
730.417887	3867.797562
730.749120	3924.649175
731.080305	3981.740242
731.411442	4006.595651
731.742530	3982.047752
732.073570	3985.899194
732.404562	4038.443140
732.735506	4029.757232
733.066401	3998.386132
733.397249	3952.882157
733.728048	3896.282602
734.058798	3833.663909
734.389501	3777.182822
734.720156	3724.139801
735.050762	3688.836601
735.381320	3688.559337
735.711831	3641.558139
736.042293	3621.295221
736.372707	3640.880104
736.703073	3617.100981
737.033391	3606.665793
737.363661	3628.088176
737.693883	3647.973007
738.024056	3654.455931
738.354182	3650.233965
738.684260	3704.844785
739.014290	3721.404975
739.344272	3712.976166
739.674207	3751.039398
740.004093	3756.365377
740.333931	3748.738111
740.663722	3752.889501
740.993464	3756.693052
741.323159	3735.658838
741.652806	3713.545816
741.982405	3695.823640
742.311956	3671.240453
742.641460	3664.172755
742.970915	3644.943274
743.300323	3611.059158
743.629683	3587.516970
743.958996	3576.217224
744.288260	3561.635686
744.617477	3530.267106
744.946647	3517.475178
745.275768	3496.236797
745.604842	3503.808610
745.933869	3456.504943
746.262847	3452.905559
746.591778	3486.341012
746.920662	3456.888071
747.249498	3434.250770
747.578286	3479.182574
747.907027	3490.636075
748.235720	3486.623317
748.564365	3511.781195
748.892963	3511.433356
749.221514	3497.434071
749.550017	3478.413798
749.878473	3476.868684
750.206881	3451.617545
750.535242	3450.483285
750.863555	3454.415385
751.191821	3447.725774
751.520039	3426.905808
751.848210	3410.796801
752.176334	3445.565639
752.504411	3449.646453
752.832440	3414.567584
753.160421	3399.560069
753.488356	3410.640526
753.816243	3422.036054
754.144082	3377.936040
754.471875	3367.911706
754.799620	3388.003224
755.127318	3378.553581
755.454969	3378.167933
755.782572	3382.505846
756.110129	3360.430633
756.437638	3357.905015
756.765100	3367.339535
757.092515	3379.168602
757.419882	3383.846793
757.747203	3357.335365
758.074477	3363.629245
758.401703	3379.236658
758.728882	3396.149729
759.056014	3403.915626
759.383099	3405.387643
759.710138	3399.779360
760.037129	3415.532965
760.364073	3448.320630
760.690970	3431.914195
761.017820	3414.300403
761.344623	3429.605346
761.671379	3475.457161
761.998088	3522.581867
762.324751	3641.096874
762.651366	3866.698591
762.977935	4292.575268
763.304456	4690.455897
763.630931	4778.829844
763.957359	4452.389927
764.283740	4147.029594
764.610074	3978.856702
764.936362	3792.437353
765.262602	3648.890497
765.588796	3549.826783
765.914943	3468.906182
766.241044	3386.866444
766.567097	3360.128164
766.893104	3316.721309
767.219064	3285.196453
767.544978	3266.619801
767.870845	3215.623489
768.196665	3197.797969
768.522438	3208.384392
768.848165	3203.948177
769.173846	3169.713701
769.499479	3155.353974
769.825066	3142.405771
770.150607	3123.486320
770.476101	3139.058444
770.801548	3137.241108
771.126949	3093.020107
771.452303	3075.320616
771.777611	3082.290011
772.102872	3088.619180
772.428087	3064.514903
772.753256	3055.733213
773.078378	3049.706513
773.403453	3018.461442
773.728482	3007.612878
774.053465	3027.820344
774.378401	3016.974301
774.703291	2987.896926
775.028135	2990.742657
775.352932	2985.658653
775.677683	2973.217086
776.002388	2971.170377
776.327046	2970.933443
776.651658	2961.146043
776.976224	2952.906277
777.300743	2952.392079
777.625216	2943.885132
777.949643	2934.594286
778.274024	2941.440173
778.598359	2930.798297
778.922647	2934.095211
779.246889	2930.952052
779.571086	2917.756832
779.895236	2914.795154
780.219339	2925.608429
780.543397	2937.971859
780.867409	2940.038732
781.191374	2931.483894
781.515294	2930.921805
781.839167	2931.183945
782.162995	2924.998449
782.486776	2930.412648
782.810511	2929.459870
783.134201	2914.918662
783.457844	2923.153387
783.781441	2915.256419
784.104993	2894.872514
784.428498	2895.134654
784.751958	2908.120666
785.075372	2902.668658
785.398739	2888.966802
785.722061	2906.013464
786.045337	2913.837335
786.368568	2901.065571
786.691752	2894.065929
787.014891	2941.727518
787.337983	2968.090232
787.661030	2990.246103
787.984031	3054.392266
788.306987	3100.271807
788.629897	3090.169334
788.952760	3079.179619
789.275579	3064.953483
789.598351	3007.189422
789.921078	2966.628298
790.243759	2957.753346
790.566395	2941.987138
790.888984	2921.270516
791.211529	2901.952814
791.534027	2894.464180
791.856480	2884.092006
792.178888	2870.017105
792.501249	2862.984695
792.823566	2860.587627
793.145836	2856.678212
793.468062	2854.387007
793.790241	2852.557068
794.112375	2857.056298
794.434464	2867.718339
794.756507	2873.251005
795.078505	2878.816439
795.400457	2891.114334
795.722364	2929.411979
796.044226	2949.826132
796.366042	2953.208746
796.687812	2940.487394
797.009538	2962.189562
797.331218	2948.984259
797.652852	2935.352979
797.974442	2916.723395
798.295986	2918.197933
798.617484	2911.241140
798.938938	2897.357803
799.260346	2882.435987
799.581709	2878.027498
799.903026	2870.964842
800.224299	2867.433513
800.545526	2854.747450
800.866708	2840.438135
801.187845	2832.775581
801.508936	2831.497648
801.829983	2841.128773
802.150984	2828.780466
802.471940	2816.507777
802.792851	2813.299083
803.113717	2816.769917
803.434538	2819.499702
803.755314	2812.500060
804.076045	2809.301448
804.396731	2805.689461
804.717372	2808.983855
805.037967	2800.895324
805.358518	2807.242137
805.679024	2820.076914
805.999485	2816.908549
806.319901	2823.192347
806.640272	2811.055769
806.960598	2817.876451
807.280879	2826.287616
807.601115	2832.578976
807.921306	2818.622541
808.241453	2819.850062
808.561554	2824.397183
808.881611	2826.801813
809.201623	2818.652788
809.521590	2818.340237
809.841513	2814.090544
810.161390	2818.748570
810.481223	2811.635502
810.801011	2803.075623
811.120755	2798.674696
811.440453	2805.661735
811.760107	2802.712660
812.079716	2800.625622
812.399281	2790.318983
812.718801	2785.880247
813.038276	2780.259361
813.357707	2787.576595
813.677093	2796.053296
813.996434	2789.577933
814.315731	2781.940585
814.634983	2779.780451
814.954191	2780.241717
815.273354	2794.558593
815.592473	2802.579069
815.911547	2808.630974
816.230577	2811.065852
816.549562	2819.338385
816.868502	2816.333857
817.187399	2830.743996
817.506250	2844.103053
817.825058	2841.108608
818.143821	2850.248220
818.462539	2864.670961
818.781213	2891.953686
819.099843	2924.776638
819.418429	2981.204794
819.736970	3037.219575
820.055466	3107.715070
820.373919	3211.633416
820.692327	3344.785412
821.010691	3504.925226
821.329011	3928.278805
821.647286	4776.044607
821.965517	6076.939562
822.283704	6760.227637
822.601847	6732.831486
822.919945	6141.267206
823.237999	5677.254200
823.556010	5128.141476
823.873976	4604.549594
824.191897	4218.455183
824.509775	3944.216413
824.827609	3687.228472
825.145398	3570.210689
825.463144	3561.892785
825.780845	3653.808143
826.098502	3751.379676
826.416116	4023.271788
826.733685	4316.654339
827.051210	4370.060323
827.368692	4265.781535
827.686129	4009.103625
828.003522	3702.417469
828.320872	3459.365798
828.638177	3272.510390
828.955439	3140.711943
829.272656	3060.817216
829.589830	2995.370436
829.906960	2951.673715
830.224046	2907.916499
830.541088	2877.314175
830.858086	2860.948069
831.175041	2845.862416
831.491952	2846.421984
831.808819	2857.525126
832.125642	2879.116387
832.442421	2927.309818
832.759157	3004.071468
833.075849	3171.546160
833.392497	3442.823252
833.709101	3636.607726
834.025662	3585.162751
834.342179	3430.611057
834.658653	3260.401538
834.975083	3117.426853
835.291469	3027.664068
835.607811	2950.405865
835.924110	2892.780435
836.240366	2847.384845
836.556578	2802.269038
836.872746	2781.849845
837.188871	2760.553490
837.504952	2745.374576
837.820990	2739.715881
838.136984	2723.949672
838.452935	2718.543035
838.768842	2716.642520
839.084706	2734.304202
839.400526	2810.874288
839.716303	2936.981272
840.032037	3012.686800
840.347727	2995.619973
840.663373	2938.551591
840.978977	2867.403267
841.294537	2798.830971
841.610054	2750.887078
841.925527	2733.099366
842.240957	2714.063969
842.556344	2688.341482
842.871687	2674.879081
843.186987	2668.809531
843.502244	2660.340393
843.817458	2657.414003
844.132629	2646.835142
844.447756	2640.621920
844.762840	2630.544653
845.077881	2636.034470
845.392879	2633.345014
845.707833	2629.233953
846.022745	2621.984774
846.337613	2622.138529
846.652438	2626.526853
846.967221	2623.839918
847.281960	2625.687501
847.596656	2620.469907
847.911309	2619.345730
848.225919	2616.003445
848.540485	2611.637806
848.855009	2613.760131
849.169490	2615.395986
849.483928	2612.371293
849.798323	2612.915738
850.112675	2614.110492
850.426984	2611.783999
850.741251	2610.564040
851.055474	2607.244440
851.369654	2617.183075
851.683792	2614.407920
851.997887	2610.241406
852.311938	2608.855089
852.625947	2615.290122
852.939914	2613.802981
853.253837	2615.718620
853.567718	2610.334667
853.881555	2613.903804
854.195350	2613.737446
854.509103	2613.644185
854.822812	2609.666714
855.136479	2610.369955
855.450103	2612.779627
855.763685	2613.702158
856.077224	2612.172168
856.390720	2609.535644
856.704173	2611.945316
857.017584	2615.088475
857.330953	2618.176182
857.644278	2620.661471
857.957561	2617.997221
858.270802	2614.271808
858.584000	2613.165275
858.897155	2616.573095
859.210268	2621.475617
859.523339	2613.379524
859.836367	2609.429780
860.149352	2609.152517
860.462295	2611.378186
860.775195	2605.792588
861.088054	2608.131683
861.400869	2605.396857
861.713642	2605.341404
862.026373	2605.464913
862.339062	2607.136055
862.651708	2614.027312
862.964312	2615.050667
863.276873	2610.261571
863.589392	2614.622169
863.901869	2620.359002
864.214303	2624.066770
864.526696	2628.800414
864.839045	2627.313273
865.151353	2627.829992
865.463619	2632.389715
865.775842	2629.649848
866.088023	2633.342493
866.400162	2633.803759
866.712258	2630.136320
867.024313	2628.566000
867.336325	2624.853190
867.648296	2627.184724
867.960224	2632.190590
868.272110	2629.458284
868.583954	2623.701287
868.895755	2625.947121
869.207515	2627.469549
869.519233	2638.398771
869.830909	2632.503141
870.142542	2629.329735
870.454134	2631.890641
870.765684	2633.034983
871.077191	2638.865077
871.388657	2642.398926
871.700081	2639.827938
872.011463	2638.779378
872.322803	2639.659059
872.634101	2644.460758
872.945357	2650.530307
873.256571	2657.083807
873.567744	2650.469814
873.878874	2652.571975
874.189963	2654.134732
874.501010	2657.930721
874.812015	2662.697132
875.122979	2662.190496
875.433900	2654.369146
875.744780	2650.066521
876.055618	2659.271668
876.366415	2660.758809
876.677169	2663.864159
876.987882	2655.548776
877.298554	2657.318221
877.609183	2668.255004
877.919771	2671.128462
878.230317	2679.058197
878.540822	2687.557582
878.851285	2698.116279
879.161707	2723.722820
879.472087	2757.233890
879.782425	2804.671148
880.092722	2914.671646
880.402977	3093.962803
880.713191	3337.027077
881.023363	3608.594034
881.333494	3781.677010
881.643583	3948.808904
881.953631	3948.393009
882.263637	3776.048562
882.573602	3563.301787
882.883526	3447.236782
883.193408	3339.192252
883.503248	3246.281266
883.813048	3138.166160
884.122806	3030.729089
884.432522	2949.563992
884.742197	2889.112996
885.051831	2855.538911
885.361424	2822.637820
885.670975	2791.581792
885.980485	2758.862183
886.289954	2746.402971
886.599382	2730.067112
886.908768	2723.372460
887.218113	2702.618030
887.527417	2690.690660
887.836680	2680.711696
888.145901	2677.780265
888.455082	2670.352124
888.764221	2659.319559
889.073319	2651.770431
889.382376	2650.986532
889.691392	2653.723878
890.000366	2652.700524
890.309300	2651.029382
890.618193	2652.551810
890.927044	2655.064825
891.235855	2654.626245
891.544625	2655.967192
891.853353	2654.313693
892.162041	2660.962975
892.470687	2679.897549
892.779293	2691.101514
893.087858	2701.380426
893.396381	2720.798951
893.704864	2763.404263
894.013306	2826.204437
894.321707	2911.664597
894.630068	2958.378449
894.938387	2975.737663
895.246665	2972.523927
895.554903	2928.459201
895.863100	2890.055691
896.171256	2837.214317
896.479371	2775.946653
896.787446	2742.561612
897.095480	2720.859445
897.403473	2718.343909
897.711425	2702.925540
898.019336	2688.676719
898.327207	2675.211797
898.635038	2672.668535
898.942827	2673.999399
899.250576	2660.811741
899.558284	2651.473003
899.865952	2646.557878
900.173579	2646.512508
900.481165	2642.812301
900.788711	2636.674696
901.096216	2630.340486
901.403681	2625.213633
901.711105	2628.707152
902.018489	2622.123406
902.325832	2627.948459
902.633135	2628.061885
902.940397	2643.691982
903.247619	2677.626509
903.554800	2742.443145
903.861941	2864.539891
904.169041	2979.989876
904.476101	3034.565408
904.783121	3029.914943
905.090100	2976.791264
905.397039	2904.939698
905.703938	2836.538802
906.010796	2778.999072
906.317614	2732.242370
906.624391	2695.174766
906.931129	2672.217351
907.237826	2652.035092
907.544483	2638.169398
907.851099	2623.345885
908.157675	2613.550923
908.464211	2606.747886
908.770707	2596.335383
909.077163	2595.727924
909.383578	2590.527974
909.689954	2590.011256
909.996289	2590.838005
910.302584	2588.670309
910.608839	2584.619742
910.915054	2585.668302
911.221229	2588.115782
911.527363	2588.970257
911.833458	2586.381625
912.139513	2589.618046
912.445527	2591.170721
912.751502	2596.443768
913.057436	2600.678337
913.363331	2604.733945
913.669186	2614.201232
913.975000	2627.225053
914.280775	2642.688793
914.586510	2660.330311
914.892205	2693.856504
915.197859	2756.432347
915.503475	2833.340190
915.809050	2895.212792
916.114585	2905.355593
916.420081	2914.328847
916.725536	2927.816454
917.030952	2905.481622
917.336328	2860.398583
917.641665	2815.078610
917.946961	2767.684202
918.252218	2735.975345
918.557435	2713.181767
918.862612	2691.119158
919.167750	2677.757579
919.472848	2663.967503
919.777906	2647.457724
920.082925	2636.420118
920.387904	2627.189765
920.692843	2625.392594
920.997743	2618.274485
921.302603	2613.503032
921.607423	2605.805191
921.912204	2600.882504
922.216946	2599.901999
922.521647	2596.680702
922.826310	2593.333376
923.130932	2588.135946
923.435516	2581.179154
923.740059	2582.401634
924.044564	2581.161510
924.349028	2578.880388
924.653454	2572.291600
924.957840	2569.675241
925.262186	2566.804304
925.566493	2571.830334
925.870761	2563.867832
926.174989	2567.240364
926.479178	2564.939077
926.783328	2564.011505
927.087438	2559.683674
927.391509	2562.504200
927.695541	2558.932542
927.999533	2558.849363
928.303486	2557.586554
928.607400	2557.614280
928.911275	2555.239897
929.215110	2557.710062
929.518906	2554.103117
929.822663	2557.508416
930.126381	2556.550597
930.430060	2554.894578
930.733699	2557.400031
931.037299	2558.662840
931.340861	2557.934394
931.644383	2558.332645
931.947866	2555.272664
932.251309	2557.228632
932.554714	2556.268292
932.858080	2558.519168
933.161407	2556.545556
933.464694	2557.163097
933.767943	2554.332489
934.071153	2554.519012
934.374323	2553.301573
934.677455	2552.888199
934.980548	2551.330482
935.283602	2554.390462
935.586617	2550.642365
935.889593	2554.108158
936.192530	2555.398693
936.495428	2553.646892
936.798287	2552.179917
937.101108	2555.310473
937.403890	2558.993036
937.706632	2559.358520
938.009336	2564.681978
938.312002	2568.977041
938.614628	2569.518965
938.917216	2573.892166
939.219765	2573.632547
939.522275	2576.100192
939.824747	2573.592217
940.127179	2568.465364
940.429573	2568.364541
940.731929	2567.631053
941.034246	2564.555949
941.336524	2567.144582
941.638763	2568.077195
941.940964	2565.750703
942.243126	2563.923284
942.545250	2562.736093
942.847335	2561.934549
943.149381	2561.037224
943.451389	2560.429765
943.753359	2559.996226
944.055290	2556.573282
944.357182	2560.028993
944.659036	2556.631255
944.960851	2554.637479
945.262628	2558.428427
945.564367	2556.545556
945.866067	2559.250135
946.167729	2560.081925
946.469352	2559.643345
946.770937	2558.753581
947.072484	2555.917932
947.373992	2558.554456
947.675462	2555.489434
947.976893	2556.142263
948.278286	2554.990360
948.579641	2554.413148
948.880958	2557.221070
949.182236	2551.663198
949.483476	2552.285781
949.784678	2554.899619
950.085841	2552.827705
950.386967	2556.805175
950.688054	2552.061449
950.989103	2555.686039
951.290114	2557.026986
951.591087	2558.299877
951.892021	2556.785011
952.192917	2557.740309
952.493776	2558.289795
952.794596	2562.534447
953.095378	2562.088304
953.396122	2564.003943
953.696828	2562.514282
953.997496	2556.827860
954.298126	2556.593447
954.598718	2559.063612
954.899272	2556.540515
955.199788	2553.180586
955.500266	2552.467262
955.800706	2549.140101
956.101108	2549.568599
956.401472	2547.539534
956.701798	2544.124153
957.002087	2545.245809
957.302337	2545.545758
957.602550	2547.370656
957.902724	2545.364277
958.202861	2546.314534
958.502960	2543.504091
958.803022	2547.549617
959.103045	2544.804708
959.403031	2548.028526
959.702979	2542.962167
960.002889	2542.936961
960.302762	2543.584749
960.602596	2542.553833
960.902393	2542.238761
961.202153	2544.247661
961.501875	2544.230017
961.801559	2543.095757
962.101205	2545.427291
962.400814	2542.127856
962.700385	2542.876467
962.999918	2542.059800
963.299414	2540.343287
963.598873	2543.199101
963.898293	2540.875129
964.197677	2542.717671
964.497022	2541.066693
964.796331	2541.152393
965.095601	2542.737835
965.394835	2543.430994
965.694030	2541.974101
965.993189	2542.765562
966.292309	2540.171888
966.591393	2542.760521
966.890439	2542.876467
967.189447	2543.403268
967.488419	2541.611137
967.787353	2542.619368
968.086249	2539.745911
968.385108	2542.647095
968.683930	2541.311189
968.982714	2540.181970
969.281462	2540.930582
969.580172	2543.892260
969.878844	2541.452341
970.177480	2543.796478
970.476078	2543.015099
970.774639	2544.471992
971.073162	2543.070552
971.371649	2539.637526
971.670098	2539.703061
971.968510	2539.904707
972.266885	2538.175591
972.565223	2540.844882
972.863524	2546.551468
973.161788	2540.892773
973.460014	2544.406457
973.758204	2540.998637
974.056356	2544.547610
974.354471	2542.410160
974.652550	2540.814635
974.950591	2542.508463
975.248595	2543.551982
975.546563	2541.369162
975.844493	2543.279759
976.142386	2543.952753
976.440243	2541.255736
976.738062	2540.275232
977.035845	2544.335881
977.333590	2543.378062
977.631299	2539.491332
977.928971	2540.837320
978.226606	2541.280942
978.524204	2543.035263
978.821765	2543.337733
979.119290	2542.750438
979.416777	2540.930582
979.714228	2541.114584
980.011642	2541.530479
980.309020	2543.824204
980.606360	2540.882691
980.903664	2541.623740
981.200931	2544.565254
981.498162	2545.512991
981.795356	2545.265974
982.092513	2546.770758
982.389633	2549.800492
982.686717	2552.303425
982.983764	2553.230997
983.280775	2553.243600
983.577749	2556.772408
983.874686	2554.745864
984.171587	2552.091696
984.468451	2549.649257
984.765279	2545.626417
985.062070	2546.488454
985.358824	2545.233207
985.655543	2543.264636
985.952224	2543.254554
986.248869	2541.437218
986.545478	2540.696168
986.842050	2538.266332
987.138586	2536.804397
987.435086	2539.413194
987.731549	2537.137113
988.027975	2542.649615
988.324366	2540.587783
988.620719	2541.893442
988.917037	2538.919161
989.213318	2540.676003
989.509563	2537.779861
989.805772	2540.282793
990.101944	2538.445293
990.398080	2540.471837
990.694180	2538.556198
990.990244	2541.341436
991.286271	2539.319933
991.582262	2541.202804
991.878217	2540.751621
992.174136	2537.825231
992.470019	2538.263811
992.765865	2542.389996
993.061676	2541.938813
993.357450	2540.865047
993.653188	2537.086702
993.948890	2542.442928
994.244556	2539.430838
994.540186	2539.619882
994.835780	2541.356559
995.131337	2542.473175
995.426859	2542.899152
995.722345	2541.843031
996.017795	2544.129194
996.313208	2544.529966
996.608586	2543.073072
996.903928	2543.055428
997.199234	2542.568957
997.494504	2542.337064
997.789738	2544.797147
998.084936	2542.677342
998.380099	2541.553164
998.675225	2538.914120
998.970316	2542.531148
999.265371	2540.761703
999.560390	2541.119625
999.855373	2538.014274
1000.150320	2539.556867
1000.445232	2540.902855
1000.740108	2538.818338
1001.034948	2539.957639
1001.329752	2538.798174
1001.624521	2539.650129
1001.919254	2532.723583
1002.213951	2534.160312
1002.508613	2535.037473
1002.803239	2538.425128
1003.097829	2533.517565
1003.392384	2537.560570
1003.686903	2537.222813
1003.981386	2540.287835
1004.275834	2538.883873
1004.570246	2535.929757
1004.864623	2536.217103
1005.158964	2537.298430
1005.453270	2538.674665
1005.747540	2537.913451
1006.041775	2536.459078
1006.335974	2540.081147
1006.630138	2537.353883
1006.924266	2538.750283
1007.218359	2539.438400
1007.512416	2538.299099
1007.806438	2540.008051
1008.100425	2539.042670
1008.394376	2539.269522
1008.688292	2539.072917
1008.982172	2540.514687
1009.276017	2539.829090
1009.569827	2537.058976
1009.863602	2537.633667
1010.157341	2536.554860
1010.451045	2538.483102
1010.744714	2538.238606
1011.038347	2536.953111
1011.331945	2539.503935
1011.625508	2537.915972
1011.919036	2538.304141
1012.212528	2538.601569
1012.505986	2540.008051
1012.799408	2536.038142
1013.092795	2535.876825
1013.386147	2536.373379
1013.679464	2540.088709
1013.972745	2540.305479
1014.265992	2537.447144
1014.559204	2538.132741
1014.852380	2539.680376
1015.145521	2539.493853
1015.438628	2539.082999
1015.731699	2540.025695
1016.024736	2536.595189
1016.317737	2536.948070
1016.610703	2537.457227
1016.903635	2535.420601
1017.196531	2532.736186
1017.489393	2535.503780
1017.782219	2535.304654
1018.075011	2535.221475
1018.367768	2537.857998
1018.660490	2535.256763
1018.953177	2535.256763
1019.245829	2535.256763
