Dividing Wavelength (nm)	Counts (n)	Blue Motor Position (mm): 5.600000	Red Motor Position (mm): 0.000000	
326.493990	2142.316465
326.888308	2142.316465
327.282561	2142.316465
327.676750	2109.964860
328.070874	2109.191043
328.464933	2111.515015
328.858929	2116.745212
329.252859	2126.242746
329.646726	2137.655918
330.040528	2150.752836
330.434265	2168.016267
330.827938	2184.513443
331.221547	2204.773840
331.615091	2223.048023
332.008571	2241.027298
332.401986	2261.484301
332.795338	2279.771086
333.188625	2298.801442
333.581847	2319.875986
333.975006	2338.906341
334.368100	2356.951152
334.761129	2374.353215
335.154095	2390.099259
335.546996	2406.488050
335.939833	2421.460277
336.332606	2434.093408
336.725315	2449.494133
337.117960	2459.480659
337.510540	2468.002730
337.903056	2479.488999
338.295508	2486.405462
338.687896	2494.514158
339.080220	2504.790550
339.472480	2509.012516
339.864676	2515.263547
340.256807	2514.923269
340.648875	2518.744464
341.040879	2520.372756
341.432818	2524.388035
341.824694	2525.323169
342.216506	2527.558921
342.608253	2526.270906
342.999937	2527.473222
343.391557	2526.316277
343.783113	2522.694208
344.174605	2525.832326
344.566033	2520.196316
344.957397	2521.383508
345.348697	2521.055833
345.739934	2518.625997
346.131106	2515.528208
346.522215	2514.623320
346.913260	2510.529903
347.304241	2509.047804
347.695159	2508.251302
348.086012	2507.921106
348.476802	2504.052021
348.867528	2502.847185
349.258191	2502.764006
349.648789	2501.579335
350.039324	2498.484066
350.429796	2498.950373
350.820203	2497.047337
351.210548	2494.204127
351.600828	2497.324601
351.991045	2494.405773
352.381198	2493.125320
352.771288	2495.353510
353.161314	2493.173211
353.551276	2493.359733
353.941175	2494.183962
354.331010	2493.614312
354.720782	2493.654641
355.110490	2489.220946
355.500135	2493.974754
355.889717	2492.525422
356.279235	2493.203458
356.668689	2494.783859
357.058080	2492.482573
357.447408	2491.912922
357.836672	2490.476193
358.225873	2492.243118
358.615010	2491.618015
359.004084	2497.385095
359.393095	2494.972903
359.782043	2497.221257
360.170927	2497.369971
360.559748	2497.120434
360.948505	2497.322080
361.337199	2497.705208
361.725830	2499.552791
362.114398	2498.529437
362.502903	2500.916423
362.891344	2502.063286
363.279722	2498.413490
363.668037	2502.340549
364.056289	2502.063286
364.444478	2504.556136
364.832603	2500.412308
365.220665	2504.946826
365.608665	2503.232833
365.996601	2504.818276
366.384474	2502.643018
366.772284	2503.469768
367.160031	2502.027998
367.547715	2505.319871
367.935336	2504.054541
368.322893	2504.977072
368.710388	2506.370952
369.097820	2505.599655
369.485189	2507.535458
369.872495	2505.284583
370.259738	2507.391785
370.646918	2505.203924
371.034035	2509.788854
371.421090	2508.720129
371.808081	2507.338853
372.195010	2504.961949
372.581875	2509.224245
372.968678	2511.117198
373.355418	2506.837258
373.742096	2508.498318
374.128710	2507.240551
374.515262	2512.410254
374.901751	2509.839265
375.288177	2511.775068
375.674540	2510.078720
376.060841	2511.739780
376.447079	2510.862620
376.833254	2508.836076
377.219367	2507.074193
377.605417	2509.478823
377.991404	2505.355159
378.377329	2508.032012
378.763191	2509.176354
379.148991	2513.612569
379.534727	2515.301356
379.920402	2512.624503
380.306013	2511.974194
380.691563	2514.656088
381.077049	2512.758093
381.462474	2513.345388
381.847835	2512.480830
382.233134	2512.823628
382.618371	2513.196674
383.003545	2512.987466
383.388657	2512.788340
383.773706	2512.024606
384.158693	2514.807323
384.543618	2516.992663
384.928480	2515.071983
385.313280	2514.610717
385.698017	2516.037364
386.082692	2515.951664
386.467305	2514.630882
386.851856	2515.475275
387.236344	2518.121881
387.620770	2516.866634
388.005133	2515.006448
388.389435	2517.527025
388.773674	2515.540810
389.157851	2514.976201
389.541965	2519.283867
389.926018	2516.629700
390.310008	2517.927797
390.693936	2517.698424
391.077802	2520.070287
391.461606	2517.010307
391.845348	2517.456449
392.229027	2518.643641
392.612645	2518.565503
392.996200	2518.414268
393.379694	2518.749505
393.763125	2518.802437
394.146494	2522.328724
394.529801	2521.234794
394.913047	2518.066428
395.296230	2523.442819
395.679351	2518.326048
396.062410	2520.881913
396.445408	2521.806965
396.828343	2521.696059
397.211217	2517.093486
397.594028	2516.816222
397.976778	2517.761439
398.359466	2517.814371
398.742092	2518.724299
399.124656	2523.079856
399.507158	2519.525842
399.889598	2525.960875
400.271977	2522.033817
400.654294	2525.139167
401.036549	2523.493231
401.418742	2526.031452
401.800874	2523.415093
402.182944	2523.001718
402.564952	2526.401976
402.946898	2524.670340
403.328783	2523.682274
403.710606	2523.974661
404.092367	2525.179497
404.474067	2526.195289
404.855705	2524.446009
405.237282	2524.309898
405.618797	2526.775022
406.000250	2528.078160
406.381642	2522.394259
406.762972	2523.299146
407.144240	2524.022552
407.525447	2528.350382
407.906593	2525.625639
408.287677	2526.643952
408.668700	2526.286030
409.049661	2525.751668
409.430560	2525.645803
409.811399	2525.270237
410.192176	2525.517254
410.572891	2529.159487
410.953545	2526.291071
411.334138	2526.827954
411.714669	2525.749147
412.095139	2527.768129
412.475547	2527.054806
412.855894	2530.187883
413.236180	2527.127903
413.616405	2527.364837
413.996568	2528.995650
414.376670	2531.065044
414.756711	2528.133613
415.136691	2527.304343
415.516609	2529.129241
415.896466	2531.377595
416.276262	2529.043541
416.655997	2525.239990
417.035670	2526.245701
417.415283	2528.496576
417.794834	2524.972809
418.174324	2530.802904
418.553753	2530.777698
418.933121	2530.276103
419.312428	2531.231402
419.691674	2531.415404
420.070859	2531.478418
420.449983	2529.081350
420.829045	2534.913965
421.208047	2531.180990
421.586988	2530.271062
421.965867	2534.543440
422.344686	2529.472039
422.723444	2531.798532
423.102141	2533.212575
423.480777	2532.128727
423.859352	2534.122503
424.237866	2531.301978
424.616319	2534.530837
424.994712	2531.453213
425.373044	2533.220137
425.751314	2532.290044
426.129524	2529.640918
426.507673	2534.772812
426.885762	2529.119158
427.263789	2535.907072
427.641756	2534.863553
428.019662	2532.395908
428.397508	2534.306506
428.775292	2533.928419
429.153016	2533.527647
429.530679	2536.582587
429.908282	2533.719211
430.285824	2535.284489
430.663305	2531.319622
431.040726	2532.247194
431.418086	2534.359438
431.795385	2537.706764
432.172624	2532.398429
432.549802	2535.196269
432.926920	2534.306506
433.303977	2534.523275
433.680974	2536.822041
434.057910	2535.339942
434.434786	2532.804242
434.811601	2535.599562
435.188355	2534.243491
435.565050	2536.456558
435.941683	2533.870446
436.318257	2532.665610
436.694770	2533.182328
437.071222	2534.513193
437.447614	2532.491690
437.823946	2535.264325
438.200218	2537.921013
438.576429	2537.452186
438.952580	2536.471681
439.328670	2541.477547
439.704700	2537.416897
440.080670	2537.434542
440.456580	2537.091743
440.832429	2538.725077
441.208218	2537.341280
441.583947	2534.997144
441.959616	2537.699202
442.335224	2538.044521
442.710773	2537.111908
443.086261	2536.176774
443.461689	2536.317926
443.837057	2537.926054
444.212365	2537.459747
444.587612	2537.605941
444.962800	2538.087371
445.337927	2538.319264
445.712995	2538.057124
446.088002	2538.110056
446.462949	2536.759027
446.837837	2538.185673
447.212664	2537.951260
447.587431	2539.312371
447.962139	2539.022505
448.336786	2538.800694
448.711374	2539.309851
449.085901	2540.602907
449.460369	2538.682227
449.834776	2537.699202
450.209124	2540.376055
450.583412	2539.100643
450.957640	2539.433359
451.331808	2540.514687
451.705917	2539.766075
452.079965	2539.529141
452.453954	2538.541075
452.827883	2541.757331
453.201752	2539.355221
453.575562	2541.253216
453.949311	2539.892104
454.323001	2540.481919
454.696632	2539.972762
455.070202	2540.381096
455.443713	2540.003009
455.817164	2537.593338
456.190556	2536.083512
456.563888	2538.873791
456.937160	2535.445806
457.310373	2539.967721
457.683526	2538.636857
458.056619	2540.618030
458.429653	2542.899152
458.802628	2540.635674
459.175542	2542.969728
459.548398	2540.527289
459.921194	2539.022505
460.293930	2539.819007
460.666607	2538.858667
461.039224	2543.690613
461.411782	2541.222969
461.784280	2541.316230
462.156719	2540.449152
462.529099	2542.846220
462.901419	2541.860675
463.273680	2542.475695
463.645882	2541.069213
464.018024	2542.808412
464.390106	2541.822866
464.762130	2542.153062
465.134094	2543.463762
465.505999	2542.049718
465.877845	2539.763555
466.249631	2543.983000
466.621358	2543.501570
466.993026	2546.143135
467.364634	2542.694986
467.736184	2543.708257
468.107674	2541.275901
468.479105	2543.060469
468.850477	2542.924358
469.221790	2542.657177
469.593043	2542.795809
469.964238	2542.584080
470.335373	2543.388144
470.706449	2543.146169
471.077467	2540.302958
471.448425	2547.108516
471.819324	2544.877805
472.190164	2545.727240
472.560945	2543.294883
472.931667	2543.126004
473.302330	2543.090716
473.672934	2546.795964
474.043479	2546.024668
474.413965	2542.168185
474.784393	2540.605427
475.154761	2541.056611
475.525070	2540.870088
475.895321	2541.401930
476.265513	2540.290355
476.635645	2543.032743
477.005719	2543.491488
477.375734	2543.846889
477.745691	2542.634492
478.115588	2544.524924
478.485427	2543.816642
478.855207	2544.852599
479.224928	2546.864020
479.594591	2546.029709
479.964194	2543.032743
480.333739	2547.874771
480.703226	2545.341591
481.072653	2545.618855
481.442022	2544.426622
481.811333	2542.553833
482.180584	2542.929399
482.549777	2543.105840
482.918912	2543.327650
483.287988	2545.018958
483.657005	2546.727909
484.025964	2544.603062
484.394864	2544.764379
484.763706	2546.881664
485.132489	2546.001982
485.501213	2548.809905
485.869879	2546.715306
486.238487	2542.137938
486.607036	2544.895449
486.975527	2545.127342
487.343959	2545.409647
487.712333	2547.526932
488.080648	2545.631458
488.448905	2544.575336
488.817104	2545.971736
489.185244	2546.266643
489.553326	2547.174051
489.921350	2545.782692
490.289315	2547.242106
490.657222	2546.911911
491.025070	2544.892929
491.392861	2544.867723
491.760593	2546.319575
492.128267	2548.898125
492.495883	2546.798485
492.863440	2543.441076
493.230939	2547.605069
493.598380	2546.062476
493.965763	2540.544933
494.333088	2543.415871
494.700354	2541.157434
495.067563	2545.964174
495.434713	2544.119112
495.801805	2546.528783
496.168839	2548.177240
496.535815	2546.037271
496.902733	2548.336037
497.269593	2547.804195
497.636395	2543.224307
498.003139	2547.151366
498.369825	2544.897970
498.736453	2546.871582
499.103023	2545.190357
499.469535	2548.056253
499.835989	2546.622044
500.202385	2546.385110
500.568723	2545.495347
500.935003	2549.860986
501.301226	2549.233362
501.667390	2547.048022
502.033497	2547.055584
502.399546	2546.846376
502.765537	2546.669935
503.131470	2547.889895
503.497345	2548.144473
503.863163	2548.562889
504.228923	2546.967363
504.594625	2545.880995
504.960269	2544.998793
505.325856	2547.516849
505.691385	2546.680018
506.056856	2546.831252
506.422270	2543.980480
506.787625	2547.025337
507.152924	2544.950902
507.518164	2547.942827
507.883347	2546.153217
508.248472	2547.547096
508.613540	2546.644730
508.978550	2549.903836
509.343503	2549.366953
509.708398	2549.956768
510.073236	2546.425439
510.438016	2546.748073
510.802738	2544.557692
511.167403	2549.717313
511.532010	2547.428629
511.896561	2544.383772
512.261053	2549.190512
512.625488	2546.664894
512.989866	2544.068700
513.354186	2545.959133
513.718449	2543.269677
514.082655	2546.077600
514.446803	2547.121119
514.810894	2548.759494
515.174927	2552.139587
515.538904	2548.772097
515.902822	2548.474668
516.266684	2546.785882
516.630488	2548.341078
516.994235	2547.537014
517.357925	2547.970553
517.721558	2548.414175
518.085133	2548.096582
518.448651	2551.038095
518.812112	2549.745039
519.175516	2548.056253
519.538863	2545.737322
519.902152	2550.034906
520.265385	2548.336037
520.628560	2549.359391
520.991678	2547.458876
521.354739	2549.316541
521.717743	2549.127498
522.080690	2550.418033
522.443580	2545.986859
522.806413	2548.772097
523.169189	2547.166489
523.531908	2548.305790
523.894569	2548.028526
524.257174	2548.772097
524.619722	2547.378218
524.982213	2552.295863
525.344647	2547.269833
525.707025	2548.623383
526.069345	2550.143290
526.431608	2546.959802
526.793815	2546.221273
527.155964	2549.482899
527.518057	2550.498692
527.880093	2548.714123
528.242072	2549.243444
528.603995	2553.886347
528.965860	2548.247817
529.327669	2551.874927
529.689421	2547.229503
530.051117	2551.499361
530.412755	2547.176571
530.774337	2548.154555
531.135862	2552.411810
531.497331	2547.814277
531.858743	2545.815460
532.220098	2546.445604
532.581396	2544.809750
532.942638	2546.259081
533.303824	2549.215718
533.664953	2549.069525
534.026025	2547.426108
534.387040	2550.937272
534.747999	2549.465255
535.108902	2550.022303
535.469748	2549.477858
535.830537	2550.932231
536.191270	2550.155893
536.551947	2547.526932
536.912567	2548.053732
537.273131	2550.208825
537.633638	2548.381407
537.994089	2549.094730
538.354483	2549.371994
538.714821	2547.736139
539.075103	2550.511295
539.435328	2549.293856
539.795497	2550.919628
540.155609	2551.370811
540.515665	2551.811912
540.875665	2551.842159
541.235609	2549.863506
541.595496	2552.946172
541.955328	2547.378217
542.315102	2550.362581
542.674821	2550.886861
543.034483	2550.138249
543.394090	2545.981818
543.753640	2551.751418
544.113134	2548.799823
544.472571	2550.733105
544.831953	2548.278063
545.191278	2548.764535
545.550548	2548.179761
545.909761	2550.100441
546.268918	2550.813764
546.628019	2549.911397
546.987064	2547.209339
547.346053	2550.503733
547.704986	2550.367622
548.063863	2551.360729
548.422684	2550.977601
548.781449	2552.492468
549.140158	2548.454504
549.498811	2552.437015
549.857408	2549.621531
550.215949	2549.684545
550.574434	2548.210008
550.932864	2548.724206
551.291237	2545.782692
551.649555	2550.574309
552.007817	2551.194371
552.366022	2551.975750
552.724173	2548.978784
553.082267	2553.717468
553.440305	2548.794782
553.798288	2551.481717
554.156215	2551.794268
554.514086	2550.760832
554.871902	2552.802499
555.229661	2548.381407
555.587365	2546.899308
555.945014	2551.506922
556.302606	2548.293187
556.660143	2549.808054
557.017625	2550.402910
557.375050	2549.893753
557.732421	2550.468445
558.089735	2548.736808
558.446994	2550.841490
558.804197	2549.271171
559.161345	2550.375183
559.518437	2547.915100
559.875474	2550.324772
560.232455	2549.636654
560.589381	2549.682025
560.946251	2553.891388
561.303065	2549.195553
561.659825	2549.329144
562.016528	2551.794268
562.373177	2546.962322
562.729770	2548.252858
563.086307	2550.319731
563.442789	2548.388969
563.799216	2551.479196
564.155587	2549.888712
564.511904	2553.460370
564.868164	2551.867365
565.224370	2551.890050
565.580520	2551.196892
565.936615	2552.247972
566.292654	2548.635985
566.648638	2550.952396
567.004567	2550.289484
567.360441	2549.913918
567.716260	2551.388455
568.072023	2550.438198
568.427732	2547.413506
568.783385	2548.673794
569.138982	2545.674307
569.494525	2545.964174
569.850013	2546.236396
570.205445	2550.163455
570.560823	2551.779145
570.916145	2551.920297
571.271412	2550.385266
571.626625	2550.879299
571.981782	2550.105482
572.336884	2552.976419
572.691931	2549.205636
573.046923	2551.116233
573.401860	2550.375183
573.756743	2550.458363
574.111570	2550.236552
574.466342	2550.407951
574.821059	2550.775955
575.175722	2548.764535
575.530330	2551.658157
575.884882	2550.226469
576.239380	2550.516336
576.593823	2551.869886
576.948211	2549.392158
577.302544	2551.385935
577.656823	2548.376366
578.011047	2553.205791
578.365216	2551.915256
578.719330	2550.624721
579.073389	2551.857283
579.427394	2548.451983
579.781344	2550.889381
580.135239	2552.174875
580.489080	2548.605738
580.842866	2553.961964
581.196597	2554.695452
581.550273	2549.944165
581.903895	2552.192519
582.257463	2551.103630
582.610975	2549.765204
582.964434	2549.936603
583.317837	2552.351316
583.671186	2552.124464
584.024481	2551.597663
584.377721	2553.062118
584.730906	2549.843342
585.084037	2552.384083
585.437113	2550.400389
585.790135	2550.211346
586.143103	2552.305945
586.496016	2551.816953
586.848874	2549.001469
587.201679	2550.476007
587.554428	2547.529452
587.907124	2550.067673
588.259765	2545.417209
588.612352	2552.086655
588.964884	2550.244113
589.317362	2548.603218
589.669786	2550.289484
590.022155	2553.286450
590.374470	2550.992725
590.726731	2550.312169
591.078937	2552.384083
591.431090	2553.208312
591.783188	2549.611449
592.135232	2552.845349
592.487222	2550.559186
592.839157	2551.050698
593.191038	2553.001625
593.542866	2551.317879
593.894639	2548.895605
594.246358	2552.406768
594.598022	2551.025492
594.949633	2551.806871
595.301190	2549.727395
595.652692	2552.923487
596.004141	2550.216387
596.355535	2552.477345
596.706876	2550.470965
597.058162	2551.650595
597.409395	2552.782334
597.760573	2550.609597
598.111698	2551.212015
598.462768	2552.550441
598.813785	2551.968188
599.164748	2551.824515
599.515657	2550.813764
599.866511	2552.646223
600.217312	2549.445091
600.568060	2551.239741
600.918753	2556.167469
601.269392	2550.246634
601.619978	2552.096738
601.970510	2550.360060
602.320988	2551.887530
602.671412	2548.315872
603.021783	2551.053219
603.372100	2553.089845
603.722363	2550.135729
604.072572	2551.123795
604.422728	2550.670091
604.772830	2547.322765
605.122878	2548.961140
605.472872	2548.507436
605.822813	2545.631458
606.172701	2548.938455
606.522534	2550.271840
606.872314	2552.333672
607.222041	2552.651264
607.571714	2549.858465
607.921333	2551.796789
608.270899	2550.685214
608.620411	2550.130688
608.969870	2551.746377
609.319276	2550.622200
609.668627	2554.831563
610.017926	2556.200237
610.367171	2558.425906
610.716362	2556.684187
611.065500	2557.914229
611.414585	2553.344423
611.763616	2556.943807
612.112594	2555.234856
612.461518	2552.799978
612.810389	2554.897098
613.159207	2551.791748
613.507971	2552.545400
613.856682	2553.311656
614.205340	2551.479196
614.553945	2553.679660
614.902496	2552.142108
615.250994	2552.018600
615.599439	2552.016079
615.947830	2551.267468
616.296169	2550.985163
616.644454	2553.525905
616.992686	2549.959288
617.340864	2551.239741
617.688990	2553.936759
618.037063	2553.767880
618.385082	2554.526574
618.733048	2552.371480
619.080961	2550.859134
619.428821	2552.046326
619.776628	2552.268137
620.124382	2551.827036
620.472083	2549.709751
620.819731	2551.574978
621.167326	2549.903836
621.514868	2552.772252
621.862357	2547.995759
622.209793	2551.453990
622.557176	2549.860986
622.904506	2547.819318
623.251783	2547.647919
623.599007	2548.164638
623.946179	2548.570450
624.293297	2548.210008
624.640363	2548.371325
624.987376	2549.702189
625.334336	2554.264434
625.681243	2553.377191
626.028097	2549.684545
626.374899	2549.571119
626.721647	2549.210677
627.068343	2550.178578
627.414987	2551.698486
627.761577	2551.786707
628.108115	2550.407951
628.454600	2550.594474
628.801032	2550.649926
629.147412	2548.547765
629.493739	2549.961809
629.840014	2551.643034
630.186236	2552.237890
630.532405	2553.112530
630.878521	2550.788558
631.224585	2552.000956
631.570597	2553.344423
631.916556	2550.100441
632.262462	2551.282591
632.608316	2549.389638
632.954117	2550.556665
633.299866	2549.815615
633.645562	2548.769576
633.991206	2551.282591
634.336797	2550.443239
634.682336	2553.006666
635.027823	2550.919628
635.373257	2550.854093
635.718639	2552.147149
636.063968	2549.790410
636.409245	2553.765359
636.754470	2548.988866
637.099642	2551.648075
637.444762	2553.077242
637.789829	2551.171686
638.134845	2550.894422
638.479808	2549.772766
638.824719	2547.839483
639.169577	2550.349978
639.514383	2550.060111
639.859137	2550.760832
640.203839	2552.792417
640.548489	2548.240255
640.893086	2547.819318
641.237632	2545.293700
641.582125	2548.489792
641.926566	2545.850748
642.270955	2549.571119
642.615292	2549.714792
642.959576	2548.179761
643.303809	2550.251675
643.647990	2550.082797
643.992118	2550.574309
644.336195	2550.559186
644.680219	2550.584391
645.024192	2548.764535
645.368112	2551.378373
645.711981	2550.705379
646.055797	2552.767211
646.399562	2549.800492
646.743274	2548.509957
647.086935	2552.482386
647.430544	2549.147663
647.774101	2551.688404
648.117606	2550.239072
648.461059	2550.780996
648.804460	2548.739329
649.147810	2551.522046
649.491108	2551.123795
649.834354	2551.169165
650.177548	2550.743188
650.520690	2549.805533
650.863781	2550.838970
651.206820	2550.561706
651.549807	2548.086500
651.892742	2549.301418
652.235626	2546.682538
652.578458	2548.545245
652.921238	2548.951058
653.263967	2551.650595
653.606644	2550.420554
653.949269	2549.931562
654.291843	2547.232024
654.634365	2548.300749
654.976836	2549.929041
655.319255	2549.792930
655.661622	2549.563558
656.003938	2550.032385
656.346203	2547.466438
656.688416	2549.641696
657.030577	2549.936603
657.372687	2548.308310
657.714746	2549.495502
658.056753	2550.554144
658.398708	2546.138094
658.740612	2546.775800
659.082465	2547.658002
659.424266	2548.363763
659.766016	2545.568443
660.107715	2550.400389
660.449362	2549.611449
660.790958	2548.416695
661.132503	2549.513146
661.473996	2549.803013
661.815438	2551.108671
662.156829	2551.461552
662.498168	2549.288815
662.839456	2552.074052
663.180693	2550.836449
663.521879	2553.084804
663.863013	2548.371325
664.204097	2551.224618
664.545129	2549.608928
664.886110	2549.689587
665.227040	2550.108002
665.567918	2548.930893
665.908746	2549.293856
666.249522	2550.433157
666.590248	2549.767724
666.930922	2550.165976
667.271545	2547.534493
667.612118	2549.619010
667.952639	2550.135729
668.293109	2548.600697
668.633528	2548.978784
668.973896	2551.756460
669.314213	2549.341747
669.654480	2549.979453
669.994695	2548.368804
670.334859	2550.831408
670.674973	2549.795451
671.015035	2547.789072
671.355047	2550.165976
671.695008	2548.394010
672.034918	2551.275029
672.374777	2547.524411
672.714585	2548.935934
673.054342	2550.513815
673.394049	2550.770914
673.733705	2551.300235
674.073310	2550.753270
674.412864	2549.533311
674.752368	2550.738147
675.091820	2550.251675
675.431223	2548.192364
675.770574	2551.355688
676.109875	2544.351005
676.449125	2546.843855
676.788324	2547.279915
677.127473	2547.408464
677.466571	2547.264792
677.805619	2550.407951
678.144616	2550.649926
678.483562	2551.267468
678.822458	2551.625390
679.161303	2551.948023
679.500098	2549.283774
679.838842	2549.225800
680.177535	2547.993238
680.516179	2549.457693
680.854771	2550.899463
681.193314	2550.279402
681.531805	2547.882333
681.870247	2548.507436
682.208638	2550.750749
682.546978	2549.067004
682.885268	2547.794113
683.223508	2548.809905
683.561697	2551.063301
683.899836	2551.975750
684.237925	2548.139432
684.575963	2548.477189
684.913951	2548.028526
685.251889	2551.128836
685.589776	2549.230842
685.927614	2547.955430
686.265401	2549.505584
686.603137	2550.846531
686.940824	2547.726057
687.278460	2552.013558
687.616046	2551.259906
687.953582	2550.629762
688.291068	2547.537014
688.628504	2550.100441
688.965889	2548.431819
689.303224	2549.989535
689.640510	2549.687066
689.977745	2549.356870
690.314930	2549.636654
690.652065	2551.383414
690.989150	2549.069525
691.326185	2547.741181
691.663170	2549.256047
692.000105	2550.067673
692.336990	2550.435677
692.673825	2550.123126
693.010610	2551.002807
693.347345	2548.618341
693.684030	2544.008206
694.020665	2549.077086
694.357251	2544.676159
694.693786	2547.156407
695.030272	2547.743701
695.366707	2549.825698
695.703093	2548.267981
696.039429	2548.394010
696.375716	2547.683207
696.711952	2548.830070
697.048139	2548.293187
697.384276	2552.227807
697.720363	2549.457693
698.056400	2547.529452
698.392388	2550.717982
698.728326	2549.901315
699.064214	2551.267468
699.400053	2549.498023
699.735842	2548.426777
700.071581	2549.074566
700.407270	2547.746222
700.742910	2547.342929
701.078501	2551.448949
701.414042	2548.323434
701.749533	2547.597508
702.084974	2550.070194
702.420366	2548.880481
702.755709	2551.592622
703.091002	2549.545914
703.426246	2548.630944
703.761440	2546.674977
704.096584	2550.796120
704.431679	2552.981460
704.766725	2549.218239
705.101721	2548.825029
705.436668	2549.369473
705.771565	2548.593136
706.106413	2547.441232
706.441212	2547.791592
706.775961	2551.403579
707.110661	2546.455686
707.445311	2549.185471
707.779913	2547.327806
708.114465	2550.576830
708.448967	2549.407282
708.783421	2550.886861
709.117825	2550.821326
709.452180	2547.166489
709.786485	2549.888712
710.120742	2547.962991
710.454949	2549.361912
710.789107	2548.008362
711.123216	2546.430481
711.457275	2548.121788
711.791286	2546.191026
712.125247	2543.400747
712.459159	2549.160265
712.793023	2547.605069
713.126837	2547.587425
713.460602	2548.295708
713.794318	2546.291849
714.127985	2549.682025
714.461602	2547.373176
714.795171	2547.847045
715.128691	2548.290666
715.462162	2548.971222
715.795584	2547.637837
716.128957	2549.639175
716.462281	2545.820501
716.795556	2549.072045
717.128782	2550.753270
717.461960	2549.074566
717.795088	2550.624721
718.128167	2549.266130
718.461198	2550.153373
718.794180	2548.792261
719.127113	2548.956099
719.459997	2550.072714
719.792833	2549.563558
720.125619	2549.056922
720.458357	2549.843342
720.791046	2549.127498
721.123686	2549.470296
721.456278	2550.226469
721.788821	2549.472817
722.121315	2548.235214
722.453761	2548.827549
722.786158	2549.619010
723.118506	2546.007024
723.450805	2550.080276
723.783056	2548.565409
724.115259	2550.750749
724.447412	2544.532486
724.779518	2550.095399
725.111574	2548.056253
725.443582	2549.392158
725.775542	2546.604400
726.107453	2548.603218
726.439315	2550.418033
726.771129	2551.660678
727.102895	2547.436191
727.434612	2548.131870
727.766281	2549.238403
728.097901	2544.308155
728.429473	2542.400078
728.760996	2547.859648
729.092471	2544.393854
729.423897	2551.428785
729.755276	2545.770089
730.086606	2549.059442
730.417887	2549.719833
730.749120	2548.583053
731.080305	2548.630944
731.411442	2546.831252
731.742530	2547.594987
732.073570	2550.100441
732.404562	2548.058773
732.735506	2549.835780
733.066401	2548.860317
733.397249	2549.591284
733.728048	2546.606921
734.058798	2546.629606
734.389501	2548.204967
734.720156	2548.285625
735.050762	2546.228834
735.381320	2548.567930
735.711831	2547.763866
736.042293	2547.443752
736.372707	2546.488454
736.703073	2547.063145
737.033391	2547.751263
737.363661	2548.588094
737.693883	2549.669422
738.024056	2549.059442
738.354182	2550.183620
738.684260	2550.697817
739.014290	2551.171686
739.344272	2545.578526
739.674207	2548.986346
740.004093	2549.213198
740.333931	2545.102137
740.663722	2549.619010
740.993464	2546.949719
741.323159	2550.997766
741.652806	2550.465924
741.982405	2550.959957
742.311956	2550.191181
742.641460	2548.383928
742.970915	2550.412992
743.300323	2550.682694
743.629683	2547.574823
743.958996	2547.839483
744.288260	2546.478372
744.617477	2546.899308
744.946647	2543.514173
745.275768	2544.630789
745.604842	2543.183977
745.933869	2544.950902
746.262847	2542.828576
746.591778	2549.223280
746.920662	2548.199926
747.249498	2547.700851
747.578286	2547.907539
747.907027	2545.361756
748.235720	2550.173537
748.564365	2548.517518
748.892963	2546.881664
749.221514	2550.634803
749.550017	2546.493495
749.878473	2546.725388
750.206881	2548.774617
750.535242	2549.233362
750.863555	2548.426777
751.191821	2549.949206
751.520039	2549.987015
751.848210	2549.442570
752.176334	2546.584236
752.504411	2549.142621
752.832440	2548.010882
753.160421	2547.375697
753.488356	2548.487271
753.816243	2548.686397
754.144082	2548.537683
754.471875	2548.441901
754.799620	2550.102961
755.127318	2546.337219
755.454969	2547.978115
755.782572	2548.560368
756.110129	2549.041798
756.437638	2548.870399
756.765100	2548.361242
757.092515	2547.794113
757.419882	2550.047508
757.747203	2547.206818
758.074477	2549.682025
758.401703	2545.500388
758.728882	2548.467107
759.056014	2551.098589
759.383099	2551.214536
759.710138	2550.100441
760.037129	2549.387117
760.364073	2549.251006
760.690970	2545.707075
761.017820	2547.899977
761.344623	2550.937272
761.671379	2545.122301
761.998088	2543.211704
762.324751	2542.957126
762.651366	2546.019627
762.977935	2544.774462
763.304456	2547.947868
763.630931	2549.674463
763.957359	2548.336037
764.283740	2548.915769
764.610074	2549.898794
764.936362	2547.879812
765.262602	2546.470810
765.588796	2548.993907
765.914943	2547.506767
766.241044	2547.602549
766.567097	2547.307641
766.893104	2551.413661
767.219064	2546.657333
767.544978	2550.292004
767.870845	2544.156920
768.196665	2550.173537
768.522438	2546.944678
768.848165	2548.736808
769.173846	2546.977446
769.499479	2548.676315
769.825066	2547.032898
770.150607	2547.461397
770.476101	2544.562733
770.801548	2549.891233
771.126949	2547.771428
771.452303	2549.765204
771.777611	2548.905687
772.102872	2547.438711
772.428087	2545.722198
772.753256	2547.201777
773.078378	2545.812939
773.403453	2547.131201
773.728482	2546.611962
774.053465	2546.362425
774.378401	2550.090358
774.703291	2545.838145
775.028135	2548.618341
775.352932	2547.887374
775.677683	2549.432488
776.002388	2547.937786
776.327046	2549.205636
776.651658	2549.571119
776.976224	2547.249668
777.300743	2546.559030
777.625216	2547.476520
777.949643	2548.141952
778.274024	2550.211346
778.598359	2544.880326
778.922647	2543.446118
779.246889	2546.851417
779.571086	2541.976621
779.895236	2545.712116
780.219339	2547.559699
780.543397	2546.874102
780.867409	2545.334030
781.191374	2544.708927
781.515294	2550.370142
781.839167	2543.909904
782.162995	2547.731098
782.486776	2545.964174
782.810511	2546.463248
783.134201	2547.320244
783.457844	2547.811757
783.781441	2547.811757
784.104993	2548.930893
784.428498	2546.725388
784.751958	2545.477702
785.075372	2548.227652
785.398739	2545.265974
785.722061	2546.927034
786.045337	2547.111036
786.368568	2546.213711
786.691752	2550.425595
787.014891	2548.643547
787.337983	2544.671118
787.661030	2550.226469
787.984031	2548.101623
788.306987	2548.482230
788.629897	2547.836962
788.952760	2544.514842
789.275579	2548.850234
789.598351	2546.397713
789.921078	2545.114739
790.243759	2546.899308
790.566395	2546.843855
790.888984	2545.271015
791.211529	2548.794782
791.534027	2548.507436
791.856480	2546.458207
792.178888	2545.331509
792.501249	2547.272353
792.823566	2548.966181
793.145836	2547.715975
793.468062	2545.318906
793.790241	2543.912424
794.112375	2545.767569
794.434464	2547.058104
794.756507	2546.289328
795.078505	2548.230172
795.400457	2546.201108
795.722364	2544.053577
796.044226	2545.230686
796.366042	2544.749256
796.687812	2543.859492
797.009538	2545.540717
797.331218	2550.959957
797.652852	2546.012065
797.974442	2545.616334
798.295986	2545.328988
798.617484	2546.629606
798.938938	2545.785213
799.260346	2547.289997
799.581709	2545.868392
799.903026	2546.924514
800.224299	2546.191026
800.545526	2546.581715
800.866708	2547.040460
801.187845	2549.162786
801.508936	2548.812426
801.829983	2549.147663
802.150984	2546.939637
802.471940	2544.870243
802.792851	2548.089020
803.113717	2548.681356
803.434538	2544.411498
803.755314	2546.939637
804.076045	2549.193033
804.396731	2544.799667
804.717372	2543.937630
805.037967	2546.503577
805.358518	2546.997610
805.679024	2546.107847
805.999485	2545.376879
806.319901	2547.632796
806.640272	2547.461397
806.960598	2544.093906
807.280879	2547.602549
807.601115	2546.218752
807.921306	2544.618186
808.241453	2547.060625
808.561554	2546.375028
808.881611	2546.357384
809.201623	2545.449976
809.521590	2548.333516
809.841513	2544.799667
810.161390	2549.445091
810.481223	2543.761190
810.801011	2547.839483
811.120755	2546.163299
811.440453	2547.315203
811.760107	2544.484595
812.079716	2544.398896
812.399281	2542.480737
812.718801	2541.777496
813.038276	2543.012578
813.357707	2545.606252
813.677093	2544.187167
813.996434	2546.516180
814.315731	2547.879812
814.634983	2548.860317
814.954191	2546.397713
815.273354	2547.847045
815.592473	2546.160779
815.911547	2545.812939
816.230577	2545.366797
816.549562	2545.991900
816.868502	2547.138763
817.187399	2543.904862
817.506250	2543.080634
817.825058	2546.735470
818.143821	2546.785882
818.462539	2548.101623
818.781213	2546.571633
819.099843	2546.387631
819.418429	2545.439894
819.736970	2547.355532
820.055466	2547.229503
820.373919	2546.720347
820.692327	2549.074566
821.010691	2545.328988
821.329011	2548.283105
821.647286	2553.546069
821.965517	2553.563713
822.283704	2553.029351
822.601847	2555.484393
822.919945	2556.893395
823.237999	2553.173024
823.556010	2555.514640
823.873976	2549.992056
824.191897	2550.486089
824.509775	2549.913918
824.827609	2547.158927
825.145398	2549.500543
825.463144	2547.058104
825.780845	2548.855276
826.098502	2548.862837
826.416116	2548.701520
826.733685	2550.523898
827.051210	2551.368291
827.368692	2552.724361
827.686129	2549.235883
828.003522	2550.793599
828.320872	2543.458720
828.638177	2544.184647
828.955439	2543.264636
829.272656	2545.795295
829.589830	2543.163813
829.906960	2544.161961
830.224046	2544.923176
830.541088	2544.320758
830.858086	2546.619524
831.175041	2549.301418
831.491952	2545.853268
831.808819	2549.019113
832.125642	2546.380069
832.442421	2544.363608
832.759157	2546.027188
833.075849	2548.840152
833.392497	2545.883515
833.709101	2547.632796
834.025662	2546.841335
834.342179	2548.121788
834.658653	2546.279246
834.975083	2547.451314
835.291469	2555.401214
835.607811	2548.711603
835.924110	2545.215562
836.240366	2544.237579
836.556578	2545.719678
836.872746	2548.015923
837.188871	2543.983000
837.504952	2545.941489
837.820990	2547.065666
838.136984	2545.044163
838.452935	2545.898639
838.768842	2546.967363
839.084706	2544.535007
839.400526	2548.527601
839.716303	2544.540048
840.032037	2548.479710
840.347727	2544.832435
840.663373	2549.898794
840.978977	2548.648588
841.294537	2545.797816
841.610054	2543.199101
841.925527	2546.070038
842.240957	2546.140614
842.556344	2549.001469
842.871687	2545.855789
843.186987	2545.835624
843.502244	2544.943340
843.817458	2546.092723
844.132629	2544.298073
844.447756	2544.386293
844.762840	2541.722043
845.077881	2542.150541
845.392879	2539.030067
845.707833	2544.509801
846.022745	2539.526620
846.337613	2547.030378
846.652438	2545.452497
846.967221	2547.862168
847.281960	2544.431663
847.596656	2546.977446
847.911309	2546.546427
848.225919	2545.139945
848.540485	2545.051725
848.855009	2546.617003
849.169490	2545.868392
849.483928	2545.833104
849.798323	2546.329658
850.112675	2545.830583
850.426984	2546.826211
850.741251	2546.362425
851.055474	2542.692465
851.369654	2546.501057
851.683792	2543.801519
851.997887	2543.791437
852.311938	2545.210521
852.625947	2546.090203
852.939914	2545.190357
853.253837	2545.298742
853.567718	2544.824873
853.881555	2544.852599
854.195350	2540.809594
854.509103	2544.051056
854.822812	2542.596683
855.136479	2543.415871
855.450103	2544.834955
855.763685	2544.572815
856.077224	2546.657332
856.390720	2546.821170
856.704173	2545.540717
857.017584	2545.538196
857.330953	2543.100798
857.644278	2544.081303
857.957561	2545.991900
858.270802	2544.686241
858.584000	2541.911086
858.897155	2544.855120
859.210268	2542.364790
859.523339	2547.002652
859.836367	2543.294883
860.149352	2546.848896
860.462295	2546.594318
860.775195	2542.768082
861.088054	2540.325643
861.400869	2544.766900
861.713642	2539.458565
862.026373	2541.800181
862.339062	2544.091385
862.651708	2544.794626
862.964312	2545.671787
863.276873	2544.351005
863.589392	2541.956457
863.901869	2544.572815
864.214303	2546.458207
864.526696	2545.210521
864.839045	2546.685059
865.151353	2544.978628
865.463619	2545.034081
865.775842	2543.678011
866.088023	2545.114739
866.400162	2545.112219
866.712258	2544.282949
867.024313	2546.082641
867.336325	2545.359235
867.648296	2546.506098
867.960224	2546.473330
868.272110	2544.807229
868.583954	2544.897970
868.895755	2544.499719
869.207515	2546.417878
869.519233	2545.089534
869.830909	2542.299255
870.142542	2541.389327
870.454134	2545.233207
870.765684	2544.325799
871.077191	2543.625078
871.388657	2545.497867
871.700081	2542.758000
872.011463	2544.706406
872.322803	2546.402754
872.634101	2546.485933
872.945357	2545.429812
873.256571	2543.995603
873.567744	2546.599359
873.878874	2542.526107
874.189963	2544.149358
874.501010	2544.814791
874.812015	2545.155069
875.122979	2545.477702
875.433900	2545.838145
875.744780	2545.906201
876.055618	2545.175233
876.366415	2545.591128
876.677169	2546.501057
876.987882	2544.736653
877.298554	2541.066693
877.609183	2544.527445
877.919771	2540.199614
878.230317	2542.316899
878.540822	2544.945861
878.851285	2546.677497
879.161707	2543.879657
879.472087	2546.420398
879.782425	2545.447456
880.092722	2547.731098
880.402977	2545.361756
880.713191	2548.010882
881.023363	2546.062476
881.333494	2549.729916
881.643583	2547.695810
881.953631	2551.627910
882.263637	2550.087838
882.573602	2549.719833
882.883526	2547.889895
883.193408	2548.620862
883.503248	2546.669935
883.813048	2545.823022
884.122806	2548.910728
884.432522	2547.620193
884.742197	2546.770758
885.051831	2546.296890
885.361424	2546.417878
885.670975	2545.374359
885.980485	2545.576005
886.289954	2543.637681
886.599382	2547.537014
886.908768	2545.132383
887.218113	2544.880326
887.527417	2546.042312
887.836680	2541.714481
888.145901	2544.010727
888.455082	2545.820501
888.764221	2545.828063
889.073319	2543.020140
889.382376	2545.371838
889.691392	2542.362269
890.000366	2545.031560
890.309300	2544.799667
890.618193	2546.407795
890.927044	2546.289328
891.235855	2545.926365
891.544625	2543.282280
891.853353	2543.804039
892.162041	2545.966694
892.470687	2544.804708
892.779293	2545.913762
893.087858	2540.905376
893.396381	2539.995448
893.704864	2545.192877
894.013306	2541.565767
894.321707	2545.548279
894.630068	2546.059956
894.938387	2545.981818
895.246665	2545.117260
895.554903	2547.572302
895.863100	2544.807229
896.171256	2544.920655
896.479371	2544.116591
896.787446	2544.154400
897.095480	2545.281098
897.403473	2544.671118
897.711425	2541.787578
898.019336	2545.054246
898.327207	2545.656663
898.635038	2545.702034
898.942827	2543.433515
899.250576	2544.199770
899.558284	2543.446117
899.865952	2545.555840
900.173579	2545.288659
900.481165	2543.620037
900.788711	2543.756148
901.096216	2543.889739
901.403681	2544.103988
901.711105	2543.690613
902.018489	2544.580377
902.325832	2546.705223
902.633135	2544.411498
902.940397	2547.083310
903.247619	2543.113401
903.554800	2546.722867
903.861941	2545.326468
904.169041	2545.591128
904.476101	2546.748073
904.783121	2546.806047
905.090100	2546.768238
905.397039	2545.734801
905.703938	2545.119781
906.010796	2546.281767
906.317614	2542.936961
906.624391	2540.867567
906.931129	2545.656663
907.237826	2543.153731
907.544483	2544.290511
907.851099	2544.222455
908.157675	2545.747404
908.464211	2542.379913
908.770707	2538.841023
909.077163	2539.340098
909.383578	2536.360776
909.689954	2541.873278
909.996289	2537.154757
910.302584	2543.259595
910.608839	2542.649615
910.915054	2543.153731
911.221229	2544.784544
911.527363	2544.277908
911.833458	2541.802701
912.139513	2544.154400
912.445527	2545.109698
912.751502	2540.139121
913.057436	2542.137938
913.363331	2544.363607
913.669186	2544.199770
913.975000	2542.475695
914.280775	2543.115922
914.586510	2545.497867
914.892205	2544.540048
915.197859	2544.230017
915.503475	2544.020809
915.809050	2546.135573
916.114585	2548.998948
916.420081	2545.230686
916.725536	2545.518032
917.030952	2543.849410
917.336328	2546.493495
917.641665	2543.786395
917.946961	2545.785213
918.252218	2544.124153
918.557435	2543.085675
918.862612	2542.899152
919.167750	2545.228165
919.472848	2543.095757
919.777906	2542.591642
920.082925	2546.160779
920.387904	2543.375541
920.692843	2544.446787
920.997743	2543.738504
921.302603	2544.454348
921.607423	2541.928730
921.912204	2542.773123
922.216946	2541.638864
922.521647	2542.947043
922.826310	2543.877136
923.130932	2541.134748
923.435516	2543.738504
923.740059	2543.017619
924.044564	2542.195911
924.349028	2544.398896
924.653454	2540.156765
924.957840	2539.516538
925.262186	2540.897814
925.566493	2541.848072
925.870761	2536.940508
926.174989	2541.764893
926.479178	2541.396888
926.783328	2540.277752
927.087438	2543.410829
927.391509	2545.742363
927.695541	2543.259595
927.999533	2540.701209
928.303486	2545.139945
928.607400	2541.863195
928.911275	2539.655170
929.215110	2543.756148
929.518906	2540.877650
929.822663	2543.252033
930.126381	2544.381252
930.430060	2544.161961
930.733699	2541.933771
931.037299	2543.786395
931.340861	2540.466796
931.644383	2543.234389
931.947866	2541.475026
932.251309	2544.499719
932.554714	2541.321271
932.858080	2544.547610
933.161407	2540.209697
933.464694	2543.080634
933.767943	2540.527289
934.071153	2543.972918
934.374323	2540.204656
934.677455	2540.572660
934.980548	2542.432846
935.283602	2542.566436
935.586617	2541.081816
935.889593	2543.113401
936.192530	2542.614327
936.495428	2541.348998
936.798287	2542.329502
937.101108	2542.543751
937.403890	2542.145500
937.706632	2545.429812
938.009336	2541.180119
938.312002	2539.375386
938.614628	2543.809081
938.917216	2540.005530
939.219765	2542.760521
939.522275	2543.965356
939.824747	2543.236910
940.127179	2539.456044
940.429573	2536.575025
940.731929	2536.701054
941.034246	2538.339429
941.336524	2539.995448
941.638763	2543.950233
941.940964	2542.810932
942.243126	2545.394523
942.545250	2541.099460
942.847335	2542.906714
943.149381	2544.053577
943.451389	2540.295396
943.753359	2541.306148
944.055290	2541.769934
944.357182	2541.709440
944.659036	2541.772454
944.960851	2543.133566
945.262628	2539.433359
945.564367	2542.823535
945.866067	2541.454862
946.167729	2541.966539
946.469352	2541.648946
946.770937	2540.799512
947.072484	2543.806560
947.373992	2542.281611
947.675462	2543.471323
947.976893	2544.116591
948.278286	2541.966539
948.579641	2544.275387
948.880958	2540.686086
949.182236	2541.459903
949.483476	2540.625592
949.784678	2541.265818
950.085841	2543.627599
950.386967	2541.590973
950.688054	2540.050900
950.989103	2541.974101
951.290114	2542.483257
951.591087	2541.717002
951.892021	2540.365973
952.192917	2540.602907
952.493776	2541.598535
952.794596	2542.851261
953.095378	2540.459234
953.396122	2545.389482
953.696828	2541.255736
953.997496	2539.816487
954.298126	2540.439069
954.598718	2540.970911
954.899272	2541.469985
955.199788	2541.585932
955.500266	2542.095088
955.800706	2540.471837
956.101108	2539.017464
956.401472	2539.985365
956.701798	2539.057793
957.002087	2538.914120
957.302337	2544.477033
957.602550	2542.667259
957.902724	2539.345139
958.202861	2540.492001
958.502960	2541.608617
958.803022	2542.702547
959.103045	2542.826056
959.403031	2542.263967
959.702979	2542.498381
960.002889	2540.887732
960.302762	2541.475026
960.602596	2541.142310
960.902393	2541.568288
961.202153	2541.928730
961.501875	2539.950077
961.801559	2540.325643
962.101205	2540.539892
962.400814	2541.618699
962.700385	2540.149203
962.999918	2542.558874
963.299414	2539.110725
963.598873	2542.710109
963.898293	2539.773637
964.197677	2540.968390
964.497022	2539.342618
964.796331	2538.924202
965.095601	2539.108205
965.394835	2544.255223
965.694030	2540.045859
965.993189	2542.889070
966.292309	2540.653318
966.591393	2540.799512
966.890439	2540.446631
967.189447	2540.423946
967.488419	2537.610982
967.787353	2539.299768
968.086249	2539.917310
968.385108	2541.177598
968.683930	2544.076262
968.982714	2542.687424
969.281462	2540.862526
969.580172	2541.233051
969.878844	2542.710109
970.177480	2540.928061
970.476078	2538.969573
970.774639	2540.008051
971.073162	2543.373021
971.371649	2539.201466
971.670098	2539.582073
971.968510	2539.987886
972.266885	2537.447144
972.565223	2540.983514
972.863524	2540.703730
973.161788	2539.836651
973.460014	2540.512166
973.758204	2540.602907
974.056356	2539.952598
974.354471	2542.926879
974.652550	2541.994265
974.950591	2541.268339
975.248595	2541.560726
975.546563	2540.502084
975.844493	2539.327495
976.142386	2543.362938
976.440243	2538.021836
976.738062	2542.495860
977.035845	2538.956970
977.333590	2540.676003
977.631299	2542.299255
977.928971	2542.581560
978.226606	2539.962680
978.524204	2540.184491
978.821765	2541.643905
979.119290	2541.089378
979.416777	2540.358411
979.714228	2540.600386
980.011642	2540.003009
980.309020	2541.341436
980.606360	2538.699871
980.903664	2538.220962
981.200931	2541.008720
981.498162	2539.456044
981.795356	2541.285983
982.092513	2541.054090
982.389633	2541.079296
982.686717	2541.026364
982.983764	2541.966539
983.280775	2541.338915
983.577749	2540.600386
983.874686	2539.957639
984.171587	2540.393699
984.468451	2540.544933
984.765279	2539.750952
985.062070	2540.265149
985.358824	2541.467465
985.655543	2540.315561
985.952224	2541.606096
986.248869	2542.319420
986.545478	2535.344983
986.842050	2541.457382
987.138586	2535.276928
987.435086	2537.936136
987.731549	2536.325488
988.027975	2542.425284
988.324366	2540.343287
988.620719	2540.514687
988.917037	2540.549975
989.213318	2540.033256
989.509563	2544.043494
989.805772	2543.239430
990.101944	2540.456713
990.398080	2538.994779
990.694180	2539.534182
990.990244	2538.291538
991.286271	2539.773637
991.582262	2539.745911
991.878217	2540.993596
992.174136	2541.926210
992.470019	2538.210879
992.765865	2539.239275
993.061676	2538.558719
993.357450	2540.123997
993.653188	2539.188863
993.948890	2542.672300
994.244556	2541.311189
994.540186	2541.699358
994.835780	2539.665252
995.131337	2539.324974
995.426859	2541.815304
995.722345	2540.189532
996.017795	2538.861188
996.313208	2542.110212
996.608586	2538.599048
996.903928	2541.570808
997.199234	2541.815304
997.494504	2540.628113
997.789738	2539.801363
998.084936	2541.462423
998.380099	2540.917979
998.675225	2542.687424
998.970316	2541.222969
999.265371	2538.629295
999.560390	2539.692978
999.855373	2541.389327
1000.150320	2539.657690
1000.445232	2537.479912
1000.740108	2540.920499
1001.034948	2541.890922
1001.329752	2540.129038
1001.624521	2540.887732
1001.919254	2536.759027
1002.213951	2536.572504
1002.508613	2538.014274
1002.803239	2539.907227
1003.097829	2537.568132
1003.392384	2541.540561
1003.686903	2539.357742
1003.981386	2542.604245
1004.275834	2541.235572
1004.570246	2542.021992
1004.864623	2538.929244
1005.158964	2538.687268
1005.453270	2540.108874
1005.747540	2539.713143
1006.041775	2543.201622
1006.335974	2540.539892
1006.630138	2539.390509
1006.924266	2538.694830
1007.218359	2539.884542
1007.512416	2541.719522
1007.806438	2541.011240
1008.100425	2539.559388
1008.394376	2538.871270
1008.688292	2537.956301
1008.982172	2540.141641
1009.276017	2537.053934
1009.569827	2538.868750
1009.863602	2541.434697
1010.157341	2537.696682
1010.451045	2541.033925
1010.744714	2537.910931
1011.038347	2540.255067
1011.331945	2540.620551
1011.625508	2538.410005
1011.919036	2538.253729
1012.212528	2539.095602
1012.505986	2539.105684
1012.799408	2539.498894
1013.092795	2538.962011
1013.386147	2537.731970
1013.679464	2535.150899
1013.972745	2541.159954
1014.265992	2540.577701
1014.559204	2543.390665
1014.852380	2540.353370
1015.145521	2539.284645
1015.438628	2539.448482
1015.731699	2540.023174
1016.024736	2537.837834
1016.317737	2539.831610
1016.610703	2542.619368
1016.903635	2535.390354
1017.196531	2535.382792
1017.489393	2536.035621
1017.782219	2536.874973
1018.075011	2540.423946
1018.367768	2539.677855
1018.660490	2539.393030
1018.953177	2539.393030
1019.245829	2539.393030
