Dividing Wavelength (nm)	Counts (n)	Blue Motor Position (mm): 29.700000	Red Motor Position (mm): 0.000000	
326.493990	2132.178704
326.888308	2132.178704
327.282561	2132.178704
327.676750	2098.289548
328.070874	2094.770822
328.464933	2101.770464
328.858929	2106.715836
329.252859	2117.244286
329.646726	2128.445730
330.040528	2142.382000
330.434265	2158.455719
330.827938	2176.359377
331.221547	2192.874197
331.615091	2210.790458
332.008571	2231.275186
332.401986	2251.487693
332.795338	2271.601896
333.188625	2288.716614
333.581847	2307.575570
333.975006	2325.264979
334.368100	2344.507063
334.761129	2364.971627
335.154095	2376.954450
335.546996	2400.947822
335.939833	2422.851635
336.332606	2440.233534
336.725315	2449.776438
337.117960	2458.517799
337.510540	2470.737556
337.903056	2480.741725
338.295508	2488.169866
338.687896	2495.436689
339.080220	2504.782988
339.472480	2509.589728
339.864676	2516.720440
340.256807	2517.216994
340.648875	2526.316277
341.040879	2522.966430
341.432818	2527.034641
341.824694	2526.830474
342.216506	2529.459436
342.608253	2530.906247
342.999937	2531.128058
343.391557	2527.022038
343.783113	2528.771319
344.174605	2527.700073
344.566033	2526.512882
344.957397	2523.286543
345.348697	2524.060360
345.739934	2521.393590
346.131106	2518.913342
346.522215	2516.183558
346.913260	2512.238855
347.304241	2515.790347
347.695159	2512.536283
348.086012	2509.078051
348.476802	2507.384223
348.867528	2505.909686
349.258191	2503.018584
349.648789	2504.520848
350.039324	2500.732421
350.429796	2501.733090
350.820203	2498.547081
351.210548	2498.778974
351.600828	2496.744868
351.991045	2496.386946
352.381198	2499.542709
352.771288	2498.163953
353.161314	2497.105311
353.551276	2495.552635
353.941175	2493.450474
354.331010	2492.772439
354.720782	2494.985506
355.110490	2495.882831
355.500135	2495.446771
355.889717	2494.189003
356.279235	2493.533653
356.668689	2497.019611
357.058080	2495.847543
357.447408	2496.412152
357.836672	2492.270844
358.225873	2495.285454
358.615010	2495.023314
359.004084	2497.175887
359.393095	2498.375682
359.782043	2497.944663
360.170927	2500.535816
360.559748	2501.448265
360.948505	2502.834582
361.337199	2501.619664
361.725830	2502.416166
362.114398	2502.728718
362.502903	2503.250477
362.891344	2507.774913
363.279722	2501.720487
363.668037	2504.316681
364.056289	2502.123779
364.444478	2504.067144
364.832603	2506.547392
365.220665	2507.338853
365.608665	2506.446569
365.996601	2505.438338
366.384474	2506.703668
366.772284	2506.338184
367.160031	2507.169974
367.547715	2508.372290
367.935336	2508.886487
368.322893	2509.075531
368.710388	2509.075531
369.097820	2511.500326
369.485189	2508.825993
369.872495	2507.273318
370.259738	2510.000582
370.646918	2510.025788
371.034035	2511.016375
371.421090	2513.242044
371.808081	2513.494102
372.195010	2512.120388
372.581875	2508.024450
372.968678	2512.427898
373.355418	2511.505367
373.742096	2513.879750
374.128710	2512.163237
374.515262	2513.065604
374.901751	2512.309431
375.288177	2515.119874
375.674540	2511.021416
376.060841	2515.555934
376.447079	2514.151973
376.833254	2514.482168
377.219367	2508.914214
377.605417	2513.330264
377.991404	2509.675428
378.377329	2513.123577
378.763191	2509.246930
379.148991	2517.385873
379.534727	2517.020389
379.920402	2519.251100
380.306013	2516.453259
380.691563	2518.772190
381.077049	2514.961078
381.462474	2516.702796
381.847835	2517.269926
382.233134	2515.190450
382.618371	2517.796727
383.003545	2515.961747
383.388657	2517.509381
383.773706	2522.883251
384.158693	2518.547859
384.543618	2518.535256
384.928480	2519.946779
385.313280	2521.159176
385.698017	2518.341171
386.082692	2520.284536
386.467305	2517.680780
386.851856	2520.849145
387.236344	2520.032478
387.620770	2523.846111
388.005133	2519.901408
388.389435	2522.101872
388.773674	2519.709845
389.157851	2522.399300
389.541965	2521.207067
389.926018	2522.061543
390.310008	2523.500792
390.693936	2522.777387
391.077802	2520.904598
391.461606	2523.457943
391.845348	2521.010462
392.229027	2524.912315
392.612645	2521.086080
392.996200	2523.684794
393.379694	2525.010618
393.763125	2524.488858
394.146494	2524.279651
394.529801	2526.485155
394.913047	2524.917357
395.296230	2524.330062
395.679351	2525.018180
396.062410	2526.364168
396.445408	2524.861904
396.828343	2528.176462
397.211217	2522.429547
397.594028	2524.430885
397.976778	2522.979033
398.359466	2526.638911
398.742092	2522.842922
399.124656	2528.388191
399.507158	2526.880886
399.889598	2529.512368
400.271977	2528.201668
400.654294	2527.861390
401.036549	2530.303829
401.418742	2529.840043
401.800874	2531.927081
402.182944	2530.628984
402.564952	2529.524971
402.946898	2528.791483
403.328783	2530.598737
403.710606	2529.766947
404.092367	2529.046062
404.474067	2531.823737
404.855705	2530.812986
405.237282	2530.097142
405.618797	2531.997657
406.000250	2533.893131
406.381642	2530.467667
406.762972	2534.848430
407.144240	2532.766433
407.525447	2532.383305
407.906593	2533.774664
408.287677	2530.835671
408.668700	2536.204500
409.049661	2535.168543
409.430560	2532.584952
409.811399	2534.677030
410.192176	2534.513193
410.572891	2536.675848
410.953545	2536.585107
411.334138	2535.745755
411.714669	2536.164171
412.095139	2534.913965
412.475547	2535.823893
412.855894	2534.056968
413.236180	2535.355066
413.616405	2539.035108
413.996568	2538.248688
414.376670	2537.605941
414.756711	2537.719367
415.136691	2541.127187
415.516609	2539.811446
415.896466	2539.798843
416.276262	2540.746580
416.655997	2535.029911
417.035670	2535.947401
417.415283	2538.072248
417.794834	2539.128369
418.174324	2538.775488
418.553753	2542.112732
418.933121	2542.790767
419.312428	2542.090047
419.691674	2541.202804
420.070859	2545.533155
420.449983	2541.596014
420.829045	2544.686241
421.208047	2545.515511
421.586988	2544.257743
421.965867	2548.978784
422.344686	2546.848896
422.723444	2548.371325
423.102141	2548.262940
423.480777	2553.127653
423.859352	2549.409803
424.237866	2554.990360
424.616319	2553.246121
424.994712	2558.347768
425.373044	2556.827860
425.751314	2561.301884
426.129524	2565.382698
426.507673	2571.220355
426.885762	2575.225551
427.263789	2580.700244
427.641756	2581.325347
428.019662	2589.577716
428.397508	2595.831268
428.775292	2602.510797
429.153016	2612.678804
429.530679	2618.745832
429.908282	2630.741258
430.285824	2637.514048
430.663305	2656.695639
431.040726	2657.585402
431.418086	2667.713080
431.795385	2687.517253
432.172624	2696.694674
432.549802	2711.684545
432.926920	2725.204919
433.303977	2740.426683
433.680974	2759.489807
434.057910	2778.547889
434.434786	2795.957514
434.811601	2813.316727
435.188355	2851.276615
435.565050	2858.825743
435.941683	2882.821636
436.318257	2926.510795
436.694770	2948.396965
437.071222	2980.307469
437.447614	2995.506548
437.823946	3007.564988
438.200218	3059.864438
438.576429	3073.155440
438.952580	3117.318468
439.328670	3159.326403
439.704700	3177.940864
440.080670	3205.216027
440.456580	3294.988895
440.832429	3310.644198
441.208218	3313.051349
441.583947	3383.405692
441.959616	3423.719799
442.335224	3443.821400
442.710773	3524.530273
443.086261	3578.682348
443.461689	3560.723237
443.837057	3647.869664
444.212365	3745.035384
444.587612	3753.189450
444.962800	3850.156044
445.337927	3894.966861
445.712995	3806.522337
446.088002	4065.655289
446.462949	4051.340932
446.837837	4079.034511
447.212664	4190.048281
447.587431	4318.015450
447.962139	4620.363693
448.336786	5091.202422
448.711374	5040.372467
449.085901	4668.587371
449.460369	4688.686452
449.834776	4711.351479
450.209124	4980.743179
450.583412	5132.169358
450.957640	5251.266618
451.331808	5193.328637
451.705917	4998.689687
452.079965	5004.078680
452.453954	5194.415005
452.827883	5167.601108
453.201752	5277.967089
453.575562	5207.630390
453.949311	5396.381273
454.323001	5367.755080
454.696632	5467.753929
455.070202	5615.747082
455.443713	5770.520588
455.817164	5893.393671
456.190556	6013.647876
456.563888	6118.461026
456.937160	6194.413570
457.310373	5986.707950
457.683526	6059.235030
458.056619	6021.365882
458.429653	6060.623868
458.802628	6042.279109
459.175542	6164.627913
459.548398	6494.946998
459.921194	6663.820611
460.293930	6699.965684
460.666607	7166.078330
461.039224	7460.653114
461.411782	7620.644214
461.784280	7682.675612
462.156719	7633.917572
462.529099	7577.958243
462.901419	7253.514623
463.273680	7196.731066
463.645882	7244.170844
464.018024	7156.981568
464.390106	7328.216961
464.762130	7719.145839
465.134094	8171.944798
465.505999	9119.674160
465.877845	10268.243090
466.249631	10910.463405
466.621358	10607.316139
466.993026	10074.188914
467.364634	9863.967758
467.736184	9535.440802
468.107674	9248.558819
468.479105	9304.661821
468.850477	9092.525026
469.221790	8891.398111
469.593043	8590.108510
469.964238	8476.579205
470.335373	8499.526537
470.706449	8569.722084
471.077467	8561.454591
471.448425	9854.127425
471.819324	10900.010573
472.190164	10934.398803
472.560945	9722.770079
472.931667	8958.526115
473.302330	8833.147578
473.672934	8497.381526
474.043479	8850.307666
474.413965	8797.390674
474.784393	8681.192077
475.154761	8838.927261
475.525070	8932.135675
475.895321	8775.343187
476.265513	8943.057335
476.635645	9112.803067
477.005719	9121.468810
477.375734	9233.090039
477.745691	9472.282707
478.115588	9604.837326
478.485427	9852.579791
478.855207	10386.924455
479.224928	11197.620131
479.594591	11815.670634
479.964194	11620.701488
480.333739	11575.479818
480.703226	11492.822538
481.072653	11580.442833
481.442022	11815.816827
481.811333	12006.954696
482.180584	11809.754840
482.549777	11528.740760
482.918912	11357.089471
483.287988	11376.959179
483.657005	11392.463248
484.025964	11077.025649
484.394864	11203.939217
484.763706	11175.565083
485.132489	10943.432551
485.501213	10901.192723
485.869879	10979.970834
486.238487	10826.137504
486.607036	10928.760273
486.975527	10720.583304
487.343959	10904.771942
487.712333	10949.391195
488.080648	10881.315453
488.448905	10923.842627
488.817104	10867.817764
489.185244	11130.635799
489.553326	11288.741507
489.921350	11825.079947
490.289315	12877.531718
490.657222	13212.145866
491.025070	13118.438378
491.392861	12990.435920
491.760593	12619.560752
492.128267	12275.388576
492.495883	11942.012031
492.863440	11613.646393
493.230939	11278.298757
493.598380	11216.884900
493.965763	11084.869684
494.333088	10983.199693
494.700354	10908.177242
495.067563	10964.948196
495.434713	10799.767228
495.801805	10928.795561
496.168839	10851.376041
496.535815	10784.600917
496.902733	10784.013623
497.269593	10720.976514
497.636395	10822.505353
498.003139	10808.921964
498.369825	10676.206027
498.736453	10837.893475
499.103023	10759.783317
499.469535	10787.789447
499.835989	10779.900041
500.202385	10742.605585
500.568723	10596.364232
500.935003	10812.284413
501.301226	10622.154775
501.667390	10883.551205
502.033497	10980.333797
502.399546	10834.931797
502.765537	10749.491801
503.131470	10818.893366
503.497345	10990.784109
503.863163	10606.547363
504.228923	10909.359392
504.594625	10980.921092
504.960269	10727.096475
505.325856	10951.362286
505.691385	10741.766233
506.056856	10891.911959
506.422270	10921.957236
506.787625	10804.853753
507.152924	10929.360170
507.518164	10908.056254
507.883347	10834.573875
508.248472	10747.540874
508.613540	10987.993831
508.978550	10862.123781
509.343503	10837.464977
509.708398	10953.855137
510.073236	11071.485421
510.438016	11080.693088
510.802738	11026.929182
511.167403	11078.578324
511.532010	10978.735752
511.896561	11206.719414
512.261053	11274.497727
512.625488	11145.484518
512.989866	11129.819132
513.354186	11118.229520
513.718449	11016.819148
514.082655	11210.749816
514.446803	11113.717687
514.810894	11231.678166
515.174927	11097.144894
515.538904	11119.578028
515.902822	11267.843404
516.266684	11157.837865
516.630488	11100.847621
516.994235	11161.044039
517.357925	11215.528830
517.721558	11306.657768
518.085133	11327.389513
518.448651	11331.780358
518.812112	11217.326001
519.175516	11226.770603
519.538863	11353.621157
519.902152	11270.192582
520.265385	11432.716861
520.628560	11329.884884
520.991678	11319.026239
521.354739	11376.203006
521.717743	11315.666310
522.080690	11295.249637
522.443580	11422.241343
522.806413	11379.789787
523.169189	11409.288099
523.531908	11466.147273
523.894569	11286.704881
524.257174	11292.222424
524.619722	11416.038204
524.982213	11357.621313
525.344647	11411.821278
525.707025	11356.575273
526.069345	11454.023298
526.431608	11375.426668
526.793815	11482.762916
527.155964	11272.788776
527.518057	11321.682927
527.880093	11268.576892
528.242072	11335.019300
528.603995	11242.637635
528.965860	11163.867085
529.327669	11218.782895
529.689421	11166.425471
530.051117	11138.900771
530.412755	11236.295863
530.774337	11127.560695
531.135862	11117.077616
531.497331	11141.179372
531.858743	10987.048614
532.220098	11157.545478
532.581396	11025.114367
532.942638	11010.527788
533.303824	10969.770059
533.664953	10990.504325
534.026025	10905.709597
534.387040	11000.979843
534.747999	11007.019145
535.108902	11058.355735
535.469748	10819.445372
535.830537	10921.773234
536.191270	10900.877651
536.551947	10925.939747
536.912567	10921.574108
537.273131	10846.614671
537.633638	10827.188585
537.994089	10816.629888
538.354483	10768.131467
538.714821	10915.890207
539.075103	10921.674931
539.435328	10885.711340
539.795497	10711.302540
540.155609	10868.967147
540.515665	10959.768410
540.875665	10693.398882
541.235609	10764.428740
541.595496	10748.518858
541.955328	10910.234033
542.315102	10793.029726
542.674821	10746.651111
543.034483	10748.370144
543.394090	10750.691596
543.753640	10680.768271
544.113134	10900.277754
544.472571	10756.824159
544.831953	10898.064687
545.191278	10711.509227
545.550548	10734.834646
545.909761	10870.857580
546.268918	10842.153250
546.628019	10926.678276
546.987064	10792.911259
547.346053	10708.413959
547.704986	10808.710235
548.063863	10797.508791
548.422684	10793.284304
548.781449	10703.582013
549.140158	10812.342387
549.498811	10690.038953
549.857408	10547.359176
550.215949	10762.230797
550.574434	10622.812646
550.932864	10726.720909
551.291237	10782.576894
551.649555	10728.719727
552.007817	10744.778322
552.366022	10705.094359
552.724173	10697.608246
553.082267	10678.063692
553.440305	10820.458644
553.798288	10621.000351
554.156215	10777.807962
554.514086	10747.853426
554.871902	10597.145611
555.229661	10640.713783
555.587365	10609.284710
555.945014	10505.441982
556.302606	10634.694646
556.660143	10522.954950
557.017625	10680.609475
557.375050	10579.252036
557.732421	10704.146622
558.089735	10627.248861
558.446994	10630.394541
558.804197	10656.885805
559.161345	10665.211270
559.518437	10513.439772
559.875474	10600.815571
560.232455	10630.331527
560.589381	10583.789074
560.946251	10577.611140
561.303065	10686.704230
561.659825	10622.731988
562.016528	10553.121215
562.373177	10429.403738
562.729770	10547.676768
563.086307	10459.688469
563.442789	10553.637933
563.799216	10433.902967
564.155587	10484.818621
564.511904	10433.620663
564.868164	10423.964332
565.224370	10436.272310
565.580520	10366.913594
565.936615	10370.969203
566.292654	10237.928112
566.648638	10375.324760
567.004567	10331.968316
567.360441	10311.977620
567.716260	10220.387417
568.072023	10317.623713
568.427732	10275.923288
568.783385	10175.004429
569.138982	10245.366334
569.494525	10264.742009
569.850013	10146.234564
570.205445	10226.086441
570.560823	10120.678435
570.916145	10038.757164
571.271412	10106.540519
571.626625	10051.183608
571.981782	10028.251400
572.336884	10004.126958
572.691931	10009.939408
573.046923	9957.135842
573.401860	9915.689996
573.756743	9844.942443
574.111570	9891.691583
574.466342	9876.852947
574.821059	9899.694415
575.175722	9794.387232
575.530330	9801.996853
575.884882	9799.733375
576.239380	9723.180933
576.593823	9697.891985
576.948211	9721.913083
577.302544	9597.348692
577.656823	9608.872770
578.011047	9616.321075
578.365216	9593.852652
578.719330	9510.303089
579.073389	9523.410089
579.427394	9471.292120
579.781344	9448.044839
580.135239	9394.958968
580.489080	9403.453312
580.842866	9310.290269
581.196597	9320.382659
581.550273	9357.903967
581.903895	9321.224532
582.257463	9386.598215
582.610975	9273.227706
582.964434	9293.442733
583.317837	9217.558244
583.671186	9194.071508
584.024481	9199.647024
584.377721	9114.648129
584.730906	9092.482176
585.084037	9114.915310
585.437113	9051.469869
585.790135	9077.671266
586.143103	8974.012540
586.496016	8947.503632
586.848874	9006.119649
587.201679	8997.204368
587.554428	8882.508036
587.907124	8925.783821
588.259765	8896.648472
588.612352	8903.690964
588.964884	8777.644474
589.317362	8793.035117
589.669786	8790.552348
590.022155	8840.157302
590.374470	8859.026341
590.726731	8795.517885
591.078937	8644.989031
591.431090	8758.606557
591.783188	8633.268348
592.135232	8622.197975
592.487222	8621.945917
592.839157	8676.874329
593.191038	8614.704299
593.542866	8554.898571
593.894639	8459.063716
594.246358	8508.502311
594.598022	8524.175259
594.949633	8423.407634
595.301190	8399.046258
595.652692	8428.506762
596.004141	8535.424593
596.355535	8315.408475
596.706876	8297.134292
597.058162	8227.084939
597.409395	8304.655694
597.760573	8372.295376
598.111698	8278.908001
598.462768	8262.415866
598.813785	8230.112152
599.164748	8196.175104
599.515657	8186.012138
599.866511	8095.750278
600.217312	8219.490441
600.568060	8086.782066
600.918753	8185.001387
601.269392	8157.751430
601.619978	8068.238181
601.970510	8129.475598
602.320988	8128.621122
602.671412	8183.617590
603.021783	8117.883464
603.372100	8094.532840
603.722363	8097.789425
604.072572	8074.224552
604.422728	8081.327537
604.772830	8015.169955
605.122878	8019.870831
605.472872	8021.052981
605.822813	8041.376393
606.172701	7986.412693
606.522534	8067.522337
606.872314	8066.236843
607.222041	8036.587297
607.571714	8091.974454
607.921333	8049.659009
608.270899	8054.785862
608.620411	8140.987072
608.969870	8044.638020
609.319276	8042.523256
609.668627	8058.387767
610.017926	8097.416380
610.367171	8139.036146
610.716362	8115.786344
611.065500	8108.605221
611.414585	8137.503635
611.763616	8121.346737
612.112594	8101.645908
612.461518	8117.885985
612.810389	8178.465531
613.159207	8118.765666
613.507971	8065.319353
613.856682	8189.142695
614.205340	8142.527145
614.553945	8220.259217
614.902496	8110.188143
615.250994	8173.542844
615.599439	8155.843353
615.947830	8169.119232
616.296169	8141.869274
616.644454	8157.065833
616.992686	8153.181624
617.340864	8216.652271
617.688990	8110.155376
618.037063	8202.395888
618.385082	8150.915625
618.733048	8238.311589
619.080961	8177.744646
619.428821	8196.497738
619.776628	8200.356741
620.124382	8151.523084
620.472083	8128.817727
620.819731	8161.572624
621.167326	8049.843011
621.514868	8067.867657
621.862357	7954.499668
622.209793	7965.244888
622.557176	7903.284066
622.904506	7870.579580
623.251783	7809.332082
623.599007	7759.424658
623.946179	7767.056965
624.293297	7720.030562
624.640363	7642.709344
624.987376	7625.357693
625.334336	7571.876091
625.681243	7525.557970
626.028097	7511.556165
626.374899	7489.964903
626.721647	7482.534242
627.068343	7413.556134
627.414987	7386.737196
627.761577	7342.790937
628.108115	7374.197326
628.454600	7271.357787
628.801032	7323.737896
629.147412	7284.172400
629.493739	7274.261492
629.840014	7209.008796
630.186236	7266.949298
630.532405	7150.186093
630.878521	7200.703495
631.224585	7156.790004
631.570597	7082.475835
631.916556	7111.230576
632.262462	7106.900225
632.608316	7070.830769
632.954117	7047.044085
633.299866	7037.591922
633.645562	7028.530448
633.991206	6952.308201
634.336797	6888.179683
634.682336	6849.612336
635.027823	6811.959958
635.373257	6806.109699
635.718639	6741.955975
636.063968	6754.286637
636.409245	6649.425596
636.754470	6648.087170
637.099642	6604.677794
637.444762	6548.491614
637.789829	6561.386885
638.134845	6507.597774
638.479808	6487.292006
638.824719	6492.285269
639.169577	6421.333549
639.514383	6441.316683
639.859137	6369.691969
640.203839	6378.294698
640.548489	6365.719540
640.893086	6334.776937
641.237632	6309.866076
641.582125	6327.563046
641.926566	6304.141846
642.270955	6314.607281
642.615292	6312.384132
642.959576	6325.412994
643.303809	6317.228681
643.647990	6323.908210
643.992118	6315.129040
644.336195	6254.582262
644.680219	6281.975892
645.024192	6277.693432
645.368112	6367.473861
645.711981	6390.355659
646.055797	6469.509336
646.399562	6428.255053
646.743274	6556.307923
647.086935	6604.899605
647.430544	6600.929696
647.774101	6620.060875
648.117606	6628.260312
648.461059	6617.769670
648.804460	6581.397745
649.147810	6490.354507
649.491108	6457.098015
649.834354	6426.954436
650.177548	6351.516089
650.520690	6265.022492
650.863781	6243.216981
651.206820	6264.178098
651.549807	6190.743610
651.892742	6125.077540
652.235626	6132.004086
652.578458	6117.520851
652.921238	6027.909300
653.263967	6067.260547
653.606644	6004.145301
653.949269	6011.545715
654.291843	5956.261901
654.634365	6002.990877
654.976836	5956.929854
655.319255	5955.162929
655.661622	5936.487975
656.003938	5924.961377
656.346203	5885.171549
656.688416	5920.885604
657.030577	5875.525302
657.372687	5849.107135
657.714746	5837.308314
658.056753	5875.542946
658.398708	5810.396114
658.740612	5804.631555
659.082465	5856.351273
659.424266	5844.381053
659.766016	5848.005643
660.107715	5821.040511
660.449362	5837.469631
660.790958	5829.267674
661.132503	5817.335263
661.473996	5852.315829
661.815438	5842.271330
662.156829	5837.308314
662.498168	5833.265309
662.839456	5809.576927
663.180693	5841.840312
663.521879	5842.815775
663.863013	5830.109547
664.204097	5853.157702
664.545129	5886.688937
664.886110	5887.750100
665.227040	5921.490542
665.567918	5883.250870
665.908746	5912.275313
666.249522	5916.610705
666.590248	5907.350106
666.930922	5933.087717
667.271545	5937.506288
667.612118	5943.648934
667.952639	5922.629843
668.293109	5943.515343
668.633528	5905.676443
668.973896	5905.973871
669.314213	5898.233179
669.654480	5877.294747
669.994695	5872.293922
670.334859	5861.215986
670.674973	5854.029822
671.015035	5858.231623
671.355047	5855.043093
671.695008	5839.965002
672.034918	5810.731351
672.374777	5827.296583
672.714585	5812.137833
673.054342	5818.439275
673.394049	5809.743285
673.733705	5841.053892
674.073310	5823.639226
674.412864	5790.140758
674.752368	5776.834633
675.091820	5782.654645
675.431223	5718.621909
675.770574	5723.816818
676.109875	5673.427964
676.449125	5674.710938
676.788324	5644.335466
677.127473	5587.509059
677.466571	5582.220888
677.805619	5568.876954
678.144616	5557.937650
678.483562	5534.493764
678.822458	5502.921018
679.161303	5500.624772
679.500098	5491.462475
679.838842	5472.908508
680.177535	5475.550073
680.516179	5492.785778
680.854771	5505.010576
681.193314	5581.807514
681.531805	5690.295665
681.870247	5841.837791
682.208638	5949.524399
682.546978	5955.483043
682.885268	5930.766265
683.223508	5845.616136
683.561697	5795.461696
683.899836	5762.691676
684.237925	5723.355552
684.575963	5686.419018
684.913951	5645.870497
685.251889	5704.264702
685.589776	5674.625238
685.927614	5647.455940
686.265401	5716.917999
686.603137	5698.227921
686.940824	5775.781032
687.278460	5800.611235
687.616046	5811.492565
687.953582	5874.806937
688.291068	5857.694740
688.628504	5921.616571
688.965889	5884.697681
689.303224	5828.272046
689.640510	5785.046672
689.977745	5708.055650
690.314930	5606.244507
690.652065	5553.264501
690.989150	5460.981138
691.326185	5382.160177
691.663170	5332.096479
692.000105	5258.687196
692.336990	5179.566287
692.673825	5154.942771
693.010610	5082.614816
693.347345	5015.002861
693.684030	5003.032641
694.020665	4956.401968
694.357251	4868.733782
694.693786	4878.712746
695.030272	4846.978682
695.366707	4814.601872
695.703093	4781.562149
696.039429	4805.555521
696.375716	4788.592038
696.711952	4759.028192
697.048139	4745.802725
697.384276	4726.948809
697.720363	4737.182352
698.056400	4746.760544
698.392388	4696.553172
698.728326	4677.479967
699.064214	4654.973735
699.400053	4648.752951
699.735842	4615.655256
700.071581	4594.434519
700.407270	4564.563162
700.742910	4545.588258
701.078501	4492.424250
701.414042	4493.238396
701.749533	4463.982060
702.084974	4394.993870
702.420366	4456.657263
702.755709	4395.432450
703.091002	4340.985468
703.426246	4391.575967
703.761440	4346.525696
704.096584	4308.124707
704.431679	4328.969878
704.766725	4314.602589
705.101721	4303.232267
705.436668	4330.799817
705.771565	4278.722177
706.106413	4307.565138
706.441212	4342.104604
706.775961	4345.893031
707.110661	4331.097245
707.445311	4354.578939
707.779913	4378.889904
708.114465	4391.223087
708.448967	4415.382816
708.783421	4477.499914
709.117825	4516.480636
709.452180	4521.783930
709.786485	4564.701793
710.120742	4657.718643
710.454949	4635.272906
710.789107	4705.418041
711.123216	4778.890338
711.457275	4770.713586
711.791286	4844.649669
712.125247	4857.986042
712.459159	4760.475003
712.793023	4840.747816
713.126837	4797.840035
713.460602	4786.623468
713.794318	4705.717990
714.127985	4714.247622
714.461602	4633.148060
714.795171	4605.721662
715.128691	4537.998801
715.462162	4478.485460
715.795584	4433.702369
716.128957	4415.551695
716.462281	4359.080690
716.795556	4338.379191
717.128782	4299.832008
717.461960	4230.168303
717.795088	4237.132658
718.128167	4196.415258
718.461198	4142.152278
718.794180	4135.344200
719.127113	4116.823000
719.459997	4093.553034
719.792833	4050.592321
720.125619	4042.919685
720.458357	4003.538191
720.791046	4010.847864
721.123686	3985.836179
721.456278	3944.148358
721.788821	3959.813743
722.121315	3931.202675
722.453761	3908.880445
722.786158	3921.800923
723.118506	3943.387143
723.450805	3894.198085
723.783056	3917.505860
724.115259	3932.281482
724.447412	3938.406483
724.779518	3930.552366
725.111574	3936.016977
725.443582	3966.664671
725.775542	3950.200263
726.107453	3997.945031
726.439315	4003.071884
726.771129	4016.299872
727.102895	4049.498391
727.434612	4097.918673
727.766281	4112.669090
728.097901	4110.743369
728.429473	4119.451962
728.760996	4122.161582
729.092471	4122.411119
729.423897	4107.620374
729.755276	4110.203965
730.086606	4109.273873
730.417887	4148.178977
730.749120	4213.444276
731.080305	4279.158237
731.411442	4303.471722
731.742530	4272.062813
732.073570	4277.187145
732.404562	4331.702183
732.735506	4322.005524
733.066401	4285.406747
733.397249	4221.006006
733.728048	4140.138337
734.058798	4060.634300
734.389501	3991.487313
734.720156	3929.395421
735.050762	3884.045201
735.381320	3879.656877
735.711831	3820.824091
736.042293	3798.227118
736.372707	3815.752690
736.703073	3792.409627
737.033391	3782.024850
737.363661	3799.956234
737.693883	3825.779545
738.024056	3833.966379
738.354182	3827.871624
738.684260	3891.160790
739.014290	3914.234151
739.344272	3907.529416
739.674207	3949.179429
740.004093	3958.994556
740.333931	3950.099440
740.663722	3951.788226
740.993464	3945.426290
741.323159	3927.847787
741.652806	3895.677663
741.982405	3867.520299
742.311956	3834.707428
742.641460	3826.066891
742.970915	3802.315494
743.300323	3761.837549
743.629683	3727.688773
743.958996	3720.348853
744.288260	3692.710727
744.617477	3658.544307
744.946647	3644.086278
745.275768	3621.774131
745.604842	3620.730612
745.933869	3571.327304
746.262847	3563.160635
746.591778	3598.509206
746.920662	3571.158426
747.249498	3538.960576
747.578286	3587.191816
747.907027	3607.210237
748.235720	3603.595730
748.564365	3628.204123
748.892963	3626.331334
749.221514	3613.559571
749.550017	3586.443204
749.878473	3585.477823
750.206881	3556.400448
750.535242	3554.517577
750.863555	3555.626631
751.191821	3545.602296
751.520039	3527.091179
751.848210	3507.075278
752.176334	3539.641132
752.504411	3546.635733
752.832440	3509.449662
753.160421	3489.073318
753.488356	3497.693691
753.816243	3509.671472
754.144082	3468.119762
754.471875	3454.286836
754.799620	3473.113025
755.127318	3462.861838
755.454969	3463.849904
755.782572	3468.210503
756.110129	3449.288532
756.437638	3435.599278
756.765100	3449.742235
757.092515	3460.323617
757.419882	3468.553301
757.747203	3439.201183
758.074477	3441.245371
758.401703	3457.671970
758.728882	3480.722646
759.056014	3487.187926
759.383099	3489.867299
759.710138	3482.953357
760.037129	3500.622601
760.364073	3533.395142
760.690970	3521.288811
761.017820	3496.690501
761.344623	3511.095598
761.671379	3559.929256
761.998088	3611.689303
762.324751	3740.823500
762.651366	3986.660408
762.977935	4460.526349
763.304456	4905.977826
763.630931	4996.877392
763.957359	4637.919512
764.283740	4292.461842
764.610074	4100.751802
764.936362	3904.751740
765.262602	3744.359869
765.588796	3634.175369
765.914943	3545.839231
766.241044	3454.433029
766.567097	3427.856066
766.893104	3380.791854
767.219064	3350.607945
767.544978	3321.986794
767.870845	3267.275151
768.196665	3249.396699
768.522438	3258.624531
768.848165	3251.498860
769.173846	3214.653067
769.499479	3200.913402
769.825066	3181.333561
770.150607	3165.907630
770.476101	3181.061338
770.801548	3177.262829
771.126949	3128.978657
771.452303	3114.573560
771.777611	3119.360136
772.102872	3125.921197
772.428087	3100.352465
772.753256	3090.134046
773.078378	3084.976946
773.403453	3048.763817
773.728482	3039.160419
774.053465	3060.494582
774.378401	3047.006975
774.703291	3015.940865
775.028135	3015.532531
775.352932	3013.178312
775.677683	3000.565345
776.002388	2998.874038
776.327046	2996.774398
776.651658	2987.291987
776.976224	2976.007364
777.300743	2973.280100
777.625216	2965.685602
777.949643	2961.070426
778.274024	2962.250056
778.598359	2951.877882
778.922647	2960.402473
779.246889	2958.650672
779.571086	2940.429421
779.895236	2935.894903
780.219339	2946.529217
780.543397	2960.203347
780.867409	2962.416414
781.191374	2954.763942
781.515294	2955.056329
781.839167	2952.034157
782.162995	2945.006789
782.486776	2951.451904
782.810511	2948.918724
783.134201	2938.319698
783.457844	2943.504525
783.781441	2935.650407
784.104993	2912.556882
784.428498	2913.940678
784.751958	2928.698656
785.075372	2923.793613
785.398739	2904.904410
785.722061	2921.933428
786.045337	2935.209306
786.368568	2918.646595
786.691752	2912.531676
787.014891	2961.251907
787.337983	2990.999756
787.661030	3017.082686
787.984031	3084.550968
788.306987	3132.948566
788.629897	3123.942545
788.952760	3107.425204
789.275579	3093.320056
789.598351	3035.349307
789.921078	2988.879951
790.243759	2979.420226
790.566395	2960.546146
790.888984	2936.583021
791.211529	2921.300763
791.534027	2911.999834
791.856480	2901.128586
792.178888	2886.393293
792.501249	2879.746532
792.823566	2875.655635
793.145836	2874.866695
793.468062	2865.825385
793.790241	2866.440406
794.112375	2871.789070
794.434464	2883.592932
794.756507	2889.546535
795.078505	2894.340672
795.400457	2910.358938
795.722364	2946.698096
796.044226	2971.545943
796.366042	2974.351345
796.687812	2963.003708
797.009538	2980.045329
797.331218	2966.966055
797.652852	2953.806123
797.974442	2938.478495
798.295986	2934.349790
798.617484	2928.159253
798.938938	2912.556882
799.260346	2898.902916
799.581709	2891.192472
799.903026	2886.635268
800.224299	2879.388610
800.545526	2869.306302
800.866708	2854.492872
801.187845	2843.092302
801.508936	2848.244361
801.829983	2855.916997
802.150984	2838.469564
802.471940	2825.846515
802.792851	2828.868687
803.113717	2828.142760
803.434538	2831.464881
803.755314	2825.755774
804.076045	2819.598005
804.396731	2818.443580
804.717372	2816.641368
805.037967	2811.378403
805.358518	2819.240083
805.679024	2829.743327
805.999485	2828.147802
806.319901	2832.178204
806.640272	2823.494817
806.960598	2830.108810
807.280879	2838.966118
807.601115	2845.925431
807.921306	2831.333811
808.241453	2826.917760
808.561554	2837.337825
808.881611	2841.393433
809.201623	2832.064778
809.521590	2830.864983
809.841513	2824.308963
810.161390	2830.287771
810.481223	2824.349292
810.801011	2813.551141
811.120755	2811.829587
811.440453	2813.316727
811.760107	2815.423929
812.079716	2812.638692
812.399281	2801.379275
812.718801	2795.849129
813.038276	2791.828809
813.357707	2795.231587
813.677093	2806.337249
813.996434	2796.917853
814.315731	2796.844757
814.634983	2788.940227
814.954191	2791.095321
815.273354	2806.354893
815.592473	2812.800009
815.911547	2815.849907
816.230577	2822.335351
816.549562	2831.974037
816.868502	2831.066630
817.187399	2841.232116
817.506250	2855.680063
817.825058	2849.169413
818.143821	2862.984695
818.462539	2879.247458
818.781213	2904.453227
819.099843	2943.295317
819.418429	2999.476456
819.736970	3061.442319
820.055466	3136.318577
820.373919	3241.620719
820.692327	3382.485681
821.010691	3550.320816
821.329011	3997.876975
821.647286	4899.290736
821.965517	6285.497138
822.283704	7026.266969
822.601847	7008.010431
822.919945	6370.700200
823.237999	5862.478795
823.556010	5277.707470
823.873976	4722.565526
824.191897	4314.015295
824.509775	4018.558309
824.827609	3745.431114
825.145398	3623.273874
825.463144	3613.216772
825.780845	3705.477449
826.098502	3806.907985
826.416116	4094.931790
826.733685	4411.309564
827.051210	4475.498576
827.368692	4359.536914
827.686129	4092.023044
828.003522	3763.662447
828.320872	3504.526975
828.638177	3309.177222
828.955439	3169.446520
829.272656	3085.486103
829.589830	3018.068232
829.906960	2969.998309
830.224046	2922.571134
830.541088	2891.739437
830.858086	2878.897097
831.175041	2859.511340
831.491952	2861.893285
831.808819	2874.418032
832.125642	2897.839233
832.442421	2941.389761
832.759157	3023.716844
833.075849	3201.591437
833.392497	3485.375631
833.709101	3692.730892
834.025662	3638.223416
834.342179	3476.772902
834.658653	3303.689926
834.975083	3149.037408
835.291469	3054.581309
835.607811	2969.300109
835.924110	2911.321799
836.240366	2857.210053
836.556578	2816.076759
836.872746	2791.851494
837.188871	2771.308792
837.504952	2752.840525
837.820990	2746.256778
838.136984	2731.740775
838.452935	2721.479507
838.768842	2723.133005
839.084706	2741.434914
839.400526	2824.606391
839.716303	2952.981894
840.032037	3036.798639
840.347727	3019.454549
840.663373	2960.193265
840.978977	2880.220400
841.294537	2809.205666
841.610054	2762.940477
841.925527	2740.126735
842.240957	2716.874413
842.556344	2696.145188
842.871687	2681.092303
843.186987	2670.944460
843.502244	2667.892041
843.817458	2660.836947
844.132629	2650.119453
844.447756	2641.045377
844.762840	2635.910961
845.077881	2639.643936
845.392879	2635.605972
845.707833	2630.494242
846.022745	2625.785804
846.337613	2628.634056
846.652438	2626.226905
846.967221	2624.880917
847.281960	2625.082563
847.596656	2623.328241
847.911309	2620.255658
848.225919	2617.636779
848.540485	2613.472786
848.855009	2616.217694
849.169490	2614.496140
849.483928	2614.992693
849.798323	2614.309617
850.112675	2611.448762
850.426984	2613.578650
850.741251	2612.739298
851.055474	2612.008330
851.369654	2613.770214
851.683792	2615.413630
851.997887	2612.462034
852.311938	2613.550923
852.625947	2613.941613
852.939914	2617.402365
853.253837	2617.840945
853.567718	2612.252826
853.881555	2611.683176
854.195350	2615.040584
854.509103	2614.589401
854.822812	2611.511777
855.136479	2610.425408
855.450103	2613.530759
855.763685	2616.358846
856.077224	2609.785182
856.390720	2609.560850
856.704173	2611.451283
857.017584	2616.134515
857.330953	2619.713734
857.644278	2620.868158
857.957561	2620.356481
858.270802	2616.701645
858.584000	2618.362705
858.897155	2619.953189
859.210268	2619.572582
859.523339	2616.071500
859.836367	2611.479009
860.149352	2614.024792
860.462295	2613.283742
860.775195	2607.524224
861.088054	2609.318875
861.400869	2607.675459
861.713642	2605.923658
862.026373	2608.270315
862.339062	2611.352980
862.651708	2617.203239
862.964312	2619.494444
863.276873	2610.871550
863.589392	2619.340689
863.901869	2623.474435
864.214303	2627.227574
864.526696	2628.155146
864.839045	2630.693367
865.151353	2632.931639
865.463619	2632.687143
865.775842	2634.723770
866.088023	2632.583800
866.400162	2633.027421
866.712258	2632.591362
867.024313	2629.604478
867.336325	2628.129940
867.648296	2629.483490
867.960224	2635.220323
868.272110	2632.538429
868.583954	2626.710856
868.895755	2626.521812
869.207515	2634.060858
869.519233	2641.073103
869.830909	2637.554377
870.142542	2634.862401
870.454134	2631.573048
870.765684	2640.836169
871.077191	2638.658390
871.388657	2642.847589
871.700081	2643.601242
872.011463	2643.104688
872.322803	2645.370687
872.634101	2649.456542
872.945357	2653.955772
873.256571	2659.634631
873.567744	2657.933242
873.878874	2658.865855
874.189963	2657.340906
874.501010	2660.184117
874.812015	2666.982113
875.122979	2667.105621
875.433900	2656.037768
875.744780	2656.751091
876.055618	2662.177893
876.366415	2668.166784
876.677169	2666.818276
876.987882	2661.139416
877.298554	2658.954076
877.609183	2673.807835
877.919771	2680.411747
878.230317	2687.607994
878.540822	2696.440096
878.851285	2709.045501
879.161707	2731.143399
879.472087	2772.863988
879.782425	2820.316369
880.092722	2933.616302
880.402977	3125.875827
880.713191	3386.521125
881.023363	3680.264118
881.333494	3872.813510
881.643583	4046.705592
881.953631	4048.701888
882.263637	3862.206922
882.573602	3640.088643
882.883526	3511.750948
883.193408	3400.132240
883.503248	3296.027372
883.813048	3181.583098
884.122806	3066.007084
884.432522	2980.161275
884.742197	2915.390010
885.051831	2874.470964
885.361424	2841.453927
885.670975	2807.927733
885.980485	2774.051180
886.289954	2757.511154
886.599382	2740.908114
886.908768	2733.706825
887.218113	2710.578012
887.527417	2696.198120
887.836680	2691.756864
888.145901	2682.952488
888.455082	2676.454441
888.764221	2666.135199
889.073319	2656.874600
889.382376	2658.167656
889.691392	2657.598005
890.000366	2660.526916
890.309300	2654.532984
890.618193	2658.807882
890.927044	2661.913233
891.235855	2660.587409
891.544625	2658.462563
891.853353	2660.405928
892.162041	2669.618637
892.470687	2689.359795
892.779293	2698.655683
893.087858	2709.093392
893.396381	2732.711197
893.704864	2775.951695
894.013306	2847.016840
894.321707	2938.160902
894.630068	2988.317862
894.938387	3009.604134
895.246665	3004.147085
895.554903	2962.048409
895.863100	2914.679207
896.171256	2855.120495
896.479371	2793.598254
896.787446	2752.522932
897.095480	2735.486353
897.403473	2729.119375
897.711425	2715.372149
898.019336	2696.941690
898.327207	2684.074145
898.635038	2684.595905
898.942827	2679.431242
899.250576	2670.379851
899.558284	2656.539363
899.865952	2652.622386
900.173579	2651.911584
900.481165	2651.208343
900.788711	2640.906745
901.096216	2634.126393
901.403681	2631.595734
901.711105	2631.416773
902.018489	2627.184724
902.325832	2636.261322
902.633135	2637.627474
902.940397	2653.088693
903.247619	2688.714527
903.554800	2759.363778
903.861941	2885.589229
904.169041	3012.061697
904.476101	3076.225503
904.783121	3067.728638
905.090100	3012.228055
905.397039	2936.053700
905.703938	2863.337576
906.010796	2799.098152
906.317614	2748.116964
906.624391	2711.621530
906.931129	2682.914680
907.237826	2660.471463
907.544483	2643.359266
907.851099	2628.195475
908.157675	2618.453446
908.464211	2611.118567
908.770707	2601.149685
909.077163	2595.748089
909.383578	2594.127358
909.689954	2593.877821
909.996289	2587.568817
910.302584	2588.256934
910.608839	2585.726275
910.915054	2586.043868
911.221229	2587.936821
911.527363	2591.478231
911.833458	2589.620566
912.139513	2590.349013
912.445527	2592.022676
912.751502	2599.385281
913.057436	2604.706219
913.363331	2610.427929
913.669186	2619.242386
913.975000	2635.540437
914.280775	2649.559885
914.586510	2670.694923
914.892205	2705.768751
915.197859	2772.148144
915.503475	2857.159642
915.809050	2926.581372
916.114585	2940.789864
916.420081	2951.038529
916.725536	2965.027731
917.030952	2935.189142
917.336328	2890.547204
917.641665	2839.699606
917.946961	2789.933335
918.252218	2754.103334
918.557435	2729.046279
918.862612	2704.999975
919.167750	2691.300639
919.472848	2674.039728
919.777906	2657.287974
920.082925	2642.638381
920.387904	2630.731176
920.692843	2630.290075
920.997743	2623.494599
921.302603	2619.895216
921.607423	2611.433639
921.912204	2603.788729
922.216946	2603.072885
922.521647	2600.796804
922.826310	2595.261617
923.130932	2590.172572
923.435516	2587.364650
923.740059	2585.935483
924.044564	2583.679566
924.349028	2581.922724
924.653454	2572.848647
924.957840	2572.364697
925.262186	2567.363872
925.566493	2569.072823
925.870761	2565.937225
926.174989	2569.040056
926.479178	2565.491083
926.783328	2563.668706
927.087438	2561.853891
927.391509	2562.078222
927.695541	2559.784497
927.999533	2558.776266
928.303486	2558.579661
928.607400	2560.422203
928.911275	2557.049671
929.215110	2555.365926
929.518906	2554.985319
929.822663	2556.308622
930.126381	2555.630586
930.430060	2556.061605
930.733699	2554.771070
931.037299	2555.680998
931.340861	2555.002963
931.644383	2557.389949
931.947866	2557.367264
932.251309	2557.140412
932.554714	2558.410783
932.858080	2558.302398
933.161407	2556.346430
933.464694	2555.330638
933.767943	2553.649413
934.071153	2554.755946
934.374323	2551.965668
934.677455	2553.155380
934.980548	2554.095555
935.283602	2556.084290
935.586617	2552.933569
935.889593	2554.047664
936.192530	2551.915256
936.495428	2552.628579
936.798287	2551.673281
937.101108	2556.391801
937.403890	2556.903478
937.706632	2563.467060
938.009336	2566.436300
938.312002	2568.409911
938.614628	2570.007957
938.917216	2578.227558
939.219765	2574.464337
939.522275	2577.478947
939.824747	2577.388206
940.127179	2570.222206
940.429573	2567.903275
940.731929	2570.910324
941.034246	2563.056206
941.336524	2568.004098
941.638763	2569.072823
941.940964	2566.406053
942.243126	2565.917061
942.545250	2561.926988
942.847335	2563.018397
943.149381	2560.369271
943.451389	2563.552760
943.753359	2559.328273
944.055290	2557.745350
944.357182	2558.478838
944.659036	2554.410627
944.960851	2556.931204
945.262628	2557.732748
945.564367	2556.686708
945.866067	2556.686708
946.167729	2559.807182
946.469352	2558.514126
946.770937	2556.815257
947.072484	2557.132850
947.373992	2554.700493
947.675462	2558.171328
947.976893	2554.589588
948.278286	2555.600339
948.579641	2553.135215
948.880958	2552.784855
949.182236	2554.193857
949.483476	2553.288970
949.784678	2551.945503
950.085841	2554.360216
950.386967	2551.852242
950.688054	2553.417520
950.989103	2554.587068
951.290114	2556.089331
951.591087	2557.475649
951.892021	2558.350289
952.192917	2556.946327
952.493776	2561.306926
952.794596	2560.344065
953.095378	2559.950855
953.396122	2561.105279
953.696828	2559.905485
953.997496	2557.858776
954.298126	2556.283416
954.598718	2558.594785
954.899272	2556.245607
955.199788	2554.836605
955.500266	2551.610266
955.800706	2549.074566
956.101108	2545.533155
956.401472	2544.232538
956.701798	2544.628268
957.002087	2543.287321
957.302337	2546.049873
957.602550	2544.628268
957.902724	2545.402085
958.202861	2542.868905
958.502960	2544.373690
958.803022	2542.742877
959.103045	2541.719522
959.403031	2538.556198
959.702979	2541.351518
960.002889	2543.307486
960.302762	2540.534851
960.602596	2540.756662
960.902393	2540.043339
961.202153	2540.847403
961.501875	2537.212731
961.801559	2539.451003
962.101205	2540.265149
962.400814	2539.599717
962.700385	2539.700540
962.999918	2539.720705
963.299414	2536.915303
963.598873	2539.660211
963.898293	2538.455375
964.197677	2540.519728
964.497022	2538.480581
964.796331	2540.882691
965.095601	2537.225334
965.394835	2540.234902
965.694030	2536.234747
965.993189	2537.248019
966.292309	2537.116949
966.591393	2537.106867
966.890439	2539.927392
967.189447	2539.123328
967.488419	2538.808256
967.787353	2536.723739
968.086249	2539.536703
968.385108	2536.872453
968.683930	2539.876981
968.982714	2535.072761
969.281462	2539.524100
969.580172	2537.449665
969.878844	2537.159799
970.177480	2535.095446
970.476078	2540.786909
970.774639	2540.897814
971.073162	2538.084850
971.371649	2534.840868
971.670098	2537.512679
971.968510	2534.435055
972.266885	2534.818183
972.565223	2538.460416
972.863524	2541.142310
973.161788	2539.980324
973.460014	2537.114428
973.758204	2537.958822
974.056356	2536.368338
974.354471	2538.888914
974.652550	2540.287835
974.950591	2538.735159
975.248595	2540.648277
975.546563	2536.943029
975.844493	2539.718184
976.142386	2535.531506
976.440243	2540.539892
976.738062	2538.984696
977.035845	2533.925898
977.333590	2533.822555
977.631299	2538.110056
977.928971	2537.679037
978.226606	2538.127700
978.524204	2537.963863
978.821765	2535.743234
979.119290	2534.535878
979.416777	2536.519572
979.714228	2537.313554
980.011642	2536.814480
980.309020	2539.100643
980.606360	2536.348173
980.903664	2536.562422
981.200931	2538.276414
981.498162	2537.487474
981.795356	2540.247505
982.092513	2545.951571
982.389633	2545.616334
982.686717	2546.811088
982.983764	2551.950544
983.280775	2551.259906
983.577749	2553.281409
983.874686	2552.953734
984.171587	2548.114226
984.468451	2544.010727
984.765279	2546.720347
985.062070	2543.393185
985.358824	2541.749769
985.655543	2540.698689
985.952224	2538.339429
986.248869	2538.485622
986.545478	2531.974972
986.842050	2533.739376
987.138586	2535.728111
987.435086	2531.919519
987.731549	2531.498583
988.027975	2536.602751
988.324366	2532.877338
988.620719	2537.326157
988.917037	2536.459078
989.213318	2535.972607
989.509563	2532.872297
989.805772	2532.925229
990.101944	2534.412370
990.398080	2534.767771
990.694180	2536.648122
990.990244	2534.374561
991.286271	2533.832637
991.582262	2533.227699
991.878217	2535.879346
992.174136	2533.701567
992.470019	2532.153933
992.765865	2536.448996
993.061676	2533.711649
993.357450	2533.958666
993.653188	2534.193080
993.948890	2532.983203
994.244556	2535.541588
994.540186	2537.542926
994.835780	2537.873122
995.131337	2535.776002
995.426859	2535.642411
995.722345	2536.743903
996.017795	2538.662063
996.313208	2538.110056
996.608586	2537.069058
996.903928	2536.869932
997.199234	2541.001158
997.494504	2537.956301
997.789738	2538.137783
998.084936	2533.404139
998.380099	2537.608461
998.675225	2536.622916
998.970316	2536.522093
999.265371	2534.409849
999.560390	2534.198121
999.855373	2536.960673
1000.150320	2533.701567
1000.445232	2536.322967
1000.740108	2533.326001
1001.034948	2533.973789
1001.329752	2534.389685
1001.624521	2534.099818
1001.919254	2526.797707
1002.213951	2529.424148
1002.508613	2528.241998
1002.803239	2532.965559
1003.097829	2527.732841
1003.392384	2534.966897
1003.686903	2534.140148
1003.981386	2531.511186
1004.275834	2533.701567
1004.570246	2530.487832
1004.864623	2532.287523
1005.158964	2535.380271
1005.453270	2532.043028
1005.747540	2532.279962
1006.041775	2533.255425
1006.335974	2531.269210
1006.630138	2531.533871
1006.924266	2533.313398
1007.218359	2532.211906
1007.512416	2534.268697
1007.806438	2530.752492
1008.100425	2533.595703
1008.394376	2534.251053
1008.688292	2532.847092
1008.982172	2531.934643
1009.276017	2530.722245
1009.569827	2532.617719
1009.863602	2533.315919
1010.157341	2531.516227
1010.451045	2531.493542
1010.744714	2530.291227
1011.038347	2533.202493
1011.331945	2529.514889
1011.625508	2533.547812
1011.919036	2531.296937
1012.212528	2531.281813
1012.505986	2531.241484
1012.799408	2533.746937
1013.092795	2534.495549
1013.386147	2531.090249
1013.679464	2531.233922
1013.972745	2531.755682
1014.265992	2532.534540
1014.559204	2530.772657
1014.852380	2531.664941
1015.145521	2533.177287
1015.438628	2532.486649
1015.731699	2531.521268
1016.024736	2530.777698
1016.317737	2535.155940
1016.610703	2532.491690
1016.903635	2529.555218
1017.196531	2529.005732
1017.489393	2529.809796
1017.782219	2527.531195
1018.075011	2528.178983
1018.367768	2530.593696
1018.660490	2530.893644
1018.953177	2530.893644
1019.245829	2530.893644
