Dividing Wavelength (nm)	Counts (n)	Blue Motor Position (mm): 28.400000	Red Motor Position (mm): 0.000000	
326.493990	2130.338683
326.888308	2130.338683
327.282561	2130.338683
327.676750	2100.003540
328.070874	2099.307861
328.464933	2104.419591
328.858929	2107.214911
329.252859	2117.657661
329.646726	2128.097890
330.040528	2141.477113
330.434265	2157.455050
330.827938	2175.131856
331.221547	2193.705987
331.615091	2212.968236
332.008571	2232.079250
332.401986	2253.892323
332.795338	2271.032246
333.188625	2291.569907
333.581847	2307.575570
333.975006	2329.910402
334.368100	2345.323730
334.761129	2364.800228
335.154095	2380.868906
335.546996	2404.882442
335.939833	2424.268199
336.332606	2441.019954
336.725315	2451.729885
337.117960	2461.232460
337.510540	2471.276959
337.903056	2480.656026
338.295508	2491.323107
338.687896	2497.052379
339.080220	2505.652587
339.472480	2513.060563
339.864676	2516.465862
340.256807	2522.200175
340.648875	2524.350227
341.040879	2527.916843
341.432818	2528.612522
341.824694	2528.864580
342.216506	2531.052441
342.608253	2529.472039
342.999937	2528.511699
343.391557	2528.741072
343.783113	2527.385001
344.174605	2528.060516
344.566033	2523.367202
344.957397	2524.534229
345.348697	2523.556245
345.739934	2522.132119
346.131106	2519.724968
346.522215	2518.540297
346.913260	2516.654905
347.304241	2514.290604
347.695159	2514.358660
348.086012	2510.575274
348.476802	2510.938237
348.867528	2508.062259
349.258191	2504.583862
349.648789	2504.488081
350.039324	2502.585045
350.429796	2503.056393
350.820203	2500.432472
351.210548	2498.105980
351.600828	2499.943480
351.991045	2498.025321
352.381198	2496.268479
352.771288	2496.664210
353.161314	2498.899962
353.551276	2496.049189
353.941175	2496.785198
354.331010	2496.187821
354.720782	2496.328973
355.110490	2498.395846
355.500135	2498.731083
355.889717	2496.681854
356.279235	2497.254025
356.668689	2498.365599
357.058080	2497.957266
357.447408	2494.751092
357.836672	2493.770588
358.225873	2496.341576
358.615010	2493.700011
359.004084	2498.410970
359.393095	2499.794766
359.782043	2500.742503
360.170927	2500.278717
360.559748	2501.508759
360.948505	2500.621516
361.337199	2502.769047
361.725830	2503.263080
362.114398	2504.120076
362.502903	2503.981445
362.891344	2504.999758
363.279722	2504.790550
363.668037	2505.108143
364.056289	2505.788698
364.444478	2507.994203
364.832603	2507.139728
365.220665	2507.986641
365.608665	2508.745335
365.996601	2507.704337
366.384474	2508.924296
366.772284	2507.633761
367.160031	2507.553102
367.547715	2509.947650
367.935336	2507.989162
368.322893	2510.978566
368.710388	2509.720798
369.097820	2512.531242
369.485189	2511.155007
369.872495	2511.699451
370.259738	2508.205932
370.646918	2511.144924
371.034035	2511.858247
371.421090	2513.310100
371.808081	2510.902949
372.195010	2513.678104
372.581875	2513.063083
372.968678	2514.429236
373.355418	2512.803464
373.742096	2514.305728
374.128710	2514.325892
374.515262	2513.993176
374.901751	2514.209946
375.288177	2515.684483
375.674540	2514.209946
376.060841	2513.897394
376.447079	2519.183044
376.833254	2515.029133
377.219367	2510.766838
377.605417	2514.850172
377.991404	2513.902435
378.377329	2513.647857
378.763191	2511.674245
379.148991	2516.014679
379.534727	2516.501150
379.920402	2517.721109
380.306013	2519.094824
380.691563	2516.554082
381.077049	2515.878568
381.462474	2518.976357
381.847835	2518.139525
382.233134	2519.682118
382.618371	2518.900739
383.003545	2518.278157
383.388657	2518.767149
383.773706	2521.643127
384.158693	2521.116327
384.543618	2521.408713
384.928480	2517.960564
385.313280	2520.740761
385.698017	2518.384021
386.082692	2518.694052
386.467305	2520.040040
386.851856	2522.076666
387.236344	2520.707993
387.620770	2523.964578
388.005133	2521.549866
388.389435	2525.232429
388.773674	2519.009124
389.157851	2522.021214
389.541965	2525.096317
389.926018	2521.723786
390.310008	2522.565658
390.693936	2525.852491
391.077802	2523.853673
391.461606	2522.938704
391.845348	2524.072963
392.229027	2526.192768
392.612645	2526.238139
392.996200	2522.628673
393.379694	2526.412059
393.763125	2524.693025
394.146494	2523.969620
394.529801	2524.304856
394.913047	2526.964065
395.296230	2526.391894
395.679351	2527.092614
396.062410	2527.677388
396.445408	2527.027079
396.828343	2525.640762
397.211217	2524.362830
397.594028	2527.112779
397.976778	2523.072294
398.359466	2525.464322
398.742092	2523.470545
399.124656	2528.108407
399.507158	2528.025228
399.889598	2530.150074
400.271977	2530.492873
400.654294	2530.089580
401.036549	2531.145702
401.418742	2531.508665
401.800874	2529.835002
402.182944	2531.513706
402.564952	2532.055630
402.946898	2527.997502
403.328783	2531.473377
403.710606	2530.828109
404.092367	2529.822399
404.474067	2531.604447
404.855705	2532.670651
405.237282	2533.542771
405.618797	2532.632842
406.000250	2533.346166
406.381642	2531.599406
406.762972	2534.729962
407.144240	2533.303316
407.525447	2536.209541
407.906593	2532.408511
408.287677	2536.295241
408.668700	2532.610157
409.049661	2534.054448
409.430560	2535.234078
409.811399	2536.257432
410.192176	2533.671320
410.572891	2536.471681
410.953545	2534.629139
411.334138	2536.801877
411.714669	2535.155940
412.095139	2533.494880
412.475547	2535.468492
412.855894	2536.123842
413.236180	2538.324305
413.616405	2538.024357
413.996568	2536.607792
414.376670	2538.130221
414.756711	2533.419263
415.136691	2538.024357
415.516609	2539.781199
415.896466	2540.008051
416.276262	2542.155582
416.655997	2534.321629
417.035670	2535.559232
417.415283	2539.937474
417.794834	2535.072761
418.174324	2541.031405
418.553753	2538.558719
418.933121	2540.134079
419.312428	2540.786909
419.691674	2540.418905
420.070859	2542.339584
420.449983	2541.306148
420.829045	2541.147351
421.208047	2541.885880
421.586988	2541.608617
421.965867	2545.394523
422.344686	2544.335881
422.723444	2542.750438
423.102141	2545.417209
423.480777	2545.893598
423.859352	2544.978628
424.237866	2546.846376
424.616319	2543.637681
424.994712	2543.746066
425.373044	2544.938299
425.751314	2547.673125
426.129524	2547.048022
426.507673	2548.068856
426.885762	2546.415357
427.263789	2547.395862
427.641756	2549.848383
428.019662	2547.229503
428.397508	2549.813095
428.775292	2551.212015
429.153016	2550.856614
429.530679	2554.211502
429.908282	2553.919115
430.285824	2553.094886
430.663305	2556.338868
431.040726	2556.946328
431.418086	2557.526060
431.795385	2562.831875
432.172624	2565.680127
432.549802	2566.590055
432.926920	2569.115673
433.303977	2575.522979
433.680974	2579.586149
434.057910	2585.156624
434.434786	2590.059147
434.811601	2595.730445
435.188355	2602.301589
435.565050	2608.610593
435.941683	2616.409258
436.318257	2626.625156
436.694770	2634.287710
437.071222	2645.025367
437.447614	2651.422592
437.823946	2656.811585
438.200218	2677.003927
438.576429	2686.299815
438.952580	2701.241795
439.328670	2719.851214
439.704700	2725.827502
440.080670	2740.945922
440.456580	2771.825510
440.832429	2784.778755
441.208218	2788.244548
441.583947	2818.405772
441.959616	2837.045438
442.335224	2850.797706
442.710773	2879.560009
443.086261	2907.976993
443.461689	2910.847930
443.837057	2947.229938
444.212365	2990.115033
444.587612	3004.411746
444.962800	3047.087634
445.337927	3074.340111
445.712995	3051.526370
446.088002	3164.428051
446.462949	3170.454751
446.837837	3195.922660
447.212664	3245.527614
447.587431	3318.276505
447.962139	3472.145123
448.336786	3699.884289
448.711374	3688.113195
449.085901	3534.116027
449.460369	3557.837177
449.834776	3586.372628
450.209124	3734.930391
450.583412	3836.073581
450.957640	3911.915220
451.331808	3901.190165
451.705917	3823.614369
452.079965	3845.792926
452.453954	3966.518478
452.827883	3976.356290
453.201752	4058.237231
453.575562	4035.713356
453.949311	4171.181762
454.323001	4173.230991
454.696632	4252.097323
455.070202	4369.886403
455.443713	4487.758662
455.817164	4588.801029
456.190556	4690.377759
456.563888	4785.978200
456.937160	4858.283470
457.310373	4760.659005
457.683526	4831.933359
458.056619	4840.954503
458.429653	4886.808839
458.802628	4904.019338
459.175542	5013.674517
459.548398	5273.009114
459.921194	5418.476650
460.293930	5477.120392
460.666607	5850.637125
461.039224	6094.664259
461.411782	6233.815229
461.784280	6322.867212
462.156719	6327.862995
462.529099	6322.378220
462.901419	6126.743642
463.273680	6111.499192
463.645882	6177.021590
464.018024	6154.643908
464.390106	6322.252191
464.762130	6650.269989
465.134094	7036.656787
465.505999	7825.002508
465.877845	8773.069627
466.249631	9341.285803
466.621358	9168.739710
466.993026	8793.826578
467.364634	8678.437087
467.736184	8455.650854
468.107674	8255.360771
468.479105	8345.163886
468.850477	8198.057975
469.221790	8072.402174
469.593043	7853.167435
469.964238	7786.979605
470.335373	7837.824683
470.706449	7931.257428
471.077467	7955.376829
471.448425	9139.891707
471.819324	10120.570050
472.190164	10181.424339
472.560945	9126.663719
472.931667	8466.496897
473.302330	8372.295376
473.672934	8080.336951
474.043479	8444.159544
474.413965	8418.363960
474.784393	8340.702464
475.154761	8506.455603
475.525070	8623.591854
475.895321	8479.782858
476.265513	8665.380498
476.635645	8844.802726
477.005719	8870.923464
477.375734	9002.663938
477.745691	9243.152182
478.115588	9388.924707
478.485427	9641.214292
478.855207	10179.967445
479.224928	10979.726338
479.594591	11606.074580
479.964194	11433.402458
480.333739	11397.070862
480.703226	11331.843373
481.072653	11434.793817
481.442022	11681.533092
481.811333	11875.738502
482.180584	11690.072806
482.549777	11422.954667
482.918912	11259.588515
483.287988	11294.586725
483.657005	11309.690022
484.025964	11008.599547
484.394864	11142.429579
484.763706	11122.660694
485.132489	10888.819211
485.501213	10855.202277
485.869879	10932.097517
486.238487	10782.697881
486.607036	10896.673329
486.975527	10683.044352
487.343959	10869.509071
487.712333	10923.746845
488.080648	10850.203972
488.448905	10897.061497
488.817104	10847.426297
489.185244	11107.794331
489.553326	11267.140163
489.921350	11801.215125
490.289315	12854.140764
490.657222	13189.541332
491.025070	13094.114811
491.392861	12975.977891
491.760593	12598.024943
492.128267	12260.292841
492.495883	11936.812081
492.863440	11594.237951
493.230939	11270.217787
493.598380	11209.179497
493.965763	11078.931205
494.333088	10977.470422
494.700354	10902.682384
495.067563	10959.241610
495.434713	10789.463110
495.801805	10924.082082
496.168839	10846.864208
496.535815	10781.800556
496.902733	10781.629157
497.269593	10716.134486
497.636395	10821.807153
498.003139	10805.393156
498.369825	10676.090080
498.736453	10832.645634
499.103023	10753.935578
499.469535	10792.024016
499.835989	10779.103539
500.202385	10741.675492
500.568723	10594.042781
500.935003	10813.025463
501.301226	10618.598241
501.667390	10875.863446
502.033497	10979.033180
502.399546	10840.958496
502.765537	10744.170863
503.131470	10824.332771
503.497345	10993.886939
503.863163	10608.805800
504.228923	10914.471122
504.594625	10981.221040
504.960269	10729.959850
505.325856	10943.999681
505.691385	10743.132385
506.056856	10890.565971
506.422270	10921.284242
506.787625	10809.625205
507.152924	10926.658112
507.518164	10903.730944
507.883347	10822.691875
508.248472	10754.172512
508.613540	10980.737090
508.978550	10862.264933
509.343503	10846.826399
509.708398	10959.760848
510.073236	11074.071533
510.438016	11080.420866
510.802738	11035.466376
511.167403	11075.825854
511.532010	10978.856739
511.896561	11205.859897
512.261053	11277.522419
512.625488	11149.522482
512.989866	11134.043619
513.354186	11117.990065
513.718449	11024.912721
514.082655	11217.993954
514.446803	11113.082502
514.810894	11231.806716
515.174927	11098.642116
515.538904	11120.235899
515.902822	11272.171235
516.266684	11158.899028
516.630488	11100.683784
516.994235	11151.057513
517.357925	11219.130734
517.721558	11304.137191
518.085133	11326.255254
518.448651	11330.822539
518.812112	11218.268697
519.175516	11228.086344
519.538863	11349.830210
519.902152	11268.791141
520.265385	11430.554206
520.628560	11337.189516
520.991678	11322.965901
521.354739	11377.969930
521.717743	11313.274283
522.080690	11293.379369
522.443580	11429.230903
522.806413	11389.897300
523.169189	11412.494273
523.531908	11465.126439
523.894569	11291.887187
524.257174	11298.990173
524.619722	11417.399315
524.982213	11368.931142
525.344647	11418.883935
525.707025	11364.416788
526.069345	11461.358177
526.431608	11375.782070
526.793815	11486.095119
527.155964	11275.294229
527.518057	11328.216263
527.880093	11280.398398
528.242072	11347.012205
528.603995	11251.081568
528.965860	11174.430823
529.327669	11224.481919
529.689421	11175.915443
530.051117	11145.532409
530.412755	11249.110476
530.774337	11135.981943
531.135862	11114.325146
531.497331	11144.929991
531.858743	10992.795530
532.220098	11158.616724
532.581396	11035.431088
532.942638	11018.318892
533.303824	10977.505710
533.664953	10994.262505
534.026025	10906.453167
534.387040	11007.152736
534.747999	11010.505103
535.108902	11069.612632
535.469748	10823.969808
535.830537	10924.072000
536.191270	10901.850594
536.551947	10932.725140
536.912567	10930.176837
537.273131	10864.099913
537.633638	10829.424336
537.994089	10820.123408
538.354483	10771.249421
538.714821	10915.849878
539.075103	10925.327247
539.435328	10890.848275
539.795497	10709.530574
540.155609	10867.195182
540.515665	10960.365787
540.875665	10697.393997
541.235609	10767.478638
541.595496	10764.494275
541.955328	10913.283931
542.315102	10798.484255
542.674821	10752.735783
543.034483	10750.983983
543.394090	10754.028839
543.753640	10684.385299
544.113134	10905.979299
544.472571	10756.181412
544.831953	10901.454863
545.191278	10710.690040
545.550548	10731.762063
545.909761	10869.120902
546.268918	10841.669299
546.628019	10926.141393
546.987064	10795.625920
547.346053	10718.675227
547.704986	10818.240537
548.063863	10802.302929
548.422684	10798.166662
548.781449	10706.430265
549.140158	10812.692747
549.498811	10688.876967
549.857408	10551.424866
550.215949	10779.002716
550.574434	10628.846907
550.932864	10725.851310
551.291237	10780.172263
551.649555	10731.021013
552.007817	10747.412325
552.366022	10709.654083
552.724173	10700.360716
553.082267	10687.417553
553.440305	10824.673049
553.798288	10625.371032
554.156215	10773.399473
554.514086	10754.669066
554.871902	10600.593760
555.229661	10642.949535
555.587365	10615.873498
555.945014	10507.914667
556.302606	10637.326128
556.660143	10538.806858
557.017625	10687.251195
557.375050	10585.457696
557.732421	10721.233613
558.089735	10628.189037
558.446994	10624.680393
558.804197	10672.770481
559.161345	10667.686477
559.518437	10514.914310
559.875474	10611.149937
560.232455	10632.884871
560.589381	10585.858468
560.946251	10581.321429
561.303065	10688.808912
561.659825	10624.400609
562.016528	10557.048273
562.373177	10441.376478
562.729770	10549.587366
563.086307	10466.816661
563.442789	10556.682790
563.799216	10434.278533
564.155587	10485.239557
564.511904	10443.776067
564.868164	10428.849211
565.224370	10447.483836
565.580520	10368.249500
565.936615	10376.590089
566.292654	10245.709133
566.648638	10378.145285
567.004567	10331.416310
567.360441	10317.568260
567.716260	10224.465710
568.072023	10320.172016
568.427732	10278.363207
568.783385	10186.770482
569.138982	10255.599876
569.494525	10271.081260
569.850013	10146.683227
570.205445	10231.301515
570.560823	10128.381318
570.916145	10045.129183
571.271412	10108.506569
571.626625	10055.229134
571.981782	10029.700731
572.336884	10008.449747
572.691931	10012.512917
573.046923	9955.535276
573.401860	9912.728318
573.756743	9845.375982
574.111570	9892.223425
574.466342	9879.204645
574.821059	9906.729345
575.175722	9794.929156
575.530330	9807.741248
575.884882	9796.809506
576.239380	9731.544208
576.593823	9705.393222
576.948211	9715.659532
577.302544	9602.599054
577.656823	9616.152196
578.011047	9618.269481
578.365216	9594.520605
578.719330	9518.424388
579.073389	9531.518785
579.427394	9483.821908
579.781344	9446.222462
580.135239	9400.199248
580.489080	9409.729549
580.842866	9312.382348
581.196597	9319.228235
581.550273	9358.007311
581.903895	9325.423813
582.257463	9392.314883
582.610975	9267.442982
582.964434	9290.317217
583.317837	9217.578408
583.671186	9201.550060
584.024481	9194.144605
584.377721	9113.264333
584.730906	9091.612577
585.084037	9128.443247
585.437113	9061.547135
585.790135	9076.179084
586.143103	8975.020771
586.496016	8949.368859
586.848874	9014.593828
587.201679	8999.684616
587.554428	8886.513232
587.907124	8932.387732
588.259765	8904.711798
588.612352	8909.798322
588.964884	8781.962222
589.317362	8799.087022
589.669786	8797.735993
590.022155	8848.611317
590.374470	8861.098255
590.726731	8794.706259
591.078937	8647.499526
591.431090	8768.245243
591.783188	8632.807083
592.135232	8632.252556
592.487222	8625.938511
592.839157	8679.556223
593.191038	8612.226572
593.542866	8556.756236
593.894639	8461.082698
594.246358	8510.745625
594.598022	8527.567955
594.949633	8420.952593
595.301190	8399.119355
595.652692	8424.917460
596.004141	8542.141931
596.355535	8324.180083
596.706876	8297.146895
597.058162	8234.303871
597.409395	8310.979821
597.760573	8374.057259
598.111698	8281.229452
598.462768	8264.286134
598.813785	8231.493428
599.164748	8194.612347
599.515657	8194.493879
599.866511	8103.591793
600.217312	8228.186431
600.568060	8086.557734
600.918753	8189.311573
601.269392	8156.352509
601.619978	8069.586690
601.970510	8137.024726
602.320988	8136.679407
602.671412	8185.994494
603.021783	8126.970144
603.372100	8098.913603
603.722363	8100.569622
604.072572	8076.651867
604.422728	8085.489010
604.772830	8016.583998
605.122878	8020.740430
605.472872	8019.954010
605.822813	8047.095582
606.172701	7993.235894
606.522534	8063.128972
606.872314	8066.435969
607.222041	8039.937144
607.571714	8085.519257
607.921333	8049.855614
608.270899	8056.842653
608.620411	8147.926221
608.969870	8053.548259
609.319276	8041.837659
609.668627	8065.730207
610.017926	8099.069878
610.367171	8142.020509
610.716362	8116.723999
611.065500	8111.052701
611.414585	8137.745611
611.763616	8128.837892
612.112594	8107.995241
612.461518	8124.560473
612.810389	8182.952158
613.159207	8122.952345
613.507971	8067.098881
613.856682	8192.545473
614.205340	8143.477402
614.553945	8221.106131
614.902496	8120.940924
615.250994	8172.539654
615.599439	8155.427458
615.947830	8170.064448
616.296169	8143.623596
616.644454	8153.978126
616.992686	8151.588619
617.340864	8212.599183
617.688990	8114.387424
618.037063	8206.358235
618.385082	8151.059298
618.733048	8239.841579
619.080961	8179.463679
619.428821	8192.923560
619.776628	8200.654169
620.124382	8153.050554
620.472083	8138.945405
620.819731	8161.749065
621.167326	8058.619660
621.514868	8069.178357
621.862357	7949.705531
622.209793	7966.061555
622.557176	7902.124600
622.904506	7876.132411
623.251783	7809.359808
623.599007	7763.737366
623.946179	7768.357583
624.293297	7729.351655
624.640363	7642.132132
624.987376	7631.593600
625.334336	7574.411792
625.681243	7521.464553
626.028097	7512.945003
626.374899	7491.930953
626.721647	7482.377967
627.068343	7416.059067
627.414987	7383.538584
627.761577	7338.027047
628.108115	7377.932821
628.454600	7269.845441
628.801032	7327.594379
629.147412	7284.525281
629.493739	7274.967253
629.840014	7210.354784
630.186236	7264.131293
630.532405	7146.775752
630.878521	7207.798919
631.224585	7154.634911
631.570597	7083.733603
631.916556	7117.121165
632.262462	7112.934486
632.608316	7073.835297
632.954117	7049.620115
633.299866	7034.181581
633.645562	7031.960953
633.991206	6955.075795
634.336797	6897.344501
634.682336	6850.030752
635.027823	6819.806514
635.373257	6808.494164
635.718639	6739.750470
636.063968	6754.158088
636.409245	6653.201420
636.754470	6646.952910
637.099642	6604.612259
637.444762	6549.514968
637.789829	6563.887297
638.134845	6505.316652
638.479808	6489.245453
638.824719	6493.311144
639.169577	6418.409680
639.514383	6441.629234
639.859137	6366.624427
640.203839	6374.178596
640.548489	6363.140990
640.893086	6340.899419
641.237632	6312.031251
641.582125	6331.716957
641.926566	6304.522453
642.270955	6319.529968
642.615292	6311.811961
642.959576	6332.616803
643.303809	6315.103835
643.647990	6320.404608
643.992118	6311.887578
644.336195	6265.524087
644.680219	6283.369771
645.024192	6276.992712
645.368112	6372.827567
645.711981	6392.959415
646.055797	6469.431198
646.399562	6423.166008
646.743274	6553.310957
647.086935	6604.019923
647.430544	6601.907680
647.774101	6624.746627
648.117606	6623.085567
648.461059	6621.938705
648.804460	6581.554021
649.147810	6487.937274
649.491108	6460.601617
649.834354	6433.850734
650.177548	6353.787129
650.520690	6267.772441
650.863781	6244.966261
651.206820	6265.914776
651.549807	6185.571387
651.892742	6131.520135
652.235626	6136.654550
652.578458	6118.191324
652.921238	6030.150093
653.263967	6066.953037
653.606644	6005.887019
653.949269	6010.585375
654.291843	5953.983299
654.634365	6001.705382
654.976836	5958.147293
655.319255	5954.341221
655.661622	5931.708961
656.003938	5927.854999
656.346203	5887.301437
656.688416	5923.960708
657.030577	5873.750815
657.372687	5847.090673
657.714746	5833.890412
658.056753	5871.971288
658.398708	5815.119676
658.740612	5802.957892
659.082465	5853.555953
659.424266	5847.299881
659.766016	5845.530436
660.107715	5823.238454
660.449362	5834.553324
660.790958	5828.831614
661.132503	5815.512886
661.473996	5855.874884
661.815438	5842.281413
662.156829	5839.297049
662.498168	5831.445452
662.839456	5806.138860
663.180693	5838.034240
663.521879	5838.528273
663.863013	5830.777499
664.204097	5849.538153
664.545129	5891.679679
664.886110	5891.629268
665.227040	5917.548360
665.567918	5889.524586
665.908746	5915.975520
666.249522	5916.464512
666.590248	5908.050826
666.930922	5933.329692
667.271545	5948.254028
667.612118	5950.870387
667.952639	5918.407877
668.293109	5944.112720
668.633528	5901.373818
668.973896	5903.475979
669.314213	5894.162447
669.654480	5875.822730
669.994695	5871.411720
670.334859	5863.277818
670.674973	5852.721642
671.015035	5858.450913
671.355047	5853.971848
671.695008	5845.217885
672.034918	5816.788298
672.374777	5823.561088
672.714585	5812.742772
673.054342	5810.804448
673.394049	5804.255989
673.733705	5839.828891
674.073310	5828.284649
674.412864	5786.243946
674.752368	5775.806237
675.091820	5784.159429
675.431223	5717.787598
675.770574	5723.068206
676.109875	5667.045864
676.449125	5673.516185
676.788324	5639.314476
677.127473	5581.895734
677.466571	5581.406742
677.805619	5567.790586
678.144616	5556.291714
678.483562	5536.144742
678.822458	5501.224670
679.161303	5499.034288
679.500098	5488.558771
679.838842	5471.449094
680.177535	5473.241225
680.516179	5495.921376
680.854771	5502.285832
681.193314	5582.800621
681.531805	5693.320357
681.870247	5842.208316
682.208638	5941.161125
682.546978	5954.242919
682.885268	5928.480102
683.223508	5848.885324
683.561697	5791.955574
683.899836	5758.822590
684.237925	5718.095108
684.575963	5683.457340
684.913951	5645.716742
685.251889	5705.280495
685.589776	5674.121123
685.927614	5644.290095
686.265401	5716.328184
686.603137	5696.307241
686.940824	5776.267503
687.278460	5800.157531
687.616046	5810.461649
687.953582	5877.957658
688.291068	5857.417477
688.628504	5923.012971
688.965889	5880.679881
689.303224	5827.778013
689.640510	5773.814982
689.977745	5706.896185
690.314930	5603.103868
690.652065	5552.843564
690.989150	5458.614317
691.326185	5383.667482
691.663170	5331.950285
692.000105	5254.896249
692.336990	5176.410524
692.673825	5153.899252
693.010610	5082.607254
693.347345	5012.439434
693.684030	5003.554400
694.020665	4960.127380
694.357251	4868.549780
694.693786	4876.529926
695.030272	4848.201162
695.366707	4810.531140
695.703093	4777.962766
696.039429	4803.531498
696.375716	4783.026605
696.711952	4759.618007
697.048139	4747.289865
697.384276	4726.192636
697.720363	4736.955500
698.056400	4743.360286
698.392388	4693.783058
698.728326	4674.611550
699.064214	4654.043642
699.400053	4644.919154
699.735842	4615.806490
700.071581	4591.898818
700.407270	4561.924118
700.742910	4547.133372
701.078501	4491.337881
701.414042	4495.423737
701.749533	4462.837718
702.084974	4394.220052
702.420366	4454.003096
702.755709	4395.694590
703.091002	4338.490097
703.426246	4388.198394
703.761440	4345.550233
704.096584	4309.647135
704.431679	4328.236390
704.766725	4313.281807
705.101721	4303.272596
705.436668	4331.538346
705.771565	4277.298051
706.106413	4302.977688
706.441212	4336.987833
706.775961	4346.573587
707.110661	4327.654137
707.445311	4356.134135
707.779913	4377.357393
708.114465	4392.395155
708.448967	4412.774019
708.783421	4474.818020
709.117825	4515.132127
709.452180	4519.102036
709.786485	4563.975867
710.120742	4648.402591
710.454949	4635.129233
710.789107	4701.952248
711.123216	4776.110142
711.457275	4764.391979
711.791286	4841.007436
712.125247	4856.985373
712.459159	4757.409981
712.793023	4834.441333
713.126837	4792.735867
713.460602	4788.145896
713.794318	4707.303433
714.127985	4716.039752
714.461602	4631.625631
714.795171	4604.327783
715.128691	4537.046023
715.462162	4478.150223
715.795584	4432.961320
716.128957	4412.189245
716.462281	4360.028427
716.795556	4333.587575
717.128782	4296.595588
717.461960	4228.547573
717.795088	4239.116352
718.128167	4200.042368
718.461198	4135.702122
718.794180	4131.772542
719.127113	4114.640181
719.459997	4093.674022
719.792833	4051.595511
720.125619	4039.826937
720.458357	4005.731093
720.791046	4008.125641
721.123686	3985.299297
721.456278	3942.504942
721.788821	3958.553455
722.121315	3931.031275
722.453761	3903.877100
722.786158	3917.316816
723.118506	3941.136268
723.450805	3893.462076
723.783056	3916.187598
724.115259	3932.556224
724.447412	3936.183335
724.779518	3928.760236
725.111574	3932.967078
725.443582	3966.939414
725.775542	3949.020633
726.107453	3998.897809
726.439315	4001.617512
726.771129	4014.331302
727.102895	4048.285993
727.434612	4096.000514
727.766281	4109.644397
728.097901	4109.992237
728.429473	4118.317703
728.760996	4122.695945
729.092471	4120.440028
729.423897	4100.903037
729.755276	4110.851754
730.086606	4111.993575
730.417887	4145.575221
730.749120	4208.914799
731.080305	4274.197741
731.411442	4297.775218
731.742530	4270.323614
732.073570	4274.318729
732.404562	4329.879806
732.735506	4318.045697
733.066401	4282.792908
733.397249	4218.102302
733.728048	4141.907782
734.058798	4059.220256
734.389501	3989.276767
734.720156	3924.303856
735.050762	3881.562433
735.381320	3876.634705
735.711831	3823.921880
736.042293	3795.242755
736.372707	3818.313596
736.703073	3789.332003
737.033391	3778.090229
737.363661	3799.338693
737.693883	3820.299811
738.024056	3833.013601
738.354182	3825.741736
738.684260	3892.811767
739.014290	3912.114346
739.344272	3905.800300
739.674207	3948.284624
740.004093	3950.805201
740.333931	3949.975932
740.663722	3948.640026
740.993464	3947.314202
741.323159	3925.876696
741.652806	3893.819998
741.982405	3867.863097
742.311956	3836.129034
742.641460	3822.563289
742.970915	3800.714928
743.300323	3761.441819
743.629683	3727.913105
743.958996	3712.741752
744.288260	3692.718289
744.617477	3656.611025
744.946647	3645.354128
745.275768	3618.893112
745.604842	3618.457052
745.933869	3570.311512
746.262847	3560.808937
746.591778	3599.963579
746.920662	3570.452664
747.249498	3542.801935
747.578286	3584.704006
747.907027	3601.276799
748.235720	3599.492231
748.564365	3627.944503
748.892963	3620.604583
749.221514	3607.502624
749.550017	3583.151331
749.878473	3581.265939
750.206881	3553.327865
750.535242	3548.974828
750.863555	3551.576064
751.191821	3545.166237
751.520039	3527.091179
751.848210	3507.695340
752.176334	3539.925957
752.504411	3549.554561
752.832440	3507.657531
753.160421	3483.936382
753.488356	3498.001201
753.816243	3508.383457
754.144082	3467.300574
754.471875	3450.498408
754.799620	3471.696460
755.127318	3463.214719
755.454969	3460.537866
755.782572	3466.042806
756.110129	3446.021864
756.437638	3436.998198
756.765100	3445.394240
757.092515	3457.024182
757.419882	3466.930049
757.747203	3435.357303
758.074477	3439.188580
758.401703	3456.507464
758.728882	3477.045125
759.056014	3483.989314
759.383099	3486.162051
759.710138	3481.078048
760.037129	3500.715863
760.364073	3530.625028
760.690970	3517.563399
761.017820	3491.624142
761.344623	3513.472502
761.671379	3559.417578
761.998088	3609.897172
762.324751	3736.949373
762.651366	3983.325685
762.977935	4458.030978
763.304456	4896.495416
763.630931	4989.141741
763.957359	4626.357625
764.283740	4288.749032
764.610074	4093.253086
764.936362	3900.774270
765.262602	3742.265270
765.588796	3632.375677
765.914943	3540.863612
766.241044	3454.990077
766.567097	3426.353802
766.893104	3380.875033
767.219064	3347.366483
767.544978	3318.868840
767.870845	3262.889348
768.196665	3248.758993
768.522438	3255.151176
768.848165	3248.658170
769.173846	3216.283880
769.499479	3197.611446
769.825066	3182.997141
770.150607	3164.881755
770.476101	3180.993283
770.801548	3174.399453
771.126949	3129.772639
771.452303	3114.712192
771.777611	3123.337606
772.102872	3125.550673
772.428087	3098.618308
772.753256	3090.439036
773.078378	3080.510484
773.403453	3048.743653
773.728482	3040.052703
774.053465	3061.132288
774.378401	3048.017727
774.703291	3015.182171
775.028135	3015.938344
775.352932	3010.796367
775.677683	2999.408401
776.002388	2994.894047
776.327046	2997.006291
776.651658	2989.177379
776.976224	2979.039618
777.300743	2977.343270
777.625216	2965.531847
777.949643	2961.478759
778.274024	2962.653348
778.598359	2952.598767
778.922647	2957.917184
779.246889	2955.530198
779.571086	2939.953032
779.895236	2931.562032
780.219339	2946.793878
780.543397	2960.510858
780.867409	2962.650827
781.191374	2955.008438
781.515294	2953.032306
781.839167	2949.087603
782.162995	2941.477981
782.486776	2952.515588
782.810511	2948.747325
783.134201	2934.992537
783.457844	2942.786161
783.781441	2933.918771
784.104993	2912.521593
784.428498	2915.316913
784.751958	2931.504058
785.075372	2924.290167
785.398739	2909.043197
785.722061	2924.270003
786.045337	2934.407763
786.368568	2920.133736
786.691752	2909.801891
787.014891	2961.017493
787.337983	2989.182420
787.661030	3016.298787
787.984031	3085.977615
788.306987	3129.066877
788.629897	3123.128398
788.952760	3106.593414
789.275579	3091.699325
789.598351	3029.841846
789.921078	2984.678149
790.243759	2976.299751
790.566395	2962.791980
790.888984	2938.748196
791.211529	2917.877819
791.534027	2910.081675
791.856480	2902.162022
792.178888	2887.545197
792.501249	2874.216386
792.823566	2876.810060
793.145836	2873.936602
793.468062	2868.204810
793.790241	2867.826723
794.112375	2874.060110
794.434464	2884.659136
794.756507	2887.444374
795.078505	2895.018707
795.400457	2910.875657
795.722364	2947.313117
796.044226	2971.258598
796.366042	2973.078454
796.687812	2959.852987
797.009538	2980.597335
797.331218	2968.470839
797.652852	2952.414764
797.974442	2933.749892
798.295986	2931.446085
798.617484	2925.895775
798.938938	2915.594177
799.260346	2897.786301
799.581709	2890.978223
799.903026	2884.417161
800.224299	2881.702499
800.545526	2873.898793
800.866708	2853.025896
801.187845	2843.031808
801.508936	2847.989783
801.829983	2851.425329
802.150984	2841.605162
802.471940	2827.721824
802.792851	2826.307780
803.113717	2828.725014
803.434538	2831.752227
803.755314	2825.644869
804.076045	2820.301246
804.396731	2820.172696
804.717372	2820.235711
805.037967	2816.054073
805.358518	2820.205464
805.679024	2831.442196
805.999485	2828.951866
806.319901	2832.422700
806.640272	2824.288798
806.960598	2830.615446
807.280879	2839.462671
807.601115	2844.103053
807.921306	2830.804490
808.241453	2828.561176
808.561554	2834.058554
808.881611	2833.055365
809.201623	2833.012515
809.521590	2830.328101
809.841513	2827.600836
810.161390	2832.422700
810.481223	2822.831905
810.801011	2813.072231
811.120755	2809.545944
811.440453	2813.518373
811.760107	2810.115594
812.079716	2809.553506
812.399281	2802.329532
812.718801	2793.958696
813.038276	2790.008952
813.357707	2797.333749
813.677093	2804.610654
813.996434	2797.064047
814.315731	2794.767801
814.634983	2788.300001
814.954191	2789.968623
815.273354	2807.002682
815.592473	2810.395378
815.911547	2814.524083
816.230577	2821.443067
816.549562	2831.106959
816.868502	2829.070333
817.187399	2839.298834
817.506250	2855.954806
817.825058	2849.033302
818.143821	2859.226515
818.462539	2878.798795
818.781213	2904.201169
819.099843	2939.358176
819.418429	2998.395129
819.736970	3060.358471
820.055466	3134.433186
820.373919	3235.901530
820.692327	3376.958056
821.010691	3545.960218
821.329011	3991.015965
821.647286	4887.638109
821.965517	6263.096771
822.283704	6996.375448
822.601847	6975.283260
822.919945	6344.705490
823.237999	5847.136044
823.556010	5259.413123
823.873976	4707.442064
824.191897	4299.378305
824.509775	4009.849716
824.827609	3742.184611
825.145398	3618.046198
825.463144	3606.423817
825.780845	3700.905123
826.098502	3802.665854
826.416116	4084.010130
826.733685	4395.374477
827.051210	4463.732523
827.368692	4345.567877
827.686129	4079.281528
828.003522	3758.248248
828.320872	3498.379288
828.638177	3305.088846
828.955439	3167.493073
829.272656	3082.897470
829.589830	3018.660567
829.906960	2973.965697
830.224046	2924.113727
830.541088	2889.314642
830.858086	2872.704040
831.175041	2859.672657
831.491952	2860.514530
831.808819	2871.826879
832.125642	2895.089283
832.442421	2939.479164
832.759157	3021.725589
833.075849	3200.389122
833.392497	3481.695589
833.709101	3683.465251
834.025662	3627.599184
834.342179	3473.181080
834.658653	3297.547280
834.975083	3148.240906
835.291469	3049.174671
835.607811	2966.499748
835.924110	2907.442631
836.240366	2858.334231
836.556578	2816.507777
836.872746	2792.847122
837.188871	2770.766868
837.504952	2754.093252
837.820990	2744.651170
838.136984	2730.944273
838.452935	2723.589230
838.768842	2721.587892
839.084706	2740.983731
839.400526	2821.871565
839.716303	2953.808643
840.032037	3029.614994
840.347727	3013.692510
840.663373	2957.556741
840.978977	2884.782644
841.294537	2810.629792
841.610054	2763.663882
841.925527	2738.737897
842.240957	2718.255689
842.556344	2696.089735
842.871687	2680.121881
843.186987	2672.726508
843.502244	2670.110149
843.817458	2660.831905
844.132629	2649.602735
844.447756	2641.070582
844.762840	2633.924747
845.077881	2640.982362
845.392879	2639.200314
845.707833	2630.731176
846.022745	2623.358488
846.337613	2627.817389
846.652438	2627.761936
846.967221	2626.148767
847.281960	2625.337141
847.596656	2625.032151
847.911309	2621.193313
848.225919	2621.611728
848.540485	2618.455966
848.855009	2615.116202
849.169490	2616.232817
849.483928	2616.285749
849.798323	2614.380193
850.112675	2616.134515
850.426984	2613.896242
850.741251	2610.059924
851.055474	2611.484050
851.369654	2617.520832
851.683792	2615.968157
851.997887	2614.347426
852.311938	2613.818105
852.625947	2616.517642
852.939914	2618.607201
853.253837	2615.990842
853.567718	2612.895573
853.881555	2610.397682
854.195350	2619.741460
854.509103	2616.895729
854.822812	2613.303907
855.136479	2612.688886
855.450103	2614.027312
855.763685	2615.973198
856.077224	2611.453803
856.390720	2610.463217
856.704173	2614.443208
857.017584	2617.969495
857.330953	2619.191975
857.644278	2621.500823
857.957561	2620.873199
858.270802	2617.009155
858.584000	2616.615945
858.897155	2620.749691
859.210268	2621.987294
859.523339	2616.943620
859.836367	2613.525718
860.149352	2612.215018
860.462295	2613.508074
860.775195	2611.763834
861.088054	2611.050511
861.400869	2608.053545
861.713642	2606.016919
862.026373	2606.725201
862.339062	2610.299379
862.651708	2618.458487
862.964312	2616.686521
863.276873	2615.511932
863.589392	2617.263733
863.901869	2622.209105
864.214303	2628.974334
864.526696	2632.208234
864.839045	2632.440127
865.151353	2632.465333
865.463619	2634.073461
865.775842	2633.652524
866.088023	2633.481125
866.400162	2634.592700
866.712258	2635.938688
867.024313	2631.192441
867.336325	2627.104066
867.648296	2631.999026
867.960224	2635.631177
868.272110	2634.960704
868.583954	2628.301340
868.895755	2629.455764
869.207515	2633.566825
869.519233	2641.741056
869.830909	2636.377268
870.142542	2632.162863
870.454134	2635.525313
870.765684	2639.575880
871.077191	2640.952115
871.388657	2645.988228
871.700081	2642.640902
872.011463	2645.963022
872.322803	2645.340440
872.634101	2649.728764
872.945357	2655.415186
873.256571	2659.828716
873.567744	2657.819816
873.878874	2656.869558
874.189963	2656.620021
874.501010	2661.459529
874.812015	2666.430107
875.122979	2664.857267
875.433900	2660.300064
875.744780	2655.831081
876.055618	2662.089673
876.366415	2667.445899
876.677169	2669.926147
876.987882	2659.090187
877.298554	2660.136226
877.609183	2672.736590
877.919771	2682.284536
878.230317	2686.579599
878.540822	2695.015970
878.851285	2709.811756
879.161707	2734.273955
879.472087	2773.476488
879.782425	2822.214363
880.092722	2932.338369
880.402977	3120.509519
880.713191	3380.736401
881.023363	3673.355217
881.333494	3860.177858
881.643583	4036.983726
881.953631	4029.308570
882.263637	3856.573433
882.573602	3633.242756
882.883526	3505.320957
883.193408	3391.111096
883.503248	3287.250723
883.813048	3174.107067
884.122806	3062.500962
884.432522	2976.879484
884.742197	2912.198960
885.051831	2875.275028
885.361424	2838.272959
885.670975	2806.155768
885.980485	2774.020933
886.289954	2756.724734
886.599382	2742.110429
886.908768	2731.067781
887.218113	2711.828218
887.527417	2697.362627
887.836680	2688.399455
888.145901	2686.783765
888.455082	2676.721622
888.764221	2666.687206
889.073319	2658.432316
889.382376	2657.902995
889.691392	2659.611946
890.000366	2660.421051
890.309300	2659.115392
890.618193	2661.704025
890.927044	2662.860970
891.235855	2663.743172
891.544625	2658.916267
891.853353	2659.821154
892.162041	2670.284069
892.470687	2688.984229
892.779293	2698.809438
893.087858	2709.537013
893.396381	2731.990312
893.704864	2774.341046
894.013306	2843.210769
894.321707	2934.347269
894.630068	2986.530773
894.938387	3007.320492
895.246665	2996.560149
895.554903	2954.211936
895.863100	2911.039494
896.171256	2855.435567
896.479371	2795.655044
896.787446	2757.034765
897.095480	2738.165726
897.403473	2732.159191
897.711425	2716.612273
898.019336	2698.156608
898.327207	2683.416275
898.635038	2683.043229
898.942827	2680.358815
899.250576	2670.377330
899.558284	2658.432316
899.865952	2653.625576
900.173579	2652.035092
900.481165	2647.377066
900.788711	2643.497898
901.096216	2636.079840
901.403681	2631.222688
901.711105	2632.455250
902.018489	2631.694036
902.325832	2636.488173
902.633135	2634.204531
902.940397	2651.977119
903.247619	2687.698735
903.554800	2755.925711
903.861941	2882.882129
904.169041	3009.525996
904.476101	3069.278793
904.783121	3065.255952
905.090100	3010.319978
905.397039	2932.691250
905.703938	2858.982019
906.010796	2795.886937
906.317614	2745.508167
906.624391	2709.660522
906.931129	2685.389886
907.237826	2661.018428
907.544483	2638.696199
907.851099	2627.731689
908.157675	2617.898919
908.464211	2613.397168
908.770707	2601.381578
909.077163	2596.726072
909.383578	2592.524271
909.689954	2593.131730
909.996289	2589.628128
910.302584	2591.105186
910.608839	2587.296594
910.915054	2588.047726
911.221229	2590.714497
911.527363	2592.594847
911.833458	2588.957654
912.139513	2591.810947
912.445527	2592.151225
912.751502	2600.416197
913.057436	2603.297217
913.363331	2610.327106
913.669186	2618.561830
913.975000	2637.254429
914.280775	2650.280770
914.586510	2669.848009
914.892205	2704.848740
915.197859	2775.510594
915.503475	2857.567975
915.809050	2925.048861
916.114585	2934.846343
916.420081	2952.671863
916.725536	2960.170580
917.030952	2933.949018
917.336328	2886.526884
917.641665	2838.398988
917.946961	2788.179013
918.252218	2756.225660
918.557435	2729.646176
918.862612	2707.782692
919.167750	2688.996832
919.472848	2672.280366
919.777906	2656.499034
920.082925	2642.575367
920.387904	2633.476084
920.692843	2628.316463
920.997743	2625.163221
921.302603	2618.211470
921.607423	2612.540172
921.912204	2604.237392
922.216946	2602.578852
922.521647	2603.022474
922.826310	2595.977461
923.130932	2592.234404
923.435516	2589.539908
923.740059	2585.113775
924.044564	2583.319124
924.349028	2584.970102
924.653454	2576.387537
924.957840	2571.631209
925.262186	2567.822617
925.566493	2571.800087
925.870761	2568.931671
926.174989	2568.006619
926.479178	2565.428069
926.783328	2564.961762
927.087438	2561.251473
927.391509	2564.230795
927.695541	2562.998233
927.999533	2559.035886
928.303486	2559.476987
928.607400	2556.560679
928.911275	2558.325083
929.215110	2558.133519
929.518906	2557.596636
929.822663	2557.241235
930.126381	2556.976574
930.430060	2557.306770
930.733699	2558.040258
931.037299	2559.003118
931.340861	2560.049158
931.644383	2561.679971
931.947866	2554.808878
932.251309	2559.252655
932.554714	2558.665361
932.858080	2559.411452
933.161407	2557.216029
933.464694	2558.493962
933.767943	2556.827860
934.071153	2556.457336
934.374323	2557.752912
934.677455	2555.202088
934.980548	2553.314176
935.283602	2554.488765
935.586617	2554.221584
935.889593	2556.129661
936.192530	2555.902809
936.495428	2555.134033
936.798287	2552.348795
937.101108	2557.768036
937.403890	2561.705177
937.706632	2559.776935
938.009336	2565.841443
938.312002	2569.783626
938.614628	2571.991651
938.917216	2576.080027
939.219765	2573.433421
939.522275	2579.119843
939.824747	2575.848134
940.127179	2572.899059
940.429573	2568.480487
940.731929	2569.045097
941.034246	2565.654921
941.336524	2567.774726
941.638763	2567.114335
941.940964	2567.996537
942.243126	2562.678119
942.545250	2565.037379
942.847335	2566.201886
943.149381	2562.726010
943.451389	2560.054199
943.753359	2561.369940
944.055290	2560.288613
944.357182	2559.184600
944.659036	2558.947666
944.960851	2559.628221
945.262628	2556.928683
945.564367	2561.168294
945.866067	2556.500185
946.167729	2560.200392
946.469352	2558.728375
946.770937	2559.529919
947.072484	2556.613611
947.373992	2559.683674
947.675462	2555.693601
947.976893	2556.671585
948.278286	2556.248128
948.579641	2557.112686
948.880958	2555.043292
949.182236	2556.721996
949.483476	2556.595967
949.784678	2555.575134
950.085841	2554.052705
950.386967	2556.109496
950.688054	2555.746533
950.989103	2555.393652
951.290114	2556.175031
951.591087	2561.516133
951.892021	2558.130999
952.192917	2562.239539
952.493776	2562.305074
952.794596	2563.552760
953.095378	2562.605023
953.396122	2563.033521
953.696828	2561.301884
953.997496	2562.294992
954.298126	2557.891544
954.598718	2556.346430
954.899272	2556.316183
955.199788	2553.513302
955.500266	2552.714279
955.800706	2548.968702
956.101108	2546.687579
956.401472	2547.998279
956.701798	2545.018958
957.002087	2547.877292
957.302337	2545.591128
957.602550	2547.834442
957.902724	2545.066848
958.202861	2542.730274
958.502960	2543.614996
958.803022	2545.051725
959.103045	2544.797147
959.403031	2543.441076
959.702979	2542.488298
960.002889	2544.151879
960.302762	2542.765562
960.602596	2542.337064
960.902393	2539.093081
961.202153	2541.830428
961.501875	2540.489481
961.801559	2541.238092
962.101205	2540.527289
962.400814	2539.735828
962.700385	2542.566436
962.999918	2541.051569
963.299414	2539.816487
963.598873	2541.623740
963.898293	2537.840354
964.197677	2542.180788
964.497022	2537.245498
964.796331	2541.222969
965.095601	2538.745242
965.394835	2540.328164
965.694030	2540.302958
965.993189	2539.776158
966.292309	2537.961342
966.591393	2540.292876
966.890439	2539.531662
967.189447	2540.141641
967.488419	2540.098791
967.787353	2538.621733
968.086249	2539.453524
968.385108	2539.635005
968.683930	2540.451672
968.982714	2538.117618
969.281462	2540.502084
969.580172	2540.454193
969.878844	2540.091230
970.177480	2539.556867
970.476078	2539.516538
970.774639	2542.238761
971.073162	2539.665252
971.371649	2538.155427
971.670098	2535.622247
971.968510	2536.806918
972.266885	2534.568646
972.565223	2540.406302
972.863524	2538.470499
973.161788	2544.154400
973.460014	2540.849923
973.758204	2539.992927
974.056356	2547.065666
974.354471	2541.601055
974.652550	2541.681714
974.950591	2541.825387
975.248595	2538.820859
975.546563	2539.017464
975.844493	2541.744728
976.142386	2539.387989
976.440243	2539.725746
976.738062	2539.357742
977.035845	2539.067875
977.333590	2540.817156
977.631299	2539.529141
977.928971	2539.042670
978.226606	2543.637681
978.524204	2538.498225
978.821765	2536.343132
979.119290	2540.257588
979.416777	2538.634336
979.714228	2539.846734
980.011642	2536.280117
980.309020	2541.628782
980.606360	2539.448482
980.903664	2540.187012
981.200931	2540.111394
981.498162	2542.130376
981.795356	2545.800336
982.092513	2544.892929
982.389633	2546.705223
982.686717	2553.362067
982.983764	2552.615976
983.280775	2553.341903
983.577749	2558.312480
983.874686	2552.162272
984.171587	2547.915100
984.468451	2548.641027
984.765279	2546.193546
985.062070	2544.746735
985.358824	2545.190357
985.655543	2542.074924
985.952224	2540.166847
986.248869	2539.980324
986.545478	2533.966228
986.842050	2533.683923
987.138586	2535.130734
987.435086	2535.690302
987.731549	2534.309026
988.027975	2538.800694
988.324366	2536.791794
988.620719	2536.751465
988.917037	2536.418749
989.213318	2537.973945
989.509563	2534.258615
989.805772	2536.489325
990.101944	2536.713657
990.398080	2535.715508
990.694180	2534.351876
990.990244	2536.277597
991.286271	2537.031249
991.582262	2534.084695
991.878217	2537.003523
992.174136	2533.406660
992.470019	2534.457740
992.765865	2538.969573
993.061676	2535.511341
993.357450	2538.634336
993.653188	2535.478574
993.948890	2535.932278
994.244556	2536.532175
994.540186	2537.389171
994.835780	2537.028729
995.131337	2536.418749
995.426859	2540.129038
995.722345	2538.001671
996.017795	2538.788091
996.313208	2540.615510
996.608586	2540.711292
996.903928	2539.914789
997.199234	2537.742052
997.494504	2540.860006
997.789738	2540.086188
998.084936	2539.123328
998.380099	2537.631147
998.675225	2538.044521
998.970316	2538.649460
999.265371	2536.123842
999.560390	2536.464119
999.855373	2537.668955
1000.150320	2537.028729
1000.445232	2537.058976
1000.740108	2535.579397
1001.034948	2537.908410
1001.329752	2533.323481
1001.624521	2535.753317
1001.919254	2529.048582
1002.213951	2530.709642
1002.508613	2531.647297
1002.803239	2532.849612
1003.097829	2528.882224
1003.392384	2533.363810
1003.686903	2535.287010
1003.981386	2535.692823
1004.275834	2535.977648
1004.570246	2533.416742
1004.864623	2534.377082
1005.158964	2537.046373
1005.453270	2534.450178
1005.747540	2533.699047
1006.041775	2534.588810
1006.335974	2534.850950
1006.630138	2530.253418
1006.924266	2534.288862
1007.218359	2533.474715
1007.512416	2531.276772
1007.806438	2533.578059
1008.100425	2531.715352
1008.394376	2533.862884
1008.688292	2531.170908
1008.982172	2533.918337
1009.276017	2534.041845
1009.569827	2533.454551
1009.863602	2531.216278
1010.157341	2532.627801
1010.451045	2532.433717
1010.744714	2532.627801
1011.038347	2530.568490
1011.331945	2532.746268
1011.625508	2532.116124
1011.919036	2531.964890
1012.212528	2533.847761
1012.505986	2533.504962
1012.799408	2534.291382
1013.092795	2534.397246
1013.386147	2533.338604
1013.679464	2533.507483
1013.972745	2533.230219
1014.265992	2533.734335
1014.559204	2535.357586
1014.852380	2533.951104
1015.145521	2534.341794
1015.438628	2533.719211
1015.731699	2535.642411
1016.024736	2533.658717
1016.317737	2531.924560
1016.610703	2536.207021
1016.903635	2530.480270
1017.196531	2529.827440
1017.489393	2531.448171
1017.782219	2531.612009
1018.075011	2532.985723
1018.367768	2533.593182
1018.660490	2532.521937
1018.953177	2532.521937
1019.245829	2532.521937
