Dividing Wavelength (nm)	Counts (n)	Blue Motor Position (mm): 40.900000	Red Motor Position (mm): 0.000000	
326.493990	2129.174177
326.888308	2129.174177
327.282561	2129.174177
327.676750	2096.875504
328.070874	2097.457757
328.464933	2099.267532
328.858929	2106.688110
329.252859	2116.835953
329.646726	2127.462705
330.040528	2138.326392
330.434265	2155.700728
330.827938	2172.107163
331.221547	2190.552745
331.615091	2208.474047
332.008571	2227.149002
332.401986	2247.374111
332.795338	2268.231885
333.188625	2285.339041
333.581847	2307.885601
333.975006	2324.622232
334.368100	2341.323575
334.761129	2360.479959
335.154095	2376.218442
335.546996	2400.962945
335.939833	2425.692325
336.332606	2439.051383
336.725315	2452.087807
337.117960	2461.963427
337.510540	2467.899386
337.903056	2480.121663
338.295508	2486.428147
338.687896	2496.001298
339.080220	2508.042094
339.472480	2512.374966
339.864676	2518.752025
340.256807	2518.986439
340.648875	2523.049609
341.040879	2525.726462
341.432818	2528.904909
341.824694	2528.673016
342.216506	2530.177801
342.608253	2528.980527
342.999937	2530.666793
343.391557	2526.782583
343.783113	2527.266534
344.174605	2526.124713
344.566033	2524.035155
344.957397	2524.594723
345.348697	2521.133971
345.739934	2520.587005
346.131106	2519.777900
346.522215	2518.560462
346.913260	2515.409740
347.304241	2514.283042
347.695159	2513.325223
348.086012	2512.758093
348.476802	2509.012516
348.867528	2507.106960
349.258191	2503.973883
349.648789	2506.464213
350.039324	2501.508759
350.429796	2502.980776
350.820203	2501.138234
351.210548	2502.837103
351.600828	2497.233860
351.991045	2495.877790
352.381198	2497.473315
352.771288	2496.313850
353.161314	2494.277223
353.551276	2497.070023
353.941175	2494.715804
354.331010	2496.218068
354.720782	2496.679333
355.110490	2496.260917
355.500135	2495.784528
355.889717	2497.881648
356.279235	2497.248984
356.668689	2495.729076
357.058080	2494.148674
357.447408	2494.733448
357.836672	2495.459374
358.225873	2497.647235
358.615010	2495.303098
359.004084	2500.876094
359.393095	2499.930877
359.782043	2500.354334
360.170927	2502.721156
360.559748	2501.085302
360.948505	2501.430621
361.337199	2503.152175
361.725830	2501.488594
362.114398	2504.208297
362.502903	2503.189983
362.891344	2505.327433
363.279722	2503.545385
363.668037	2508.238699
364.056289	2506.804491
364.444478	2508.425222
364.832603	2506.723832
365.220665	2511.689369
365.608665	2508.163082
365.996601	2509.758607
366.384474	2507.089316
366.772284	2508.820952
367.160031	2508.936899
367.547715	2510.340860
367.935336	2511.195336
368.322893	2511.265912
368.710388	2510.978566
369.097820	2515.848321
369.485189	2511.550737
369.872495	2511.565861
370.259738	2512.531242
370.646918	2512.541324
371.034035	2515.815553
371.421090	2515.321520
371.808081	2513.219359
372.195010	2517.786644
372.581875	2514.774555
372.968678	2515.994514
373.355418	2517.181706
373.742096	2516.564165
374.128710	2514.214987
374.515262	2519.256141
374.901751	2517.670698
375.288177	2519.919053
375.674540	2518.746984
376.060841	2518.005935
376.447079	2518.520132
376.833254	2523.808303
377.219367	2514.550224
377.605417	2517.854700
377.991404	2516.430574
378.377329	2518.462159
378.763191	2516.922087
379.148991	2523.790659
379.534727	2522.421985
379.920402	2523.805782
380.306013	2524.284692
380.691563	2524.403159
381.077049	2524.012469
381.462474	2527.460619
381.847835	2526.807789
382.233134	2526.666637
382.618371	2523.994825
383.003545	2527.818541
383.388657	2528.090763
383.773706	2530.208048
384.158693	2530.860877
384.543618	2532.768954
384.928480	2534.911444
385.313280	2538.775488
385.698017	2541.076775
386.082692	2549.170348
386.467305	2553.699824
386.851856	2558.093190
387.236344	2568.029304
387.620770	2579.911304
388.005133	2588.962696
388.389435	2600.602720
388.773674	2614.075203
389.157851	2629.148253
389.541965	2646.212559
389.926018	2654.485093
390.310008	2681.036850
390.693936	2700.271372
391.077802	2724.589899
391.461606	2741.623957
391.845348	2774.411622
392.229027	2795.488686
392.612645	2821.133036
392.996200	2860.920343
393.379694	2895.406876
393.763125	2940.550409
394.146494	2959.611012
394.529801	3008.563136
394.913047	3055.768501
395.296230	3075.923034
395.679351	3125.575878
396.062410	3170.585821
396.445408	3195.751261
396.828343	3246.082141
397.211217	3287.452370
397.594028	3289.083183
397.976778	3356.574151
398.359466	3403.560225
398.742092	3457.092238
399.124656	3446.150413
399.507158	3525.276364
399.889598	3575.082964
400.271977	3648.484685
400.654294	3666.809279
401.036549	3707.083057
401.418742	3715.831979
401.800874	3819.896518
402.182944	3867.676574
402.564952	3946.502577
402.946898	3969.034014
403.328783	3998.131554
403.710606	3956.718475
404.092367	4141.552381
404.474067	4139.639263
404.855705	4168.474663
405.237282	4130.935711
405.618797	4248.455089
406.000250	4295.834373
406.381642	4390.300555
406.762972	4379.608268
407.144240	4403.944438
407.525447	4420.613013
407.906593	4493.440043
408.287677	4551.110842
408.668700	4499.126464
409.049661	4562.866813
409.430560	4613.540492
409.811399	4552.981111
410.192176	4719.923961
410.572891	4669.613246
410.953545	4779.933857
411.334138	4669.131816
411.714669	4739.269389
412.095139	4644.810769
412.475547	4787.382162
412.855894	4774.872538
413.236180	4786.356287
413.616405	4746.579062
413.996568	4833.334799
414.376670	4782.830000
414.756711	4739.917177
415.136691	4774.318011
415.516609	4854.321123
415.896466	4888.159868
416.276262	4922.512811
416.655997	4907.507817
417.035670	5089.969859
417.415283	5178.515206
417.794834	5123.763234
418.174324	5083.519703
418.553753	4989.885312
418.933121	5174.618394
419.312428	5238.706583
419.691674	5182.071740
420.070859	5309.607891
420.449983	5218.536927
420.829045	5339.257438
421.208047	5246.543057
421.586988	5313.754240
421.965867	5323.826466
422.344686	5460.628258
422.723444	5311.236184
423.102141	5131.987877
423.480777	5432.463331
423.859352	5198.405079
424.237866	5459.057938
424.616319	5451.896979
424.994712	5562.320934
425.373044	5438.021203
425.751314	5578.351803
426.129524	5384.607658
426.507673	5578.432461
426.885762	5663.801881
427.263789	5588.809677
427.641756	5476.160053
428.019662	5592.895532
428.397508	5600.205205
428.775292	5551.343821
429.153016	5640.090814
429.530679	5574.013890
429.908282	5660.086551
430.285824	5528.124267
430.663305	5806.766484
431.040726	5533.908991
431.418086	5541.858890
431.795385	5643.304550
432.172624	5657.571015
432.549802	5652.756713
432.926920	5666.085524
433.303977	5673.939642
433.680974	5712.524633
434.057910	5730.014916
434.434786	5739.230146
434.811601	5703.995001
435.188355	5935.678870
435.565050	5809.924767
435.941683	5793.785513
436.318257	6008.241238
436.694770	5988.858002
437.071222	6025.832345
437.447614	5954.444565
437.823946	5867.532552
438.200218	6024.627509
438.576429	5890.192539
438.952580	5987.743907
439.328670	6033.497419
439.704700	5940.725065
440.080670	5926.040184
440.456580	6197.329878
440.832429	6078.333441
441.208218	5927.686120
441.583947	6077.988122
441.959616	6086.517755
442.335224	6014.603174
442.710773	6147.523278
443.086261	6175.937742
443.461689	5969.739426
443.837057	6122.130986
444.212365	6269.453666
444.587612	6165.810063
444.962800	6320.475184
445.337927	6299.251926
445.712995	5914.959728
446.088002	6489.769733
446.462949	6317.276572
446.837837	6250.004894
447.212664	6420.398415
447.587431	6565.394603
447.962139	7109.302335
448.336786	8036.471350
448.711374	7773.539889
449.085901	6846.229722
449.460369	6773.367404
449.834776	6706.128494
450.209124	7095.557629
450.583412	7247.210660
450.957640	7390.812969
451.331808	7158.619943
451.705917	6711.835081
452.079965	6629.470188
452.453954	6845.743250
452.827883	6721.325053
453.201752	6820.151833
453.575562	6610.964113
453.949311	6819.665361
454.323001	6703.577671
454.696632	6780.485514
455.070202	6922.053717
455.443713	7075.592139
455.817164	7174.986049
456.190556	7255.573934
456.563888	7333.099319
456.937160	7374.560289
457.310373	7031.779471
457.683526	7055.056999
458.056619	6944.575071
458.429653	6935.642147
458.802628	6871.863989
459.175542	6979.457335
459.548398	7333.817683
459.921194	7492.162846
460.293930	7500.044690
460.666607	8026.159670
461.039224	8340.198349
461.411782	8462.267369
461.784280	8474.393864
462.156719	8369.845375
462.529099	8243.004903
462.901419	7835.377203
463.273680	7727.103301
463.645882	7743.537462
464.018024	7608.714323
464.390106	7777.661033
464.762130	8165.151843
465.134094	8637.891087
465.505999	9655.032095
465.877845	10877.763961
466.249631	11523.185408
466.621358	11139.268775
466.993026	10501.547690
467.364634	10250.094936
467.736184	9883.852589
468.107674	9557.125326
468.479105	9591.861396
468.850477	9353.124953
469.221790	9122.953430
469.593043	8799.820510
469.964238	8658.786669
470.335373	8674.121859
470.706449	8731.175118
471.077467	8712.359011
471.448425	10023.532880
471.819324	11094.334450
472.190164	11116.392019
472.560945	9863.551862
472.931667	9079.806194
473.302330	8943.006923
473.672934	8590.932738
474.043479	8949.038664
474.413965	8884.267398
474.784393	8767.821786
475.154761	8932.153319
475.525070	9015.854117
475.895321	8839.368362
476.265513	9016.373356
476.635645	9186.086320
477.005719	9190.698976
477.375734	9304.661821
477.745691	9534.475422
478.115588	9671.383078
478.485427	9911.611703
478.855207	10455.685793
479.224928	11272.801379
479.594591	11895.918241
479.964194	11705.435723
480.333739	11646.746609
480.703226	11561.730070
481.072653	11648.702577
481.442022	11889.447920
481.811333	12078.276940
482.180584	11885.256201
482.549777	11590.116808
482.918912	11408.539487
483.287988	11439.005701
483.657005	11448.120107
484.025964	11134.232662
484.394864	11263.956674
484.763706	11235.186809
485.132489	10993.050108
485.501213	10956.872267
485.869879	11033.512929
486.238487	10875.180369
486.607036	10986.801598
486.975527	10760.826835
487.343959	10949.043355
487.712333	10999.306180
488.080648	10928.987125
488.448905	10973.228291
488.817104	10915.600341
489.185244	11185.453306
489.553326	11332.760863
489.921350	11874.392514
490.289315	12933.400306
490.657222	13279.606587
491.025070	13180.716793
491.392861	13056.606106
491.760593	12676.160307
492.128267	12326.712564
492.495883	11999.655105
492.863440	11660.718167
493.230939	11327.548310
493.598380	11261.859554
493.965763	11129.312496
494.333088	11027.400530
494.700354	10942.802407
495.067563	11013.318067
495.434713	10847.569970
495.801805	10971.801644
496.168839	10890.709644
496.535815	10829.429378
496.902733	10832.111271
497.269593	10762.089644
497.636395	10861.047494
498.003139	10847.650628
498.369825	10722.062883
498.736453	10873.055523
499.103023	10797.027361
499.469535	10832.895171
499.835989	10821.497122
500.202385	10787.103850
500.568723	10629.860179
500.935003	10858.249654
501.301226	10669.549183
501.667390	10916.656463
502.033497	11016.042811
502.399546	10872.420338
502.765537	10786.261977
503.131470	10862.746363
503.497345	11033.707014
503.863163	10646.354834
504.228923	10958.568616
504.594625	11013.295382
504.960269	10767.682805
505.325856	10987.472071
505.691385	10780.749475
506.056856	10926.305231
506.422270	10956.559716
506.787625	10848.311019
507.152924	10961.731940
507.518164	10942.628487
507.883347	10863.588236
508.248472	10786.705599
508.613540	11017.222441
508.978550	10902.420244
509.343503	10871.727179
509.708398	10997.302321
510.073236	11104.018507
510.438016	11117.372523
510.802738	11062.549975
511.167403	11117.226330
511.532010	11013.378561
511.896561	11241.899106
512.261053	11311.255300
512.625488	11188.926661
512.989866	11169.959320
513.354186	11162.004379
513.718449	11062.991076
514.082655	11247.381361
514.446803	11144.614919
514.810894	11265.758887
515.174927	11133.214349
515.538904	11155.183698
515.902822	11313.556587
516.266684	11191.515294
516.630488	11136.014710
516.994235	11195.722137
517.357925	11260.473237
517.721558	11343.072543
518.085133	11358.014523
518.448651	11373.805937
518.812112	11251.482339
519.175516	11268.924732
519.538863	11390.351004
519.902152	11300.815071
520.265385	11465.055863
520.628560	11377.107893
520.991678	11349.646207
521.354739	11420.398802
521.717743	11345.507420
522.080690	11328.032260
522.443580	11467.876389
522.806413	11421.472568
523.169189	11457.433638
523.531908	11510.075887
523.894569	11328.433032
524.257174	11340.287305
524.619722	11458.419184
524.982213	11406.001266
525.344647	11450.370982
525.707025	11402.719475
526.069345	11495.643064
526.431608	11420.620612
526.793815	11523.122394
527.155964	11314.650518
527.518057	11366.531552
527.880093	11318.207052
528.242072	11380.379602
528.603995	11290.183277
528.965860	11208.236801
529.327669	11261.189081
529.689421	11209.340814
530.051117	11174.813951
530.412755	11280.146340
530.774337	11172.996615
531.135862	11153.880560
531.497331	11184.046824
531.858743	11027.816425
532.220098	11192.803308
532.581396	11063.951416
532.942638	11053.823738
533.303824	11014.563232
533.664953	11028.653257
534.026025	10942.116810
534.387040	11044.298478
534.747999	11041.029290
535.108902	11102.153280
535.469748	10859.348626
535.830537	10968.751746
536.191270	10938.756881
536.551947	10965.447270
536.912567	10965.943824
537.273131	10894.924048
537.633638	10869.335151
537.994089	10858.524397
538.354483	10808.226284
538.714821	10952.267173
539.075103	10959.783534
539.435328	10920.681824
539.795497	10747.371996
540.155609	10909.399722
540.515665	10993.541620
540.875665	10733.715510
541.235609	10794.426126
541.595496	10795.252875
541.955328	10953.812287
542.315102	10831.637403
542.674821	10784.772316
543.034483	10782.292068
543.394090	10790.589808
543.753640	10716.986441
544.113134	10942.573034
544.472571	10795.245313
544.831953	10938.139340
545.191278	10743.192879
545.550548	10770.034503
545.909761	10911.212016
546.268918	10877.579958
546.628019	10971.647889
546.987064	10823.465693
547.346053	10755.193346
547.704986	10853.268994
548.063863	10842.062509
548.422684	10834.236118
548.781449	10754.283418
549.140158	10847.060813
549.498811	10728.417257
549.857408	10584.134393
550.215949	10807.696963
550.574434	10664.329068
550.932864	10761.885478
551.291237	10827.433081
551.649555	10766.611559
552.007817	10782.733169
552.366022	10748.619681
552.724173	10744.571635
553.082267	10726.499098
553.440305	10855.509787
553.798288	10660.833028
554.156215	10809.640328
554.514086	10793.420416
554.871902	10638.180603
555.229661	10677.589824
555.587365	10655.312965
555.945014	10552.329753
556.302606	10673.834164
556.660143	10570.682074
557.017625	10726.443646
557.375050	10617.547161
557.732421	10749.519527
558.089735	10661.579119
558.446994	10668.175469
558.804197	10701.588237
559.161345	10705.106962
559.518437	10552.745649
559.875474	10643.380554
560.232455	10665.911991
560.589381	10629.761877
560.946251	10618.278128
561.303065	10730.189223
561.659825	10665.846456
562.016528	10588.840310
562.373177	10472.334204
562.729770	10585.422408
563.086307	10499.314459
563.442789	10596.112175
563.799216	10477.443413
564.155587	10516.386327
564.511904	10471.736827
564.868164	10473.725562
565.224370	10482.381223
565.580520	10406.234594
565.936615	10413.390512
566.292654	10285.864443
566.648638	10413.496377
567.004567	10371.430468
567.360441	10357.673159
567.716260	10269.306774
568.072023	10363.704900
568.427732	10306.712135
568.783385	10219.706861
569.138982	10296.090424
569.494525	10303.362288
569.850013	10181.625985
570.205445	10263.915260
570.560823	10161.138736
570.916145	10077.619419
571.271412	10150.446448
571.626625	10093.153735
571.981782	10063.516791
572.336884	10039.654490
572.691931	10043.568946
573.046923	9991.161110
573.401860	9948.759965
573.756743	9891.522704
574.111570	9922.924052
574.466342	9917.368700
574.821059	9940.825189
575.175722	9836.367440
575.530330	9845.804480
575.884882	9841.136372
576.239380	9761.609649
576.593823	9743.829500
576.948211	9760.140153
577.302544	9639.344024
577.656823	9654.127208
578.011047	9653.716354
578.365216	9629.846491
578.719330	9549.591321
579.073389	9561.795955
579.427394	9507.711936
579.781344	9486.581939
580.135239	9433.740565
580.489080	9446.729098
580.842866	9344.933078
581.196597	9355.002783
581.550273	9397.628259
581.903895	9362.602322
582.257463	9424.134646
582.610975	9310.280187
582.964434	9333.560235
583.317837	9256.319676
583.671186	9236.649093
584.024481	9228.091735
584.377721	9145.386565
584.730906	9123.465107
585.084037	9155.000045
585.437113	9092.517464
585.790135	9112.626627
586.143103	9018.215897
586.496016	8982.809353
586.848874	9045.730515
587.201679	9027.297536
587.554428	8919.459693
587.907124	8966.397877
588.259765	8935.682127
588.612352	8934.459647
588.964884	8814.553282
589.317362	8826.001742
589.669786	8825.351433
590.022155	8876.622489
590.374470	8888.895178
590.726731	8828.381167
591.078937	8678.311058
591.431090	8793.214078
591.783188	8666.028287
592.135232	8660.906474
592.487222	8658.217019
592.839157	8712.606028
593.191038	8643.927868
593.542866	8594.280065
593.894639	8491.821133
594.246358	8543.306437
594.598022	8558.205568
594.949633	8456.669167
595.301190	8437.104449
595.652692	8462.126217
596.004141	8571.194101
596.355535	8352.155966
596.706876	8326.746030
597.058162	8265.611957
597.409395	8344.518618
597.760573	8399.820076
598.111698	8311.304976
598.462768	8295.284189
598.813785	8261.878983
599.164748	8232.027790
599.515657	8217.058084
599.866511	8130.929971
600.217312	8254.995287
600.568060	8122.652396
600.918753	8216.501037
601.269392	8190.201337
601.619978	8098.535516
601.970510	8164.919950
602.320988	8162.616143
602.671412	8214.731592
603.021783	8152.518712
603.372100	8127.474260
603.722363	8128.931153
604.072572	8101.744210
604.422728	8119.877241
604.772830	8044.474182
605.122878	8047.824029
605.472872	8051.738485
605.822813	8073.221362
606.172701	8019.031479
606.522534	8095.447809
606.872314	8094.641225
607.222041	8066.141061
607.571714	8120.920760
607.921333	8078.267557
608.270899	8086.192251
608.620411	8175.024943
608.969870	8075.807474
609.319276	8071.799757
609.668627	8093.375895
610.017926	8126.299671
610.367171	8168.511772
610.716362	8149.423443
611.065500	8139.356259
611.414585	8166.785177
611.763616	8156.355030
612.112594	8134.854509
612.461518	8150.751787
612.810389	8212.074903
613.159207	8148.891602
613.507971	8098.066689
613.856682	8215.671767
614.205340	8172.857247
614.553945	8249.293742
614.902496	8148.818505
615.250994	8205.309675
615.599439	8187.615225
615.947830	8201.274231
616.296169	8175.176178
616.644454	8181.959050
616.992686	8186.057508
617.340864	8237.288234
617.688990	8139.946074
618.037063	8238.498111
618.385082	8185.870986
618.733048	8276.163092
619.080961	8206.995941
619.428821	8227.263900
619.776628	8225.716266
620.124382	8175.473606
620.472083	8163.090012
620.819731	8187.708486
621.167326	8081.352743
621.514868	8094.663910
621.862357	7981.900860
622.209793	8000.883325
622.557176	7938.332688
622.904506	7901.028149
623.251783	7833.050710
623.599007	7792.214844
623.946179	7793.560832
624.293297	7753.471056
624.640363	7674.014909
624.987376	7650.873493
625.334336	7597.704443
625.681243	7550.108389
626.028097	7537.616410
626.374899	7516.254520
626.721647	7509.459045
627.068343	7439.341636
627.414987	7412.719303
627.761577	7366.794391
628.108115	7407.572285
628.454600	7299.502549
628.801032	7348.265630
629.147412	7308.369939
629.493739	7297.667569
629.840014	7232.772796
630.186236	7290.809079
630.532405	7170.186871
630.878521	7224.379274
631.224585	7178.063673
631.570597	7104.301510
631.916556	7138.092365
632.262462	7135.481047
632.608316	7091.121414
632.954117	7071.413023
633.299866	7059.838533
633.645562	7051.744961
633.991206	6974.779145
634.336797	6911.731954
634.682336	6876.897581
635.027823	6845.115627
635.373257	6831.771692
635.718639	6759.451299
636.063968	6778.902591
636.409245	6672.902249
636.754470	6668.103071
637.099642	6631.078317
637.444762	6572.137146
637.789829	6579.676191
638.134845	6518.645462
638.479808	6507.549883
638.824719	6508.149780
639.169577	6440.106806
639.514383	6461.808973
639.859137	6392.324229
640.203839	6394.963273
640.548489	6386.557149
640.893086	6359.400453
641.237632	6330.514642
641.582125	6350.669175
641.926566	6326.297717
642.270955	6337.284912
642.615292	6330.741494
642.959576	6349.991140
643.303809	6330.567574
643.647990	6340.004614
643.992118	6329.645043
644.336195	6276.425582
644.680219	6300.814684
645.024192	6291.579290
645.368112	6390.121245
645.711981	6409.544811
646.055797	6482.999463
646.399562	6444.835408
646.743274	6571.827115
647.086935	6622.062213
647.430544	6615.279340
647.774101	6643.630790
648.117606	6646.431151
648.461059	6637.732640
648.804460	6600.687721
649.147810	6511.093814
649.491108	6478.444781
649.834354	6452.823117
650.177548	6369.467638
650.520690	6284.216685
650.863781	6259.084012
651.206820	6284.940091
651.549807	6202.867585
651.892742	6144.990098
652.235626	6150.449668
652.578458	6137.120857
652.921238	6046.538884
653.263967	6086.565646
653.606644	6024.907293
653.949269	6031.319641
654.291843	5969.439477
654.634365	6016.518813
654.976836	5972.872503
655.319255	5966.954188
655.661622	5947.724707
656.003938	5943.449808
656.346203	5904.947996
656.688416	5941.052740
657.030577	5889.385954
657.372687	5864.346543
657.714746	5846.306774
658.056753	5891.462909
658.398708	5831.316903
658.740612	5818.935829
659.082465	5867.338468
659.424266	5863.071131
659.766016	5859.678434
660.107715	5833.088868
660.449362	5848.910530
660.790958	5843.824006
661.132503	5828.821532
661.473996	5866.446183
661.815438	5854.120562
662.156829	5852.789698
662.498168	5843.750909
662.839456	5820.193597
663.180693	5856.865471
663.521879	5859.441500
663.863013	5842.309139
664.204097	5864.588518
664.545129	5903.143263
664.886110	5900.867182
665.227040	5936.293891
665.567918	5903.377677
665.908746	5930.337767
666.249522	5930.184012
666.590248	5919.758906
666.930922	5944.447957
667.271545	5956.219051
667.612118	5961.461851
667.952639	5937.339930
668.293109	5956.319874
668.633528	5912.726496
668.973896	5921.417446
669.314213	5910.639459
669.654480	5888.196242
669.994695	5885.194235
670.334859	5879.094438
670.674973	5867.114136
671.015035	5873.440784
671.355047	5868.180340
671.695008	5855.678279
672.034918	5827.059648
672.374777	5838.871072
672.714585	5821.514379
673.054342	5827.525955
673.394049	5826.116953
673.733705	5855.789184
674.073310	5837.477193
674.412864	5795.310462
674.752368	5793.074710
675.091820	5798.781296
675.431223	5734.423405
675.770574	5733.929372
676.109875	5685.289799
676.449125	5687.422207
676.788324	5658.400285
677.127473	5599.038178
677.466571	5594.332261
677.805619	5580.721145
678.144616	5566.114402
678.483562	5544.550866
678.822458	5515.435682
679.161303	5513.951062
679.500098	5496.972456
679.838842	5481.241536
680.177535	5491.812835
680.516179	5501.237272
680.854771	5516.171691
681.193314	5596.361325
681.531805	5698.757242
681.870247	5856.182394
682.208638	5957.552436
682.546978	5965.797243
682.885268	5945.052895
683.223508	5857.636767
683.561697	5802.519312
683.899836	5775.597029
684.237925	5732.883333
684.575963	5695.724988
684.913951	5656.779554
685.251889	5720.419080
685.589776	5684.636970
685.927614	5656.829965
686.265401	5730.004834
686.603137	5708.549683
686.940824	5782.037103
687.278460	5811.149767
687.616046	5821.900028
687.953582	5887.629112
688.291068	5873.392893
688.628504	5930.241985
688.965889	5896.448611
689.303224	5838.588767
689.640510	5790.796108
689.977745	5715.393050
690.314930	5619.848061
690.652065	5562.454524
690.989150	5469.394824
691.326185	5389.883225
691.663170	5339.524619
692.000105	5264.398824
692.336990	5186.235733
692.673825	5159.018544
693.010610	5092.142597
693.347345	5023.550137
693.684030	5010.662427
694.020665	4967.489986
694.357251	4876.812231
694.693786	4888.485022
695.030272	4855.740208
695.366707	4820.855423
695.703093	4784.599445
696.039429	4806.062157
696.375716	4786.769661
696.711952	4767.872896
697.048139	4750.649794
697.384276	4734.508019
697.720363	4746.236264
698.056400	4752.131893
698.392388	4703.290674
698.728326	4681.142365
699.064214	4663.480682
699.400053	4655.800484
699.735842	4623.983242
700.071581	4597.857462
700.407270	4569.185900
700.742910	4554.140576
701.078501	4501.644520
701.414042	4497.656968
701.749533	4466.542966
702.084974	4400.902102
702.420366	4459.114826
702.755709	4402.984098
703.091002	4341.847505
703.426246	4390.812232
703.761440	4350.457796
704.096584	4314.889935
704.431679	4334.479859
704.766725	4317.728105
705.101721	4309.747958
705.436668	4335.483048
705.771565	4282.412301
706.106413	4310.002536
706.441212	4341.907999
706.775961	4348.995861
707.110661	4332.279395
707.445311	4359.476420
707.779913	4381.894431
708.114465	4396.302049
708.448967	4417.348866
708.783421	4476.746262
709.117825	4518.691182
709.452180	4521.995658
709.786485	4566.330086
710.120742	4656.528931
710.454949	4641.060151
710.789107	4709.047672
711.123216	4780.004433
711.457275	4774.731386
711.791286	4843.890976
712.125247	4865.769583
712.459159	4767.933390
712.793023	4840.641952
713.126837	4799.528822
713.460602	4793.529849
713.794318	4714.066141
714.127985	4719.810535
714.461602	4632.089417
714.795171	4605.830047
715.128691	4541.217578
715.462162	4482.906552
715.795584	4432.086680
716.128957	4415.125717
716.462281	4361.399620
716.795556	4337.355837
717.128782	4299.315290
717.461960	4229.318869
717.795088	4239.713728
718.128167	4200.443140
718.461198	4141.471722
718.794180	4141.010457
719.127113	4117.112867
719.459997	4096.486986
719.792833	4053.664904
720.125619	4043.542267
720.458357	4008.382740
720.791046	4011.974562
721.123686	3988.568485
721.456278	3943.006536
721.788821	3964.118889
722.121315	3934.839867
722.453761	3910.367586
722.786158	3920.142383
723.118506	3947.218420
723.450805	3899.103127
723.783056	3920.792692
724.115259	3938.056123
724.447412	3939.530661
724.779518	3932.858694
725.111574	3934.570165
725.443582	3968.023262
725.775542	3952.899801
726.107453	4004.165815
726.439315	4003.049199
726.771129	4021.018392
727.102895	4052.540727
727.434612	4102.485959
727.766281	4114.347794
728.097901	4115.552630
728.429473	4121.566726
728.760996	4122.607724
729.092471	4116.994400
729.423897	4106.155919
729.755276	4111.290334
730.086606	4110.206486
730.417887	4146.517917
730.749120	4214.946539
731.080305	4274.278400
731.411442	4304.769819
731.742530	4274.149850
732.073570	4275.541209
732.404562	4329.718489
732.735506	4324.074917
733.066401	4286.788023
733.397249	4220.335533
733.728048	4139.765292
734.058798	4059.759659
734.389501	3992.341788
734.720156	3929.050102
735.050762	3885.214749
735.381320	3877.098491
735.711831	3826.482786
736.042293	3794.690749
736.372707	3817.307886
736.703073	3792.959113
737.033391	3783.068369
737.363661	3800.745175
737.693883	3825.154442
738.024056	3833.701718
738.354182	3833.240453
738.684260	3892.315214
739.014290	3912.182401
739.344272	3912.018564
739.674207	3952.284780
740.004093	3955.584215
740.333931	3953.963484
740.663722	3950.832928
740.993464	3948.120787
741.323159	3926.196809
741.652806	3896.557345
741.982405	3867.336297
742.311956	3839.201617
742.641460	3827.750636
742.970915	3801.912202
743.300323	3762.026593
743.629683	3724.296077
743.958996	3716.898183
744.288260	3694.129812
744.617477	3663.908095
744.946647	3647.524345
745.275768	3618.605766
745.604842	3618.005868
745.933869	3569.900658
746.262847	3561.509657
746.591778	3599.494752
746.920662	3571.692788
747.249498	3541.201369
747.578286	3584.726691
747.907027	3604.551029
748.235720	3601.654886
748.564365	3626.046509
748.892963	3627.561376
749.221514	3607.358952
749.550017	3588.419337
749.878473	3582.485898
750.206881	3554.159655
750.535242	3552.637227
750.863555	3553.816857
751.191821	3545.307389
751.520039	3529.001777
751.848210	3503.707787
752.176334	3542.340670
752.504411	3547.336453
752.832440	3506.160309
753.160421	3491.493072
753.488356	3497.512209
753.816243	3510.972090
754.144082	3470.726038
754.471875	3454.594346
754.799620	3472.092191
755.127318	3461.825881
755.454969	3463.832260
755.782572	3466.355358
756.110129	3446.906586
756.437638	3435.916871
756.765100	3450.785754
757.092515	3458.486117
757.419882	3463.434009
757.747203	3440.678241
758.074477	3437.860236
758.401703	3456.986373
758.728882	3476.402378
759.056014	3486.930827
759.383099	3488.143225
759.710138	3483.422184
760.037129	3502.152591
760.364073	3532.938918
760.690970	3518.082638
761.017820	3496.521623
761.344623	3514.427801
761.671379	3558.300963
761.998088	3607.149744
762.324751	3736.157912
762.651366	3984.480109
762.977935	4452.589052
763.304456	4903.169904
763.630931	4996.642978
763.957359	4635.242659
764.283740	4294.342192
764.610074	4102.342286
764.936362	3906.808531
765.262602	3744.506062
765.588796	3632.645379
765.914943	3546.575239
766.241044	3455.670632
766.567097	3427.588885
766.893104	3380.323026
767.219064	3348.891432
767.544978	3320.703820
767.870845	3263.922784
768.196665	3249.810074
768.522438	3258.138060
768.848165	3251.861823
769.173846	3216.820763
769.499479	3198.828885
769.825066	3180.872295
770.150607	3163.669357
770.476101	3180.710978
770.801548	3173.708815
771.126949	3129.530664
771.452303	3111.372427
771.777611	3115.811163
772.102872	3124.081176
772.428087	3096.737958
772.753256	3090.179417
773.078378	3085.738160
773.403453	3052.043088
773.728482	3037.292672
774.053465	3055.387893
774.378401	3044.874567
774.703291	3013.538755
775.028135	3014.902387
775.352932	3011.502129
775.677683	3001.250942
776.002388	2993.893378
776.327046	2996.487052
776.651658	2988.955568
776.976224	2973.237250
777.300743	2976.032570
777.625216	2965.060499
777.949643	2959.298460
778.274024	2963.109572
778.598359	2952.147583
778.922647	2958.244859
779.246889	2953.022223
779.571086	2941.215841
779.895236	2935.804163
780.219339	2945.888991
780.543397	2958.375929
780.867409	2961.572020
781.191374	2954.799230
781.515294	2949.145576
781.839167	2951.106585
782.162995	2942.556788
782.486776	2952.129939
782.810511	2949.627006
783.134201	2935.093360
783.457844	2943.749021
783.781441	2932.252670
784.104993	2911.954464
784.428498	2916.128539
784.751958	2925.421906
785.075372	2922.533325
785.398739	2906.903228
785.722061	2921.089034
786.045337	2932.706373
786.368568	2919.226328
786.691752	2909.418763
787.014891	2956.820733
787.337983	2988.542193
787.661030	3014.453724
787.984031	3081.770772
788.306987	3128.280457
788.629897	3122.490692
788.952760	3105.678444
789.275579	3090.209664
789.598351	3032.551467
789.921078	2986.820639
790.243759	2981.456852
790.566395	2963.061681
790.888984	2938.617126
791.211529	2919.130546
791.534027	2908.649987
791.856480	2901.113462
792.178888	2885.095196
792.501249	2877.999772
792.823566	2873.954246
793.145836	2872.106663
793.468062	2867.889738
793.790241	2867.458719
794.112375	2871.312681
794.434464	2885.017058
794.756507	2885.180896
795.078505	2897.125910
795.400457	2908.203845
795.722364	2945.193312
796.044226	2970.678865
796.366042	2970.545274
796.687812	2959.313583
797.009538	2979.773106
797.331218	2972.138279
797.652852	2952.838221
797.974442	2936.406580
798.295986	2936.101591
798.617484	2928.681012
798.938938	2913.189546
799.260346	2895.449726
799.581709	2892.044427
799.903026	2883.260216
800.224299	2877.472971
800.545526	2867.189018
800.866708	2849.429032
801.187845	2844.781089
801.508936	2846.439628
801.829983	2851.667305
802.150984	2839.195490
802.471940	2828.719972
802.792851	2824.505568
803.113717	2827.111844
803.434538	2831.895899
803.755314	2821.523725
804.076045	2820.530618
804.396731	2817.132880
804.717372	2818.405772
805.037967	2816.101964
805.358518	2817.962150
805.679024	2831.202741
805.999485	2824.893737
806.319901	2831.490087
806.640272	2823.315856
806.960598	2825.954900
807.280879	2837.226920
807.601115	2843.581294
807.921306	2832.533605
808.241453	2825.254179
808.561554	2834.116528
808.881611	2837.549553
809.201623	2830.154181
809.521590	2828.571258
809.841513	2822.824343
810.161390	2829.045127
810.481223	2826.932883
810.801011	2814.750935
811.120755	2808.988896
811.440453	2810.667601
811.760107	2811.716161
812.079716	2810.607107
812.399281	2801.074285
812.718801	2795.781073
813.038276	2788.962913
813.357707	2795.045065
813.677093	2803.020170
813.996434	2797.122020
814.315731	2794.659417
814.634983	2789.225053
814.954191	2790.021555
815.273354	2802.700057
815.592473	2813.420071
815.911547	2810.075265
816.230577	2820.172696
816.549562	2832.715087
816.868502	2829.377843
817.187399	2837.070644
817.506250	2857.023531
817.825058	2847.130266
818.143821	2860.307842
818.462539	2879.091182
818.781213	2905.080850
819.099843	2941.145265
819.418429	2998.816065
819.736970	3062.909295
820.055466	3133.926550
820.373919	3240.005030
820.692327	3381.429560
821.010691	3550.915673
821.329011	3995.127026
821.647286	4902.096138
821.965517	6286.860770
822.283704	7032.399533
822.601847	7015.095772
822.919945	6378.007352
823.237999	5866.068097
823.556010	5281.276607
823.873976	4727.417637
824.191897	4313.730470
824.509775	4018.535624
824.827609	3748.725508
825.145398	3621.602732
825.463144	3611.238119
825.780845	3703.183724
826.098502	3808.463181
826.416116	4089.956171
826.733685	4410.218154
827.051210	4472.433554
827.368692	4359.216801
827.686129	4091.995318
828.003522	3765.560442
828.320872	3505.595699
828.638177	3311.571770
828.955439	3171.026922
829.272656	3091.379211
829.589830	3018.335413
829.906960	2970.371354
830.224046	2926.616660
830.541088	2891.066443
830.858086	2878.967673
831.175041	2856.554703
831.491952	2859.566793
831.808819	2870.546426
832.125642	2894.764129
832.442421	2940.472271
832.759157	3025.019983
833.075849	3202.327446
833.392497	3482.887822
833.709101	3690.011189
834.025662	3641.285917
834.342179	3479.477481
834.658653	3300.221612
834.975083	3151.394148
835.291469	3054.246072
835.607811	2968.909420
835.924110	2908.594535
836.240366	2858.742564
836.556578	2813.904021
836.872746	2790.684467
837.188871	2769.173863
837.504952	2754.985536
837.820990	2744.613362
838.136984	2728.514437
838.452935	2723.869014
838.768842	2720.773745
839.084706	2739.809142
839.400526	2821.755618
839.716303	2949.329578
840.032037	3033.390819
840.347727	3017.450690
840.663373	2960.531022
840.978977	2882.602345
841.294537	2808.978814
841.610054	2759.933428
841.925527	2737.076837
842.240957	2718.064125
842.556344	2695.109231
842.871687	2679.108609
843.186987	2669.732062
843.502244	2666.498162
843.817458	2661.494817
844.132629	2650.726912
844.447756	2639.601086
844.762840	2633.196300
845.077881	2636.117649
845.392879	2633.677730
845.707833	2631.971300
846.022745	2624.447377
846.337613	2624.588530
846.652438	2625.170783
846.967221	2622.907305
847.281960	2622.743467
847.596656	2621.979733
847.911309	2624.144908
848.225919	2618.113168
848.540485	2614.362549
848.855009	2614.586881
849.169490	2612.711571
849.483928	2613.465224
849.798323	2612.043618
850.112675	2614.970008
850.426984	2613.760131
850.741251	2612.194853
851.055474	2610.596807
851.369654	2615.459000
851.683792	2616.779782
851.997887	2616.106788
852.311938	2609.432301
852.625947	2614.438167
852.939914	2616.560492
853.253837	2616.489916
853.567718	2610.304420
853.881555	2609.722167
854.195350	2614.024792
854.509103	2612.623351
854.822812	2609.424739
855.136479	2609.339039
855.450103	2611.947837
855.763685	2612.109153
856.077224	2610.957250
856.390720	2608.570263
856.704173	2611.582353
857.017584	2617.830863
857.330953	2618.750874
857.644278	2621.636934
857.957561	2617.152828
858.270802	2614.796088
858.584000	2611.854575
858.897155	2620.089300
859.210268	2616.845317
859.523339	2612.620831
859.836367	2610.642178
860.149352	2611.937754
860.462295	2611.015223
860.775195	2607.927516
861.088054	2609.044132
861.400869	2603.846702
861.713642	2604.829727
862.026373	2605.487598
862.339062	2609.442383
862.651708	2615.837087
862.964312	2615.874895
863.276873	2614.407920
863.589392	2617.062087
863.901869	2622.582151
864.214303	2626.463839
864.526696	2629.054992
864.839045	2630.143881
865.151353	2632.825775
865.463619	2631.610857
865.775842	2631.298306
866.088023	2629.523819
866.400162	2633.816362
866.712258	2632.329222
867.024313	2630.789149
867.336325	2628.177831
867.648296	2628.742441
867.960224	2634.602782
868.272110	2631.920888
868.583954	2628.883593
868.895755	2628.727317
869.207515	2631.986423
869.519233	2640.962197
869.830909	2633.798718
870.142542	2633.191259
870.454134	2634.875004
870.765684	2640.160654
871.077191	2640.513535
871.388657	2646.091572
871.700081	2642.971097
872.011463	2644.614513
872.322803	2643.782723
872.634101	2647.805564
872.945357	2654.137253
873.256571	2660.017759
873.567744	2656.856956
873.878874	2655.483241
874.189963	2658.404590
874.501010	2661.121772
874.812015	2665.734427
875.122979	2666.909016
875.433900	2657.015752
875.744780	2658.681853
876.055618	2665.142092
876.366415	2667.723163
876.677169	2667.183759
876.987882	2663.589417
877.298554	2660.103459
877.609183	2670.173163
877.919771	2678.458300
878.230317	2684.752180
878.540822	2695.502441
878.851285	2709.678166
879.161707	2732.310426
879.472087	2774.424225
879.782425	2820.132367
880.092722	2936.741817
880.402977	3125.432206
880.713191	3391.784090
881.023363	3689.383566
881.333494	3886.653998
881.643583	4055.635996
881.953631	4053.924524
882.263637	3876.906927
882.573602	3654.856703
882.883526	3522.468441
883.193408	3407.673807
883.503248	3301.444092
883.813048	3186.231042
884.122806	3068.562949
884.432522	2982.381903
884.742197	2916.819177
885.051831	2874.286962
885.361424	2843.465347
885.670975	2807.529482
885.980485	2776.097888
886.289954	2757.468304
886.599382	2743.141345
886.908768	2732.519634
887.218113	2712.022302
887.527417	2698.267514
887.836680	2689.553879
888.145901	2685.021882
888.455082	2679.426201
888.764221	2665.762154
889.073319	2656.715803
889.382376	2659.226298
889.691392	2658.707059
890.000366	2658.071874
890.309300	2658.379384
890.618193	2658.933911
890.927044	2663.773419
891.235855	2663.218892
891.544625	2662.503048
891.853353	2663.392812
892.162041	2669.343894
892.470687	2690.239476
892.779293	2700.548636
893.087858	2711.500543
893.396381	2732.958214
893.704864	2775.016561
894.013306	2847.591532
894.321707	2941.001592
894.630068	2992.675940
894.938387	3015.431708
895.246665	3005.982065
895.554903	2959.366516
895.863100	2914.825401
896.171256	2859.166021
896.479371	2800.187042
896.787446	2761.700353
897.095480	2738.541292
897.403473	2730.586351
897.711425	2715.125132
898.019336	2700.752803
898.327207	2683.839732
898.635038	2683.237314
898.942827	2676.983762
899.250576	2668.902793
899.558284	2657.562717
899.865952	2656.272182
900.173579	2651.057108
900.481165	2650.855462
900.788711	2638.993627
901.096216	2637.869450
901.403681	2629.735548
901.711105	2634.416259
902.018489	2629.707822
902.325832	2634.932978
902.633135	2635.283338
902.940397	2650.232879
903.247619	2688.775021
903.554800	2760.813110
903.861941	2887.572923
904.169041	3017.057480
904.476101	3082.332861
904.783121	3076.187694
905.090100	3018.416071
905.397039	2939.942950
905.703938	2861.762215
906.010796	2802.770633
906.317614	2747.020513
906.624391	2713.106150
906.931129	2684.444670
907.237826	2661.787204
907.544483	2641.975469
907.851099	2630.176649
908.157675	2619.340689
908.464211	2611.317692
908.770707	2601.285796
909.077163	2596.239601
909.383578	2592.322625
909.689954	2592.592326
909.996289	2591.458067
910.302584	2588.259455
910.608839	2586.421954
910.915054	2586.235431
911.221229	2587.473035
911.527363	2591.258941
911.833458	2591.422779
912.139513	2591.095104
912.445527	2591.662233
912.751502	2597.061309
913.057436	2605.144799
913.363331	2608.547578
913.669186	2619.640637
913.975000	2635.033801
914.280775	2651.510812
914.586510	2673.283555
914.892205	2709.171530
915.197859	2777.128804
915.503475	2860.501927
915.809050	2928.696136
916.114585	2948.999383
916.420081	2961.413224
916.725536	2969.705922
917.030952	2942.355142
917.336328	2895.926115
917.641665	2844.193794
917.946961	2793.762091
918.252218	2761.092894
918.557435	2734.417628
918.862612	2709.345449
919.167750	2694.577389
919.472848	2674.823628
919.777906	2659.818633
920.082925	2645.085861
920.387904	2634.895169
920.692843	2630.897534
920.997743	2628.056844
921.302603	2618.082921
921.607423	2610.992538
921.912204	2605.452310
922.216946	2603.161105
922.521647	2601.242946
922.826310	2595.571648
923.130932	2592.920001
923.435516	2585.955647
923.740059	2585.451532
924.044564	2582.227714
924.349028	2578.734194
924.653454	2573.393092
924.957840	2571.802608
925.262186	2567.908317
925.566493	2571.046435
925.870761	2564.447564
926.174989	2568.273800
926.479178	2564.533264
926.783328	2564.054354
927.087438	2563.565363
927.391509	2559.227450
927.695541	2559.660989
927.999533	2555.436502
928.303486	2554.607232
928.607400	2555.446584
928.911275	2554.488765
929.215110	2556.716955
929.518906	2554.614794
929.822663	2557.233673
930.126381	2552.051367
930.430060	2553.871224
930.733699	2555.416337
931.037299	2558.352809
931.340861	2559.434137
931.644383	2555.804506
931.947866	2558.075546
932.251309	2556.406924
932.554714	2555.900288
932.858080	2556.321224
933.161407	2555.381049
933.464694	2554.433312
933.767943	2553.934238
934.071153	2553.820812
934.374323	2552.610935
934.677455	2555.121430
934.980548	2552.681511
935.283602	2552.326110
935.586617	2550.964998
935.889593	2553.200750
936.192530	2552.724361
936.495428	2552.328631
936.798287	2554.345092
937.101108	2556.074208
937.403890	2556.371636
937.706632	2562.841957
938.009336	2564.477811
938.312002	2565.821279
938.614628	2568.795560
938.917216	2573.103226
939.219765	2576.599266
939.522275	2577.592373
939.824747	2575.749831
940.127179	2570.580128
940.429573	2566.408573
940.731929	2568.843451
941.034246	2563.726679
941.336524	2566.222051
941.638763	2563.749365
941.940964	2565.601989
942.243126	2565.047462
942.545250	2563.083932
942.847335	2559.827347
943.149381	2563.333469
943.451389	2558.466235
943.753359	2556.648899
944.055290	2557.810885
944.357182	2556.779969
944.659036	2555.703683
944.960851	2558.867007
945.262628	2556.480021
945.564367	2555.638148
945.866067	2558.128478
946.167729	2558.562017
946.469352	2557.074877
946.770937	2556.202757
947.072484	2554.274516
947.373992	2556.797613
947.675462	2554.632438
947.976893	2555.628066
948.278286	2556.074208
948.579641	2556.031358
948.880958	2553.001625
949.182236	2553.384752
949.483476	2553.110009
949.784678	2551.569937
950.085841	2554.060267
950.386967	2553.276367
950.688054	2552.263096
950.989103	2553.961964
951.290114	2554.042623
951.591087	2557.183262
951.892021	2556.235525
952.192917	2558.012532
952.493776	2560.016390
952.794596	2558.693087
953.095378	2560.200392
953.396122	2561.344734
953.696828	2558.337686
953.997496	2556.570762
954.298126	2553.926676
954.598718	2555.121430
954.899272	2554.420709
955.199788	2553.074721
955.500266	2549.593805
955.800706	2548.341078
956.101108	2544.696324
956.401472	2546.584236
956.701798	2542.450490
957.002087	2543.317568
957.302337	2543.683052
957.602550	2541.288504
957.902724	2544.093906
958.202861	2541.512835
958.502960	2541.825387
958.803022	2539.690458
959.103045	2543.569626
959.403031	2540.471837
959.702979	2543.065510
960.002889	2540.003009
960.302762	2541.086858
960.602596	2539.435880
960.902393	2539.640046
961.202153	2539.330015
961.501875	2539.307330
961.801559	2541.275901
962.101205	2536.201979
962.400814	2535.377751
962.700385	2538.725077
962.999918	2537.691640
963.299414	2536.494366
963.598873	2534.598893
963.898293	2538.193235
964.197677	2536.822041
964.497022	2538.835982
964.796331	2536.217103
965.095601	2538.253729
965.394835	2540.396219
965.694030	2535.060158
965.993189	2535.788605
966.292309	2535.889428
966.591393	2535.551671
966.890439	2535.841537
967.189447	2534.530837
967.488419	2537.409336
967.787353	2535.818852
968.086249	2535.324819
968.385108	2537.598379
968.683930	2538.334388
968.982714	2538.465458
969.281462	2534.964376
969.580172	2535.486136
969.878844	2536.927906
970.177480	2536.443955
970.476078	2539.025026
970.774639	2537.172402
971.073162	2536.912782
971.371649	2537.147196
971.670098	2534.707277
971.968510	2533.202493
972.266885	2532.582431
972.565223	2539.430838
972.863524	2540.010571
973.161788	2537.487474
973.460014	2536.832124
973.758204	2537.976466
974.056356	2539.060314
974.354471	2540.058462
974.652550	2537.195087
974.950591	2538.576363
975.248595	2537.076620
975.546563	2537.237937
975.844493	2534.931609
976.142386	2537.616023
976.440243	2536.733821
976.738062	2539.277083
977.035845	2537.006043
977.333590	2537.870601
977.631299	2537.792463
977.928971	2536.232226
978.226606	2532.514375
978.524204	2538.261291
978.821765	2531.901875
979.119290	2537.106867
979.416777	2537.084181
979.714228	2535.246681
980.011642	2535.007226
980.309020	2540.744059
980.606360	2536.048224
980.903664	2539.072917
981.200931	2535.881866
981.498162	2537.762217
981.795356	2541.535520
982.092513	2543.557023
982.389633	2543.771272
982.686717	2547.093392
982.983764	2550.874258
983.280775	2555.048333
983.577749	2551.383414
983.874686	2554.425751
984.171587	2545.986859
984.468451	2545.820501
984.765279	2541.011240
985.062070	2542.344625
985.358824	2541.931251
985.655543	2540.091230
985.952224	2535.944881
986.248869	2536.322967
986.545478	2529.966072
986.842050	2530.946577
987.138586	2532.549663
987.435086	2533.031094
987.731549	2529.749302
988.027975	2535.135775
988.324366	2535.012267
988.620719	2536.474202
988.917037	2535.397915
989.213318	2533.600744
989.509563	2534.276259
989.805772	2535.332380
990.101944	2532.242153
990.398080	2532.411032
990.694180	2534.165353
990.990244	2531.548994
991.286271	2530.936494
991.582262	2528.262162
991.878217	2531.997657
992.174136	2530.288706
992.470019	2532.789118
992.765865	2533.373892
993.061676	2535.239119
993.357450	2535.778523
993.653188	2536.519572
993.948890	2532.040507
994.244556	2534.649304
994.540186	2534.102339
994.835780	2535.614685
995.131337	2536.310364
995.426859	2534.606454
995.722345	2532.963038
996.017795	2534.843388
996.313208	2536.532175
996.608586	2538.248688
996.903928	2536.123842
997.199234	2536.091074
997.494504	2536.474202
997.789738	2536.963194
998.084936	2536.270035
998.380099	2535.987730
998.675225	2534.669469
998.970316	2533.351207
999.265371	2535.261804
999.560390	2536.209541
999.855373	2532.206865
1000.150320	2531.561597
1000.445232	2532.526978
1000.740108	2533.351207
1001.034948	2532.794159
1001.329752	2531.440610
1001.624521	2530.923891
1001.919254	2529.575383
1002.213951	2531.632173
1002.508613	2528.315094
1002.803239	2530.084539
1003.097829	2526.079343
1003.392384	2532.408511
1003.686903	2531.856505
1003.981386	2532.942873
1004.275834	2530.318953
1004.570246	2530.097142
1004.864623	2531.498583
1005.158964	2531.491021
1005.453270	2531.375075
1005.747540	2531.148223
1006.041775	2530.596216
1006.335974	2533.084026
1006.630138	2528.869621
1006.924266	2531.307019
1007.218359	2531.475898
1007.512416	2533.136958
1007.806438	2529.764426
1008.100425	2532.773995
1008.394376	2529.608150
1008.688292	2531.954807
1008.982172	2527.879034
1009.276017	2529.242667
1009.569827	2530.999509
1009.863602	2531.657379
1010.157341	2530.001360
1010.451045	2529.139323
1010.744714	2530.631504
1011.038347	2530.356762
1011.331945	2531.029756
1011.625508	2530.268541
1011.919036	2529.865249
1012.212528	2528.302491
1012.505986	2528.700743
1012.799408	2528.506658
1013.092795	2530.089580
1013.386147	2530.578572
1013.679464	2530.825589
1013.972745	2532.794159
1014.265992	2529.449354
1014.559204	2532.496731
1014.852380	2529.368695
1015.145521	2533.015970
1015.438628	2527.841226
1015.731699	2532.602596
1016.024736	2533.504962
1016.317737	2531.453212
1016.610703	2530.984385
1016.903635	2531.037317
1017.196531	2527.652182
1017.489393	2526.407018
1017.782219	2525.880217
1018.075011	2528.441123
1018.367768	2530.691998
1018.660490	2530.069416
1018.953177	2530.069416
1019.245829	2530.069416
