Dividing Wavelength (nm)	Counts (n)	Blue Motor Position (mm): 38.300000	Red Motor Position (mm): 0.000000	
326.493990	2131.344393
326.888308	2131.344393
327.282561	2131.344393
327.676750	2095.569845
328.070874	2095.925247
328.464933	2097.850967
328.858929	2106.229365
329.252859	2115.336209
329.646726	2127.770215
330.040528	2139.195991
330.434265	2154.034627
330.827938	2173.261588
331.221547	2190.847653
331.615091	2210.019161
332.008571	2229.704867
332.401986	2250.192116
332.795338	2269.134252
333.188625	2287.650410
333.581847	2306.519448
333.975006	2323.001501
334.368100	2345.250633
334.761129	2361.674713
335.154095	2375.666435
335.546996	2400.216854
335.939833	2423.582603
336.332606	2439.648760
336.725315	2451.926490
337.117960	2463.639611
337.510540	2469.991465
337.903056	2480.275419
338.295508	2488.011069
338.687896	2495.207316
339.080220	2505.108142
339.472480	2512.556447
339.864676	2516.125584
340.256807	2522.162366
340.648875	2523.694877
341.040879	2526.338962
341.432818	2527.773170
341.824694	2529.850126
342.216506	2529.502286
342.608253	2530.046731
342.999937	2529.671165
343.391557	2530.714683
343.783113	2528.879703
344.174605	2527.072450
344.566033	2524.682943
344.957397	2523.757891
345.348697	2523.992305
345.739934	2521.892664
346.131106	2516.876716
346.522215	2520.503826
346.913260	2514.640964
347.304241	2516.791017
347.695159	2512.581653
348.086012	2510.323216
348.476802	2507.200221
348.867528	2507.958915
349.258191	2506.111332
349.648789	2506.411281
350.039324	2500.830723
350.429796	2503.487412
350.820203	2501.019767
351.210548	2498.577328
351.600828	2498.322749
351.991045	2498.126144
352.381198	2500.823162
352.771288	2496.845691
353.161314	2498.126144
353.551276	2495.517347
353.941175	2496.107162
354.331010	2496.880979
354.720782	2495.315701
355.110490	2498.234529
355.500135	2497.062461
355.889717	2496.888541
356.279235	2496.850732
356.668689	2497.869046
357.058080	2501.327277
357.447408	2493.717655
357.836672	2496.225629
358.225873	2495.429127
358.615010	2493.616832
359.004084	2498.695795
359.393095	2501.599499
359.782043	2503.759634
360.170927	2498.473984
360.559748	2501.798625
360.948505	2500.510610
361.337199	2503.845333
361.725830	2501.682678
362.114398	2505.753410
362.502903	2504.276352
362.891344	2506.713750
363.279722	2503.457165
363.668037	2505.166116
364.056289	2506.144100
364.444478	2505.317350
364.832603	2507.275839
365.220665	2507.021260
365.608665	2507.336332
365.996601	2508.662156
366.384474	2511.109636
366.772284	2507.812722
367.160031	2508.321878
367.547715	2512.319513
367.935336	2509.637619
368.322893	2509.249450
368.710388	2509.698113
369.097820	2512.432939
369.485189	2511.328926
369.872495	2512.246416
370.259738	2514.179699
370.646918	2512.248937
371.034035	2511.475120
371.421090	2515.571057
371.808081	2512.644667
372.195010	2514.046108
372.581875	2515.177847
372.968678	2514.769514
373.355418	2514.328413
373.742096	2515.525687
374.128710	2514.761952
374.515262	2518.242869
374.901751	2516.150790
375.288177	2516.405368
375.674540	2518.063908
376.060841	2515.802950
376.447079	2518.978877
376.833254	2517.486696
377.219367	2514.764473
377.605417	2514.923269
377.991404	2513.995697
378.377329	2516.395286
378.763191	2514.726664
379.148991	2517.867303
379.534727	2519.674557
379.920402	2520.098013
380.306013	2520.060205
380.691563	2521.070956
381.077049	2520.692870
381.462474	2523.498272
381.847835	2520.385359
382.233134	2521.489372
382.618371	2523.205885
383.003545	2521.451563
383.388657	2524.725793
383.773706	2523.198323
384.158693	2526.175124
384.543618	2527.881555
384.928480	2524.511544
385.313280	2528.448685
385.698017	2524.998015
386.082692	2526.608664
386.467305	2527.233767
386.851856	2527.863911
387.236344	2526.238139
387.620770	2530.518078
388.005133	2526.210412
388.389435	2529.880372
388.773674	2529.469518
389.157851	2528.935156
389.541965	2529.136802
389.926018	2530.109745
390.310008	2529.661082
390.693936	2535.246681
391.077802	2532.418593
391.461606	2534.997144
391.845348	2533.578059
392.229027	2539.297248
392.612645	2542.238761
392.996200	2544.950902
393.379694	2551.199412
393.763125	2555.728889
394.146494	2559.595454
394.529801	2569.723132
394.913047	2576.054821
395.296230	2588.287181
395.679351	2598.429982
396.062410	2613.795419
396.445408	2624.268417
396.828343	2640.871457
397.211217	2653.895278
397.594028	2667.549243
397.976778	2684.643796
398.359466	2705.899821
398.742092	2728.620301
399.124656	2741.576067
399.507158	2774.343567
399.889598	2801.865746
400.271977	2833.466219
400.654294	2856.295084
401.036549	2885.130484
401.418742	2907.228382
401.800874	2956.692183
402.182944	2990.004128
402.564952	3039.402395
402.946898	3068.497414
403.328783	3100.077722
403.710606	3109.981069
404.092367	3209.206100
404.474067	3232.738206
404.855705	3273.198507
405.237282	3280.757717
405.618797	3364.488762
406.000250	3423.026641
406.381642	3491.175479
406.762972	3519.335364
407.144240	3559.702404
407.525447	3603.555401
407.906593	3671.517717
408.287677	3741.017584
408.668700	3738.192017
409.049661	3811.588697
409.430560	3874.318295
409.811399	3871.374261
410.192176	4011.188142
410.572891	4010.235364
410.953545	4120.714771
411.334138	4077.645673
411.714669	4163.166328
412.095139	4118.095892
412.475547	4259.331378
412.855894	4284.771561
413.236180	4323.933765
413.616405	4320.553671
413.996568	4419.256943
414.376670	4404.244387
414.756711	4388.268970
415.136691	4446.763999
415.516609	4539.453174
415.896466	4593.552317
416.276262	4649.299917
416.655997	4652.964835
417.035670	4837.009801
417.415283	4944.502324
417.794834	4913.489146
418.174324	4887.050814
418.553753	4821.409950
418.933121	5009.185369
419.312428	5092.961784
419.691674	5050.479981
420.070859	5183.654663
420.449983	5113.118838
420.829045	5234.887909
421.208047	5154.582328
421.586988	5236.571654
421.965867	5256.176702
422.344686	5392.464296
422.723444	5261.522845
423.102141	5087.499694
423.480777	5386.092278
423.859352	5161.899563
424.237866	5422.060910
424.616319	5418.476650
424.994712	5529.198032
425.373044	5412.586062
425.751314	5555.661569
426.129524	5363.109657
426.507673	5555.979162
426.885762	5641.073839
427.263789	5581.535292
427.641756	5462.196057
428.019662	5581.832720
428.397508	5592.706488
428.775292	5539.247572
429.153016	5640.610053
429.530679	5568.690432
429.908282	5650.079860
430.285824	5520.184449
430.663305	5803.875382
431.040726	5538.561976
431.418086	5532.489906
431.795385	5641.227594
432.172624	5651.728318
432.549802	5646.561135
432.926920	5662.617210
433.303977	5668.827912
433.680974	5708.136309
434.057910	5726.977621
434.434786	5732.474999
434.811601	5701.723961
435.188355	5935.807419
435.565050	5806.554755
435.941683	5787.216889
436.318257	6005.019941
436.694770	5986.481098
437.071222	6025.552561
437.447614	5958.021264
437.823946	5871.517584
438.200218	6021.035687
438.576429	5888.629781
438.952580	5989.904041
439.328670	6034.031781
439.704700	5937.183654
440.080670	5924.116983
440.456580	6195.293252
440.832429	6077.922587
441.208218	5922.876860
441.583947	6076.793369
441.959616	6083.445171
442.335224	6011.258369
442.710773	6145.290047
443.086261	6171.793913
443.461689	5966.371935
443.837057	6119.275172
444.212365	6271.215549
444.587612	6165.706720
444.962800	6319.628270
445.337927	6299.662780
445.712995	5911.035189
446.088002	6490.616647
446.462949	6320.074412
446.837837	6244.406693
447.212664	6420.413538
447.587431	6563.794036
447.962139	7103.406706
448.336786	8030.245525
448.711374	7772.405630
449.085901	6846.824578
449.460369	6767.260047
449.834776	6701.808226
450.209124	7090.985302
450.583412	7245.705876
450.957640	7391.992599
451.331808	7154.700446
451.705917	6705.339554
452.079965	6630.546475
452.453954	6843.623445
452.827883	6717.319856
453.201752	6810.893754
453.575562	6613.172138
453.949311	6819.907337
454.323001	6703.108843
454.696632	6778.577437
455.070202	6916.674805
455.443713	7074.694814
455.817164	7169.135790
456.190556	7249.862307
456.563888	7332.645615
456.937160	7375.082048
457.310373	7025.626743
457.683526	7056.738224
458.056619	6947.549352
458.429653	6934.402023
458.802628	6868.153700
459.175542	6975.494988
459.548398	7333.936150
459.921194	7492.636715
460.293930	7491.411714
460.666607	8018.108947
461.039224	8331.724169
461.411782	8456.066750
461.784280	8471.215417
462.156719	8361.792132
462.529099	8241.464830
462.901419	7832.541554
463.273680	7720.005356
463.645882	7733.147644
464.018024	7606.309693
464.390106	7772.559385
464.762130	8156.239083
465.134094	8626.432544
465.505999	9641.972986
465.877845	10867.235511
466.249631	11509.239056
466.621358	11122.312854
466.993026	10501.141877
467.364634	10241.958514
467.736184	9882.393175
468.107674	9548.842710
468.479105	9584.161034
468.850477	9353.692083
469.221790	9117.438408
469.593043	8789.811299
469.964238	8656.520671
470.335373	8667.036517
470.706449	8722.506854
471.077467	8709.359525
471.448425	10013.881591
471.819324	11080.725856
472.190164	11106.226532
472.560945	9852.305048
472.931667	9072.960308
473.302330	8940.662787
473.672934	8580.757169
474.043479	8938.111963
474.413965	8880.846976
474.784393	8764.524871
475.154761	8923.850538
475.525070	9005.623095
475.895321	8832.542639
476.265513	9012.695834
476.635645	9180.583901
477.005719	9187.034057
477.375734	9296.681674
477.745691	9533.184886
478.115588	9670.510958
478.485427	9906.321012
478.855207	10447.393095
479.224928	11255.926116
479.594591	11882.634801
479.964194	11695.247551
480.333739	11632.326389
480.703226	11547.672813
481.072653	11643.406845
481.442022	11879.378215
481.811333	12066.190774
482.180584	11871.143491
482.549777	11573.917060
482.918912	11407.190979
483.287988	11428.789802
483.657005	11435.910432
484.025964	11121.448296
484.394864	11255.691703
484.763706	11221.888246
485.132489	10977.346914
485.501213	10946.389188
485.869879	11015.664724
486.238487	10869.756088
486.607036	10976.888169
486.975527	10754.878274
487.343959	10947.528489
487.712333	10996.536066
488.080648	10928.588874
488.448905	10965.868206
488.817104	10903.680532
489.185244	11175.549959
489.553326	11332.937303
489.921350	11862.979342
490.289315	12929.039708
490.657222	13269.998148
491.025070	13171.839321
491.392861	13048.414231
491.760593	12667.305520
492.128267	12319.894403
492.495883	11986.608599
492.863440	11651.765078
493.230939	11323.107053
493.598380	11254.499470
493.965763	11121.370158
494.333088	11016.405774
494.700354	10940.095307
495.067563	11008.334886
495.434713	10834.384832
495.801805	10959.082813
496.168839	10884.312419
496.535815	10823.599283
496.902733	10821.499643
497.269593	10755.856258
497.636395	10851.560043
498.003139	10846.236584
498.369825	10710.843795
498.736453	10869.955213
499.103023	10792.530652
499.469535	10828.010293
499.835989	10812.198714
500.202385	10784.550505
500.568723	10626.563264
500.935003	10850.977790
501.301226	10655.764148
501.667390	10915.461709
502.033497	11010.706749
502.399546	10871.543177
502.765537	10778.221337
503.131470	10846.796153
503.497345	11025.154696
503.863163	10638.278906
504.228923	10949.557553
504.594625	11015.684889
504.960269	10762.046795
505.325856	10981.042079
505.691385	10768.260017
506.056856	10923.535117
506.422270	10951.548809
506.787625	10841.646614
507.152924	10958.891249
507.518164	10942.757037
507.883347	10856.770075
508.248472	10778.193610
508.613540	11013.421411
508.978550	10901.210367
509.343503	10866.600325
509.708398	10993.264357
510.073236	11101.906263
510.438016	11109.818354
510.802738	11057.251723
511.167403	11111.557553
511.532010	11009.615339
511.896561	11246.960424
512.261053	11307.063581
512.625488	11179.688747
512.989866	11156.701085
513.354186	11154.195632
513.718449	11054.277442
514.082655	11242.438509
514.446803	11138.517643
514.810894	11264.511201
515.174927	11133.617642
515.538904	11154.057000
515.902822	11299.176696
516.266684	11187.900786
516.630488	11127.996755
516.994235	11184.800477
517.357925	11249.143244
517.721558	11343.894251
518.085133	11357.777589
518.448651	11359.022754
518.812112	11244.691905
519.175516	11259.747311
519.538863	11379.492359
519.902152	11306.047788
520.265385	11458.456993
520.628560	11369.465504
520.991678	11348.779129
521.354739	11406.371791
521.717743	11347.932215
522.080690	11321.869450
522.443580	11457.307610
522.806413	11415.009808
523.169189	11446.385950
523.531908	11509.138233
523.894569	11321.365334
524.257174	11322.345839
524.619722	11452.107659
524.982213	11390.630788
525.344647	11445.493666
525.707025	11399.672098
526.069345	11496.099288
526.431608	11401.746532
526.793815	11513.690395
527.155964	11304.490072
527.518057	11359.909997
527.880093	11306.173817
528.242072	11374.922553
528.603995	11284.643049
528.965860	11203.644310
529.327669	11249.526372
529.689421	11210.848119
530.051117	11173.566265
530.412755	11281.961155
530.774337	11175.895278
531.135862	11147.997533
531.497331	11168.159628
531.858743	11018.782678
532.220098	11189.564367
532.581396	11063.366642
532.942638	11037.107272
533.303824	11007.094763
533.664953	11022.374500
534.026025	10938.111613
534.387040	11035.519308
534.747999	11033.701973
535.108902	11097.671694
535.469748	10855.882832
535.830537	10959.138266
536.191270	10934.633217
536.551947	10955.448141
536.912567	10961.124481
537.273131	10886.338963
537.633638	10865.720644
537.994089	10857.523728
538.354483	10803.021293
538.714821	10946.116966
539.075103	10952.854468
539.435328	10921.964798
539.795497	10743.087015
540.155609	10904.219936
540.515665	10988.558440
540.875665	10722.705630
541.235609	10801.554317
541.595496	10791.721547
541.955328	10952.927564
542.315102	10833.578247
542.674821	10785.543613
543.034483	10775.685636
543.394090	10781.999682
543.753640	10717.321678
544.113134	10936.574061
544.472571	10790.859509
544.831953	10928.914028
545.191278	10741.806562
545.550548	10769.371591
545.909761	10907.539536
546.268918	10876.518796
546.628019	10958.389655
546.987064	10825.467031
547.346053	10745.564742
547.704986	10841.810451
548.063863	10835.282157
548.422684	10822.903604
548.781449	10738.292878
549.140158	10841.795328
549.498811	10722.115815
549.857408	10584.096584
550.215949	10802.938114
550.574434	10660.676752
550.932864	10764.229614
551.291237	10816.927316
551.649555	10760.151321
552.007817	10776.156984
552.366022	10738.003011
552.724173	10733.871786
553.082267	10716.820083
553.440305	10850.314878
553.798288	10654.226596
554.156215	10807.747375
554.514086	10784.731987
554.871902	10637.623556
555.229661	10671.598412
555.587365	10646.395164
555.945014	10541.319873
556.302606	10669.292084
556.660143	10561.386186
557.017625	10718.304703
557.375050	10612.057344
557.732421	10744.768240
558.089735	10662.695735
558.446994	10661.816053
558.804197	10700.910201
559.161345	10698.356857
559.518437	10546.207272
559.875474	10639.425768
560.232455	10668.004070
560.589381	10611.023908
560.946251	10615.366862
561.303065	10725.720240
561.659825	10655.703654
562.016528	10588.021123
562.373177	10462.045209
562.729770	10579.700698
563.086307	10499.203554
563.442789	10589.722512
563.799216	10468.976795
564.155587	10514.110246
564.511904	10471.217588
564.868164	10465.485796
565.224370	10478.413835
565.580520	10398.927442
565.936615	10406.897506
566.292654	10277.019739
566.648638	10411.232898
567.004567	10368.458708
567.360441	10351.580925
567.716260	10256.623231
568.072023	10352.095123
568.427732	10302.044027
568.783385	10213.687723
569.138982	10283.222879
569.494525	10296.269385
569.850013	10172.476291
570.205445	10256.633313
570.560823	10146.963011
570.916145	10070.644983
571.271412	10143.124172
571.626625	10079.272918
571.981782	10064.472090
572.336884	10035.276248
572.691931	10040.927381
573.046923	9985.552827
573.401860	9941.377195
573.756743	9879.360921
574.111570	9928.028220
574.466342	9908.155992
574.821059	9938.513820
575.175722	9824.737498
575.530330	9836.382564
575.884882	9828.299073
576.239380	9756.999514
576.593823	9732.910360
576.948211	9752.142362
577.302544	9627.310790
577.656823	9647.311568
578.011047	9645.917689
578.365216	9622.859451
578.719330	9546.130569
579.073389	9554.335047
579.427394	9505.324949
579.781344	9491.547476
580.135239	9429.879041
580.489080	9439.623591
580.842866	9341.298406
581.196597	9342.168005
581.550273	9383.359273
581.903895	9355.751394
582.257463	9420.817567
582.610975	9295.953227
582.964434	9329.681067
583.317837	9250.706351
583.671186	9233.090039
584.024481	9226.365140
584.377721	9150.195826
584.730906	9121.625086
585.084037	9151.509046
585.437113	9076.915093
585.790135	9107.870298
586.143103	9006.984207
586.496016	8979.882963
586.848874	9036.535450
587.201679	9020.887709
587.554428	8905.029391
587.907124	8957.797668
588.259765	8929.345396
588.612352	8929.927649
588.964884	8807.500708
589.317362	8819.725506
589.669786	8825.517792
590.022155	8869.615285
590.374470	8884.310248
590.726731	8826.195827
591.078937	8676.488681
591.431090	8790.239797
591.783188	8665.115838
592.135232	8652.686873
592.487222	8656.059405
592.839157	8709.223413
593.191038	8641.467785
593.542866	8583.176923
593.894639	8489.282912
594.246358	8535.348976
594.598022	8552.073004
594.949633	8452.573230
595.301190	8422.338910
595.652692	8450.108106
596.004141	8565.490035
596.355535	8341.501487
596.706876	8322.627407
597.058162	8260.283458
597.409395	8333.352462
597.760573	8393.543839
598.111698	8303.624778
598.462768	8295.241339
598.813785	8255.756502
599.164748	8227.518478
599.515657	8212.503402
599.866511	8121.810523
600.217312	8251.164010
600.568060	8108.179243
600.918753	8212.536169
601.269392	8184.588012
601.619978	8096.965197
601.970510	8162.200248
602.320988	8158.336203
602.671412	8214.540028
603.021783	8148.740367
603.372100	8122.420503
603.722363	8119.000080
604.072572	8100.446113
604.422728	8108.610262
604.772830	8040.816825
605.122878	8047.831591
605.472872	8035.732821
605.822813	8066.055362
606.172701	8012.621652
606.522534	8087.661747
606.872314	8089.111079
607.222041	8060.167294
607.571714	8115.267106
607.921333	8076.697237
608.270899	8079.253102
608.620411	8167.778285
608.969870	8074.700941
609.319276	8061.488076
609.668627	8082.159328
610.017926	8120.071325
610.367171	8159.525916
610.716362	8138.801732
611.065500	8134.695712
611.414585	8160.211513
611.763616	8147.417064
612.112594	8129.236143
612.461518	8148.909246
612.810389	8205.773461
613.159207	8142.302814
613.507971	8095.626770
613.856682	8212.248823
614.205340	8166.633943
614.553945	8243.836693
614.902496	8145.761045
615.250994	8195.600413
615.599439	8176.315479
615.947830	8192.616050
616.296169	8167.795929
616.644454	8178.057197
616.992686	8174.493102
617.340864	8233.096515
617.688990	8142.416240
618.037063	8225.381029
618.385082	8171.332298
618.733048	8265.828727
619.080961	8200.697019
619.428821	8222.520174
619.776628	8224.713076
620.124382	8172.834562
620.472083	8158.552973
620.819731	8183.466355
621.167326	8078.814522
621.514868	8085.902384
621.862357	7977.734346
622.209793	7991.221953
622.557176	7927.355575
622.904506	7902.220382
623.251783	7829.955442
623.599007	7786.503216
623.946179	7790.158053
624.293297	7747.766990
624.640363	7664.847571
624.987376	7645.229921
625.334336	7594.709998
625.681243	7544.779889
626.028097	7531.362858
626.374899	7509.590115
626.721647	7503.507963
627.068343	7436.901718
627.414987	7404.930720
627.761577	7359.388936
628.108115	7399.037611
628.454600	7289.780684
628.801032	7347.600198
629.147412	7299.749566
629.493739	7292.374357
629.840014	7227.963535
630.186236	7283.799355
630.532405	7169.581932
630.878521	7221.215950
631.224585	7174.814650
631.570597	7101.657425
631.916556	7133.804863
632.262462	7126.273379
632.608316	7083.728562
632.954117	7066.656694
633.299866	7058.197638
633.645562	7045.020062
633.991206	6965.604245
634.336797	6913.393014
634.682336	6869.751745
635.027823	6841.551531
635.373257	6828.835220
635.718639	6756.406442
636.063968	6767.658298
636.409245	6668.748339
636.754470	6665.118708
637.099642	6621.951308
637.444762	6563.521814
637.789829	6575.731488
638.134845	6515.983733
638.479808	6504.164748
638.824719	6503.033009
639.169577	6434.317041
639.514383	6457.377799
639.859137	6385.049844
640.203839	6388.566049
640.548489	6381.571448
640.893086	6354.510534
641.237632	6325.944836
641.582125	6348.015007
641.926566	6317.480739
642.270955	6330.340722
642.615292	6330.197049
642.959576	6339.394634
643.303809	6325.796122
643.647990	6343.369584
643.992118	6331.492626
644.336195	6271.071876
644.680219	6303.355426
645.024192	6289.477129
645.368112	6386.736110
645.711981	6406.815026
646.055797	6483.264124
646.399562	6446.017559
646.743274	6566.259160
647.086935	6617.179855
647.430544	6612.713393
647.774101	6635.325489
648.117606	6640.613659
648.461059	6633.175437
648.804460	6598.759479
649.147810	6502.037381
649.491108	6475.868751
649.834354	6447.560152
650.177548	6363.536720
650.520690	6280.622342
650.863781	6259.446976
651.206820	6281.469256
651.549807	6197.460948
651.892742	6143.137474
652.235626	6150.926057
652.578458	6131.779754
652.921238	6039.750970
653.263967	6084.864256
653.606644	6018.835223
653.949269	6026.560791
654.291843	5966.061904
654.634365	6012.430437
654.976836	5968.337985
655.319255	5965.431760
655.661622	5945.665396
656.003938	5942.491989
656.346203	5903.460856
656.688416	5930.453714
657.030577	5889.653135
657.372687	5855.839596
657.714746	5845.152350
658.056753	5881.793976
658.398708	5828.352704
658.740612	5816.127906
659.082465	5863.096337
659.424266	5856.091653
659.766016	5857.808166
660.107715	5828.874464
660.449362	5848.834913
660.790958	5840.355692
661.132503	5830.001162
661.473996	5864.099526
661.815438	5854.148289
662.156829	5849.258369
662.498168	5841.494993
662.839456	5820.153268
663.180693	5851.640315
663.521879	5850.122927
663.863013	5840.801834
664.204097	5856.265573
664.545129	5902.074538
664.886110	5902.951699
665.227040	5933.448159
665.567918	5898.785185
665.908746	5924.265698
666.249522	5930.042860
666.590248	5914.271610
666.930922	5943.366629
667.271545	5957.000430
667.612118	5963.611903
667.952639	5930.662922
668.293109	5948.556497
668.633528	5910.538636
668.973896	5915.804121
669.314213	5906.427575
669.654480	5886.177260
669.994695	5879.966558
670.334859	5868.807964
670.674973	5861.200863
671.015035	5869.639754
671.355047	5866.713365
671.695008	5854.884297
672.034918	5823.669472
672.374777	5833.277912
672.714585	5821.542106
673.054342	5829.492005
673.394049	5815.767464
673.733705	5854.087795
674.073310	5837.494837
674.412864	5796.298528
674.752368	5787.499194
675.091820	5792.202590
675.431223	5729.175564
675.770574	5728.338733
676.109875	5680.019273
676.449125	5684.342063
676.788324	5651.345190
677.127473	5595.521973
677.466571	5585.648873
677.805619	5576.027831
678.144616	5565.683383
678.483562	5540.452408
678.822458	5513.078943
679.161303	5503.931769
679.500098	5496.324668
679.838842	5477.604343
680.177535	5484.241022
680.516179	5498.578064
680.854771	5510.573489
681.193314	5593.613896
681.531805	5703.810999
681.870247	5853.218196
682.208638	5952.523885
682.546978	5968.330423
682.885268	5938.126350
683.223508	5854.859091
683.561697	5802.032840
683.899836	5772.985712
684.237925	5726.544082
684.575963	5694.726839
684.913951	5648.837216
685.251889	5715.607299
685.589776	5682.267628
685.927614	5651.403163
686.265401	5721.059307
686.603137	5711.115631
686.940824	5785.094563
687.278460	5801.727850
687.616046	5816.679913
687.953582	5884.881683
688.291068	5871.643613
688.628504	5931.955978
688.965889	5892.592128
689.303224	5834.966698
689.640510	5786.775788
689.977745	5711.355085
690.314930	5616.117607
690.652065	5557.557043
690.989150	5463.920131
691.326185	5392.398761
691.663170	5333.961706
692.000105	5263.690542
692.336990	5186.863357
692.673825	5160.233462
693.010610	5093.236527
693.347345	5023.822359
693.684030	5005.318804
694.020665	4962.796671
694.357251	4875.138568
694.693786	4890.579622
695.030272	4850.807439
695.366707	4816.507428
695.703093	4778.882776
696.039429	4804.315397
696.375716	4793.509684
696.711952	4762.259571
697.048139	4753.576184
697.384276	4732.239500
697.720363	4744.343311
698.056400	4752.020988
698.392388	4699.993760
698.728326	4681.001212
699.064214	4663.142925
699.400053	4654.406605
699.735842	4618.627016
700.071581	4593.852265
700.407270	4573.256631
700.742910	4552.076223
701.078501	4501.089993
701.414042	4494.541535
701.749533	4467.914160
702.084974	4396.569230
702.420366	4458.618272
702.755709	4398.389087
703.091002	4341.144264
703.426246	4391.447418
703.761440	4347.193649
704.096584	4312.044204
704.431679	4334.096731
704.766725	4317.460923
705.101721	4304.898368
705.436668	4332.556659
705.771565	4283.259215
706.106413	4308.386847
706.441212	4344.317671
706.775961	4348.847147
707.110661	4328.727902
707.445311	4359.015155
707.779913	4380.825707
708.114465	4392.455649
708.448967	4415.017333
708.783421	4479.440758
709.117825	4519.666645
709.452180	4526.676370
709.786485	4569.140529
710.120742	4654.686389
710.454949	4639.895644
710.789107	4705.859142
711.123216	4780.478301
711.457275	4769.196199
711.791286	4846.991285
712.125247	4863.478379
712.459159	4763.328296
712.793023	4840.029452
713.126837	4796.801557
713.460602	4789.378458
713.794318	4711.356520
714.127985	4716.652252
714.461602	4634.433554
714.795171	4606.714769
715.128691	4539.289337
715.462162	4481.653825
715.795584	4431.295218
716.128957	4419.720729
716.462281	4364.547821
716.795556	4335.873738
717.128782	4301.094818
717.461960	4232.943459
717.795088	4241.878904
718.128167	4199.591185
718.461198	4140.834016
718.794180	4138.182369
719.127113	4115.199749
719.459997	4096.439095
719.792833	4052.659194
720.125619	4043.635529
720.458357	4005.768902
720.791046	4011.697299
721.123686	3986.063031
721.456278	3945.973255
721.788821	3961.323569
722.121315	3935.036472
722.453761	3908.179725
722.786158	3921.269081
723.118506	3943.051907
723.450805	3893.825039
723.783056	3923.106582
724.115259	3935.268365
724.447412	3939.361782
724.779518	3933.062860
725.111574	3935.434723
725.443582	3966.354640
725.775542	3955.196046
726.107453	4002.671113
726.439315	4001.378057
726.771129	4017.212321
727.102895	4051.771951
727.434612	4102.128037
727.766281	4111.741517
728.097901	4112.752269
728.429473	4119.688896
728.760996	4124.553610
729.092471	4121.206284
729.423897	4103.070733
729.755276	4109.528451
730.086606	4109.727576
730.417887	4149.827435
730.749120	4214.482753
731.080305	4278.767547
731.411442	4306.682937
731.742530	4273.890231
732.073570	4275.730252
732.404562	4330.885516
732.735506	4324.707582
733.066401	4286.137714
733.397249	4223.798806
733.728048	4145.232423
734.058798	4061.027510
734.389501	3990.098475
734.720156	3928.609001
735.050762	3882.936147
735.381320	3880.914644
735.711831	3825.446829
736.042293	3799.061429
736.372707	3822.863237
736.703073	3788.792599
737.033391	3780.615848
737.363661	3801.004794
737.693883	3823.921880
738.024056	3832.887572
738.354182	3831.962520
738.684260	3893.615832
739.014290	3912.401691
739.344272	3911.776588
739.674207	3951.246302
740.004093	3952.917445
740.333931	3951.440387
740.663722	3952.655305
740.993464	3951.684883
741.323159	3928.805606
741.652806	3897.379053
741.982405	3866.852346
742.311956	3836.275227
742.641460	3827.433043
742.970915	3801.191317
743.300323	3762.404679
743.629683	3728.313876
743.958996	3716.999007
744.288260	3692.730892
744.617477	3659.605470
744.946647	3644.015702
745.275768	3621.045684
745.604842	3619.034264
745.933869	3572.096080
746.262847	3560.677867
746.591778	3603.625977
746.920662	3573.094229
747.249498	3540.412428
747.578286	3586.906990
747.907027	3609.579580
748.235720	3601.932149
748.564365	3626.661530
748.892963	3624.725727
749.221514	3609.138479
749.550017	3586.049994
749.878473	3584.522525
750.206881	3554.961198
750.535242	3552.387689
750.863555	3553.479099
751.191821	3545.231772
751.520039	3529.392466
751.848210	3506.528313
752.176334	3539.562994
752.504411	3546.577760
752.832440	3505.749455
753.160421	3485.884788
753.488356	3498.686798
753.816243	3508.590145
754.144082	3467.880307
754.471875	3451.859520
754.799620	3471.981286
755.127318	3463.497024
755.454969	3463.738999
755.782572	3471.434320
756.110129	3446.856175
756.437638	3436.854526
756.765100	3448.320630
757.092515	3460.923515
757.419882	3465.294195
757.747203	3437.207406
758.074477	3442.982048
758.401703	3456.144501
758.728882	3477.965135
759.056014	3487.019048
759.383099	3491.702279
759.710138	3483.759942
760.037129	3501.940863
760.364073	3533.324566
760.690970	3516.018285
761.017820	3496.264524
761.344623	3513.006196
761.671379	3558.994122
761.998088	3611.633850
762.324751	3736.415011
762.651366	3985.246364
762.977935	4456.236327
763.304456	4900.036827
763.630931	4992.617617
763.957359	4633.485817
764.283740	4293.391934
764.610074	4102.337245
764.936362	3902.405083
765.262602	3746.671238
765.588796	3632.847025
765.914943	3544.384858
766.241044	3457.442598
766.567097	3425.360695
766.893104	3378.619116
767.219064	3351.379242
767.544978	3321.402020
767.870845	3268.270779
768.196665	3246.860999
768.522438	3256.240066
768.848165	3250.566247
769.173846	3215.068962
769.499479	3198.662527
769.825066	3181.106709
770.150607	3165.247239
770.476101	3177.880370
770.801548	3176.453724
771.126949	3129.560911
771.452303	3113.126749
771.777611	3121.132101
772.102872	3124.555045
772.428087	3101.285079
772.753256	3088.697317
773.078378	3080.591142
773.403453	3048.836914
773.728482	3039.707384
774.053465	3058.263872
774.378401	3043.412632
774.703291	3013.798374
775.028135	3015.146883
775.352932	3011.590349
775.677683	3000.640963
776.002388	2995.761126
776.327046	2998.490911
776.651658	2984.980618
776.976224	2976.324957
777.300743	2974.789926
777.625216	2963.061681
777.949643	2962.822227
778.274024	2962.822227
778.598359	2953.717903
778.922647	2958.885085
779.246889	2955.784776
779.571086	2942.077878
779.895236	2935.549584
780.219339	2947.633230
780.543397	2958.723768
780.867409	2962.519757
781.191374	2955.038685
781.515294	2951.030968
781.839167	2950.020216
782.162995	2941.588887
782.486776	2952.762604
782.810511	2949.155658
783.134201	2936.711570
783.457844	2942.927313
783.781441	2936.852723
784.104993	2913.108888
784.428498	2917.545103
784.751958	2927.640014
785.075372	2924.491813
785.398739	2905.756365
785.722061	2921.361257
786.045337	2934.087650
786.368568	2918.565937
786.691752	2908.937333
787.014891	2957.760908
787.337983	2988.673263
787.661030	3014.020185
787.984031	3082.095927
788.306987	3128.005715
788.629897	3120.055815
788.952760	3109.073661
789.275579	3091.164962
789.598351	3027.971578
789.921078	2986.009014
790.243759	2980.730926
790.566395	2960.528502
790.888984	2937.850871
791.211529	2921.267995
791.534027	2910.399268
791.856480	2900.606826
792.178888	2886.927655
792.501249	2879.096223
792.823566	2877.301572
793.145836	2870.128010
793.468062	2864.933101
793.790241	2866.563914
794.112375	2870.251518
794.434464	2885.601832
794.756507	2889.720455
795.078505	2895.134654
795.400457	2905.595048
795.722364	2944.401850
796.044226	2969.781539
796.366042	2974.653815
796.687812	2958.907771
797.009538	2981.015751
797.331218	2969.196766
797.652852	2952.414764
797.974442	2935.872218
798.295986	2932.965993
798.617484	2927.680343
798.938938	2910.858013
799.260346	2897.393091
799.581709	2890.585013
799.903026	2884.281050
800.224299	2875.370810
800.545526	2871.625233
800.866708	2854.482789
801.187845	2840.627178
801.508936	2846.628672
801.829983	2852.615042
802.150984	2839.520645
802.471940	2825.717965
802.792851	2825.723007
803.113717	2825.922132
803.434538	2830.587720
803.755314	2826.093531
804.076045	2817.261430
804.396731	2817.039619
804.717372	2817.747901
805.037967	2812.817653
805.358518	2820.349137
805.679024	2830.489417
805.999485	2827.789880
806.319901	2830.887669
806.640272	2823.532625
806.960598	2829.947493
807.280879	2837.521827
807.601115	2845.927951
807.921306	2832.523523
808.241453	2826.660661
808.561554	2832.979747
808.881611	2833.766167
809.201623	2829.425734
809.521590	2829.019921
809.841513	2826.743840
810.161390	2830.025631
810.481223	2824.432471
810.801011	2815.275215
811.120755	2810.861685
811.440453	2812.265646
811.760107	2810.370172
812.079716	2812.195070
812.399281	2802.143009
812.718801	2794.631690
813.038276	2791.241514
813.357707	2795.438275
813.677093	2802.528658
813.996434	2798.057154
814.315731	2794.246042
814.634983	2787.589198
814.954191	2789.461987
815.273354	2805.933957
815.592473	2813.944351
815.911547	2814.806388
816.230577	2821.808551
816.549562	2832.163081
816.868502	2828.747699
817.187399	2839.404698
817.506250	2859.070239
817.825058	2849.648323
818.143821	2859.869262
818.462539	2879.575132
818.781213	2904.294430
819.099843	2943.396140
819.418429	2998.241373
819.736970	3059.405693
820.055466	3131.532002
820.373919	3239.697519
820.692327	3377.298334
821.010691	3549.839386
821.329011	3991.714165
821.647286	4892.966608
821.965517	6278.817609
822.283704	7026.569439
822.601847	7010.183168
822.919945	6372.439398
823.237999	5862.493919
823.556010	5278.098159
823.873976	4727.647009
824.191897	4310.103359
824.509775	4017.182074
824.827609	3743.933892
825.145398	3621.708596
825.463144	3612.029581
825.780845	3702.843447
826.098502	3804.931853
826.416116	4090.223352
826.733685	4405.973503
827.051210	4473.267865
827.368692	4361.591184
827.686129	4090.566151
828.003522	3764.837036
828.320872	3505.283148
828.638177	3309.290648
828.955439	3174.318795
829.272656	3088.992225
829.589830	3019.295753
829.906960	2969.947898
830.224046	2926.120106
830.541088	2892.810682
830.858086	2875.867364
831.175041	2856.032944
831.491952	2857.454549
831.808819	2870.128010
832.125642	2891.807492
832.442421	2940.499997
832.759157	3021.975126
833.075849	3200.061447
833.392497	3481.446052
833.709101	3686.101775
834.025662	3639.108138
834.342179	3476.992192
834.658653	3300.637508
834.975083	3149.816267
835.291469	3054.336813
835.607811	2967.341621
835.924110	2908.249216
836.240366	2859.682739
836.556578	2817.276553
836.872746	2791.062553
837.188871	2771.457506
837.504952	2751.630648
837.820990	2743.126221
838.136984	2729.537791
838.452935	2724.312635
838.768842	2722.104610
839.084706	2738.816035
839.400526	2819.545072
839.716303	2954.027934
840.032037	3033.763864
840.347727	3019.862882
840.663373	2959.379118
840.978977	2880.119577
841.294537	2809.820687
841.610054	2759.908222
841.925527	2739.052969
842.240957	2717.761656
842.556344	2694.068233
842.871687	2680.315965
843.186987	2668.040755
843.502244	2666.094870
843.817458	2662.969355
844.132629	2651.979639
844.447756	2641.398257
844.762840	2634.774181
845.077881	2636.878863
845.392879	2635.938688
845.707833	2629.667492
846.022745	2619.491923
846.337613	2626.607512
846.652438	2623.502161
846.967221	2627.444343
847.281960	2624.084414
847.596656	2624.860752
847.911309	2622.050309
848.225919	2617.006634
848.540485	2613.850872
848.855009	2618.027468
849.169490	2613.528238
849.483928	2615.050667
849.798323	2614.924638
850.112675	2615.280039
850.426984	2610.894235
850.741251	2612.431787
851.055474	2611.574791
851.369654	2615.567385
851.683792	2614.791047
851.997887	2614.012189
852.311938	2609.775099
852.625947	2613.520677
852.939914	2613.384565
853.253837	2614.715430
853.567718	2612.194853
853.881555	2610.790892
854.195350	2615.700976
854.509103	2614.077724
854.822812	2611.544544
855.136479	2610.324585
855.450103	2613.283742
855.763685	2613.465224
856.077224	2613.596294
856.390720	2605.001127
856.704173	2612.590584
857.017584	2618.014865
857.330953	2619.118878
857.644278	2618.196347
857.957561	2620.699280
858.270802	2614.796088
858.584000	2615.365739
858.897155	2618.428240
859.210268	2620.094341
859.523339	2614.246603
859.836367	2610.664863
860.149352	2606.967177
860.462295	2612.265429
860.775195	2607.675459
861.088054	2609.344081
861.400869	2607.362907
861.713642	2605.220417
862.026373	2608.950871
862.339062	2611.123608
862.651708	2614.418002
862.964312	2614.453290
863.276873	2615.285080
863.589392	2617.127622
863.901869	2619.895216
864.214303	2626.438633
864.526696	2628.734879
864.839045	2629.917029
865.151353	2632.523306
865.463619	2634.499438
865.775842	2633.718059
866.088023	2632.228398
866.400162	2633.574387
866.712258	2634.527165
867.024313	2630.448871
867.336325	2625.765639
867.648296	2630.660600
867.960224	2636.707464
868.272110	2631.837709
868.583954	2627.560290
868.895755	2626.854528
869.207515	2632.248563
869.519233	2639.046559
869.830909	2637.307361
870.142542	2632.669499
870.454134	2631.318470
870.765684	2638.658390
871.077191	2642.146869
871.388657	2646.129380
871.700081	2640.132928
872.011463	2643.364307
872.322803	2645.675676
872.634101	2647.997128
872.945357	2653.625576
873.256571	2660.143788
873.567744	2656.332676
873.878874	2654.656492
874.189963	2657.787048
874.501010	2659.823675
874.812015	2667.831547
875.122979	2663.455826
875.433900	2657.136740
875.744780	2656.564569
876.055618	2664.413645
876.366415	2667.836589
876.677169	2666.586382
876.987882	2661.187307
877.298554	2661.714107
877.609183	2671.357835
877.919771	2676.736746
878.230317	2683.325534
878.540822	2693.843901
878.851285	2710.056252
879.161707	2733.081722
879.472087	2771.959101
879.782425	2820.003817
880.092722	2935.710901
880.402977	3125.376753
880.713191	3390.869120
881.023363	3684.334850
881.333494	3877.113614
881.643583	4050.428484
881.953631	4049.576529
882.263637	3871.964076
882.573602	3646.982421
882.883526	3515.998120
883.193408	3401.838671
883.503248	3298.401756
883.813048	3182.435053
884.122806	3067.534554
884.432522	2983.085144
884.742197	2916.093251
885.051831	2876.452138
885.361424	2840.818742
885.670975	2805.949081
885.980485	2775.881118
886.289954	2758.915115
886.599382	2742.604462
886.908768	2731.881928
887.218113	2712.924669
887.527417	2700.581403
887.836680	2692.417255
888.145901	2685.846111
888.455082	2676.525017
888.764221	2666.104952
889.073319	2658.444919
889.382376	2660.068171
889.691392	2660.118582
890.000366	2659.059940
890.309300	2655.604229
890.618193	2659.309477
890.927044	2664.985816
891.235855	2660.355516
891.544625	2662.180414
891.853353	2662.745023
892.162041	2667.602175
892.470687	2688.729651
892.779293	2699.527802
893.087858	2711.535831
893.396381	2733.845457
893.704864	2774.958587
894.013306	2844.571881
894.321707	2936.593103
894.630068	2992.063439
894.938387	3012.490195
895.246665	3004.689009
895.554903	2959.890796
895.863100	2916.068045
896.171256	2860.953110
896.479371	2798.140333
896.787446	2756.704569
897.095480	2737.086919
897.403473	2730.256156
897.711425	2715.505739
898.019336	2697.609643
898.327207	2685.636903
898.635038	2685.969619
898.942827	2678.100378
899.250576	2669.883297
899.558284	2657.522388
899.865952	2657.655978
900.173579	2650.908394
900.481165	2649.479227
900.788711	2641.403298
901.096216	2636.974645
901.403681	2629.831330
901.711105	2633.612195
902.018489	2628.114817
902.325832	2635.883235
902.633135	2635.762247
902.940397	2651.412509
903.247619	2688.512881
903.554800	2759.963675
903.861941	2886.378170
904.169041	3016.273581
904.476101	3078.247006
904.783121	3072.462282
905.090100	3014.665453
905.397039	2938.528906
905.703938	2864.832278
906.010796	2797.966413
906.317614	2749.657036
906.624391	2711.835779
906.931129	2685.382325
907.237826	2660.380722
907.544483	2641.887249
907.851099	2627.363685
908.157675	2614.455811
908.464211	2614.264247
908.770707	2600.864860
909.077163	2596.957966
909.383578	2591.079980
909.689954	2593.489652
909.996289	2588.395566
910.302584	2591.463108
910.608839	2588.735844
910.915054	2586.933631
911.221229	2589.146698
911.527363	2591.934456
911.833458	2586.973960
912.139513	2590.570824
912.445527	2592.730958
912.751502	2596.592482
913.057436	2602.288986
913.363331	2609.500356
913.669186	2621.712552
913.975000	2633.748306
914.280775	2654.321255
914.586510	2671.861950
914.892205	2705.672969
915.197859	2774.386416
915.503475	2859.632328
915.809050	2927.382915
916.114585	2945.354628
916.420081	2958.890127
916.725536	2965.057978
917.030952	2940.701643
917.336328	2891.484858
917.641665	2840.044925
917.946961	2792.897533
918.252218	2757.876637
918.557435	2731.771022
918.862612	2708.412836
919.167750	2689.067408
919.472848	2676.766993
919.777906	2659.775784
920.082925	2641.173926
920.387904	2633.327370
920.692843	2633.355096
920.997743	2626.173973
921.302603	2617.402365
921.607423	2613.084617
921.912204	2606.084975
922.216946	2604.751589
922.521647	2603.549274
922.826310	2599.755806
923.130932	2592.557038
923.435516	2583.760225
923.740059	2583.440112
924.044564	2583.828280
924.349028	2580.130594
924.653454	2573.556929
924.957840	2572.286559
925.262186	2568.523337
925.566493	2566.607699
925.870761	2565.344890
926.174989	2568.634243
926.479178	2560.523026
926.783328	2561.997564
927.087438	2563.613253
927.391509	2563.078891
927.695541	2560.586041
927.999533	2558.047820
928.303486	2555.799465
928.607400	2557.140412
928.911275	2557.878941
929.215110	2557.762994
929.518906	2554.455997
929.822663	2559.005639
930.126381	2556.059084
930.430060	2555.595298
930.733699	2555.549928
931.037299	2554.720658
931.340861	2554.329969
931.644383	2561.059909
931.947866	2558.796431
932.251309	2556.704352
932.554714	2553.329300
932.858080	2558.002449
933.161407	2553.359547
933.464694	2555.673436
933.767943	2554.942469
934.071153	2555.098745
934.374323	2551.227138
934.677455	2553.294012
934.980548	2551.958106
935.283602	2554.219063
935.586617	2549.636654
935.889593	2552.953734
936.192530	2550.901984
936.495428	2554.476162
936.798287	2555.164280
937.101108	2555.844835
937.403890	2556.981616
937.706632	2565.112997
938.009336	2563.416648
938.312002	2569.380333
938.614628	2572.125242
938.917216	2577.133628
939.219765	2574.050962
939.522275	2574.489543
939.824747	2576.682445
940.127179	2569.098029
940.429573	2569.481157
940.731929	2567.908317
941.034246	2564.954200
941.336524	2568.372103
941.638763	2569.576938
941.940964	2566.832030
942.243126	2564.286248
942.545250	2563.151988
942.847335	2564.268603
943.149381	2562.998233
943.451389	2561.069991
943.753359	2559.013201
944.055290	2558.703170
944.357182	2555.176882
944.659036	2554.922304
944.960851	2558.100752
945.262628	2554.519012
945.564367	2556.515309
945.866067	2556.739640
946.167729	2560.880948
946.469352	2556.275854
946.770937	2556.482541
947.072484	2554.476162
947.373992	2554.960113
947.675462	2553.732592
947.976893	2557.301729
948.278286	2555.249979
948.579641	2555.338199
948.880958	2555.020607
949.182236	2553.427602
949.483476	2554.607232
949.784678	2553.735113
950.085841	2551.811912
950.386967	2554.254351
950.688054	2552.668908
950.989103	2553.102448
951.290114	2555.549928
951.591087	2557.072356
951.892021	2561.443037
952.192917	2559.897923
952.493776	2559.671071
952.794596	2562.620146
953.095378	2564.165260
953.396122	2563.199879
953.696828	2560.187789
953.997496	2558.814075
954.298126	2556.185113
954.598718	2556.104455
954.899272	2554.239228
955.199788	2555.398693
955.500266	2549.107333
955.800706	2546.314534
956.101108	2543.862013
956.401472	2545.081972
956.701798	2541.797660
957.002087	2541.558205
957.302337	2545.104657
957.602550	2543.650284
957.902724	2542.400078
958.202861	2540.829759
958.502960	2541.858154
958.803022	2545.180274
959.103045	2540.023174
959.403031	2543.103319
959.702979	2538.147865
960.002889	2539.945036
960.302762	2542.100129
960.602596	2540.416384
960.902393	2541.475026
961.202153	2537.308513
961.501875	2537.023687
961.801559	2539.143493
962.101205	2538.765406
962.400814	2537.671476
962.700385	2536.166691
962.999918	2540.028215
963.299414	2538.281455
963.598873	2538.795653
963.898293	2539.191384
964.197677	2538.344470
964.497022	2537.953780
964.796331	2536.365817
965.095601	2538.823379
965.394835	2536.882535
965.694030	2536.713657
965.993189	2537.253060
966.292309	2535.982689
966.591393	2534.735004
966.890439	2537.767258
967.189447	2538.125180
967.488419	2537.618544
967.787353	2536.857329
968.086249	2535.811290
968.385108	2538.057124
968.683930	2536.643080
968.982714	2534.669469
969.281462	2537.563091
969.580172	2536.181815
969.878844	2538.044521
970.177480	2537.880684
970.476078	2535.655014
970.774639	2540.461754
971.073162	2536.572504
971.371649	2534.130065
971.670098	2535.871784
971.968510	2536.257432
972.266885	2534.853471
972.565223	2537.991589
972.863524	2537.860519
973.161788	2539.831610
973.460014	2539.188863
973.758204	2540.670962
974.056356	2536.960673
974.354471	2536.701054
974.652550	2537.212731
974.950591	2537.857998
975.248595	2537.689120
975.546563	2536.433872
975.844493	2541.114584
976.142386	2537.608461
976.440243	2537.900848
976.738062	2536.290200
977.035845	2537.295910
977.333590	2536.801877
977.631299	2535.586959
977.928971	2536.393543
978.226606	2539.493853
978.524204	2537.673996
978.821765	2537.608461
979.119290	2536.459078
979.416777	2537.797505
979.714228	2537.089223
980.011642	2534.951773
980.309020	2541.061652
980.606360	2535.561753
980.903664	2538.999820
981.200931	2536.708615
981.498162	2539.153575
981.795356	2540.555016
982.092513	2544.217414
982.389633	2544.451828
982.686717	2548.605738
982.983764	2553.369629
983.280775	2552.008517
983.577749	2550.899463
983.874686	2550.460883
984.171587	2545.336550
984.468451	2546.080120
984.765279	2545.792775
985.062070	2541.064172
985.358824	2540.877650
985.655543	2540.796991
985.952224	2537.457227
986.248869	2537.656352
986.545478	2532.166536
986.842050	2535.158461
987.138586	2531.470857
987.435086	2532.257277
987.731549	2531.760723
988.027975	2534.931609
988.324366	2535.556712
988.620719	2532.290044
988.917037	2534.046886
989.213318	2533.855322
989.509563	2531.589324
989.805772	2530.936494
990.101944	2534.581248
990.398080	2534.016639
990.694180	2533.852802
990.990244	2532.458923
991.286271	2531.969931
991.582262	2534.921526
991.878217	2532.055630
992.174136	2533.739376
992.470019	2531.801052
992.765865	2534.021680
993.061676	2533.351207
993.357450	2536.103677
993.653188	2533.164684
993.948890	2535.327339
994.244556	2532.998326
994.540186	2535.541588
994.835780	2536.080992
995.131337	2535.171063
995.426859	2533.363810
995.722345	2534.971938
996.017795	2536.093595
996.313208	2538.478060
996.608586	2537.152237
996.903928	2536.020498
997.199234	2536.106197
997.494504	2537.273225
997.789738	2536.965714
998.084936	2536.537216
998.380099	2534.011598
998.675225	2536.552340
998.970316	2535.438245
999.265371	2536.103677
999.560390	2535.831455
999.855373	2534.644263
1000.150320	2533.784746
1000.445232	2532.756351
1000.740108	2532.942873
1001.034948	2534.185518
1001.329752	2531.543953
1001.624521	2534.268697
1001.919254	2525.023221
1002.213951	2531.117976
1002.508613	2530.139992
1002.803239	2531.342307
1003.097829	2525.363499
1003.392384	2533.000847
1003.686903	2529.320804
1003.981386	2530.346679
1004.275834	2531.312060
1004.570246	2533.126876
1004.864623	2531.123017
1005.158964	2530.089580
1005.453270	2533.194931
1005.747540	2532.186700
1006.041775	2530.210568
1006.335974	2532.189221
1006.630138	2531.319622
1006.924266	2531.178470
1007.218359	2532.663089
1007.512416	2533.222658
1007.806438	2530.898686
1008.100425	2532.852133
1008.394376	2529.708973
1008.688292	2534.861032
1008.982172	2531.617050
1009.276017	2529.703932
1009.569827	2533.696526
1009.863602	2531.932122
1010.157341	2531.974972
1010.451045	2528.720907
1010.744714	2527.911802
1011.038347	2530.422297
1011.331945	2530.780218
1011.625508	2532.456402
1011.919036	2530.197965
1012.212528	2529.308202
1012.505986	2530.366844
1012.799408	2531.871628
1013.092795	2532.499252
1013.386147	2532.564787
1013.679464	2529.797193
1013.972745	2531.866587
1014.265992	2530.681916
1014.559204	2529.315763
1014.852380	2531.722914
1015.145521	2533.073943
1015.438628	2533.633512
1015.731699	2531.692667
1016.024736	2528.249559
1016.317737	2529.098994
1016.610703	2530.742410
1016.903635	2528.184024
1017.196531	2528.730989
1017.489393	2530.064375
1017.782219	2526.417100
1018.075011	2528.776360
1018.367768	2529.900537
1018.660490	2529.020856
1018.953177	2529.020856
1019.245829	2529.020856
