Dividing Wavelength (nm)	Counts (n)	Blue Motor Position (mm): 16.600000	Red Motor Position (mm): 0.000000	
326.493990	2132.960083
326.888308	2132.960083
327.282561	2132.960083
327.676750	2102.834148
328.070874	2100.452203
328.464933	2103.305496
328.858929	2110.307658
329.252859	2120.679833
329.646726	2134.628705
330.040528	2143.604480
330.434265	2161.576193
330.827938	2178.075890
331.221547	2194.933508
331.615091	2213.941179
332.008571	2234.632595
332.401986	2255.813003
332.795338	2273.492329
333.188625	2293.102418
333.581847	2312.863741
333.975006	2331.606751
334.368100	2346.924297
334.761129	2365.619416
335.154095	2382.446787
335.546996	2403.470919
335.939833	2419.257293
336.332606	2436.616506
336.725315	2448.470779
337.117960	2461.292954
337.510540	2466.114818
337.903056	2479.272229
338.295508	2486.259268
338.687896	2492.825371
339.080220	2504.099912
339.472480	2510.245078
339.864676	2513.746160
340.256807	2518.794875
340.648875	2521.514578
341.040879	2525.403828
341.432818	2525.582789
341.824694	2528.438603
342.216506	2526.495238
342.608253	2527.720238
342.999937	2526.795186
343.391557	2525.436595
343.783113	2529.323325
344.174605	2526.797707
344.566033	2523.767973
344.957397	2522.167407
345.348697	2516.460821
345.739934	2518.658764
346.131106	2515.064421
346.522215	2514.204905
346.913260	2511.187774
347.304241	2511.031498
347.695159	2509.259533
348.086012	2507.384223
348.476802	2505.403050
348.867528	2503.452123
349.258191	2503.242916
349.648789	2503.031187
350.039324	2500.994561
350.429796	2497.662358
350.820203	2500.041783
351.210548	2498.572287
351.600828	2496.157574
351.991045	2494.781339
352.381198	2496.762512
352.771288	2494.587254
353.161314	2494.826709
353.551276	2493.967193
353.941175	2494.289826
354.331010	2491.854949
354.720782	2496.157574
355.110490	2492.590957
355.500135	2492.754795
355.889717	2492.205309
356.279235	2494.584734
356.668689	2493.533653
357.058080	2492.480052
357.447408	2490.098107
357.836672	2491.859990
358.225873	2495.444251
358.615010	2490.579537
359.004084	2495.784528
359.393095	2496.858294
359.782043	2498.176556
360.170927	2496.553304
360.559748	2497.682523
360.948505	2501.077740
361.337199	2498.559684
361.725830	2498.254694
362.114398	2499.986330
362.502903	2498.042965
362.891344	2502.441372
363.279722	2502.320384
363.668037	2501.481032
364.056289	2501.614623
364.444478	2503.013543
364.832603	2502.310302
365.220665	2504.377175
365.608665	2505.849192
365.996601	2503.764675
366.384474	2506.083606
366.772284	2505.544202
367.160031	2506.136538
367.547715	2504.014212
367.935336	2506.650736
368.322893	2505.372803
368.710388	2506.101250
369.097820	2509.473782
369.485189	2506.585201
369.872495	2509.551920
370.259738	2506.892711
370.646918	2508.894049
371.034035	2506.771723
371.421090	2509.534276
371.808081	2509.042763
372.195010	2508.326919
372.581875	2508.820952
372.968678	2510.744153
373.355418	2510.950840
373.742096	2510.524862
374.128710	2511.631396
374.515262	2509.619975
374.901751	2514.197343
375.288177	2513.637775
375.674540	2511.757424
376.060841	2511.076869
376.447079	2511.439832
376.833254	2509.352794
377.219367	2507.792557
377.605417	2508.200890
377.991404	2510.406395
378.377329	2511.011334
378.763191	2510.252640
379.148991	2513.126098
379.534727	2513.113495
379.920402	2512.380007
380.306013	2513.552075
380.691563	2511.732219
381.077049	2511.520490
381.462474	2516.138187
381.847835	2513.965450
382.233134	2514.603156
382.618371	2513.186592
383.003545	2517.627848
383.388657	2516.329751
383.773706	2515.772703
384.158693	2517.345543
384.543618	2517.466531
384.928480	2516.987622
385.313280	2517.224556
385.698017	2516.375121
386.082692	2516.869154
386.467305	2513.882271
386.851856	2517.569875
387.236344	2517.416120
387.620770	2520.075328
388.005133	2520.476100
388.389435	2516.922087
388.773674	2518.008455
389.157851	2515.349247
389.541965	2519.888806
389.926018	2517.663136
390.310008	2518.585667
390.693936	2516.203722
391.077802	2519.868641
391.461606	2517.307735
391.845348	2518.134484
392.229027	2518.227745
392.612645	2520.375277
392.996200	2521.249917
393.379694	2520.425688
393.763125	2521.433919
394.146494	2519.908970
394.529801	2521.829650
394.913047	2521.509537
395.296230	2521.010462
395.679351	2520.680267
396.062410	2524.435926
396.445408	2521.759074
396.828343	2524.635052
397.211217	2517.395955
397.594028	2519.558610
397.976778	2518.613394
398.359466	2519.752694
398.742092	2516.952333
399.124656	2524.388035
399.507158	2523.543642
399.889598	2524.042716
400.271977	2521.559948
400.654294	2526.028931
401.036549	2523.805782
401.418742	2525.250073
401.800874	2525.970958
402.182944	2526.298633
402.564952	2525.522295
402.946898	2523.921729
403.328783	2524.322500
403.710606	2524.763601
404.092367	2525.340813
404.474067	2527.027079
404.855705	2527.274096
405.237282	2524.430885
405.618797	2525.207223
406.000250	2525.454239
406.381642	2527.168232
406.762972	2527.833664
407.144240	2526.354085
407.525447	2527.395084
407.906593	2526.228057
408.287677	2530.833151
408.668700	2525.935670
409.049661	2526.560773
409.430560	2528.451205
409.811399	2529.509848
410.192176	2525.126564
410.572891	2527.788294
410.953545	2525.804600
411.334138	2529.734179
411.714669	2528.617563
412.095139	2527.954652
412.475547	2526.855680
412.855894	2529.643438
413.236180	2531.354910
413.616405	2530.379447
413.996568	2525.950793
414.376670	2530.215609
414.756711	2531.612009
415.136691	2530.235774
415.516609	2529.451874
415.896466	2532.206865
416.276262	2532.582431
416.655997	2529.275434
417.035670	2525.413910
417.415283	2528.960362
417.794834	2523.906605
418.174324	2529.812317
418.553753	2530.293747
418.933121	2531.125538
419.312428	2530.543284
419.691674	2530.316432
420.070859	2528.347862
420.449983	2530.964221
420.829045	2530.901206
421.208047	2529.235105
421.586988	2531.851464
421.965867	2532.469005
422.344686	2533.177287
422.723444	2534.591331
423.102141	2531.962369
423.480777	2530.064375
423.859352	2533.479756
424.237866	2530.755013
424.616319	2533.288193
424.994712	2533.452030
425.373044	2533.686444
425.751314	2534.961856
426.129524	2533.386495
426.507673	2533.968748
426.885762	2536.595189
427.263789	2534.767771
427.641756	2534.833306
428.019662	2535.400436
428.397508	2533.744417
428.775292	2536.368337
429.153016	2534.722401
429.530679	2535.024870
429.908282	2535.080323
430.285824	2535.604603
430.663305	2531.581762
431.040726	2535.405477
431.418086	2535.748276
431.795385	2537.033770
432.172624	2537.169881
432.549802	2537.532844
432.926920	2536.322967
433.303977	2537.447144
433.680974	2536.751465
434.057910	2536.078471
434.434786	2534.934129
434.811601	2536.905220
435.188355	2533.840199
435.565050	2538.004192
435.941683	2535.062679
436.318257	2535.836496
436.694770	2533.058820
437.071222	2535.818852
437.447614	2534.714839
437.823946	2533.507483
438.200218	2536.756506
438.576429	2535.397915
438.952580	2537.278266
439.328670	2536.978317
439.704700	2536.186856
440.080670	2534.669469
440.456580	2539.294727
440.832429	2538.019315
441.208218	2538.962011
441.583947	2540.479398
441.959616	2539.269522
442.335224	2538.082330
442.710773	2540.174409
443.086261	2534.871115
443.461689	2538.866229
443.837057	2539.284645
444.212365	2539.609799
444.587612	2540.585263
444.962800	2541.124666
445.337927	2538.720036
445.712995	2538.843544
446.088002	2541.175078
446.462949	2539.511497
446.837837	2542.936961
447.212664	2539.995448
447.587431	2539.168698
447.962139	2540.416384
448.336786	2541.454862
448.711374	2539.942516
449.085901	2541.873277
449.460369	2539.478729
449.834776	2540.489481
450.209124	2540.413863
450.583412	2540.134079
450.957640	2541.535520
451.331808	2541.389327
451.705917	2542.362269
452.079965	2541.490150
452.453954	2545.192877
452.827883	2541.417053
453.201752	2541.931251
453.575562	2539.317412
453.949311	2542.468134
454.323001	2543.075593
454.696632	2539.637526
455.070202	2545.157589
455.443713	2543.398227
455.817164	2540.902855
456.190556	2537.394212
456.563888	2536.534696
456.937160	2537.452186
457.310373	2543.186498
457.683526	2543.811601
458.056619	2542.347146
458.429653	2542.558874
458.802628	2541.966539
459.175542	2543.698175
459.548398	2543.985521
459.921194	2545.056766
460.293930	2540.948226
460.666607	2544.938299
461.039224	2543.345294
461.411782	2542.538710
461.784280	2546.001982
462.156719	2542.926879
462.529099	2544.759338
462.901419	2545.487785
463.273680	2544.842517
463.645882	2545.636499
464.018024	2543.196580
464.390106	2544.371169
464.762130	2542.004348
465.134094	2545.175233
465.505999	2546.543907
465.877845	2545.311344
466.249631	2546.054915
466.621358	2546.450645
466.993026	2550.007179
467.364634	2547.526932
467.736184	2546.725388
468.107674	2545.999462
468.479105	2545.906201
468.850477	2543.252033
469.221790	2546.470810
469.593043	2548.129349
469.964238	2548.439380
470.335373	2546.639688
470.706449	2546.551468
471.077467	2546.044832
471.448425	2546.211190
471.819324	2545.686910
472.190164	2547.952909
472.560945	2547.247147
472.931667	2547.489123
473.302330	2548.870399
473.672934	2545.767569
474.043479	2547.990718
474.413965	2546.934596
474.784393	2541.631302
475.154761	2545.991900
475.525070	2546.276725
475.895321	2542.316899
476.265513	2543.952753
476.635645	2547.317724
477.005719	2547.753783
477.375734	2550.584391
477.745691	2544.214893
478.115588	2551.539690
478.485427	2550.160934
478.855207	2547.622713
479.224928	2549.987015
479.594591	2548.469627
479.964194	2550.836449
480.333739	2550.750749
480.703226	2549.303938
481.072653	2549.868548
481.442022	2549.210677
481.811333	2548.507436
482.180584	2551.456511
482.549777	2551.020451
482.918912	2550.095399
483.287988	2552.394166
483.657005	2546.934596
484.025964	2553.440205
484.394864	2549.898794
484.763706	2551.542211
485.132489	2551.582540
485.501213	2551.935421
485.869879	2549.404761
486.238487	2549.830739
486.607036	2554.271995
486.975527	2553.077242
487.343959	2550.460883
487.712333	2553.417520
488.080648	2550.503733
488.448905	2551.038095
488.817104	2553.518343
489.185244	2552.235369
489.553326	2549.414844
489.921350	2551.317879
490.289315	2556.147305
490.657222	2558.007490
491.025070	2554.801317
491.392861	2556.732078
491.760593	2556.376677
492.128267	2556.109496
492.495883	2552.401727
492.863440	2555.305432
493.230939	2551.980791
493.598380	2556.686708
493.965763	2549.472817
494.333088	2552.278219
494.700354	2545.603731
495.067563	2552.404248
495.434713	2550.072714
495.801805	2555.595298
496.168839	2553.110009
496.535815	2555.494475
496.902733	2555.668395
497.269593	2554.818961
497.636395	2556.696790
498.003139	2556.200237
498.369825	2557.316852
498.736453	2556.472459
499.103023	2554.206460
499.469535	2553.389793
499.835989	2557.914229
500.202385	2554.627397
500.568723	2556.666543
500.935003	2554.672767
501.301226	2557.896585
501.667390	2556.681667
502.033497	2559.978582
502.399546	2560.321380
502.765537	2557.284085
503.131470	2558.040258
503.497345	2560.117213
503.863163	2560.492779
504.228923	2559.368602
504.594625	2559.411452
504.960269	2559.174518
505.325856	2559.000598
505.691385	2557.294167
506.056856	2559.537481
506.422270	2557.289126
506.787625	2560.848181
507.152924	2560.772563
507.518164	2563.129303
507.883347	2560.487738
508.248472	2560.293654
508.613540	2563.033521
508.978550	2561.183417
509.343503	2560.762481
509.708398	2563.956052
510.073236	2564.407235
510.438016	2564.349262
510.802738	2562.637790
511.167403	2567.976372
511.532010	2566.085939
511.896561	2567.497463
512.261053	2567.946125
512.625488	2566.521999
512.989866	2563.025959
513.354186	2565.614592
513.718449	2561.813562
514.082655	2568.775395
514.446803	2570.360838
514.810894	2570.877556
515.174927	2572.606672
515.538904	2571.661456
515.902822	2573.057855
516.266684	2576.558937
516.630488	2574.849985
516.994235	2573.972825
517.357925	2576.891653
517.721558	2576.332085
518.085133	2579.238310
518.448651	2580.876685
518.812112	2582.303331
519.175516	2583.304000
519.538863	2584.849114
519.902152	2586.484968
520.265385	2585.527149
520.628560	2590.485124
520.991678	2589.287850
521.354739	2591.498396
521.717743	2593.285485
522.080690	2598.011567
522.443580	2598.283789
522.806413	2601.038780
523.169189	2605.283431
523.531908	2608.126642
523.894569	2608.834924
524.257174	2613.525718
524.619722	2615.751387
524.982213	2621.276492
525.344647	2623.572737
525.707025	2627.817389
526.069345	2630.204375
526.431608	2636.006743
526.793815	2636.762916
527.155964	2641.320119
527.518057	2643.974287
527.880093	2651.372180
528.242072	2652.478713
528.603995	2656.471307
528.965860	2662.550939
529.327669	2666.268790
529.689421	2671.325067
530.051117	2677.883608
530.412755	2682.594567
530.774337	2688.326358
531.135862	2695.431865
531.497331	2697.402956
531.858743	2700.654500
532.220098	2713.113712
532.581396	2716.236707
532.942638	2723.548900
533.303824	2730.339335
533.664953	2744.154617
534.026025	2746.612179
534.387040	2759.686412
534.747999	2764.571290
535.108902	2776.052518
535.469748	2780.576953
535.830537	2791.296967
536.191270	2799.304840
536.551947	2810.443269
536.912567	2821.173365
537.273131	2826.990857
537.633638	2836.337156
537.994089	2852.544466
538.354483	2862.722555
538.714821	2874.680172
539.075103	2888.071997
539.435328	2898.267731
539.795497	2904.090264
540.155609	2927.324942
540.515665	2941.291458
540.875665	2945.483178
541.235609	2965.655355
541.595496	2977.421408
541.955328	3002.349914
542.315102	3008.779906
542.674821	3023.845394
543.034483	3036.654966
543.394090	3056.033161
543.753640	3069.908937
544.113134	3101.461519
544.472571	3108.761110
544.831953	3135.529637
545.191278	3141.682365
545.550548	3160.871517
545.909761	3188.106351
546.268918	3211.930844
546.628019	3237.348342
546.987064	3248.411154
547.346053	3257.754932
547.704986	3297.186838
548.063863	3310.997079
548.422684	3331.010459
548.781449	3347.048890
549.140158	3376.224568
549.498811	3388.608163
549.857408	3395.874986
550.215949	3450.248871
550.574434	3454.894295
550.932864	3498.051613
551.291237	3519.297556
551.649555	3551.293759
552.007817	3571.806214
552.366022	3592.762291
552.724173	3626.490130
553.082267	3645.250784
553.440305	3705.207748
553.798288	3698.949155
554.156215	3753.381014
554.514086	3777.626443
554.871902	3788.626241
555.229661	3823.251406
555.587365	3854.819112
555.945014	3861.836398
556.302606	3927.182354
556.660143	3926.988270
557.017625	3995.764732
557.375050	4010.477339
557.732421	4063.419537
558.089735	4085.577929
558.446994	4115.865181
558.804197	4159.065349
559.161345	4194.466852
559.518437	4186.942930
559.875474	4253.818877
560.232455	4291.423364
560.589381	4312.129903
560.946251	4369.213409
561.303065	4407.543822
561.659825	4438.814099
562.016528	4453.730874
562.373177	4450.837251
562.729770	4530.585785
563.086307	4538.601219
563.442789	4602.046661
563.799216	4623.930310
564.155587	4664.491434
564.511904	4691.257440
564.868164	4729.605497
565.224370	4763.477010
565.580520	4799.916991
565.936615	4814.775792
566.292654	4836.193134
566.648638	4899.169748
567.004567	4931.034882
567.360441	4963.134429
567.716260	4978.215040
568.072023	5039.888517
568.427732	5073.457560
568.783385	5061.018513
569.138982	5140.663703
569.494525	5180.753478
569.850013	5177.877500
570.205445	5251.153192
570.560823	5244.541719
570.916145	5263.793885
571.271412	5331.569678
571.626625	5351.893090
571.981782	5373.817068
572.336884	5413.460702
572.691931	5439.432726
573.046923	5467.769052
573.401860	5485.957535
573.756743	5503.941852
574.111570	5562.341098
574.466342	5587.733390
574.821059	5645.623480
575.175722	5630.691583
575.530330	5685.539337
575.884882	5707.896854
576.239380	5723.007712
576.593823	5748.747844
576.948211	5795.605369
577.302544	5766.817860
577.656823	5827.367159
578.011047	5861.009299
578.365216	5892.219083
578.719330	5884.765737
579.073389	5936.029230
579.427394	5934.884888
579.781344	5961.663497
580.135239	5978.947093
580.489080	6016.153329
580.842866	6009.246948
581.196597	6045.422268
581.550273	6093.300627
581.903895	6123.973528
582.257463	6182.516447
582.610975	6162.629095
582.964434	6200.586463
583.317837	6207.724737
583.671186	6213.484255
584.024481	6258.721049
584.377721	6241.666826
584.730906	6265.128356
585.084037	6319.668599
585.437113	6307.660571
585.790135	6358.316605
586.143103	6328.258726
586.496016	6340.072670
586.848874	6408.362660
587.201679	6424.771616
587.554428	6393.206431
587.907124	6456.737572
588.259765	6461.745959
588.612352	6500.940930
588.964884	6441.946827
589.317362	6493.023798
589.669786	6522.930443
590.022155	6576.860707
590.374470	6624.023222
590.726731	6599.019099
591.078937	6547.080091
591.431090	6655.931205
591.783188	6592.422749
592.135232	6623.768643
592.487222	6635.305324
592.839157	6702.798812
593.191038	6688.713828
593.542866	6682.677047
593.894639	6644.533156
594.246358	6697.341763
594.598022	6737.988587
594.949633	6691.128541
595.301190	6702.027516
595.652692	6745.028558
596.004141	6856.591813
596.355535	6712.674433
596.706876	6726.300672
597.058162	6706.824174
597.409395	6781.491224
597.760573	6851.308684
598.111698	6806.081972
598.462768	6825.608882
598.813785	6812.083466
599.164748	6814.982129
599.515657	6823.647873
599.866511	6786.131606
600.217312	6893.765282
600.568060	6813.069012
600.918753	6914.113899
601.269392	6912.223467
601.619978	6870.729729
601.970510	6942.513239
602.320988	6953.167718
602.671412	7028.628750
603.021783	6989.879921
603.372100	6987.808007
603.722363	7012.444126
604.072572	7011.317428
604.422728	7036.296345
604.772830	6997.156827
605.122878	7023.794283
605.472872	7031.368617
605.822813	7077.036430
606.172701	7052.460805
606.522534	7130.253370
606.872314	7141.376676
607.222041	7135.849051
607.571714	7195.647218
607.921333	7175.533014
608.270899	7203.161058
608.620411	7285.725076
608.969870	7227.267856
609.319276	7233.763382
609.668627	7261.789677
610.017926	7302.146634
610.367171	7365.156016
610.716362	7357.054882
611.065500	7361.246601
611.414585	7404.272849
611.763616	7397.951243
612.112594	7400.497025
612.461518	7426.101046
612.810389	7490.584965
613.159207	7452.330169
613.507971	7415.610404
613.856682	7540.434415
614.205340	7498.733990
614.553945	7587.153308
614.902496	7509.920311
615.250994	7569.801657
615.599439	7564.243784
615.947830	7585.245231
616.296169	7575.006648
616.644454	7593.613547
616.992686	7598.679906
617.340864	7667.484095
617.688990	7583.299346
618.037063	7680.570930
618.385082	7641.242368
618.733048	7729.185297
619.080961	7684.046806
619.428821	7707.447842
619.776628	7725.961479
620.124382	7681.322062
620.472083	7681.385076
620.819731	7717.048719
621.167326	7626.212168
621.514868	7647.140518
621.862357	7550.695683
622.209793	7581.328255
622.557176	7517.736620
622.904506	7505.080803
623.251783	7455.601878
623.599007	7425.493587
623.946179	7427.351252
624.293297	7400.494505
624.640363	7337.933785
624.987376	7322.409552
625.334336	7281.447657
625.681243	7244.695124
626.028097	7235.908393
626.374899	7223.010601
626.721647	7217.351906
627.068343	7161.150602
627.414987	7140.892726
627.761577	7103.447035
628.108115	7144.025803
628.454600	7052.886782
628.801032	7105.405523
629.147412	7063.054790
629.493739	7062.848102
629.840014	7002.044225
630.186236	7059.745272
630.532405	6948.245031
630.878521	7008.973291
631.224585	6967.892928
631.570597	6898.556898
631.916556	6927.283914
632.262462	6930.411950
632.608316	6897.755355
632.954117	6878.906481
633.299866	6873.489761
633.645562	6874.228290
633.991206	6796.871784
634.336797	6744.781542
634.682336	6705.805861
635.027823	6683.055133
635.373257	6671.069790
635.718639	6615.299505
636.063968	6628.857688
636.409245	6530.293048
636.754470	6523.399270
637.099642	6493.172512
637.444762	6437.440036
637.789829	6451.706501
638.134845	6399.132307
638.479808	6382.345265
638.824719	6393.546709
639.169577	6325.904507
639.514383	6348.473752
639.859137	6277.511950
640.203839	6286.863291
640.548489	6278.386591
640.893086	6258.085864
641.237632	6231.960084
641.582125	6251.302992
641.926566	6227.178550
642.270955	6236.076186
642.615292	6233.666515
642.959576	6251.474391
643.303809	6245.956848
643.647990	6249.709987
643.992118	6241.092134
644.336195	6188.530544
644.680219	6218.568259
645.024192	6210.147012
645.368112	6304.338451
645.711981	6329.851730
646.055797	6399.941413
646.399562	6360.302820
646.743274	6487.884342
647.086935	6537.630448
647.430544	6533.146341
647.774101	6560.534930
648.117606	6565.674387
648.461059	6560.545013
648.804460	6516.533219
649.147810	6429.475012
649.491108	6401.322689
649.834354	6377.712445
650.177548	6298.425177
650.520690	6213.592640
650.863781	6192.240833
651.206820	6210.562907
651.549807	6139.906094
651.892742	6082.825109
652.235626	6087.044555
652.578458	6072.999901
652.921238	5986.932281
653.263967	6023.321850
653.606644	5968.766483
653.949269	5968.516946
654.291843	5912.020735
654.634365	5959.813394
654.976836	5918.362506
655.319255	5912.822278
655.661622	5896.199073
656.003938	5890.951232
656.346203	5845.442216
656.688416	5885.589965
657.030577	5841.036248
657.372687	5801.322038
657.714746	5800.104599
658.056753	5839.498696
658.398708	5781.590961
658.740612	5772.983191
659.082465	5816.276620
659.424266	5811.298481
659.766016	5813.161187
660.107715	5788.162105
660.449362	5800.144928
660.790958	5801.800947
661.132503	5788.643536
661.473996	5821.862219
661.815438	5804.296318
662.156829	5807.696577
662.498168	5799.897912
662.839456	5773.598212
663.180693	5811.714376
663.521879	5808.939221
663.863013	5802.378159
664.204097	5822.091591
664.545129	5861.599114
664.886110	5856.792374
665.227040	5889.733794
665.567918	5857.412436
665.908746	5887.084667
666.249522	5885.990737
666.590248	5877.655189
666.930922	5902.424898
667.271545	5915.113483
667.612118	5918.042393
667.952639	5895.344598
668.293109	5914.455612
668.633528	5869.987594
668.973896	5872.515733
669.314213	5867.409044
669.654480	5848.280386
669.994695	5845.046485
670.334859	5835.163303
670.674973	5827.825904
671.015035	5827.888918
671.355047	5831.057283
671.695008	5816.929450
672.034918	5785.989368
672.374777	5800.331451
672.714585	5788.454492
673.054342	5785.855778
673.394049	5778.084839
673.733705	5817.287372
674.073310	5796.875740
674.412864	5760.430718
674.752368	5751.134830
675.091820	5756.269246
675.431223	5695.856058
675.770574	5694.711716
676.109875	5644.854704
676.449125	5653.953987
676.788324	5618.711281
677.127473	5563.508125
677.466571	5557.045366
677.805619	5547.167225
678.144616	5532.336151
678.483562	5511.758161
678.822458	5481.516279
679.161303	5474.630062
679.500098	5464.114216
679.838842	5449.245332
680.177535	5458.095078
680.516179	5468.121933
680.854771	5480.722297
681.193314	5556.765582
681.531805	5668.288508
681.870247	5814.678575
682.208638	5917.268576
682.546978	5922.352580
682.885268	5905.431947
683.223508	5819.409698
683.561697	5771.410351
683.899836	5737.513633
684.237925	5697.557447
684.575963	5657.654194
684.913951	5619.810252
685.251889	5680.639335
685.589776	5645.469725
685.927614	5624.150686
686.265401	5689.663000
686.603137	5677.377708
686.940824	5751.870839
687.278460	5775.970075
687.616046	5784.910561
687.953582	5849.603688
688.291068	5833.300597
688.628504	5900.146297
688.965889	5857.485533
689.303224	5799.091327
689.640510	5757.385861
689.977745	5684.142937
690.314930	5583.120734
690.652065	5525.321385
690.989150	5434.051295
691.326185	5361.093196
691.663170	5307.354496
692.000105	5232.982353
692.336990	5158.811856
692.673825	5129.137104
693.010610	5061.999017
693.347345	4997.936034
693.684030	4982.827696
694.020665	4939.516623
694.357251	4855.208366
694.693786	4864.181620
695.030272	4830.690714
695.366707	4794.177637
695.703093	4758.277060
696.039429	4785.416112
696.375716	4767.270478
696.711952	4743.725769
697.048139	4730.790168
697.384276	4709.302250
697.720363	4718.663673
698.056400	4730.860745
698.392388	4681.462478
698.728326	4660.375332
699.064214	4638.978154
699.400053	4629.112616
699.735842	4599.251341
700.071581	4576.014143
700.407270	4549.169998
700.742910	4532.070404
701.078501	4480.229699
701.414042	4476.048062
701.749533	4447.651242
702.084974	4382.690934
702.420366	4435.476856
702.755709	4383.689082
703.091002	4326.126667
703.426246	4375.535016
703.761440	4327.122295
704.096584	4294.727840
704.431679	4316.598886
704.766725	4297.750012
705.101721	4289.570740
705.436668	4316.790450
705.771565	4263.820526
706.106413	4294.092655
706.441212	4321.793795
706.775961	4331.629086
707.110661	4308.291065
707.445311	4339.400025
707.779913	4364.515053
708.114465	4374.952763
708.448967	4400.682812
708.783421	4462.217656
709.117825	4497.167976
709.452180	4503.986136
709.786485	4548.764185
710.120742	4631.040857
710.454949	4616.812201
710.789107	4687.796688
711.123216	4756.318572
711.457275	4747.549484
711.791286	4826.017565
712.125247	4838.925439
712.459159	4740.252414
712.793023	4813.631450
713.126837	4777.685502
713.460602	4765.811064
713.794318	4689.056976
714.127985	4698.652813
714.461602	4610.309112
714.795171	4581.569494
715.128691	4514.814535
715.462162	4461.126246
715.795584	4412.383330
716.128957	4396.138212
716.462281	4346.903783
716.795556	4316.997137
717.128782	4282.566057
717.461960	4214.102146
717.795088	4224.607911
718.128167	4178.867001
718.461198	4121.314668
718.794180	4117.049852
719.127113	4099.060495
719.459997	4078.260694
719.792833	4034.498437
720.125619	4027.166079
720.458357	3989.574195
720.791046	3995.210205
721.123686	3970.929487
721.456278	3928.780400
721.788821	3947.377217
722.121315	3919.265222
722.453761	3891.521232
722.786158	3908.139396
723.118506	3928.707303
723.450805	3883.193246
723.783056	3903.027666
724.115259	3919.595418
724.447412	3925.541459
724.779518	3919.963422
725.111574	3921.730347
725.443582	3951.284111
725.775542	3937.725928
726.107453	3987.719050
726.439315	3987.053618
726.771129	3999.195237
727.102895	4040.184859
727.434612	4086.099688
727.766281	4097.018828
728.097901	4096.388683
728.429473	4104.681381
728.760996	4106.753296
729.092471	4101.787759
729.423897	4087.032302
729.755276	4095.730813
730.086606	4091.907097
730.417887	4130.918067
730.749120	4195.500288
731.080305	4261.877161
731.411442	4283.017240
731.742530	4253.168568
732.073570	4254.832149
732.404562	4310.597393
732.735506	4302.471053
733.066401	4268.034931
733.397249	4205.365827
733.728048	4124.926655
734.058798	4043.108728
734.389501	3970.682471
734.720156	3912.799943
735.050762	3869.735886
735.381320	3859.199874
735.711831	3813.043070
736.042293	3782.357566
736.372707	3805.017553
736.703073	3778.556536
737.033391	3767.811317
737.363661	3786.012403
737.693883	3811.266063
738.024056	3819.233607
738.354182	3814.285714
738.684260	3874.759396
739.014290	3895.700349
739.344272	3894.016603
739.674207	3935.346503
740.004093	3939.268521
740.333931	3932.513375
740.663722	3934.285340
740.993464	3933.496400
741.323159	3910.856578
741.652806	3880.682751
741.982405	3850.085468
742.311956	3824.393228
742.641460	3816.231599
742.970915	3791.766880
743.300323	3747.180395
743.629683	3714.387689
743.958996	3705.369065
744.288260	3680.463244
744.617477	3646.377482
744.946647	3631.997591
745.275768	3606.136472
745.604842	3606.015484
745.933869	3557.108730
746.262847	3550.194788
746.591778	3591.161724
746.920662	3557.040674
747.249498	3526.335006
747.578286	3575.128334
747.907027	3592.716920
748.235720	3590.702979
748.564365	3612.198459
748.892963	3613.962863
749.221514	3594.766149
749.550017	3574.619178
749.878473	3569.449475
750.206881	3540.561142
750.535242	3537.662479
750.863555	3539.371430
751.191821	3533.039741
751.520039	3519.801671
751.848210	3491.800582
752.176334	3528.543032
752.504411	3531.207282
752.832440	3491.848473
753.160421	3478.847337
753.488356	3485.584839
753.816243	3499.304339
754.144082	3454.533852
754.471875	3440.214455
754.799620	3460.855459
755.127318	3450.967236
755.454969	3455.103503
755.782572	3457.825726
756.110129	3433.184566
756.437638	3425.393462
756.765100	3438.089608
757.092515	3448.229889
757.419882	3454.054942
757.747203	3428.211467
758.074477	3429.383536
758.401703	3443.778550
758.728882	3464.548104
759.056014	3473.755772
759.383099	3476.858602
759.710138	3471.734269
760.037129	3489.897546
760.364073	3520.252854
760.690970	3504.700895
761.017820	3481.037718
761.344623	3499.765605
761.671379	3543.447203
761.998088	3595.466870
762.324751	3721.518401
762.651366	3970.183397
762.977935	4437.969706
763.304456	4870.472980
763.630931	4963.699038
763.957359	4600.133543
764.283740	4265.393366
764.610074	4077.595262
764.936362	3883.021847
765.262602	3727.325810
765.588796	3618.774644
765.914943	3529.936911
766.241044	3442.956842
766.567097	3415.870723
766.893104	3371.193497
767.219064	3336.880883
767.544978	3314.573777
767.870845	3255.398193
768.196665	3238.651480
768.522438	3247.486102
768.848165	3240.942684
769.173846	3205.810883
769.499479	3192.903009
769.825066	3173.297961
770.150607	3154.698624
770.476101	3172.720749
770.801548	3168.692867
771.126949	3120.983387
771.452303	3105.602827
771.777611	3115.690176
772.102872	3117.794857
772.428087	3093.015066
772.753256	3082.554672
773.078378	3075.489494
773.403453	3040.609751
773.728482	3031.601209
774.053465	3050.964281
774.378401	3040.824000
774.703291	3008.923578
775.028135	3009.432735
775.352932	3003.789163
775.677683	2993.931187
776.002388	2990.435147
776.327046	2993.263234
776.651658	2981.703868
776.976224	2969.569811
777.300743	2969.859677
777.625216	2960.052113
777.949643	2953.604477
778.274024	2959.106896
778.598359	2947.421502
778.922647	2951.313272
779.246889	2951.799744
779.571086	2937.324070
779.895236	2929.908533
780.219339	2938.085285
780.543397	2952.903756
780.867409	2955.741926
781.191374	2948.606173
781.515294	2944.767334
781.839167	2944.676593
782.162995	2937.518155
782.486776	2945.452931
782.810511	2944.578291
783.134201	2925.807554
783.457844	2935.398350
783.781441	2928.262596
784.104993	2906.578073
784.428498	2910.169895
784.751958	2922.855959
785.075372	2913.494536
785.398739	2901.814183
785.722061	2918.306318
786.045337	2930.369799
786.368568	2914.616193
786.691752	2906.769637
787.014891	2954.569858
787.337983	2981.361070
787.661030	3010.090606
787.984031	3079.280442
788.306987	3119.667646
788.629897	3110.588528
788.952760	3100.102928
789.275579	3083.066349
789.598351	3022.489323
789.921078	2980.655308
790.243759	2972.410501
790.566395	2955.378963
790.888984	2930.379881
791.211529	2913.431522
791.534027	2903.939029
791.856480	2895.696743
792.178888	2880.666542
792.501249	2871.080788
792.823566	2868.817310
793.145836	2867.491487
793.468062	2863.418234
793.790241	2862.541074
794.112375	2868.535006
794.434464	2877.238558
794.756507	2883.119064
795.078505	2892.268758
795.400457	2902.880387
795.722364	2939.620316
796.044226	2962.507154
796.366042	2964.251394
796.687812	2953.284363
797.009538	2975.155409
797.331218	2959.437092
797.652852	2948.618776
797.974442	2932.852567
798.295986	2928.106321
798.617484	2920.582398
798.938938	2905.973135
799.260346	2893.206413
799.581709	2883.298025
799.903026	2876.069010
800.224299	2873.349307
800.545526	2862.251207
800.866708	2846.784947
801.187845	2838.598113
801.508936	2843.828311
801.829983	2847.984742
802.150984	2836.813545
802.471940	2820.775114
802.792851	2822.506750
803.113717	2825.309632
803.434538	2827.694098
803.755314	2820.230669
804.076045	2811.869916
804.396731	2813.241110
804.717372	2814.624906
805.037967	2809.845892
805.358518	2816.049032
805.679024	2829.037565
805.999485	2824.114878
806.319901	2823.494817
806.640272	2819.063642
806.960598	2821.745536
807.280879	2833.541836
807.601115	2838.356138
807.921306	2827.099242
808.241453	2825.801144
808.561554	2830.786846
808.881611	2835.679285
809.201623	2827.618480
809.521590	2824.039261
809.841513	2822.224446
810.161390	2824.956751
810.481223	2821.072542
810.801011	2810.561736
811.120755	2809.122487
811.440453	2808.421767
811.760107	2807.983186
812.079716	2807.214410
812.399281	2798.576393
812.718801	2792.385856
813.038276	2785.799589
813.357707	2791.886782
813.677093	2799.375416
813.996434	2793.242852
814.315731	2788.665485
814.634983	2783.780607
814.954191	2785.918056
815.273354	2801.003709
815.592473	2808.419246
815.911547	2809.092240
816.230577	2821.521205
816.549562	2826.249807
816.868502	2824.190496
817.187399	2834.812207
817.506250	2850.346522
817.825058	2842.053824
818.143821	2856.025382
818.462539	2870.964842
818.781213	2893.886968
819.099843	2932.456836
819.418429	2990.634272
819.736970	3049.590567
820.055466	3120.640589
820.373919	3225.103379
820.692327	3365.345758
821.010691	3530.156201
821.329011	3962.684680
821.647286	4845.378116
821.965517	6199.898346
822.283704	6912.835967
822.601847	6882.871348
822.919945	6269.083141
823.237999	5775.145846
823.556010	5203.005132
823.873976	4661.202081
824.191897	4265.993263
824.509775	3974.929643
824.827609	3713.321485
825.145398	3595.986108
825.463144	3584.129315
825.780845	3676.941998
826.098502	3778.049900
826.416116	4057.344947
826.733685	4365.404817
827.051210	4422.057304
827.368692	4306.224192
827.686129	4047.681055
828.003522	3731.565421
828.320872	3477.942450
828.638177	3290.169552
828.955439	3152.694766
829.272656	3074.088054
829.589830	3006.675224
829.906960	2962.237453
830.224046	2914.858168
830.541088	2885.110319
830.858086	2870.841333
831.175041	2851.203519
831.491952	2852.022706
831.808819	2866.332021
832.125642	2886.789024
832.442421	2933.376847
832.759157	3010.292252
833.075849	3184.045701
833.392497	3462.256900
833.709101	3660.722086
834.025662	3606.668313
834.342179	3450.889098
834.658653	3280.762758
834.975083	3135.189359
835.291469	3039.992210
835.607811	2956.301494
835.924110	2898.996178
836.240366	2851.616893
836.556578	2807.988227
836.872746	2788.194137
837.188871	2765.365272
837.504952	2750.652664
837.820990	2742.851478
838.136984	2728.433778
838.452935	2719.175699
838.768842	2718.167469
839.084706	2735.677917
839.400526	2815.771769
839.716303	2944.149793
840.032037	3021.289529
840.347727	3005.603979
840.663373	2946.236830
840.978977	2872.235213
841.294537	2801.011270
841.610054	2755.250196
841.925527	2733.878225
842.240957	2714.079093
842.556344	2693.158304
842.871687	2676.565347
843.186987	2668.743996
843.502244	2665.089160
843.817458	2659.559014
844.132629	2649.925369
844.447756	2639.293576
844.762840	2633.707977
845.077881	2639.018833
845.392879	2637.012453
845.707833	2632.034314
846.022745	2620.744650
846.337613	2628.571041
846.652438	2625.692542
846.967221	2625.261524
847.281960	2625.017028
847.596656	2624.081894
847.911309	2622.405710
848.225919	2616.507560
848.540485	2614.949844
848.855009	2615.947992
849.169490	2615.539659
849.483928	2615.466562
849.798323	2612.280553
850.112675	2611.287445
850.426984	2614.176027
850.741251	2612.046139
851.055474	2612.189812
851.369654	2616.343723
851.683792	2618.350102
851.997887	2610.574122
852.311938	2610.594287
852.625947	2611.221910
852.939914	2615.718620
853.253837	2614.395317
853.567718	2613.858434
853.881555	2613.021602
854.195350	2615.234669
854.509103	2614.259206
854.822812	2610.458176
855.136479	2610.758124
855.450103	2616.270626
855.763685	2615.058228
856.077224	2613.026643
856.390720	2609.102105
856.704173	2613.755090
857.017584	2618.755915
857.330953	2617.956892
857.644278	2620.641306
857.957561	2622.403190
858.270802	2615.063270
858.584000	2615.832046
858.897155	2618.130812
859.210268	2620.752212
859.523339	2611.741149
859.836367	2609.656632
860.149352	2610.349791
860.462295	2610.571602
860.775195	2609.220572
861.088054	2609.046652
861.400869	2607.912393
861.713642	2605.119594
862.026373	2605.651435
862.339062	2607.955243
862.651708	2617.626696
862.964312	2613.944133
863.276873	2614.367590
863.589392	2614.465893
863.901869	2620.762294
864.214303	2625.974847
864.526696	2629.788480
864.839045	2630.622791
865.151353	2633.796197
865.463619	2630.413583
865.775842	2630.426186
866.088023	2630.789149
866.400162	2633.763430
866.712258	2632.692185
867.024313	2629.906947
867.336325	2625.009466
867.648296	2628.792852
867.960224	2634.751496
868.272110	2634.121352
868.583954	2628.087091
868.895755	2629.821247
869.207515	2631.842750
869.519233	2638.534882
869.830909	2633.715539
870.142542	2632.626650
870.454134	2633.891979
870.765684	2636.273924
871.077191	2640.871457
871.388657	2641.299955
871.700081	2640.591673
872.011463	2640.826086
872.322803	2640.203504
872.634101	2645.209370
872.945357	2652.511481
873.256571	2658.273520
873.567744	2655.077428
873.878874	2649.015441
874.189963	2655.984836
874.501010	2660.758809
874.812015	2664.794252
875.122979	2661.388953
875.433900	2654.631286
875.744780	2653.502068
876.055618	2660.942811
876.366415	2663.798624
876.677169	2664.070847
876.987882	2655.510967
877.298554	2657.771925
877.609183	2667.297185
877.919771	2673.497804
878.230317	2681.014165
878.540822	2692.044209
878.851285	2702.234902
879.161707	2726.515619
879.472087	2764.886362
879.782425	2809.288845
880.092722	2921.094076
880.402977	3100.634770
880.713191	3356.090200
881.023363	3636.038076
881.333494	3819.077331
881.643583	3985.672342
881.953631	3985.490860
882.263637	3809.799087
882.573602	3592.341354
882.883526	3471.628405
883.193408	3360.647403
883.503248	3265.092332
883.813048	3154.978408
884.122806	3041.653270
884.432522	2959.893316
884.742197	2897.861918
885.051831	2861.805065
885.361424	2827.058912
885.670975	2794.863583
885.980485	2764.276382
886.289954	2748.938672
886.599382	2736.202197
886.908768	2724.738613
887.218113	2705.070551
887.527417	2690.360464
887.836680	2683.953157
888.145901	2680.772189
888.455082	2670.886487
888.764221	2662.036741
889.073319	2654.023827
889.382376	2651.409989
889.691392	2654.250679
890.000366	2654.545587
890.309300	2654.739671
890.618193	2654.480052
890.927044	2658.966678
891.235855	2658.636483
891.544625	2657.350989
891.853353	2656.511637
892.162041	2664.053203
892.470687	2681.926614
892.779293	2696.858511
893.087858	2704.657176
893.396381	2724.761298
893.704864	2762.975765
894.013306	2834.590396
894.321707	2921.754467
894.630068	2972.423104
894.938387	2989.525218
895.246665	2980.738487
895.554903	2940.079061
895.863100	2901.042886
896.171256	2843.324195
896.479371	2782.890843
896.787446	2745.636716
897.095480	2729.328583
897.403473	2722.215515
897.711425	2707.921323
898.019336	2691.472038
898.327207	2675.660459
898.635038	2675.683145
898.942827	2671.400684
899.250576	2665.202586
899.558284	2652.637510
899.865952	2650.545431
900.173579	2647.971922
900.481165	2647.893784
900.788711	2637.700571
901.096216	2632.954325
901.403681	2628.702111
901.711105	2630.640435
902.018489	2626.710856
902.325832	2631.573048
902.633135	2631.870477
902.940397	2646.099133
903.247619	2682.922242
903.554800	2747.295256
903.861941	2870.841333
904.169041	2990.558655
904.476101	3050.631565
904.783121	3043.014381
905.090100	2986.061946
905.397039	2917.028385
905.703938	2844.070286
906.010796	2787.256482
906.317614	2739.390726
906.624391	2703.419573
906.931129	2676.066272
907.237826	2655.286636
907.544483	2636.029428
907.851099	2624.606174
908.157675	2615.401027
908.464211	2610.826180
908.770707	2598.283789
909.077163	2593.131730
909.383578	2592.131061
909.689954	2590.543097
909.996289	2585.335585
910.302584	2587.843559
910.608839	2584.833991
910.915054	2586.953796
911.221229	2591.606781
911.527363	2592.456215
911.833458	2591.127871
912.139513	2589.018148
912.445527	2590.477562
912.751502	2595.697677
913.057436	2601.121959
913.363331	2606.727722
913.669186	2618.186264
913.975000	2631.510034
914.280775	2649.000317
914.586510	2664.027997
914.892205	2695.247863
915.197859	2760.361926
915.503475	2842.603310
915.809050	2906.631005
916.114585	2917.262799
916.420081	2927.355189
916.725536	2936.146961
917.030952	2913.396234
917.336328	2871.831920
917.641665	2827.472287
917.946961	2773.973042
918.252218	2741.722260
918.557435	2720.892212
918.862612	2698.738862
919.167750	2684.023734
919.472848	2666.989675
919.777906	2649.247334
920.082925	2639.384316
920.387904	2630.181690
920.692843	2626.758747
920.997743	2622.945114
921.302603	2612.877929
921.607423	2609.333998
921.912204	2602.755292
922.216946	2600.839654
922.521647	2599.775971
922.826310	2594.606267
923.130932	2590.477562
923.435516	2587.019331
923.740059	2584.367684
924.044564	2581.378280
924.349028	2584.632344
924.653454	2570.706157
924.957840	2571.490056
925.262186	2569.526527
925.566493	2569.324881
925.870761	2564.770198
926.174989	2566.131310
926.479178	2565.002091
926.783328	2563.673747
927.087438	2564.871021
927.391509	2561.616957
927.695541	2560.674261
927.999533	2559.865156
928.303486	2559.885320
928.607400	2559.807182
928.911275	2558.017573
929.215110	2557.760474
929.518906	2554.960113
929.822663	2556.200237
930.126381	2556.240566
930.430060	2559.323232
930.733699	2557.231153
931.037299	2557.480690
931.340861	2556.732078
931.644383	2560.681822
931.947866	2558.478838
932.251309	2557.946997
932.554714	2559.519837
932.858080	2560.449929
933.161407	2556.900957
933.464694	2557.536142
933.767943	2554.549259
934.071153	2553.175544
934.374323	2556.777449
934.677455	2553.626728
934.980548	2555.549928
935.283602	2555.804506
935.586617	2552.515153
935.889593	2551.239741
936.192530	2555.706204
936.495428	2556.200237
936.798287	2554.662685
937.101108	2556.578323
937.403890	2559.431616
937.706632	2562.509241
938.009336	2563.572924
938.312002	2570.602813
938.614628	2570.025601
938.917216	2574.466858
939.219765	2574.741601
939.522275	2578.106571
939.824747	2575.180181
940.127179	2569.705488
940.429573	2566.801783
940.731929	2569.390416
941.034246	2567.119376
941.336524	2566.174160
941.638763	2568.387226
941.940964	2566.673234
942.243126	2565.859088
942.545250	2563.174673
942.847335	2563.968655
943.149381	2560.407080
943.451389	2562.731052
943.753359	2561.037224
944.055290	2558.587223
944.357182	2560.419682
944.659036	2557.536142
944.960851	2558.683005
945.262628	2557.140412
945.564367	2560.729713
945.866067	2559.383725
946.167729	2556.797613
946.469352	2556.643858
946.770937	2559.287943
947.072484	2558.267110
947.373992	2559.552604
947.675462	2556.172510
947.976893	2557.147974
948.278286	2555.446584
948.579641	2554.834084
948.880958	2555.005483
949.182236	2557.629404
949.483476	2554.284598
949.784678	2552.731923
950.085841	2551.554813
950.386967	2554.743343
950.688054	2557.326935
950.989103	2558.100752
951.290114	2558.740978
951.591087	2559.066133
951.892021	2558.932542
952.192917	2560.465053
952.493776	2562.035372
952.794596	2561.248952
953.095378	2563.197358
953.396122	2563.905640
953.696828	2560.167625
953.997496	2558.980433
954.298126	2555.249979
954.598718	2556.328786
954.899272	2557.400031
955.199788	2557.082439
955.500266	2552.815102
955.800706	2549.462735
956.101108	2544.557692
956.401472	2547.869730
956.701798	2543.141128
957.002087	2548.101623
957.302337	2547.625234
957.602550	2547.111036
957.902724	2546.680018
958.202861	2545.001313
958.502960	2545.449976
958.803022	2545.122301
959.103045	2542.153062
959.403031	2545.618855
959.702979	2542.016950
960.002889	2545.379400
960.302762	2542.291693
960.602596	2540.401261
960.902393	2542.571477
961.202153	2541.091899
961.501875	2543.738504
961.801559	2542.291693
962.101205	2542.359749
962.400814	2543.753628
962.700385	2541.767413
962.999918	2543.362938
963.299414	2541.054090
963.598873	2542.526107
963.898293	2540.955788
964.197677	2540.824717
964.497022	2542.793288
964.796331	2542.271529
965.095601	2542.478216
965.394835	2542.047197
965.694030	2542.763041
965.993189	2542.064841
966.292309	2540.615510
966.591393	2540.741538
966.890439	2544.335881
967.189447	2541.837989
967.488419	2541.417053
967.787353	2540.398740
968.086249	2540.439069
968.385108	2540.517207
968.683930	2540.365972
968.982714	2541.543082
969.281462	2541.593493
969.580172	2539.456044
969.878844	2538.384799
970.177480	2542.347146
970.476078	2542.190870
970.774639	2543.572146
971.073162	2541.094419
971.371649	2538.684748
971.670098	2539.138452
971.968510	2539.012423
972.266885	2536.635519
972.565223	2544.209852
972.863524	2543.786395
973.161788	2542.047197
973.460014	2542.427804
973.758204	2541.369162
974.056356	2540.766744
974.354471	2545.838145
974.652550	2541.646426
974.950591	2541.096940
975.248595	2541.127187
975.546563	2543.277239
975.844493	2540.209697
976.142386	2542.936961
976.440243	2540.416384
976.738062	2542.594162
977.035845	2542.211035
977.333590	2540.393699
977.631299	2543.471323
977.928971	2540.461754
978.226606	2539.070396
978.524204	2538.956970
978.821765	2539.493853
979.119290	2539.884542
979.416777	2543.993083
979.714228	2539.529141
980.011642	2540.733977
980.309020	2543.279759
980.606360	2542.430325
980.903664	2541.767413
981.200931	2541.396888
981.498162	2540.950746
981.795356	2544.741694
982.092513	2546.627086
982.389633	2548.953578
982.686717	2551.494320
982.983764	2553.407438
983.280775	2555.355843
983.577749	2557.145453
983.874686	2554.163611
984.171587	2550.334854
984.468451	2549.835780
984.765279	2546.264123
985.062070	2545.971736
985.358824	2544.824873
985.655543	2543.183978
985.952224	2538.135262
986.248869	2545.041643
986.545478	2536.610313
986.842050	2535.889428
987.138586	2535.092926
987.435086	2536.638039
987.731549	2535.642411
988.027975	2539.267001
988.324366	2540.499563
988.620719	2538.213400
988.917037	2538.813297
989.213318	2536.469161
989.509563	2536.799356
989.805772	2537.293389
990.101944	2538.936805
990.398080	2537.656352
990.694180	2535.019829
990.990244	2538.094933
991.286271	2537.379089
991.582262	2538.954449
991.878217	2538.397402
992.174136	2536.431352
992.470019	2538.183153
992.765865	2538.699871
993.061676	2538.331867
993.357450	2539.377906
993.653188	2538.470499
993.948890	2536.761547
994.244556	2540.247505
994.540186	2538.462937
994.835780	2538.835982
995.131337	2539.703061
995.426859	2540.398740
995.722345	2539.660211
996.017795	2539.806404
996.313208	2540.391178
996.608586	2541.122146
996.903928	2541.774975
997.199234	2541.275901
997.494504	2541.906045
997.789738	2541.684234
998.084936	2541.782537
998.380099	2540.015612
998.675225	2541.598535
998.970316	2538.513348
999.265371	2539.955118
999.560390	2539.647608
999.855373	2538.009233
1000.150320	2539.609799
1000.445232	2541.409491
1000.740108	2537.190046
1001.034948	2537.537885
1001.329752	2536.050745
1001.624521	2537.001002
1001.919254	2533.482277
1002.213951	2533.600744
1002.508613	2534.624098
1002.803239	2536.454037
1003.097829	2531.768285
1003.392384	2536.338091
1003.686903	2535.803728
1003.981386	2538.591486
1004.275834	2538.130221
1004.570246	2536.328008
1004.864623	2535.655014
1005.158964	2537.631147
1005.453270	2536.302802
1005.747540	2535.407998
1006.041775	2534.576207
1006.335974	2537.515200
1006.630138	2532.854653
1006.924266	2537.023687
1007.218359	2533.383974
1007.512416	2535.085364
1007.806438	2536.955632
1008.100425	2534.462781
1008.394376	2536.020498
1008.688292	2538.841023
1008.982172	2535.350024
1009.276017	2535.571835
1009.569827	2534.220806
1009.863602	2536.144006
1010.157341	2536.123842
1010.451045	2536.943029
1010.744714	2535.249201
1011.038347	2534.298944
1011.331945	2536.479243
1011.625508	2536.138965
1011.919036	2536.622916
1012.212528	2535.392874
1012.505986	2534.873635
1012.799408	2538.273894
1013.092795	2536.312885
1013.386147	2537.754655
1013.679464	2536.549819
1013.972745	2535.087884
1014.265992	2533.494880
1014.559204	2537.086702
1014.852380	2536.075951
1015.145521	2536.396064
1015.438628	2535.972607
1015.731699	2536.512010
1016.024736	2535.874304
1016.317737	2534.387164
1016.610703	2535.344983
1016.903635	2532.408511
1017.196531	2530.606299
1017.489393	2534.959335
1017.782219	2530.376926
1018.075011	2535.193749
1018.367768	2534.349355
1018.660490	2536.575025
1018.953177	2536.575025
1019.245829	2536.575025
