Dividing Wavelength (nm)	Counts (n)	Blue Motor Position (mm): 6.900000	Red Motor Position (mm): 0.000000	
326.493990	2141.588018
326.888308	2141.588018
327.282561	2141.588018
327.676750	2107.527462
328.070874	2107.383789
328.464933	2110.416043
328.858929	2119.036416
329.252859	2127.124948
329.646726	2138.465023
330.040528	2151.083031
330.434265	2167.726401
330.827938	2184.074863
331.221547	2206.137473
331.615091	2220.955944
332.008571	2243.210118
332.401986	2260.511358
332.795338	2280.045829
333.188625	2299.129117
333.581847	2318.537559
333.975006	2334.455003
334.368100	2356.434433
334.761129	2375.333719
335.154095	2387.470297
335.546996	2407.365211
335.939833	2422.105544
336.332606	2435.363779
336.725315	2448.450614
337.117960	2459.710032
337.510540	2463.823613
337.903056	2479.632672
338.295508	2482.057467
338.687896	2495.350989
339.080220	2500.886176
339.472480	2504.820797
339.864676	2513.206756
340.256807	2517.703465
340.648875	2519.253620
341.040879	2521.806965
341.432818	2525.418951
341.824694	2524.874507
342.216506	2526.190248
342.608253	2527.206040
342.999937	2526.961544
343.391557	2524.652696
343.783113	2523.457943
344.174605	2525.008097
344.566033	2519.004083
344.957397	2521.693539
345.348697	2517.804288
345.739934	2517.136336
346.131106	2516.637261
346.522215	2513.612569
346.913260	2512.264060
347.304241	2511.255830
347.695159	2509.481343
348.086012	2506.796929
348.476802	2503.820128
348.867528	2502.655621
349.258191	2503.109325
349.648789	2503.830210
350.039324	2501.518841
350.429796	2499.267966
350.820203	2497.198572
351.210548	2497.793428
351.600828	2496.434837
351.991045	2495.280413
352.381198	2493.538694
352.771288	2494.108345
353.161314	2493.160608
353.551276	2492.906030
353.941175	2494.952738
354.331010	2493.468118
354.720782	2492.381750
355.110490	2494.249497
355.500135	2493.100114
355.889717	2492.938797
356.279235	2490.478714
356.668689	2494.309991
357.058080	2491.121461
357.447408	2492.583396
357.836672	2492.661534
358.225873	2494.988026
358.615010	2489.031903
359.004084	2494.342758
359.393095	2496.074395
359.782043	2496.651607
360.170927	2495.703870
360.559748	2496.886021
360.948505	2498.310147
361.337199	2499.971207
361.725830	2499.885507
362.114398	2500.979438
362.502903	2499.376351
362.891344	2498.763850
363.279722	2501.743172
363.668037	2503.474809
364.056289	2500.603872
364.444478	2503.661331
364.832603	2503.704181
365.220665	2504.339367
365.608665	2504.140241
365.996601	2503.983965
366.384474	2503.452123
366.772284	2506.159223
367.160031	2504.699809
367.547715	2504.039418
367.935336	2505.950015
368.322893	2508.037053
368.710388	2505.564367
369.097820	2511.825480
369.485189	2507.651405
369.872495	2506.756600
370.259738	2508.447907
370.646918	2505.904645
371.034035	2506.612927
371.421090	2508.480674
371.808081	2509.463699
372.195010	2507.928668
372.581875	2509.541837
372.968678	2506.559995
373.355418	2508.289111
373.742096	2508.190808
374.128710	2508.901611
374.515262	2506.887670
374.901751	2509.239368
375.288177	2511.424708
375.674540	2510.524862
376.060841	2511.994359
376.447079	2509.599811
376.833254	2508.286590
377.219367	2507.074193
377.605417	2510.784482
377.991404	2507.180057
378.377329	2506.373472
378.763191	2508.034532
379.148991	2514.393948
379.534727	2512.816067
379.920402	2510.981087
380.306013	2512.465707
380.691563	2513.529390
381.077049	2511.359173
381.462474	2514.542662
381.847835	2512.332116
382.233134	2514.315810
382.618371	2515.039216
383.003545	2518.378980
383.388657	2516.700276
383.773706	2515.563496
384.158693	2513.965450
384.543618	2515.966788
384.928480	2513.695748
385.313280	2517.274967
385.698017	2517.960564
386.082692	2518.121881
386.467305	2516.012158
386.851856	2516.241531
387.236344	2518.613394
387.620770	2516.670029
388.005133	2518.222704
388.389435	2514.293125
388.773674	2518.205060
389.157851	2519.445184
389.541965	2518.580626
389.926018	2519.316635
390.310008	2518.250431
390.693936	2516.758249
391.077802	2518.200019
391.461606	2518.063908
391.845348	2517.950482
392.229027	2517.400996
392.612645	2517.816891
392.996200	2520.690349
393.379694	2519.238497
393.763125	2518.880575
394.146494	2519.394773
394.529801	2521.302849
394.913047	2520.740761
395.296230	2519.906450
395.679351	2521.416275
396.062410	2524.723272
396.445408	2520.576923
396.828343	2520.773528
397.211217	2517.781603
397.594028	2519.077180
397.976778	2516.354957
398.359466	2522.379136
398.742092	2519.019207
399.124656	2524.062881
399.507158	2520.962571
399.889598	2523.515916
400.271977	2523.402490
400.654294	2522.031296
401.036549	2521.927952
401.418742	2523.503313
401.800874	2524.375433
402.182944	2522.855525
402.564952	2525.214785
402.946898	2522.616070
403.328783	2522.195133
403.710606	2525.696215
404.092367	2523.674712
404.474067	2522.437109
404.855705	2523.515916
405.237282	2523.644465
405.618797	2524.287212
406.000250	2525.751667
406.381642	2523.795700
406.762972	2523.016842
407.144240	2524.319980
407.525447	2527.407687
407.906593	2527.110258
408.287677	2526.732172
408.668700	2528.002543
409.049661	2528.526823
409.430560	2525.955834
409.811399	2527.442975
410.192176	2528.930115
410.572891	2525.391225
410.953545	2527.662265
411.334138	2527.649662
411.714669	2527.407687
412.095139	2529.698891
412.475547	2527.594209
412.855894	2529.535053
413.236180	2529.265352
413.616405	2529.499765
413.996568	2531.435568
414.376670	2528.882224
414.756711	2529.308202
415.136691	2529.056144
415.516609	2527.478263
415.896466	2533.439427
416.276262	2530.936494
416.655997	2525.897861
417.035670	2524.640093
417.415283	2527.609333
417.794834	2524.367871
418.174324	2528.788963
418.553753	2530.462626
418.933121	2530.739889
419.312428	2530.656710
419.691674	2531.430527
420.070859	2530.230733
420.449983	2530.462626
420.829045	2531.974972
421.208047	2530.482790
421.586988	2532.489170
421.965867	2531.899355
422.344686	2531.395239
422.723444	2531.087729
423.102141	2530.548325
423.480777	2532.181659
423.859352	2530.984385
424.237866	2530.404653
424.616319	2531.445651
424.994712	2533.076464
425.373044	2532.647966
425.751314	2532.388347
426.129524	2531.856505
426.507673	2532.922709
426.885762	2535.065199
427.263789	2535.050076
427.641756	2531.352389
428.019662	2532.978162
428.397508	2534.535878
428.775292	2534.114942
429.153016	2532.973120
429.530679	2534.460261
429.908282	2533.537730
430.285824	2534.233409
430.663305	2532.897503
431.040726	2532.600075
431.418086	2533.774664
431.795385	2535.332380
432.172624	2535.481094
432.549802	2533.081505
432.926920	2534.137627
433.303977	2537.459747
433.680974	2534.808100
434.057910	2535.907072
434.434786	2533.043697
434.811601	2533.510003
435.188355	2536.512010
435.565050	2535.143337
435.941683	2535.909592
436.318257	2532.705939
436.694770	2532.826927
437.071222	2532.978162
437.447614	2532.665610
437.823946	2536.416228
438.200218	2534.185518
438.576429	2536.950591
438.952580	2536.365817
439.328670	2536.391023
439.704700	2537.610982
440.080670	2538.513348
440.456580	2538.198276
440.832429	2535.652494
441.208218	2537.852957
441.583947	2536.116280
441.959616	2536.257432
442.335224	2538.629295
442.710773	2536.733821
443.086261	2538.430169
443.461689	2537.202648
443.837057	2536.111239
444.212365	2541.144831
444.587612	2537.968904
444.962800	2537.855478
445.337927	2538.697351
445.712995	2538.689789
446.088002	2536.890097
446.462949	2538.480581
446.837837	2537.721887
447.212664	2539.093081
447.587431	2539.529141
447.962139	2539.082999
448.336786	2540.948226
448.711374	2538.465457
449.085901	2541.621220
449.460369	2538.841023
449.834776	2536.038142
450.209124	2537.414377
450.583412	2537.489994
450.957640	2540.486960
451.331808	2539.773637
451.705917	2539.587114
452.079965	2538.707433
452.453954	2540.154244
452.827883	2543.095757
453.201752	2537.353883
453.575562	2540.461754
453.949311	2540.706250
454.323001	2539.907227
454.696632	2540.408822
455.070202	2540.509645
455.443713	2541.401930
455.817164	2536.632998
456.190556	2537.323636
456.563888	2538.573842
456.937160	2537.873122
457.310373	2538.304141
457.683526	2539.561908
458.056619	2540.280273
458.429653	2539.055273
458.802628	2541.669111
459.175542	2541.616179
459.548398	2541.785057
459.921194	2539.627443
460.293930	2541.396888
460.666607	2541.827907
461.039224	2543.746066
461.411782	2541.137269
461.784280	2540.897814
462.156719	2541.946374
462.529099	2539.463606
462.901419	2542.997455
463.273680	2541.023843
463.645882	2542.090047
464.018024	2543.796478
464.390106	2540.590304
464.762130	2544.018288
465.134094	2541.084337
465.505999	2542.014430
465.877845	2542.969728
466.249631	2541.611138
466.621358	2543.680531
466.993026	2545.696993
467.364634	2545.969215
467.736184	2544.066179
468.107674	2540.676003
468.479105	2542.221117
468.850477	2543.360418
469.221790	2543.887218
469.593043	2541.379244
469.964238	2541.979142
470.335373	2544.698844
470.706449	2541.487629
471.077467	2543.390665
471.448425	2543.977959
471.819324	2545.359235
472.190164	2543.325130
472.560945	2543.589790
472.931667	2547.448794
473.302330	2545.747404
473.672934	2543.062990
474.043479	2544.466951
474.413965	2540.718853
474.784393	2540.592824
475.154761	2541.331353
475.525070	2537.739531
475.895321	2541.162475
476.265513	2542.450490
476.635645	2542.382434
477.005719	2545.102137
477.375734	2544.870243
477.745691	2544.895449
478.115588	2546.392672
478.485427	2547.436191
478.855207	2544.797147
479.224928	2542.485778
479.594591	2543.488967
479.964194	2546.009544
480.333739	2543.095757
480.703226	2544.829914
481.072653	2544.469472
481.442022	2545.891077
481.811333	2545.220604
482.180584	2544.676159
482.549777	2546.324616
482.918912	2543.413350
483.287988	2543.821683
483.657005	2547.390820
484.025964	2545.853268
484.394864	2545.061807
484.763706	2546.387631
485.132489	2545.230686
485.501213	2545.525593
485.869879	2544.696324
486.238487	2545.268495
486.607036	2543.050387
486.975527	2545.780172
487.343959	2544.149358
487.712333	2548.051212
488.080648	2545.144986
488.448905	2546.367466
488.817104	2544.885367
489.185244	2546.546427
489.553326	2545.049204
489.921350	2546.702703
490.289315	2544.739173
490.657222	2546.493495
491.025070	2544.918134
491.392861	2547.968032
491.760593	2548.285625
492.128267	2546.251520
492.495883	2544.905532
492.863440	2547.627755
493.230939	2546.158258
493.598380	2548.313352
493.965763	2542.629451
494.333088	2543.350336
494.700354	2542.722712
495.067563	2545.591128
495.434713	2541.926210
495.801805	2548.146993
496.168839	2546.453166
496.535815	2545.979297
496.902733	2545.576005
497.269593	2547.713454
497.636395	2546.949719
498.003139	2548.114226
498.369825	2547.836962
498.736453	2546.455686
499.103023	2547.703372
499.469535	2547.226983
499.835989	2547.741181
500.202385	2548.658671
500.568723	2546.415357
500.935003	2548.704041
501.301226	2548.507436
501.667390	2547.552137
502.033497	2547.544576
502.399546	2547.405944
502.765537	2547.602549
503.131470	2549.666901
503.497345	2546.969884
503.863163	2549.629093
504.228923	2548.474668
504.594625	2549.104813
504.960269	2547.174051
505.325856	2546.911911
505.691385	2544.852599
506.056856	2547.705892
506.422270	2547.660522
506.787625	2548.298228
507.152924	2548.522559
507.518164	2549.029195
507.883347	2546.412837
508.248472	2546.682538
508.613540	2547.471479
508.978550	2546.140614
509.343503	2547.446273
509.708398	2547.252189
510.073236	2550.087838
510.438016	2546.475851
510.802738	2545.782692
511.167403	2550.027344
511.532010	2548.774617
511.896561	2546.649771
512.261053	2550.977601
512.625488	2544.640871
512.989866	2544.335881
513.354186	2542.601724
513.718449	2546.874102
514.082655	2545.719678
514.446803	2546.496016
514.810894	2550.191181
515.174927	2547.960471
515.538904	2550.982642
515.902822	2548.278063
516.266684	2547.133722
516.630488	2548.262940
516.994235	2547.572302
517.357925	2548.946016
517.721558	2549.994576
518.085133	2549.230842
518.448651	2547.993238
518.812112	2549.969371
519.175516	2545.424770
519.538863	2551.010369
519.902152	2548.247817
520.265385	2549.409802
520.628560	2551.282591
520.991678	2548.267981
521.354739	2547.847045
521.717743	2550.919628
522.080690	2549.187992
522.443580	2549.722354
522.806413	2551.015410
523.169189	2548.446942
523.531908	2548.066335
523.894569	2549.858465
524.257174	2549.624052
524.619722	2547.589946
524.982213	2551.075904
525.344647	2548.593136
525.707025	2548.023485
526.069345	2549.462735
526.431608	2551.549772
526.793815	2549.518187
527.155964	2549.629093
527.518057	2546.848896
527.880093	2551.103630
528.242072	2547.095913
528.603995	2549.533311
528.965860	2550.596994
529.327669	2551.625390
529.689421	2547.854607
530.051117	2550.982643
530.412755	2548.802343
530.774337	2549.296377
531.135862	2551.222097
531.497331	2550.019782
531.858743	2546.974925
532.220098	2546.455686
532.581396	2544.459389
532.942638	2549.041798
533.303824	2546.511139
533.664953	2550.425595
534.026025	2548.419216
534.387040	2551.859803
534.747999	2549.344267
535.108902	2548.943496
535.469748	2550.851573
535.830537	2549.409802
536.191270	2550.276881
536.551947	2549.954247
536.912567	2546.833773
537.273131	2548.578012
537.633638	2551.065822
537.994089	2551.945503
538.354483	2550.914587
538.714821	2548.988866
539.075103	2548.719164
539.435328	2549.374514
539.795497	2549.540873
540.155609	2551.890050
540.515665	2550.183620
540.875665	2549.694628
541.235609	2552.220246
541.595496	2549.717313
541.955328	2551.683363
542.315102	2550.612118
542.674821	2549.727395
543.034483	2552.074052
543.394090	2551.232180
543.753640	2549.901315
544.113134	2550.266799
544.472571	2552.442057
544.831953	2551.353167
545.191278	2555.612942
545.550548	2553.064639
545.909761	2548.893084
546.268918	2551.572458
546.628019	2549.800492
546.987064	2550.970040
547.346053	2550.468445
547.704986	2551.960626
548.063863	2549.230842
548.422684	2549.994576
548.781449	2550.720503
549.140158	2552.308466
549.498811	2551.335523
549.857408	2548.633465
550.215949	2546.700182
550.574434	2546.730429
550.932864	2550.493651
551.291237	2548.590615
551.649555	2553.871224
552.007817	2548.361243
552.366022	2548.499874
552.724173	2553.414999
553.082267	2551.930379
553.440305	2552.651264
553.798288	2551.146480
554.156215	2550.367622
554.514086	2552.631100
554.871902	2552.074052
555.229661	2550.571788
555.587365	2553.815771
555.945014	2551.191850
556.302606	2551.630431
556.660143	2553.546069
557.017625	2549.676984
557.375050	2553.959444
557.732421	2552.189999
558.089735	2552.540359
558.446994	2552.318548
558.804197	2552.472303
559.161345	2557.054712
559.518437	2550.765873
559.875474	2552.477345
560.232455	2554.841646
560.589381	2553.014227
560.946251	2556.303580
561.303065	2552.626059
561.659825	2553.591440
562.016528	2551.811912
562.373177	2552.179917
562.729770	2551.585060
563.086307	2551.819474
563.442789	2551.922818
563.799216	2551.196892
564.155587	2552.079093
564.511904	2550.483568
564.868164	2550.720502
565.224370	2551.711089
565.580520	2552.038764
565.936615	2553.243600
566.292654	2552.651264
566.648638	2551.176727
567.004567	2551.491799
567.360441	2554.957592
567.716260	2550.455842
568.072023	2553.833415
568.427732	2548.913249
568.783385	2549.891233
569.138982	2547.368135
569.494525	2549.828218
569.850013	2547.128680
570.205445	2550.549103
570.560823	2552.457180
570.916145	2549.979453
571.271412	2551.993394
571.626625	2553.833415
571.981782	2550.352498
572.336884	2551.839639
572.691931	2552.822664
573.046923	2553.626728
573.401860	2554.037582
573.756743	2551.925338
574.111570	2551.869886
574.466342	2552.200081
574.821059	2552.293343
575.175722	2554.939948
575.530330	2555.607901
575.884882	2553.644372
576.239380	2550.360060
576.593823	2553.500699
576.948211	2553.745195
577.302544	2552.011038
577.656823	2550.904505
578.011047	2553.394835
578.365216	2550.276881
578.719330	2552.686553
579.073389	2551.975750
579.427394	2552.573127
579.781344	2551.761501
580.135239	2551.627910
580.489080	2551.083466
580.842866	2550.518856
581.196597	2556.767367
581.550273	2552.321069
581.903895	2552.792417
582.257463	2551.365770
582.610975	2551.645554
582.964434	2550.385266
583.317837	2552.421892
583.671186	2552.593291
584.024481	2552.000956
584.377721	2551.464073
584.730906	2552.845349
585.084037	2550.770914
585.437113	2552.144628
585.790135	2554.647561
586.143103	2552.764690
586.496016	2551.607746
586.848874	2548.633465
587.201679	2547.589946
587.554428	2547.821839
587.907124	2552.598332
588.259765	2547.327806
588.612352	2551.602704
588.964884	2551.975750
589.317362	2552.822664
589.669786	2550.405430
590.022155	2553.735113
590.374470	2552.421892
590.726731	2550.216387
591.078937	2552.772252
591.431090	2551.877447
591.783188	2550.176058
592.135232	2551.746377
592.487222	2551.161603
592.839157	2551.827036
593.191038	2551.771583
593.542866	2551.940462
593.894639	2551.890050
594.246358	2550.251675
594.598022	2550.954916
594.949633	2551.532128
595.301190	2550.022303
595.652692	2552.278219
596.004141	2552.290822
596.355535	2554.201419
596.706876	2551.612787
597.058162	2550.793599
597.409395	2550.760832
597.760573	2552.366439
598.111698	2554.854249
598.462768	2553.568754
598.813785	2550.733105
599.164748	2550.602035
599.515657	2548.509957
599.866511	2550.760832
600.217312	2552.487427
600.568060	2552.671429
600.918753	2553.173024
601.269392	2552.142108
601.619978	2551.330482
601.970510	2552.701676
602.320988	2548.109185
602.671412	2551.867365
603.021783	2549.268650
603.372100	2552.137067
603.722363	2552.000956
604.072572	2548.812426
604.422728	2553.697304
604.772830	2549.840821
605.122878	2548.648588
605.472872	2547.721016
605.822813	2548.487271
606.172701	2552.971378
606.522534	2549.866027
606.872314	2552.016079
607.222041	2553.704866
607.571714	2550.886861
607.921333	2550.859134
608.270899	2553.034392
608.620411	2553.452808
608.969870	2553.120092
609.319276	2552.154711
609.668627	2556.941286
610.017926	2561.748027
610.367171	2558.589744
610.716362	2557.941955
611.065500	2556.868190
611.414585	2555.071018
611.763616	2556.447253
612.112594	2554.395504
612.461518	2553.967006
612.810389	2553.110009
613.159207	2555.096224
613.507971	2554.027499
613.856682	2556.028838
614.205340	2551.885009
614.553945	2555.159238
614.902496	2551.229659
615.250994	2550.619679
615.599439	2551.522046
615.947830	2555.239897
616.296169	2552.558003
616.644454	2554.234187
616.992686	2550.796120
617.340864	2550.128167
617.688990	2550.533980
618.037063	2554.430792
618.385082	2550.907025
618.733048	2554.670247
619.080961	2550.390307
619.428821	2553.588919
619.776628	2554.879454
620.124382	2552.830225
620.472083	2552.593291
620.819731	2552.462221
621.167326	2552.472303
621.514868	2551.428785
621.862357	2552.855431
622.209793	2551.758980
622.557176	2553.198230
622.904506	2550.889381
623.251783	2549.394679
623.599007	2549.545914
623.946179	2548.330996
624.293297	2549.175389
624.640363	2549.893753
624.987376	2552.920966
625.334336	2553.364588
625.681243	2553.677139
626.028097	2552.852911
626.374899	2550.811243
626.721647	2551.254865
627.068343	2551.847200
627.414987	2551.406099
627.761577	2549.916438
628.108115	2553.987170
628.454600	2551.643034
628.801032	2552.467262
629.147412	2552.245452
629.493739	2549.926521
629.840014	2554.662685
630.186236	2553.762839
630.532405	2555.159238
630.878521	2552.865513
631.224585	2553.155380
631.570597	2551.864844
631.916556	2551.406099
632.262462	2552.684032
632.608316	2551.461552
632.954117	2553.742674
633.299866	2552.343754
633.645562	2552.011038
633.991206	2551.673281
634.336797	2549.490461
634.682336	2554.027499
635.027823	2550.425595
635.373257	2549.616490
635.718639	2551.022972
636.063968	2552.673950
636.409245	2551.287632
636.754470	2550.690256
637.099642	2551.078424
637.444762	2553.104968
637.789829	2552.900802
638.134845	2551.101110
638.479808	2552.096738
638.824719	2551.083466
639.169577	2551.779145
639.514383	2551.622869
639.859137	2551.451470
640.203839	2554.191337
640.548489	2554.309804
640.893086	2547.857127
641.237632	2547.521890
641.582125	2547.811757
641.926566	2548.530121
642.270955	2550.818805
642.615292	2548.063814
642.959576	2553.621687
643.303809	2550.400389
643.647990	2551.252344
643.992118	2553.009186
644.336195	2550.602035
644.680219	2551.532128
645.024192	2554.274516
645.368112	2550.554144
645.711981	2548.194884
646.055797	2550.854093
646.399562	2552.736964
646.743274	2551.007848
647.086935	2550.657488
647.430544	2553.651933
647.774101	2550.292004
648.117606	2548.242775
648.461059	2550.723023
648.804460	2555.093703
649.147810	2552.094217
649.491108	2552.394166
649.834354	2553.621687
650.177548	2554.488765
650.520690	2552.069011
650.863781	2552.134546
651.206820	2550.649926
651.549807	2552.847869
651.892742	2551.837118
652.235626	2555.595298
652.578458	2550.733105
652.921238	2552.227807
653.263967	2553.762839
653.606644	2552.000956
653.949269	2552.709238
654.291843	2550.445760
654.634365	2551.499361
654.976836	2551.259906
655.319255	2551.892571
655.661622	2552.522715
656.003938	2552.089176
656.346203	2553.225956
656.688416	2553.500699
657.030577	2550.932231
657.372687	2551.378373
657.714746	2551.494320
658.056753	2552.434495
658.398708	2549.422405
658.740612	2552.187478
659.082465	2548.290666
659.424266	2546.916952
659.766016	2548.313352
660.107715	2549.808054
660.449362	2550.896943
660.790958	2550.004659
661.132503	2553.760318
661.473996	2552.525236
661.815438	2550.657488
662.156829	2551.597663
662.498168	2550.695297
662.839456	2552.759649
663.180693	2551.549772
663.521879	2552.933569
663.863013	2550.276881
664.204097	2549.926521
664.545129	2552.494989
664.886110	2553.195709
665.227040	2549.790410
665.567918	2552.673950
665.908746	2551.796789
666.249522	2552.500030
666.590248	2551.595143
666.930922	2551.348126
667.271545	2551.239741
667.612118	2552.265616
667.952639	2552.671429
668.293109	2555.297870
668.633528	2553.067160
668.973896	2551.655637
669.314213	2550.271840
669.654480	2553.294012
669.994695	2550.667570
670.334859	2553.208312
670.674973	2552.903322
671.015035	2553.470452
671.355047	2552.348795
671.695008	2551.136398
672.034918	2553.208312
672.374777	2554.453477
672.714585	2552.497509
673.054342	2553.357026
673.394049	2552.817623
673.733705	2556.210319
674.073310	2553.021789
674.412864	2554.418189
674.752368	2555.718807
675.091820	2555.945658
675.431223	2550.715461
675.770574	2553.964485
676.109875	2546.649771
676.449125	2551.698486
676.788324	2548.671273
677.127473	2552.331151
677.466571	2549.266130
677.805619	2554.279557
678.144616	2552.268137
678.483562	2555.658313
678.822458	2553.694783
679.161303	2553.145298
679.500098	2551.645554
679.838842	2556.225443
680.177535	2555.804506
680.516179	2553.276367
680.854771	2556.633776
681.193314	2556.129661
681.531805	2555.928014
681.870247	2556.386759
682.208638	2552.469783
682.546978	2556.631255
682.885268	2556.169990
683.223508	2556.716955
683.561697	2557.659651
683.899836	2559.101421
684.237925	2558.763663
684.575963	2556.767367
684.913951	2557.647048
685.251889	2558.660320
685.589776	2558.060422
685.927614	2558.425906
686.265401	2556.243087
686.603137	2560.739796
686.940824	2558.229301
687.278460	2560.462532
687.616046	2558.987995
687.953582	2561.967317
688.291068	2561.117882
688.628504	2564.371947
688.965889	2561.420352
689.303224	2562.080743
689.640510	2561.874055
689.977745	2562.118551
690.314930	2560.956565
690.652065	2562.118551
690.989150	2561.511092
691.326185	2561.458160
691.663170	2560.008828
692.000105	2559.061092
692.336990	2560.197872
692.673825	2559.013201
693.010610	2562.930177
693.347345	2555.262582
693.684030	2557.521019
694.020665	2557.994888
694.357251	2555.088662
694.693786	2559.202244
695.030272	2560.434806
695.366707	2562.547049
695.703093	2560.094528
696.039429	2560.291133
696.375716	2560.475135
696.711952	2558.768705
697.048139	2560.490259
697.384276	2562.794066
697.720363	2563.774570
698.056400	2564.659293
698.392388	2562.622667
698.728326	2562.531926
699.064214	2563.913202
699.400053	2563.199879
699.735842	2561.748027
700.071581	2564.901268
700.407270	2563.746844
700.742910	2564.823130
701.078501	2564.319015
701.414042	2561.909343
701.749533	2563.439334
702.084974	2562.506720
702.420366	2564.813048
702.755709	2562.789025
703.091002	2562.726010
703.426246	2564.674416
703.761440	2561.954714
704.096584	2564.142575
704.431679	2564.442523
704.766725	2562.826833
705.101721	2562.620146
705.436668	2564.112328
705.771565	2560.966648
706.106413	2564.649211
706.441212	2563.446895
706.775961	2567.840261
707.110661	2564.014025
707.445311	2566.890003
707.779913	2567.694068
708.114465	2568.972000
708.448967	2571.263204
708.783421	2568.586352
709.117825	2572.145406
709.452180	2570.557443
709.786485	2571.926116
710.120742	2574.723957
710.454949	2574.555078
710.789107	2573.330077
711.123216	2570.653225
711.457275	2575.223031
711.791286	2578.938361
712.125247	2578.903073
712.459159	2580.269226
712.793023	2580.407857
713.126837	2583.551017
713.460602	2583.714854
713.794318	2578.192270
714.127985	2578.527507
714.461602	2579.497929
714.795171	2576.044739
715.128691	2578.852662
715.462162	2578.305696
715.795584	2575.482650
716.128957	2576.664801
716.462281	2576.077506
716.795556	2579.049267
717.128782	2574.958370
717.461960	2574.524831
717.795088	2576.352249
718.128167	2576.596745
718.461198	2572.730180
718.794180	2573.612382
719.127113	2574.635736
719.459997	2573.415777
719.792833	2572.571384
720.125619	2573.027608
720.458357	2573.383010
720.791046	2571.540468
721.123686	2572.841086
721.456278	2572.987279
721.788821	2574.882753
722.121315	2575.212948
722.453761	2572.452917
722.786158	2574.464337
723.118506	2571.464851
723.450805	2571.059038
723.783056	2574.986097
724.115259	2574.600448
724.447412	2575.059193
724.779518	2575.217990
725.111574	2575.424677
725.443582	2577.491550
725.775542	2578.086406
726.107453	2578.099009
726.439315	2581.136304
726.771129	2583.571182
727.102895	2580.619586
727.434612	2583.777869
727.766281	2582.212591
728.097901	2582.106726
728.429473	2580.828794
728.760996	2580.110429
729.092471	2578.792168
729.423897	2581.118660
729.755276	2585.900195
730.086606	2586.837849
730.417887	2585.101172
730.749120	2588.317428
731.080305	2592.829261
731.411442	2592.040320
731.742530	2591.085021
732.073570	2591.163159
732.404562	2597.457040
732.735506	2592.713314
733.066401	2593.351020
733.397249	2590.948910
733.728048	2590.154928
734.058798	2588.440936
734.389501	2588.244331
734.720156	2583.954309
735.050762	2586.739547
735.381320	2585.048240
735.711831	2583.304000
736.042293	2583.036819
736.372707	2584.007241
736.703073	2585.791810
737.033391	2583.351891
737.363661	2584.927252
737.693883	2586.459763
738.024056	2587.692325
738.354182	2584.960019
738.684260	2592.335227
739.014290	2590.351533
739.344272	2588.357757
739.674207	2590.964034
740.004093	2591.032089
740.333931	2593.734148
740.663722	2594.192893
740.993464	2595.758171
741.323159	2593.194744
741.652806	2595.455702
741.982405	2591.672316
742.311956	2591.442943
742.641460	2592.287337
742.970915	2590.911102
743.300323	2588.997984
743.629683	2587.122674
743.958996	2588.922366
744.288260	2586.865576
744.617477	2586.638724
744.946647	2581.819381
745.275768	2584.861717
745.604842	2583.856007
745.933869	2582.147056
746.262847	2579.071952
746.591778	2591.168200
746.920662	2584.685277
747.249498	2583.651840
747.578286	2590.152408
747.907027	2589.441605
748.235720	2584.012283
748.564365	2590.321287
748.892963	2593.837491
749.221514	2590.001173
749.550017	2589.532346
749.878473	2591.387491
750.206881	2589.131574
750.535242	2589.585278
750.863555	2588.917325
751.191821	2589.305494
751.520039	2588.889599
751.848210	2587.099989
752.176334	2591.949579
752.504411	2592.647779
752.832440	2588.839187
753.160421	2588.803899
753.488356	2591.886565
753.816243	2593.408993
754.144082	2588.559403
754.471875	2588.085535
754.799620	2591.735330
755.127318	2587.198292
755.454969	2591.679877
755.782572	2589.945721
756.110129	2588.158632
756.437638	2589.388673
756.765100	2592.269692
757.092515	2591.873962
757.419882	2591.765577
757.747203	2591.916812
758.074477	2592.176431
758.401703	2593.378746
758.728882	2598.084663
759.056014	2592.879672
759.383099	2595.748089
759.710138	2594.966710
760.037129	2594.938983
760.364073	2600.227154
760.690970	2596.421083
761.017820	2591.689960
761.344623	2595.990064
761.671379	2602.999788
761.998088	2600.408635
762.324751	2608.655963
762.651366	2616.247941
762.977935	2639.472537
763.304456	2665.220230
763.630931	2677.727332
763.957359	2658.039106
764.283740	2640.833648
764.610074	2633.445837
764.936362	2625.977368
765.262602	2616.116871
765.588796	2610.193515
765.914943	2603.824017
766.241044	2598.752616
766.567097	2600.922833
766.893104	2596.479056
767.219064	2591.553849
767.544978	2588.922366
767.870845	2587.863724
768.196665	2584.975143
768.522438	2590.142326
768.848165	2588.032603
769.173846	2590.036461
769.499479	2587.067222
769.825066	2585.643096
770.150607	2583.883733
770.476101	2584.692838
770.801548	2586.789958
771.126949	2581.544638
771.452303	2582.520101
771.777611	2582.401634
772.102872	2581.337950
772.428087	2581.741243
772.753256	2584.279464
773.078378	2583.629155
773.403453	2580.634709
773.728482	2580.949782
774.053465	2583.329206
774.378401	2580.949782
774.703291	2576.803432
775.028135	2577.022723
775.352932	2577.466344
775.677683	2575.797722
776.002388	2577.000037
776.327046	2578.706468
776.651658	2578.348546
776.976224	2579.185378
777.300743	2576.556416
777.625216	2574.976014
777.949643	2577.020202
778.274024	2574.229923
778.598359	2572.773030
778.922647	2570.895200
779.246889	2572.364697
779.571086	2569.362689
779.895236	2576.178329
780.219339	2576.158165
780.543397	2579.742425
780.867409	2577.665470
781.191374	2578.194791
781.515294	2575.341498
781.839167	2575.558267
782.162995	2573.105746
782.486776	2576.982393
782.810511	2576.642116
783.134201	2575.643967
783.457844	2577.864595
783.781441	2577.002558
784.104993	2573.476271
784.428498	2573.834193
784.751958	2578.898032
785.075372	2575.936354
785.398739	2575.311251
785.722061	2576.377455
786.045337	2577.345357
786.368568	2573.640108
786.691752	2574.413926
787.014891	2581.116140
787.337983	2580.715368
787.661030	2580.859041
787.984031	2588.743405
788.306987	2593.098962
788.629897	2588.803899
788.952760	2591.183324
789.275579	2589.008066
789.598351	2585.897674
789.921078	2580.375090
790.243759	2583.271233
790.566395	2583.818198
790.888984	2579.651684
791.211529	2579.623958
791.534027	2580.362487
791.856480	2574.643298
792.178888	2573.035170
792.501249	2573.509038
792.823566	2577.027764
793.145836	2574.111456
793.468062	2573.682958
793.790241	2575.381827
794.112375	2576.206056
794.434464	2575.296127
794.756507	2575.225551
795.078505	2578.177147
795.400457	2575.401992
795.722364	2576.755542
796.044226	2582.285687
796.366042	2578.850141
796.687812	2580.599421
797.009538	2584.408013
797.331218	2582.956161
797.652852	2583.830801
797.974442	2580.463310
798.295986	2579.122363
798.617484	2580.009606
798.938938	2579.444997
799.260346	2577.557085
799.581709	2578.976170
799.903026	2579.059349
800.224299	2578.416602
800.545526	2574.025757
800.866708	2574.509707
801.187845	2572.916703
801.508936	2576.448031
801.829983	2572.853688
802.150984	2574.769327
802.471940	2572.334450
802.792851	2574.479461
803.113717	2571.991651
803.434538	2572.258832
803.755314	2571.555591
804.076045	2570.207083
804.396731	2571.641291
804.717372	2571.658935
805.037967	2572.251271
805.358518	2571.908472
805.679024	2573.226734
805.999485	2572.430232
806.319901	2572.528534
806.640272	2570.101218
806.960598	2571.837896
807.280879	2571.742114
807.601115	2577.103381
807.921306	2576.344687
808.241453	2571.754717
808.561554	2572.478122
808.881611	2575.437280
809.201623	2574.252609
809.521590	2576.427867
809.841513	2572.831003
810.161390	2574.124059
810.481223	2573.509038
810.801011	2574.078689
811.120755	2575.827969
811.440453	2575.099522
811.760107	2574.005592
812.079716	2571.248081
812.399281	2568.321691
812.718801	2569.536609
813.038276	2567.003429
813.357707	2574.960891
813.677093	2575.540623
813.996434	2574.182032
814.315731	2575.676735
814.634983	2572.828483
814.954191	2568.785477
815.273354	2574.973494
815.592473	2578.749318
815.911547	2573.655232
816.230577	2578.497260
816.549562	2578.698906
816.868502	2577.098340
817.187399	2579.717219
817.506250	2580.087744
817.825058	2583.281315
818.143821	2579.240830
818.462539	2585.822057
818.781213	2585.766604
819.099843	2592.441092
819.418429	2595.581731
819.736970	2603.113214
820.055466	2609.034050
820.373919	2624.137347
820.692327	2639.321302
821.010691	2653.139105
821.329011	2686.400638
821.647286	2748.280801
821.965517	2836.790860
822.283704	2878.758466
822.601847	2894.330590
822.919945	2886.453787
823.237999	2879.688558
823.556010	2825.914570
823.873976	2783.019392
824.191897	2748.311048
824.509775	2720.304918
824.827609	2691.615711
825.145398	2676.794719
825.463144	2678.236489
825.780845	2684.626152
826.098502	2690.289888
826.416116	2716.516491
826.733685	2741.228227
827.051210	2752.855648
827.368692	2743.947929
827.686129	2726.429920
828.003522	2692.641586
828.320872	2664.935405
828.638177	2647.180461
828.955439	2623.434106
829.272656	2615.191819
829.589830	2605.568256
829.906960	2602.185642
830.224046	2595.460743
830.541088	2595.727924
830.858086	2592.448653
831.175041	2589.358426
831.491952	2588.887078
831.808819	2592.819178
832.125642	2591.473190
832.442421	2598.261104
832.759157	2605.895931
833.075849	2625.362347
833.392497	2650.605925
833.709101	2674.997548
834.025662	2675.234482
834.342179	2665.235353
834.658653	2643.079482
834.975083	2627.346041
835.291469	2622.224229
835.607811	2605.023812
835.924110	2596.050558
836.240366	2588.453539
836.556578	2588.519074
836.872746	2580.733012
837.188871	2578.580439
837.504952	2576.690007
837.820990	2574.323185
838.136984	2570.738924
838.452935	2571.512742
838.768842	2569.660117
839.084706	2572.110118
839.400526	2579.550861
839.716303	2594.233222
840.032037	2603.229161
840.347727	2605.391816
840.663373	2605.139758
840.978977	2593.487131
841.294537	2584.367684
841.610054	2576.596745
841.925527	2571.989131
842.240957	2569.652556
842.556344	2567.197514
842.871687	2569.617268
843.186987	2564.555949
843.502244	2563.250290
843.817458	2562.461350
844.132629	2562.405897
844.447756	2558.146122
844.762840	2556.023796
845.077881	2554.980278
845.392879	2557.458005
845.707833	2556.626214
846.022745	2555.053374
846.337613	2558.075546
846.652438	2559.083777
846.967221	2559.837429
847.281960	2555.391132
847.596656	2559.608057
847.911309	2557.561348
848.225919	2557.682336
848.540485	2557.105124
848.855009	2556.033879
849.169490	2554.040102
849.483928	2556.991698
849.798323	2556.054043
850.112675	2557.034548
850.426984	2554.776111
850.741251	2557.616801
851.055474	2557.939435
851.369654	2557.490772
851.683792	2557.437840
851.997887	2554.110678
852.311938	2557.853735
852.625947	2556.532953
852.939914	2557.989846
853.253837	2558.267110
853.567718	2553.392314
853.881555	2556.943807
854.195350	2559.214847
854.509103	2557.493293
854.822812	2557.636966
855.136479	2556.306101
855.450103	2556.512788
855.763685	2557.730227
856.077224	2559.335834
856.390720	2554.824002
856.704173	2556.243087
857.017584	2555.154197
857.330953	2556.049002
857.644278	2558.622511
857.957561	2559.603016
858.270802	2559.114024
858.584000	2556.457336
858.897155	2560.777604
859.210268	2558.577141
859.523339	2556.850546
859.836367	2558.221739
860.149352	2558.365412
860.462295	2560.185269
860.775195	2553.825853
861.088054	2551.590102
861.400869	2554.143446
861.713642	2551.804351
862.026373	2553.097407
862.339062	2554.597150
862.651708	2554.818961
862.964312	2558.415824
863.276873	2559.499672
863.589392	2559.847512
863.901869	2559.371122
864.214303	2558.839281
864.526696	2558.713252
864.839045	2560.444888
865.151353	2561.259035
865.463619	2561.987481
865.775842	2561.430434
866.088023	2564.472770
866.400162	2562.166442
866.712258	2560.633932
867.024313	2562.368088
867.336325	2558.872048
867.648296	2558.879610
867.960224	2562.695763
868.272110	2560.228119
868.583954	2562.342883
868.895755	2563.376319
869.207515	2563.371278
869.519233	2564.500497
869.830909	2560.941442
870.142542	2563.635939
870.454134	2561.261555
870.765684	2562.002605
871.077191	2560.432285
871.388657	2565.443192
871.700081	2564.238357
872.011463	2563.915723
872.322803	2563.625856
872.634101	2563.978737
872.945357	2564.175342
873.256571	2567.870508
873.567744	2565.533933
873.878874	2566.716084
874.189963	2567.668862
874.501010	2571.432083
874.812015	2565.221382
875.122979	2570.842268
875.433900	2570.922927
875.744780	2568.578790
876.055618	2568.505693
876.366415	2570.055848
876.677169	2566.133830
876.987882	2568.092319
877.298554	2565.501166
877.609183	2570.759089
877.919771	2570.401167
878.230317	2573.718246
878.540822	2578.890470
878.851285	2583.177972
879.161707	2588.498909
879.472087	2597.507451
879.782425	2603.899634
880.092722	2625.095166
880.402977	2648.130718
880.713191	2675.335305
881.023363	2698.534695
881.333494	2712.433156
881.643583	2731.909654
881.953631	2738.473236
882.263637	2736.570201
882.573602	2716.108157
882.883526	2704.838658
883.193408	2691.315763
883.503248	2679.635409
883.813048	2667.304747
884.122806	2647.989566
884.432522	2633.773512
884.742197	2621.888992
885.051831	2614.801130
885.361424	2608.781992
885.670975	2604.055910
885.980485	2594.172728
886.289954	2590.971595
886.599382	2588.493868
886.908768	2585.721234
887.218113	2580.395255
887.527417	2575.825449
887.836680	2577.486509
888.145901	2575.941395
888.455082	2575.079358
888.764221	2572.432752
889.073319	2572.379820
889.382376	2571.162381
889.691392	2571.603482
890.000366	2570.857392
890.309300	2571.306054
890.618193	2571.943760
890.927044	2569.957546
891.235855	2573.567012
891.544625	2571.845458
891.853353	2569.075344
892.162041	2571.096846
892.470687	2578.719071
892.779293	2578.076324
893.087858	2575.938875
893.396381	2578.656057
893.704864	2587.883889
894.013306	2596.693305
894.321707	2615.758949
894.630068	2628.218161
894.938387	2636.006743
895.246665	2635.898358
895.554903	2631.530199
895.863100	2626.196658
896.171256	2616.258023
896.479371	2603.889552
896.787446	2592.786411
897.095480	2589.340782
897.403473	2586.734506
897.711425	2583.966912
898.019336	2581.244689
898.327207	2575.815366
898.635038	2576.891653
898.942827	2576.664801
899.250576	2570.416291
899.558284	2569.675241
899.865952	2569.181208
900.173579	2570.139027
900.481165	2571.842937
900.788711	2565.750703
901.096216	2565.604509
901.403681	2564.893707
901.711105	2566.237174
902.018489	2565.614592
902.325832	2567.424366
902.633135	2565.236505
902.940397	2569.803790
903.247619	2579.019020
903.554800	2590.197778
903.861941	2609.787702
904.169041	2631.759571
904.476101	2644.591828
904.783121	2641.867085
905.090100	2637.188894
905.397039	2628.616412
905.703938	2613.160234
906.010796	2603.725715
906.317614	2591.730289
906.624391	2584.249217
906.931129	2579.059349
907.237826	2573.045252
907.544483	2566.423697
907.851099	2564.644169
908.157675	2561.685012
908.464211	2559.814744
908.770707	2556.187634
909.077163	2554.665205
909.383578	2551.753939
909.689954	2553.646892
909.996289	2551.509443
910.302584	2555.464228
910.608839	2552.590771
910.915054	2557.473128
911.221229	2554.589588
911.527363	2555.660833
911.833458	2554.186296
912.139513	2556.283416
912.445527	2555.161759
912.751502	2558.123437
913.057436	2555.728889
913.363331	2560.190310
913.669186	2563.527554
913.975000	2565.314643
914.280775	2568.462843
914.586510	2572.508369
914.892205	2578.956005
915.197859	2593.295567
915.503475	2608.517331
915.809050	2621.967130
916.114585	2622.004938
916.420081	2626.501648
916.725536	2632.011629
917.030952	2627.212450
917.336328	2617.157869
917.641665	2609.558330
917.946961	2600.370827
918.252218	2591.873962
918.557435	2587.946903
918.862612	2581.479103
919.167750	2577.768813
919.472848	2573.710685
919.777906	2570.862433
920.082925	2568.036866
920.387904	2565.478480
920.692843	2564.301371
920.997743	2563.749365
921.302603	2561.367419
921.607423	2559.993705
921.912204	2559.610577
922.216946	2558.083108
922.521647	2560.765002
922.826310	2557.216029
923.130932	2556.759805
923.435516	2553.684701
923.740059	2555.693601
924.044564	2555.081101
924.349028	2554.277037
924.653454	2544.348484
924.957840	2547.176571
925.262186	2549.024154
925.566493	2548.119267
925.870761	2547.486602
926.174989	2547.330327
926.479178	2549.210677
926.783328	2545.986859
927.087438	2545.959133
927.391509	2549.651778
927.695541	2546.637168
927.999533	2545.598690
928.303486	2546.390151
928.607400	2547.804195
928.911275	2547.035419
929.215110	2545.328988
929.518906	2546.387631
929.822663	2547.242106
930.126381	2544.887888
930.430060	2546.090203
930.733699	2545.308824
931.037299	2546.964843
931.340861	2548.875440
931.644383	2546.846376
931.947866	2543.665408
932.251309	2545.979297
932.554714	2544.046015
932.858080	2547.174051
933.161407	2544.711447
933.464694	2548.033567
933.767943	2546.997610
934.071153	2547.216901
934.374323	2548.116747
934.677455	2545.422250
934.980548	2545.944009
935.283602	2549.016593
935.586617	2544.194729
935.889593	2546.894267
936.192530	2545.596170
936.495428	2545.727240
936.798287	2548.673794
937.101108	2542.788247
937.403890	2549.576161
937.706632	2548.106664
938.009336	2548.492312
938.312002	2550.602035
938.614628	2551.239741
938.917216	2550.407951
939.219765	2553.220915
939.522275	2552.184958
939.824747	2552.535318
940.127179	2549.205636
940.429573	2545.313865
940.731929	2546.417878
941.034246	2547.872251
941.336524	2549.122457
941.638763	2548.971222
941.940964	2551.275029
942.243126	2548.149514
942.545250	2548.119267
942.847335	2545.775131
943.149381	2547.395862
943.451389	2549.603887
943.753359	2549.321582
944.055290	2546.904349
944.357182	2548.426778
944.659036	2548.008362
944.960851	2548.033567
945.262628	2546.561551
945.564367	2545.374359
945.866067	2544.913093
946.167729	2548.678835
946.469352	2545.762528
946.770937	2545.603731
947.072484	2545.233207
947.373992	2546.097764
947.675462	2545.598690
947.976893	2549.344267
948.278286	2545.326468
948.579641	2544.915614
948.880958	2545.591128
949.182236	2543.488967
949.483476	2544.129194
949.784678	2546.097764
950.085841	2546.057435
950.386967	2546.385110
950.688054	2543.577187
950.989103	2546.743032
951.290114	2546.238917
951.591087	2545.460058
951.892021	2545.565923
952.192917	2546.213711
952.493776	2546.947199
952.794596	2549.014072
953.095378	2547.899977
953.396122	2548.520039
953.696828	2546.531304
953.997496	2549.460214
954.298126	2545.828063
954.598718	2549.303938
954.899272	2546.967363
955.199788	2545.361756
955.500266	2544.197249
955.800706	2544.630789
956.101108	2543.640202
956.401472	2543.441076
956.701798	2538.828421
957.002087	2543.178936
957.302337	2545.359235
957.602550	2545.807898
957.902724	2541.296065
958.202861	2543.647764
958.502960	2543.385624
958.803022	2541.457382
959.103045	2539.778678
959.403031	2544.295552
959.702979	2542.543751
960.002889	2542.495860
960.302762	2537.043852
960.602596	2543.970398
960.902393	2543.544420
961.202153	2542.747918
961.501875	2542.468134
961.801559	2543.219266
962.101205	2542.263967
962.400814	2541.308668
962.700385	2542.891591
962.999918	2544.103988
963.299414	2542.289173
963.598873	2542.785726
963.898293	2541.424615
964.197677	2542.826056
964.497022	2540.965870
964.796331	2540.739018
965.095601	2542.785726
965.394835	2542.758000
965.694030	2541.903524
965.993189	2541.611137
966.292309	2540.154244
966.591393	2539.229192
966.890439	2541.182639
967.189447	2542.556354
967.488419	2538.699871
967.787353	2541.530479
968.086249	2541.941333
968.385108	2545.628937
968.683930	2543.040305
968.982714	2542.299255
969.281462	2540.323123
969.580172	2543.146169
969.878844	2540.078627
970.177480	2541.270860
970.476078	2541.661549
970.774639	2541.606096
971.073162	2544.592980
971.371649	2538.195756
971.670098	2538.346990
971.968510	2537.699202
972.266885	2537.242978
972.565223	2542.546272
972.863524	2540.779347
973.161788	2542.700027
973.460014	2540.156765
973.758204	2544.010727
974.056356	2543.095757
974.354471	2543.660367
974.652550	2543.524255
974.950591	2540.340767
975.248595	2544.444266
975.546563	2540.963349
975.844493	2543.128525
976.142386	2540.590304
976.440243	2541.737166
976.738062	2542.873947
977.035845	2541.525438
977.333590	2541.044008
977.631299	2541.986703
977.928971	2542.518545
978.226606	2539.917310
978.524204	2539.876981
978.821765	2540.761703
979.119290	2541.855633
979.416777	2541.180119
979.714228	2544.832435
980.011642	2542.374872
980.309020	2546.599359
980.606360	2541.742207
980.903664	2540.363452
981.200931	2539.236754
981.498162	2540.875129
981.795356	2543.365459
982.092513	2545.515511
982.389633	2543.015099
982.686717	2544.575336
982.983764	2545.492826
983.280775	2547.166489
983.577749	2543.869574
983.874686	2546.924514
984.171587	2543.614996
984.468451	2545.339071
984.765279	2542.316899
985.062070	2544.101468
985.358824	2545.805378
985.655543	2541.238092
985.952224	2542.155582
986.248869	2538.909079
986.545478	2537.903369
986.842050	2540.857485
987.138586	2539.047711
987.435086	2539.914789
987.731549	2537.805066
988.027975	2544.235058
988.324366	2539.917310
988.620719	2538.888914
988.917037	2538.031918
989.213318	2540.439069
989.509563	2540.285314
989.805772	2538.878832
990.101944	2543.070552
990.398080	2539.607279
990.694180	2541.379244
990.990244	2542.306817
991.286271	2539.637526
991.582262	2542.881508
991.878217	2541.343956
992.174136	2542.717671
992.470019	2540.721374
992.765865	2542.228679
993.061676	2540.285314
993.357450	2543.536858
993.653188	2542.674821
993.948890	2538.992258
994.244556	2542.987372
994.540186	2540.227341
994.835780	2541.822866
995.131337	2545.218083
995.426859	2539.977804
995.722345	2538.596528
996.017795	2540.217258
996.313208	2543.604914
996.608586	2542.722712
996.903928	2544.192208
997.199234	2541.442259
997.494504	2540.426466
997.789738	2542.979811
998.084936	2540.560057
998.380099	2539.844213
998.675225	2542.813453
998.970316	2542.281611
999.265371	2542.977290
999.560390	2541.182639
999.855373	2542.563916
1000.150320	2543.113401
1000.445232	2539.186342
1000.740108	2540.348328
1001.034948	2542.115253
1001.329752	2539.483771
1001.624521	2543.088196
1001.919254	2536.670807
1002.213951	2537.515200
1002.508613	2536.063348
1002.803239	2541.671631
1003.097829	2535.773481
1003.392384	2538.828421
1003.686903	2539.077958
1003.981386	2543.597352
1004.275834	2541.061652
1004.570246	2537.868081
1004.864623	2538.606610
1005.158964	2540.620551
1005.453270	2539.640046
1005.747540	2540.426466
1006.041775	2540.779347
1006.335974	2539.768596
1006.630138	2539.158616
1006.924266	2540.282793
1007.218359	2540.602907
1007.512416	2540.655839
1007.806438	2542.178267
1008.100425	2539.362783
1008.394376	2540.917979
1008.688292	2539.629964
1008.982172	2540.053421
1009.276017	2539.829090
1009.569827	2539.382947
1009.863602	2539.241795
1010.157341	2538.641898
1010.451045	2538.417567
1010.744714	2539.360262
1011.038347	2540.166847
1011.331945	2538.881353
1011.625508	2543.667928
1011.919036	2540.643236
1012.212528	2540.323123
1012.505986	2538.747762
1012.799408	2539.433359
1013.092795	2539.231713
1013.386147	2539.025026
1013.679464	2539.730787
1013.972745	2537.888245
1014.265992	2538.810777
1014.559204	2542.006868
1014.852380	2539.622402
1015.145521	2539.700540
1015.438628	2542.395037
1015.731699	2540.166847
1016.024736	2540.252547
1016.317737	2540.610468
1016.610703	2538.485622
1016.903635	2537.235416
1017.196531	2536.892618
1017.489393	2535.294572
1017.782219	2534.147709
1018.075011	2540.118956
1018.367768	2537.845396
1018.660490	2538.856147
1018.953177	2538.856147
1019.245829	2538.856147
