Dividing Wavelength (nm)	Counts (n)	Blue Motor Position (mm): 8.600000	Red Motor Position (mm): 0.000000	
326.493990	2140.741104
326.888308	2140.741104
327.282561	2140.741104
327.676750	2108.195415
328.070874	2106.219283
328.464933	2110.436208
328.858929	2114.229676
329.252859	2123.714607
329.646726	2135.052162
330.040528	2146.109933
330.434265	2166.763540
330.827938	2180.782989
331.221547	2200.693026
331.615091	2220.839998
332.008571	2238.400857
332.401986	2258.411717
332.795338	2277.139604
333.188625	2297.946966
333.581847	2316.687456
333.975006	2335.052379
334.368100	2354.491068
334.761129	2370.287524
335.154095	2389.902654
335.546996	2406.677093
335.939833	2421.102355
336.332606	2437.614654
336.725315	2447.134873
337.117960	2458.394290
337.510540	2466.621453
337.903056	2479.181488
338.295508	2486.191213
338.687896	2490.798827
339.080220	2502.219561
339.472480	2509.483864
339.864676	2512.443021
340.256807	2516.236490
340.648875	2519.298991
341.040879	2523.573889
341.432818	2523.576410
341.824694	2527.372398
342.216506	2527.135464
342.608253	2526.293592
342.999937	2528.231915
343.391557	2527.435413
343.783113	2523.805782
344.174605	2524.282171
344.566033	2521.403672
344.957397	2519.833353
345.348697	2521.678415
345.739934	2520.387880
346.131106	2514.633403
346.522215	2515.757580
346.913260	2510.968484
347.304241	2511.931344
347.695159	2509.340191
348.086012	2509.292300
348.476802	2504.125117
348.867528	2502.829541
349.258191	2500.452637
349.648789	2499.414159
350.039324	2499.303254
350.429796	2499.925836
350.820203	2498.136227
351.210548	2497.730414
351.600828	2495.328304
351.991045	2493.029538
352.381198	2495.983654
352.771288	2491.290340
353.161314	2493.039620
353.551276	2492.880824
353.941175	2493.982316
354.331010	2492.711945
354.720782	2490.120792
355.110490	2491.053406
355.500135	2489.283961
355.889717	2494.156236
356.279235	2492.855618
356.668689	2497.032214
357.058080	2490.690443
357.447408	2493.931904
357.836672	2491.991060
358.225873	2490.811430
358.615010	2491.466780
359.004084	2495.469456
359.393095	2495.202275
359.782043	2496.903665
360.170927	2496.283603
360.559748	2499.938439
360.948505	2499.421721
361.337199	2500.044303
361.725830	2497.780825
362.114398	2501.337359
362.502903	2499.822493
362.891344	2501.002123
363.279722	2499.129334
363.668037	2501.385250
364.056289	2501.869201
364.444478	2501.539006
364.832603	2501.841475
365.220665	2504.409943
365.608665	2502.527072
365.996601	2504.316681
366.384474	2504.848523
366.772284	2502.832062
367.160031	2503.986486
367.547715	2504.626712
367.935336	2507.303565
368.322893	2508.188288
368.710388	2506.585201
369.097820	2507.638802
369.485189	2506.842299
369.872495	2506.567557
370.259738	2507.071672
370.646918	2505.176198
371.034035	2503.749552
371.421090	2507.051507
371.808081	2507.197701
372.195010	2509.990500
372.581875	2507.626199
372.968678	2510.126611
373.355418	2508.102588
373.742096	2508.694923
374.128710	2508.558812
374.515262	2509.551920
374.901751	2509.098216
375.288177	2510.159379
375.674540	2510.875222
376.060841	2509.299862
376.447079	2510.474451
376.833254	2510.628206
377.219367	2504.462875
377.605417	2509.221724
377.991404	2507.071672
378.377329	2509.423370
378.763191	2504.977072
379.148991	2512.125429
379.534727	2510.812208
379.920402	2513.413443
380.306013	2513.564678
380.691563	2511.860768
381.077049	2514.724143
381.462474	2512.894205
381.847835	2512.024606
382.233134	2513.912518
382.618371	2512.163237
383.003545	2514.358660
383.388657	2516.785975
383.773706	2512.695079
384.158693	2513.622651
384.543618	2514.411592
384.928480	2514.651047
385.313280	2517.219515
385.698017	2515.865965
386.082692	2517.832015
386.467305	2516.465862
386.851856	2516.110461
387.236344	2516.544000
387.620770	2516.788496
388.005133	2518.315966
388.389435	2516.339833
388.773674	2515.760101
389.157851	2514.366222
389.541965	2517.274967
389.926018	2517.506860
390.310008	2517.211953
390.693936	2517.350585
391.077802	2517.310255
391.461606	2519.578775
391.845348	2517.869823
392.229027	2520.518950
392.612645	2519.614063
392.996200	2520.183713
393.379694	2520.219001
393.763125	2519.798065
394.146494	2520.045081
394.529801	2520.430730
394.913047	2520.367715
395.296230	2518.653723
395.679351	2522.721934
396.062410	2520.859228
396.445408	2521.133971
396.828343	2520.367715
397.211217	2516.024761
397.594028	2519.419978
397.976778	2521.002901
398.359466	2520.433250
398.742092	2518.951151
399.124656	2522.865607
399.507158	2521.615401
399.889598	2525.232429
400.271977	2523.687315
400.654294	2521.436440
401.036549	2523.107582
401.418742	2525.199661
401.800874	2521.365864
402.182944	2521.774197
402.564952	2521.567510
402.946898	2523.914167
403.328783	2521.943076
403.710606	2523.541122
404.092367	2526.250742
404.474067	2526.714528
404.855705	2526.636390
405.237282	2526.374250
405.618797	2525.013138
406.000250	2524.680422
406.381642	2526.384332
406.762972	2527.707635
407.144240	2523.309228
407.525447	2528.519261
407.906593	2526.865762
408.287677	2527.962213
408.668700	2525.497089
409.049661	2526.664116
409.430560	2525.781914
409.811399	2526.893489
410.192176	2528.400794
410.572891	2525.872655
410.953545	2527.652183
411.334138	2529.824920
411.714669	2528.645290
412.095139	2528.685619
412.475547	2527.178314
412.855894	2527.143026
413.236180	2528.214271
413.616405	2529.885414
413.996568	2529.335928
414.376670	2528.718387
414.756711	2528.481452
415.136691	2529.971113
415.516609	2529.429189
415.896466	2526.306194
416.276262	2530.891124
416.655997	2526.706966
417.035670	2526.371729
417.415283	2527.584127
417.794834	2524.274609
418.174324	2529.827440
418.553753	2528.625125
418.933121	2530.775177
419.312428	2530.697039
419.691674	2530.460105
420.070859	2534.127545
420.449983	2530.704601
420.829045	2531.692667
421.208047	2530.507996
421.586988	2530.334076
421.965867	2534.253573
422.344686	2532.181659
422.723444	2530.124868
423.102141	2530.576052
423.480777	2531.591844
423.859352	2533.063861
424.237866	2532.128727
424.616319	2531.856505
424.994712	2531.304498
425.373044	2531.284334
425.751314	2531.400280
426.129524	2530.974303
426.507673	2530.878521
426.885762	2531.745599
427.263789	2533.671320
427.641756	2533.091588
428.019662	2533.951104
428.397508	2535.256763
428.775292	2533.479756
429.153016	2532.723583
429.530679	2538.851106
429.908282	2533.192411
430.285824	2534.853471
430.663305	2535.539068
431.040726	2534.427493
431.418086	2535.042514
431.795385	2535.584438
432.172624	2535.453368
432.549802	2535.745755
432.926920	2532.773995
433.303977	2536.058307
433.680974	2534.830786
434.057910	2539.796322
434.434786	2535.148378
434.811601	2535.425642
435.188355	2536.902700
435.565050	2534.520755
435.941683	2537.142155
436.318257	2534.296423
436.694770	2531.710311
437.071222	2533.169725
437.447614	2532.532019
437.823946	2533.830117
438.200218	2535.634850
438.576429	2536.590148
438.952580	2537.686599
439.328670	2535.781043
439.704700	2536.408667
440.080670	2536.517052
440.456580	2534.921526
440.832429	2538.919161
441.208218	2536.454037
441.583947	2535.624767
441.959616	2535.995292
442.335224	2538.513348
442.710773	2537.507638
443.086261	2538.886394
443.461689	2536.290200
443.837057	2537.361445
444.212365	2538.319264
444.587612	2539.088040
444.962800	2535.420601
445.337927	2539.652649
445.712995	2537.888245
446.088002	2539.292207
446.462949	2538.251208
446.837837	2541.961498
447.212664	2538.599048
447.587431	2536.290200
447.962139	2539.289686
448.336786	2540.933102
448.711374	2537.069058
449.085901	2539.622402
449.460369	2537.638708
449.834776	2537.951260
450.209124	2540.408822
450.583412	2539.942516
450.957640	2538.601569
451.331808	2537.704243
451.705917	2539.430838
452.079965	2538.160468
452.453954	2537.704243
452.827883	2539.945036
453.201752	2536.461599
453.575562	2539.272042
453.949311	2541.855633
454.323001	2538.120138
454.696632	2539.884542
455.070202	2539.723225
455.443713	2540.260108
455.817164	2536.819521
456.190556	2539.950077
456.563888	2541.563247
456.937160	2535.491177
457.310373	2541.008720
457.683526	2540.184491
458.056619	2544.265305
458.429653	2539.254398
458.802628	2541.991745
459.175542	2539.309851
459.548398	2543.022661
459.921194	2540.698689
460.293930	2541.621220
460.666607	2542.485778
461.039224	2541.366642
461.411782	2542.556354
461.784280	2539.783719
462.156719	2544.038453
462.529099	2542.127856
462.901419	2541.757331
463.273680	2542.485778
463.645882	2543.829245
464.018024	2543.020140
464.390106	2542.137938
464.762130	2542.826056
465.134094	2541.182639
465.505999	2543.156251
465.877845	2540.804553
466.249631	2543.839327
466.621358	2543.660367
466.993026	2543.970397
467.364634	2545.187836
467.736184	2543.960315
468.107674	2539.821528
468.479105	2541.787578
468.850477	2541.575849
469.221790	2544.010727
469.593043	2540.597866
469.964238	2543.579708
470.335373	2542.097609
470.706449	2542.344625
471.077467	2543.425953
471.448425	2541.699358
471.819324	2542.447969
472.190164	2543.118442
472.560945	2541.971580
472.931667	2542.823535
473.302330	2543.244471
473.672934	2543.529297
474.043479	2546.947199
474.413965	2543.292362
474.784393	2538.654501
475.154761	2541.911086
475.525070	2541.475026
475.895321	2542.987373
476.265513	2538.619213
476.635645	2542.579039
477.005719	2542.979811
477.375734	2545.354194
477.745691	2545.550799
478.115588	2547.786551
478.485427	2543.209183
478.855207	2544.585418
479.224928	2544.267826
479.594591	2545.560882
479.964194	2545.986859
480.333739	2544.582898
480.703226	2545.576005
481.072653	2543.728422
481.442022	2544.451828
481.811333	2543.781354
482.180584	2543.599873
482.549777	2543.350336
482.918912	2545.258412
483.287988	2543.262115
483.657005	2542.054759
484.025964	2546.702703
484.394864	2544.603062
484.763706	2545.132383
485.132489	2547.594987
485.501213	2547.874771
485.869879	2546.485933
486.238487	2544.328319
486.607036	2545.462579
486.975527	2546.440563
487.343959	2545.802857
487.712333	2545.674308
488.080648	2543.988042
488.448905	2546.748073
488.817104	2547.491643
489.185244	2547.007693
489.553326	2547.577343
489.921350	2547.572302
490.289315	2545.558361
490.657222	2548.739329
491.025070	2546.770758
491.392861	2545.233207
491.760593	2544.376210
492.128267	2548.618341
492.495883	2548.792261
492.863440	2547.786551
493.230939	2546.064997
493.598380	2547.910059
493.965763	2540.421425
494.333088	2544.199770
494.700354	2543.269677
495.067563	2547.083310
495.434713	2541.505273
495.801805	2547.582384
496.168839	2547.852086
496.535815	2547.685728
496.902733	2549.414844
497.269593	2548.368804
497.636395	2545.815460
498.003139	2547.174051
498.369825	2545.276056
498.736453	2548.013403
499.103023	2546.301931
499.469535	2547.665563
499.835989	2546.334699
500.202385	2548.255378
500.568723	2547.461397
500.935003	2548.351160
501.301226	2546.944678
501.667390	2546.392672
502.033497	2547.859648
502.399546	2548.686397
502.765537	2545.744884
503.131470	2546.238917
503.497345	2544.494677
503.863163	2549.757642
504.228923	2549.152704
504.594625	2548.520039
504.960269	2546.415357
505.325856	2549.097251
505.691385	2548.550286
506.056856	2546.243958
506.422270	2546.929555
506.787625	2549.679504
507.152924	2546.231355
507.518164	2549.029195
507.883347	2545.540717
508.248472	2547.983156
508.613540	2545.407126
508.978550	2548.555327
509.343503	2546.281767
509.708398	2549.573640
510.073236	2547.534493
510.438016	2548.719164
510.802738	2551.390976
511.167403	2549.682025
511.532010	2546.541386
511.896561	2545.389482
512.261053	2551.297715
512.625488	2546.617003
512.989866	2542.838658
513.354186	2545.540717
513.718449	2543.549461
514.082655	2546.664894
514.446803	2549.603887
514.810894	2548.741850
515.174927	2548.517518
515.538904	2548.759494
515.902822	2549.220759
516.266684	2548.693959
516.630488	2550.871737
516.994235	2550.218908
517.357925	2550.644885
517.721558	2550.387786
518.085133	2546.445604
518.448651	2548.920811
518.812112	2548.275543
519.175516	2551.484237
519.538863	2551.322920
519.902152	2551.506922
520.265385	2548.804864
520.628560	2546.730429
520.991678	2548.943496
521.354739	2549.256047
521.717743	2545.815460
522.080690	2548.257899
522.443580	2551.665719
522.806413	2549.997097
523.169189	2548.194884
523.531908	2548.386448
523.894569	2550.995245
524.257174	2548.303269
524.619722	2547.935265
524.982213	2551.453990
525.344647	2547.027857
525.707025	2550.410472
526.069345	2546.490974
526.431608	2551.741336
526.793815	2550.319731
527.155964	2550.191181
527.518057	2549.329144
527.880093	2549.356870
528.242072	2548.411654
528.603995	2550.591953
528.965860	2550.806202
529.327669	2553.498178
529.689421	2549.697148
530.051117	2550.465924
530.412755	2548.212528
530.774337	2551.012889
531.135862	2550.080276
531.497331	2549.253527
531.858743	2545.480223
532.220098	2547.499205
532.581396	2545.825542
532.942638	2547.123639
533.303824	2550.884340
533.664953	2550.108002
534.026025	2552.247972
534.387040	2552.280740
534.747999	2551.030533
535.108902	2555.496996
535.469748	2552.631100
535.830537	2553.389793
536.191270	2552.124464
536.551947	2553.180586
536.912567	2552.762170
537.273131	2554.856769
537.633638	2550.080276
537.994089	2552.121943
538.354483	2555.418858
538.714821	2554.186296
539.075103	2557.299208
539.435328	2553.856100
539.795497	2553.745195
540.155609	2556.595967
540.515665	2553.823333
540.875665	2556.727037
541.235609	2553.291491
541.595496	2553.987170
541.955328	2553.246121
542.315102	2554.352654
542.674821	2554.907181
543.034483	2555.474311
543.394090	2556.376677
543.753640	2556.727037
544.113134	2555.128992
544.472571	2556.414486
544.831953	2554.617314
545.191278	2557.952038
545.550548	2555.189485
545.909761	2557.326935
546.268918	2554.864331
546.628019	2555.287788
546.987064	2555.255020
547.346053	2555.658313
547.704986	2558.509085
548.063863	2556.124619
548.422684	2557.163097
548.781449	2556.623694
549.140158	2557.798283
549.498811	2558.357851
549.857408	2557.016904
550.215949	2557.465566
550.574434	2555.106306
550.932864	2554.423230
551.291237	2553.286450
551.649555	2558.395659
552.007817	2558.947666
552.366022	2555.590257
552.724173	2559.124106
553.082267	2555.764177
553.440305	2556.873231
553.798288	2557.838612
554.156215	2554.803837
554.514086	2559.890361
554.871902	2555.703683
555.229661	2559.174518
555.587365	2555.663354
555.945014	2556.618653
556.302606	2560.762481
556.660143	2559.086297
557.017625	2558.390618
557.375050	2555.920453
557.732421	2556.938766
558.089735	2559.383725
558.446994	2559.469425
558.804197	2558.887172
559.161345	2557.568910
559.518437	2555.600339
559.875474	2555.842315
560.232455	2558.219219
560.589381	2558.004970
560.946251	2560.465053
561.303065	2558.821637
561.659825	2556.686708
562.016528	2557.838612
562.373177	2557.536143
562.729770	2556.482541
563.086307	2559.262738
563.442789	2558.554456
563.799216	2559.537481
564.155587	2556.822819
564.511904	2559.464384
564.868164	2556.210319
565.224370	2558.796431
565.580520	2557.594116
565.936615	2559.025803
566.292654	2558.385577
566.648638	2558.650237
567.004567	2555.360885
567.360441	2559.784497
567.716260	2557.977243
568.072023	2555.255020
568.427732	2552.563044
568.783385	2556.520350
569.138982	2553.649413
569.494525	2553.568754
569.850013	2551.020451
570.205445	2555.970864
570.560823	2557.052192
570.916145	2556.633776
571.271412	2555.123950
571.626625	2556.999260
571.981782	2560.054199
572.336884	2558.030176
572.691931	2556.595967
573.046923	2556.008673
573.401860	2556.969013
573.756743	2554.335010
574.111570	2557.773077
574.466342	2556.321224
574.821059	2556.132181
575.175722	2557.979764
575.530330	2555.413817
575.884882	2556.953889
576.239380	2557.631924
576.593823	2556.439692
576.948211	2556.144784
577.302544	2554.405586
577.656823	2557.437840
578.011047	2559.754250
578.365216	2555.401214
578.719330	2552.535318
579.073389	2556.868190
579.427394	2554.758467
579.781344	2556.447253
580.135239	2554.461039
580.489080	2554.070349
580.842866	2557.747871
581.196597	2556.205278
581.550273	2554.082952
581.903895	2554.513971
582.257463	2558.372974
582.610975	2554.279557
582.964434	2556.938766
583.317837	2558.723334
583.671186	2556.943807
584.024481	2553.757798
584.377721	2555.983467
584.730906	2552.903322
585.084037	2554.695452
585.437113	2553.389793
585.790135	2555.698642
586.143103	2555.166800
586.496016	2556.341389
586.848874	2548.638506
587.201679	2553.800647
587.554428	2550.173537
587.907124	2552.328631
588.259765	2548.840152
588.612352	2556.580844
588.964884	2555.491955
589.317362	2555.801986
589.669786	2552.111861
590.022155	2554.529094
590.374470	2550.768393
590.726731	2555.098745
591.078937	2553.135215
591.431090	2555.297870
591.783188	2554.786193
592.135232	2556.860628
592.487222	2553.997252
592.839157	2554.403065
593.191038	2552.605894
593.542866	2554.415668
593.894639	2554.173693
594.246358	2554.834084
594.598022	2554.975236
594.949633	2555.774259
595.301190	2553.140256
595.652692	2554.705535
596.004141	2553.445246
596.355535	2556.248128
596.706876	2552.414330
597.058162	2553.893909
597.409395	2551.234700
597.760573	2555.991029
598.111698	2554.198899
598.462768	2553.422561
598.813785	2556.401883
599.164748	2555.207129
599.515657	2552.169834
599.866511	2554.473642
600.217312	2550.743188
600.568060	2556.096893
600.918753	2555.108827
601.269392	2551.358208
601.619978	2551.900133
601.970510	2555.335679
602.320988	2557.372305
602.671412	2554.738302
603.021783	2552.764690
603.372100	2554.768549
603.722363	2553.152859
604.072572	2553.236038
604.422728	2555.872562
604.772830	2550.208825
605.122878	2552.646223
605.472872	2551.108671
605.822813	2547.272353
606.172701	2552.321069
606.522534	2554.461039
606.872314	2556.893395
607.222041	2553.790565
607.571714	2552.575647
607.921333	2556.321224
608.270899	2554.645041
608.620411	2554.609753
608.969870	2554.100596
609.319276	2557.586554
609.668627	2559.792059
610.017926	2561.127965
610.367171	2562.736093
610.716362	2560.402038
611.065500	2561.669889
611.414585	2560.051678
611.763616	2559.063612
612.112594	2558.824157
612.461518	2556.802655
612.810389	2556.802655
613.159207	2557.135371
613.507971	2556.280895
613.856682	2556.255689
614.205340	2559.177038
614.553945	2556.643858
614.902496	2554.697973
615.250994	2557.826009
615.599439	2556.487583
615.947830	2556.447253
616.296169	2556.936245
616.644454	2557.672254
616.992686	2556.003632
617.340864	2559.257697
617.688990	2553.354505
618.037063	2559.108982
618.385082	2555.723848
618.733048	2558.509085
619.080961	2556.391801
619.428821	2558.010011
619.776628	2555.277706
620.124382	2556.099414
620.472083	2555.746533
620.819731	2556.212840
621.167326	2556.749723
621.514868	2557.682336
621.862357	2558.042778
622.209793	2553.808209
622.557176	2559.449260
622.904506	2556.253169
623.251783	2556.716955
623.599007	2554.312325
623.946179	2553.533466
624.293297	2553.757798
624.640363	2559.056050
624.987376	2558.670402
625.334336	2555.877603
625.681243	2558.173848
626.028097	2558.587223
626.374899	2555.756615
626.721647	2555.476831
627.068343	2556.255689
627.414987	2556.898437
627.761577	2556.071687
628.108115	2557.659651
628.454600	2557.268961
628.801032	2558.577141
629.147412	2556.485062
629.493739	2557.281564
629.840014	2557.702501
630.186236	2558.388097
630.532405	2559.081256
630.878521	2558.844322
631.224585	2559.610577
631.570597	2555.529763
631.916556	2560.079405
632.262462	2555.935576
632.608316	2556.747202
632.954117	2560.616287
633.299866	2559.696277
633.645562	2557.087480
633.991206	2559.398849
634.336797	2557.669733
634.682336	2558.619991
635.027823	2558.967830
635.373257	2557.513457
635.718639	2558.151163
636.063968	2558.141081
636.409245	2558.738458
636.754470	2559.146791
637.099642	2558.761143
637.444762	2558.499003
637.789829	2559.915567
638.134845	2558.511606
638.479808	2557.374826
638.824719	2560.701987
639.169577	2557.203426
639.514383	2558.894733
639.859137	2559.756771
640.203839	2559.587892
640.548489	2560.752399
640.893086	2557.004301
641.237632	2553.967006
641.582125	2560.086966
641.926566	2557.694939
642.270955	2560.240722
642.615292	2560.641493
642.959576	2561.233829
643.303809	2562.937739
643.647990	2563.184755
643.992118	2560.563355
644.336195	2563.424210
644.680219	2563.401525
645.024192	2564.003943
645.368112	2563.474622
645.711981	2565.274314
646.055797	2562.897410
646.399562	2564.596278
646.743274	2568.324212
647.086935	2568.203224
647.430544	2566.317832
647.774101	2569.123235
648.117606	2567.905796
648.461059	2570.433935
648.804460	2568.684654
649.147810	2567.691547
649.491108	2569.103070
649.834354	2568.601475
650.177548	2571.643812
650.520690	2568.593913
650.863781	2570.565005
651.206820	2572.664645
651.549807	2569.571897
651.892742	2573.733370
652.235626	2571.805128
652.578458	2570.622978
652.921238	2574.935685
653.263967	2574.771848
653.606644	2572.115159
653.949269	2571.782443
654.291843	2573.191446
654.634365	2573.975345
654.976836	2577.660429
655.319255	2575.215469
655.661622	2574.285376
656.003938	2577.922569
656.346203	2577.899883
656.688416	2579.500450
657.030577	2578.323340
657.372687	2578.305696
657.714746	2576.800912
658.056753	2580.032292
658.398708	2577.791499
658.740612	2576.546334
659.082465	2576.800912
659.424266	2582.419278
659.766016	2580.997673
660.107715	2583.740060
660.449362	2584.970102
660.790958	2582.600759
661.132503	2587.967068
661.473996	2589.688622
661.815438	2590.958992
662.156829	2589.620566
662.498168	2590.774990
662.839456	2590.752305
663.180693	2591.977306
663.521879	2593.421596
663.863013	2595.858994
664.204097	2598.440065
664.545129	2596.902513
664.886110	2600.738831
665.227040	2603.133379
665.567918	2603.423245
665.908746	2608.464399
666.249522	2606.500870
666.590248	2605.278390
666.930922	2609.618823
667.271545	2610.647219
667.612118	2616.643671
667.952639	2611.605038
668.293109	2618.627365
668.633528	2617.031840
668.973896	2614.049998
669.314213	2617.351953
669.654480	2622.020062
669.994695	2620.086779
670.334859	2619.202057
670.674973	2624.003756
671.015035	2625.463170
671.355047	2627.630866
671.695008	2628.563480
672.034918	2626.131123
672.374777	2631.804942
672.714585	2633.433234
673.054342	2636.031949
673.394049	2636.122690
673.733705	2640.400109
674.073310	2644.705254
674.412864	2640.143010
674.752368	2642.630819
675.091820	2642.993782
675.431223	2639.462454
675.770574	2645.249699
676.109875	2638.444141
676.449125	2643.732312
676.788324	2641.715850
677.127473	2643.150058
677.466571	2643.865902
677.805619	2647.069555
678.144616	2650.298414
678.483562	2651.215904
678.822458	2650.895791
679.161303	2652.370329
679.500098	2657.925680
679.838842	2655.594147
680.177535	2657.645896
680.516179	2657.555155
680.854771	2664.600168
681.193314	2669.941270
681.531805	2675.005109
681.870247	2690.264682
682.208638	2697.211392
682.546978	2698.612833
682.885268	2697.914633
683.223508	2697.922195
683.561697	2698.280117
683.899836	2698.988399
684.237925	2698.333049
684.575963	2701.763554
684.913951	2698.834644
685.251889	2711.838300
685.589776	2707.734801
685.927614	2706.424101
686.265401	2717.766697
686.603137	2720.665360
686.940824	2731.125755
687.278460	2730.803121
687.616046	2738.190932
687.953582	2744.941037
688.291068	2745.228382
688.628504	2762.063316
688.965889	2757.306987
689.303224	2755.046030
689.640510	2753.808426
689.977745	2753.326996
690.314930	2748.525297
690.652065	2745.881212
690.989150	2737.074316
691.326185	2734.765468
691.663170	2734.147926
692.000105	2732.738924
692.336990	2725.018397
692.673825	2728.993347
693.010610	2724.277347
693.347345	2714.608414
693.684030	2721.799620
694.020665	2720.534290
694.357251	2710.396530
694.693786	2717.534804
695.030272	2721.056050
695.366707	2716.035061
695.703093	2715.530945
696.039429	2717.844835
696.375716	2727.128120
696.711952	2723.621997
697.048139	2719.483210
697.384276	2721.781976
697.720363	2726.722307
698.056400	2732.459140
698.392388	2729.663820
698.728326	2725.719117
699.064214	2727.659961
699.400053	2728.857235
699.735842	2735.141034
700.071581	2730.840929
700.407270	2728.335476
700.742910	2727.319683
701.078501	2722.979250
701.414042	2730.926629
701.749533	2728.274982
702.084974	2717.312993
702.420366	2726.964282
702.755709	2726.303891
703.091002	2723.400186
703.426246	2735.103225
703.761440	2721.030844
704.096584	2717.015565
704.431679	2728.862277
704.766725	2729.893192
705.101721	2730.626680
705.436668	2734.815879
705.771565	2723.284240
706.106413	2728.917729
706.441212	2743.713516
706.775961	2746.627303
707.110661	2742.574215
707.445311	2741.802918
707.779913	2760.261103
708.114465	2760.346803
708.448967	2758.668099
708.783421	2772.342228
709.117825	2779.951850
709.452180	2781.900256
709.786485	2786.013838
710.120742	2802.266518
710.454949	2802.072433
710.789107	2811.680872
711.123216	2822.405927
711.457275	2821.102789
711.791286	2839.006447
712.125247	2850.565813
712.459159	2827.326093
712.793023	2833.456137
713.126837	2854.200485
713.460602	2853.625793
713.794318	2829.871876
714.127985	2836.916889
714.461602	2835.281034
714.795171	2821.654795
715.128691	2818.113385
715.462162	2814.665236
715.795584	2815.088692
716.128957	2814.196408
716.462281	2799.332566
716.795556	2798.931794
717.128782	2802.745427
717.461960	2795.614715
717.795088	2796.335600
718.128167	2794.374591
718.461198	2777.358177
718.794180	2779.616613
719.127113	2784.236831
719.459997	2783.286573
719.792833	2776.438166
720.125619	2773.143772
720.458357	2772.871550
720.791046	2781.441511
721.123686	2774.676283
721.456278	2769.854419
721.788821	2777.781633
722.121315	2774.751900
722.453761	2763.888213
722.786158	2777.834566
723.118506	2782.613579
723.450805	2765.728235
723.783056	2771.523041
724.115259	2785.958385
724.447412	2789.343520
724.779518	2780.153496
725.111574	2785.822274
725.443582	2794.782925
725.775542	2794.440126
726.107453	2805.586117
726.439315	2810.972590
726.771129	2806.586787
727.102895	2813.777992
727.434612	2831.169973
727.766281	2831.595951
728.097901	2828.009170
728.429473	2830.859942
728.760996	2834.643328
729.092471	2829.881958
729.423897	2837.801611
729.755276	2845.668332
730.086606	2839.140037
730.417887	2843.152796
730.749120	2863.002339
731.080305	2887.628376
731.411442	2890.035527
731.742530	2879.197046
732.073570	2881.740308
732.404562	2903.492887
732.735506	2902.882907
733.066401	2895.043913
733.397249	2879.227293
733.728048	2861.069057
734.058798	2859.229036
734.389501	2849.739063
734.720156	2826.733758
735.050762	2820.989363
735.381320	2830.849860
735.711831	2810.264308
736.042293	2808.257929
736.372707	2822.942810
736.703073	2817.677325
737.033391	2807.055614
737.363661	2814.755976
737.693883	2824.853407
738.024056	2830.983451
738.354182	2820.901143
738.684260	2841.915193
739.014290	2846.681604
739.344272	2842.283197
739.674207	2858.336751
740.004093	2857.162163
740.333931	2859.327338
740.663722	2863.453522
740.993464	2864.794469
741.323159	2857.686442
741.652806	2854.676874
741.982405	2853.837522
742.311956	2848.703106
742.641460	2846.467355
742.970915	2843.180522
743.300323	2833.675427
743.629683	2824.243428
743.958996	2828.921619
744.288260	2822.237049
744.617477	2816.623724
744.946647	2808.509987
745.275768	2809.049390
745.604842	2815.575164
745.933869	2795.473563
746.262847	2792.582461
746.591778	2819.943324
746.920662	2807.884884
747.249498	2794.054478
747.578286	2816.064156
747.907027	2820.732264
748.235720	2807.221972
748.564365	2827.021104
748.892963	2833.950170
749.221514	2826.905157
749.550017	2813.604073
749.878473	2815.991059
750.206881	2812.394196
750.535242	2814.642550
750.863555	2818.536842
751.191821	2818.708241
751.520039	2804.605613
751.848210	2798.009263
752.176334	2818.070535
752.504411	2824.034220
752.832440	2809.455203
753.160421	2799.130920
753.488356	2810.385296
753.816243	2819.277891
754.144082	2802.079995
754.471875	2796.096145
754.799620	2807.779019
755.127318	2800.993626
755.454969	2805.780202
755.782572	2812.794967
756.110129	2798.309212
756.437638	2794.576237
756.765100	2805.223154
757.092515	2811.343115
757.419882	2818.239414
757.747203	2802.589152
758.074477	2799.151085
758.401703	2811.408650
758.728882	2818.005000
759.056014	2821.654795
759.383099	2821.218736
759.710138	2814.128353
760.037129	2820.573468
760.364073	2841.829493
760.690970	2836.256497
761.017820	2824.404745
761.344623	2829.876917
761.671379	2847.946933
761.998088	2869.137423
762.324751	2906.111766
762.651366	2972.042497
762.977935	3092.889037
763.304456	3228.785942
763.630931	3287.706948
763.957359	3177.005730
764.283740	3080.565936
764.610074	3036.019780
764.936362	2985.091524
765.262602	2929.144798
765.588796	2896.243708
765.914943	2867.685571
766.241044	2837.413442
766.567097	2832.946980
766.893104	2817.763025
767.219064	2809.674493
767.544978	2802.556384
767.870845	2778.293311
768.196665	2770.799635
768.522438	2781.370935
768.848165	2785.686163
769.173846	2770.252670
769.499479	2762.958121
769.825066	2756.550814
770.150607	2753.326996
770.476101	2764.851074
770.801548	2766.431476
771.126949	2743.058166
771.452303	2738.017012
771.777611	2746.433218
772.102872	2752.860689
772.428087	2741.187898
772.753256	2742.680079
773.078378	2736.875191
773.403453	2723.485886
773.728482	2720.998077
774.053465	2734.815879
774.378401	2728.678274
774.703291	2713.721171
775.028135	2718.585884
775.352932	2713.902652
775.677683	2712.309648
776.002388	2710.494832
776.327046	2714.008517
776.651658	2708.080120
776.976224	2705.499049
777.300743	2703.497711
777.625216	2703.674151
777.949643	2702.154243
778.274024	2700.662062
778.598359	2699.316074
778.922647	2700.147864
779.246889	2702.494521
779.571086	2695.121834
779.895236	2692.089580
780.219339	2697.501258
780.543397	2709.194215
780.867409	2707.316385
781.191374	2702.348328
781.515294	2702.592824
781.839167	2701.985365
782.162995	2700.039479
782.486776	2707.356714
782.810511	2705.874615
783.134201	2698.423790
783.457844	2705.088195
783.781441	2703.001157
784.104993	2690.660413
784.428498	2693.241483
784.751958	2699.623584
785.075372	2696.979499
785.398739	2688.288550
785.722061	2698.859849
786.045337	2706.887887
786.368568	2696.430013
786.691752	2690.816688
787.014891	2715.722509
787.337983	2726.172821
787.661030	2728.174159
787.984031	2754.640217
788.306987	2772.939605
788.629897	2771.593617
788.952760	2767.767381
789.275579	2770.603030
789.598351	2743.653022
789.921078	2725.986298
790.243759	2728.315311
790.566395	2722.828015
790.888984	2714.994062
791.211529	2703.671631
791.534027	2704.009388
791.856480	2699.956300
792.178888	2693.924560
792.501249	2687.754187
792.823566	2690.153777
793.145836	2691.323324
793.468062	2688.991791
793.790241	2686.619928
794.112375	2689.402645
794.434464	2693.730475
794.756507	2696.056968
795.078505	2697.899510
795.400457	2698.454037
795.722364	2713.123794
796.044226	2722.283571
796.366042	2722.144939
796.687812	2717.849876
797.009538	2733.752196
797.331218	2729.268089
797.652852	2723.397666
797.974442	2713.595142
798.295986	2716.483723
798.617484	2716.728219
798.938938	2710.709082
799.260346	2702.958307
799.581709	2702.287834
799.903026	2699.434541
800.224299	2697.244160
800.545526	2697.019828
800.866708	2685.926769
801.187845	2678.480985
801.508936	2682.413085
801.829983	2690.252079
802.150984	2683.181861
802.471940	2673.555778
802.792851	2674.879081
803.113717	2676.131807
803.434538	2681.175482
803.755314	2677.187929
804.076045	2672.925633
804.396731	2672.613082
804.717372	2670.967145
805.037967	2668.648214
805.358518	2675.375634
805.679024	2681.465348
805.999485	2678.906962
806.319901	2678.566685
806.640272	2673.820438
806.960598	2675.559636
807.280879	2684.164886
807.601115	2685.437777
807.921306	2679.159020
808.241453	2678.969977
808.561554	2680.631037
808.881611	2683.118847
809.201623	2683.141532
809.521590	2682.796213
809.841513	2679.990811
810.161390	2681.941737
810.481223	2681.538445
810.801011	2676.535100
811.120755	2674.921930
811.440453	2676.557785
811.760107	2678.859072
812.079716	2679.889987
812.399281	2673.843123
812.718801	2670.957063
813.038276	2664.239725
813.357707	2673.580983
813.677093	2680.041222
813.996434	2675.375634
814.315731	2673.643998
814.634983	2671.481343
814.954191	2673.112156
815.273354	2683.474248
815.592473	2685.888961
815.911547	2686.095648
816.230577	2687.723941
816.549562	2694.469004
816.868502	2692.785259
817.187399	2701.534182
817.506250	2710.071376
817.825058	2703.457382
818.143821	2710.777137
818.462539	2722.384394
818.781213	2736.650859
819.099843	2754.751122
819.418429	2778.116870
819.736970	2806.836324
820.055466	2839.729852
820.373919	2904.521282
820.692327	2981.877788
821.010691	3056.764128
821.329011	3238.827920
821.647286	3556.261816
821.965517	4053.894277
822.283704	4333.547245
822.601847	4358.364846
822.919945	4179.275335
823.237999	4072.133172
823.556010	3864.911502
823.873976	3623.077269
824.191897	3443.967594
824.509775	3312.784168
824.827609	3171.037004
825.145398	3111.836214
825.463144	3104.067796
825.780845	3152.886329
826.098502	3196.943493
826.416116	3318.911690
826.733685	3448.943212
827.051210	3475.578149
827.368692	3450.032102
827.686129	3350.328161
828.003522	3191.012576
828.320872	3063.118503
828.638177	2958.391052
828.955439	2884.684342
829.272656	2845.617920
829.589830	2806.249029
829.906960	2781.675925
830.224046	2757.914446
830.541088	2741.213103
830.858086	2731.113152
831.175041	2721.202243
831.491952	2725.903119
831.808819	2737.623802
832.125642	2748.810122
832.442421	2774.567898
832.759157	2810.143321
833.075849	2898.030797
833.392497	3046.308775
833.709101	3156.578975
834.025662	3130.385139
834.342179	3052.761452
834.658653	2970.404122
834.975083	2889.284395
835.291469	2840.538958
835.607811	2794.172945
835.924110	2761.758326
836.240366	2730.057030
836.556578	2705.355376
836.872746	2692.029086
837.188871	2679.572395
837.504952	2671.423370
837.820990	2668.776764
838.136984	2657.179589
838.452935	2652.070380
838.768842	2652.148518
839.084706	2665.321053
839.400526	2709.103474
839.716303	2773.277362
840.032037	2813.324289
840.347727	2810.173567
840.663373	2783.868827
840.978977	2744.507497
841.294537	2705.728422
841.610054	2675.809173
841.925527	2666.309119
842.240957	2651.636841
842.556344	2639.076806
842.871687	2628.467698
843.186987	2623.144239
843.502244	2623.469394
843.817458	2621.505864
844.132629	2610.921962
844.447756	2605.061620
844.762840	2597.855291
845.077881	2601.003492
845.392879	2601.179932
845.707833	2599.896958
846.022745	2592.448653
846.337613	2598.147678
846.652438	2597.152050
846.967221	2598.321598
847.281960	2594.732296
847.596656	2596.179107
847.911309	2595.548963
848.225919	2592.778849
848.540485	2590.026379
848.855009	2588.047726
849.169490	2589.670978
849.483928	2592.778849
849.798323	2592.274734
850.112675	2588.183837
850.426984	2590.780032
850.741251	2588.511512
851.055474	2588.750967
851.369654	2589.275247
851.683792	2590.958992
851.997887	2587.853642
852.311938	2588.012438
852.625947	2592.110896
852.939914	2591.253900
853.253837	2592.723396
853.567718	2584.833991
853.881555	2590.210381
854.195350	2590.873293
854.509103	2591.425299
854.822812	2587.503282
855.136479	2587.364650
855.450103	2590.051585
855.763685	2591.984867
856.077224	2588.554362
856.390720	2585.305338
856.704173	2589.900350
857.017584	2590.865731
857.330953	2591.518561
857.644278	2594.931422
857.957561	2593.953438
858.270802	2591.866400
858.584000	2592.441092
858.897155	2592.332707
859.210268	2595.037286
859.523339	2591.750454
859.836367	2590.283478
860.149352	2589.809609
860.462295	2592.264651
860.775195	2588.657706
861.088054	2588.859352
861.400869	2584.652509
861.713642	2584.559248
862.026373	2586.379104
862.339062	2589.018148
862.651708	2590.573344
862.964312	2592.357913
863.276873	2590.122161
863.589392	2595.027204
863.901869	2596.090887
864.214303	2601.545416
864.526696	2601.482401
864.839045	2600.496856
865.151353	2602.677155
865.463619	2604.557505
865.775842	2605.265787
866.088023	2605.671600
866.400162	2607.345263
866.712258	2603.753441
867.024313	2603.468616
867.336325	2601.658842
867.648296	2602.977103
867.960224	2607.176384
868.272110	2607.037753
868.583954	2599.012236
868.895755	2601.275714
869.207515	2603.211517
869.519233	2612.008330
869.830909	2607.446086
870.142542	2604.809563
870.454134	2606.757969
870.765684	2609.853237
871.077191	2609.689400
871.388657	2614.244082
871.700081	2611.862137
872.011463	2611.995727
872.322803	2611.978083
872.634101	2614.226438
872.945357	2620.749691
873.256571	2624.061729
873.567744	2619.978395
873.878874	2616.847838
874.189963	2619.428909
874.501010	2623.562655
874.812015	2629.564149
875.122979	2627.610702
875.433900	2621.689866
875.744780	2620.974022
876.055618	2627.378808
876.366415	2629.259159
876.677169	2628.291257
876.987882	2626.365537
877.298554	2624.462501
877.609183	2632.462812
877.919771	2636.750313
878.230317	2643.444966
878.540822	2651.654485
878.851285	2664.655621
879.161707	2679.441325
879.472087	2707.669266
879.782425	2738.009450
880.092722	2810.322282
880.402977	2924.489293
880.713191	3054.651885
881.023363	3180.206863
881.333494	3258.667381
881.643583	3369.746686
881.953631	3402.415883
882.263637	3318.392451
882.573602	3202.282075
882.883526	3140.588435
883.193408	3083.600711
883.503248	3030.451826
883.813048	2957.932307
884.122806	2886.783983
884.432522	2835.379337
884.742197	2790.253448
885.051831	2771.361724
885.361424	2749.334402
885.670975	2724.862121
885.980485	2701.698019
886.289954	2692.170238
886.599382	2680.462158
886.908768	2674.732887
887.218113	2661.734272
887.527417	2652.491316
887.836680	2646.565440
888.145901	2644.690131
888.455082	2637.942546
888.764221	2630.655558
889.073319	2624.996863
889.382376	2627.759416
889.691392	2626.531895
890.000366	2626.294960
890.309300	2623.303036
890.618193	2624.591050
890.927044	2629.773357
891.235855	2627.086422
891.544625	2628.886113
891.853353	2626.673047
892.162041	2630.496762
892.470687	2646.734319
892.779293	2652.927376
893.087858	2659.175886
893.396381	2673.437311
893.704864	2701.398070
894.013306	2747.028074
894.321707	2812.588280
894.630068	2839.941581
894.938387	2853.867768
895.246665	2852.350381
895.554903	2827.205106
895.863100	2800.605457
896.171256	2762.285127
896.479371	2718.386759
896.787446	2693.057481
897.095480	2680.673887
897.403473	2677.931499
897.711425	2668.212155
898.019336	2654.084321
898.327207	2641.559574
898.635038	2641.262146
898.942827	2638.739049
899.250576	2634.191928
899.558284	2622.705659
899.865952	2621.198354
900.173579	2621.677263
900.481165	2620.109465
900.788711	2612.658639
901.096216	2609.921293
901.403681	2607.463730
901.711105	2609.575974
902.018489	2607.912393
902.325832	2611.950357
902.633135	2607.554471
902.940397	2619.307921
903.247619	2646.484782
903.554800	2692.530681
903.861941	2773.768875
904.169041	2849.189578
904.476101	2890.726165
904.783121	2891.724313
905.090100	2854.946575
905.397039	2808.895635
905.703938	2764.649428
906.010796	2720.002449
906.317614	2685.155473
906.624391	2659.120434
906.931129	2642.983700
907.237826	2624.984260
907.544483	2614.695265
907.851099	2602.455344
908.157675	2595.914447
908.464211	2592.456215
908.770707	2581.108578
909.077163	2578.454410
909.383578	2577.799060
909.689954	2575.341498
909.996289	2576.712692
910.302584	2576.213617
910.608839	2574.900397
910.915054	2574.340829
911.221229	2575.583473
911.527363	2577.988104
911.833458	2576.327043
912.139513	2578.214956
912.445527	2578.507343
912.751502	2584.551686
913.057436	2590.190217
913.363331	2590.026379
913.669186	2597.368820
913.975000	2608.378700
914.280775	2620.177520
914.586510	2631.131947
914.892205	2654.205309
915.197859	2702.943184
915.503475	2759.368819
915.809050	2800.912968
916.114585	2806.145686
916.420081	2814.481233
916.725536	2824.908860
917.030952	2810.924699
917.336328	2782.477468
917.641665	2747.940523
917.946961	2712.196222
918.252218	2689.417768
918.557435	2670.873884
918.862612	2657.620690
919.167750	2646.958650
919.472848	2635.532875
919.777906	2626.181534
920.082925	2613.329113
920.387904	2605.573297
920.692843	2605.752258
920.997743	2601.734459
921.302603	2596.322780
921.607423	2591.100145
921.912204	2590.366657
922.216946	2587.573858
922.521647	2585.073445
922.826310	2579.286201
923.130932	2580.821232
923.435516	2572.546178
923.740059	2576.206056
924.044564	2574.373596
924.349028	2571.532906
924.653454	2565.864129
924.957840	2561.591751
925.262186	2562.647872
925.566493	2562.655434
925.870761	2559.471946
926.174989	2561.508572
926.479178	2561.105279
926.783328	2555.088662
927.087438	2558.778787
927.391509	2554.874413
927.695541	2559.373643
927.999533	2553.682180
928.303486	2554.657644
928.607400	2553.344423
928.911275	2554.415668
929.215110	2554.309804
929.518906	2553.263765
929.822663	2554.980278
930.126381	2554.312325
930.430060	2554.191337
930.733699	2551.927859
931.037299	2552.840308
931.340861	2553.785524
931.644383	2551.839639
931.947866	2553.649413
932.251309	2555.227294
932.554714	2555.267623
932.858080	2554.342572
933.161407	2551.784186
933.464694	2554.763508
933.767943	2552.484906
934.071153	2551.776624
934.374323	2551.161603
934.677455	2553.137736
934.980548	2550.264278
935.283602	2550.234031
935.586617	2549.596325
935.889593	2552.784855
936.192530	2550.964998
936.495428	2553.319217
936.798287	2549.641696
937.101108	2551.302756
937.403890	2555.222253
937.706632	2559.620660
938.009336	2556.427089
938.312002	2562.037893
938.614628	2564.583676
938.917216	2568.936712
939.219765	2567.041238
939.522275	2568.772874
939.824747	2568.417473
940.127179	2561.601833
940.429573	2559.492110
940.731929	2562.199210
941.034246	2557.102603
941.336524	2558.614949
941.638763	2561.949673
941.940964	2562.584858
942.243126	2560.258366
942.545250	2560.966648
942.847335	2559.116544
943.149381	2555.101265
943.451389	2557.863817
943.753359	2556.399362
944.055290	2554.420709
944.357182	2554.960113
944.659036	2553.130174
944.960851	2552.502550
945.262628	2552.278219
945.564367	2555.686039
945.866067	2555.973385
946.167729	2556.142263
946.469352	2553.294012
946.770937	2553.162942
947.072484	2555.290308
947.373992	2553.548590
947.675462	2552.303425
947.976893	2552.593291
948.278286	2551.264947
948.579641	2553.049516
948.880958	2549.992056
949.182236	2552.764690
949.483476	2549.845862
949.784678	2551.196892
950.085841	2554.229146
950.386967	2552.174875
950.688054	2549.775286
950.989103	2554.019938
951.290114	2549.601366
951.591087	2556.371636
951.892021	2555.532284
952.192917	2558.244425
952.493776	2554.849207
952.794596	2560.747357
953.095378	2557.379867
953.396122	2559.058571
953.696828	2556.217881
953.997496	2553.730071
954.298126	2553.069680
954.598718	2554.473642
954.899272	2551.549772
955.199788	2554.176213
955.500266	2549.422405
955.800706	2545.165151
956.101108	2548.245296
956.401472	2545.666746
956.701798	2544.454348
957.002087	2544.109029
957.302337	2548.514998
957.602550	2544.625747
957.902724	2545.018957
958.202861	2547.161448
958.502960	2542.279090
958.803022	2547.353012
959.103045	2542.284132
959.403031	2544.459389
959.702979	2542.589121
960.002889	2544.623227
960.302762	2544.545089
960.602596	2541.563247
960.902393	2543.236910
961.202153	2539.914789
961.501875	2541.812784
961.801559	2542.689944
962.101205	2542.021992
962.400814	2544.645912
962.700385	2543.345294
962.999918	2540.504604
963.299414	2539.335057
963.598873	2542.256405
963.898293	2540.706250
964.197677	2541.462423
964.497022	2543.128525
964.796331	2543.385624
965.095601	2540.668442
965.394835	2541.210366
965.694030	2540.986034
965.993189	2542.735315
966.292309	2540.756662
966.591393	2541.139790
966.890439	2543.020140
967.189447	2536.343132
967.488419	2541.139790
967.787353	2542.483257
968.086249	2542.014430
968.385108	2542.558874
968.683930	2540.892773
968.982714	2538.810777
969.281462	2542.596683
969.580172	2543.126004
969.878844	2540.683565
970.177480	2542.647095
970.476078	2542.450490
970.774639	2544.154400
971.073162	2545.061807
971.371649	2539.524100
971.670098	2541.399409
971.968510	2540.159285
972.266885	2538.387320
972.565223	2542.395037
972.863524	2543.267157
973.161788	2542.231199
973.460014	2542.609286
973.758204	2541.086857
974.056356	2542.349667
974.354471	2542.604245
974.652550	2542.596683
974.950591	2544.721529
975.248595	2543.859492
975.546563	2542.347146
975.844493	2542.090047
976.142386	2544.330840
976.440243	2541.767413
976.738062	2543.529297
977.035845	2542.667259
977.333590	2540.194573
977.631299	2542.521066
977.928971	2540.134079
978.226606	2541.974101
978.524204	2540.169367
978.821765	2540.733977
979.119290	2540.749100
979.416777	2542.100129
979.714228	2543.138607
980.011642	2541.343956
980.309020	2543.466282
980.606360	2539.761034
980.903664	2541.200283
981.200931	2544.298072
981.498162	2540.628112
981.795356	2542.314378
982.092513	2548.028526
982.389633	2547.300080
982.686717	2551.043136
982.983764	2551.786707
983.280775	2551.275029
983.577749	2555.179403
983.874686	2552.250493
984.171587	2548.565409
984.468451	2547.151366
984.765279	2547.300080
985.062070	2547.337888
985.358824	2541.659028
985.655543	2545.530635
985.952224	2544.290511
986.248869	2540.549975
986.545478	2538.478060
986.842050	2538.594007
987.138586	2537.283307
987.435086	2539.110725
987.731549	2535.781043
988.027975	2542.571477
988.324366	2540.988555
988.620719	2542.193391
988.917037	2540.048380
989.213318	2540.199614
989.509563	2537.734490
989.805772	2539.488812
990.101944	2540.144162
990.398080	2539.451003
990.694180	2539.453524
990.990244	2539.564429
991.286271	2539.985365
991.582262	2539.453524
991.878217	2537.800025
992.174136	2540.867567
992.470019	2537.492515
992.765865	2540.933102
993.061676	2537.963863
993.357450	2540.756662
993.653188	2540.141641
993.948890	2541.843031
994.244556	2541.689275
994.540186	2541.533000
994.835780	2542.120294
995.131337	2542.168185
995.426859	2539.367824
995.722345	2541.964018
996.017795	2544.393854
996.313208	2543.635161
996.608586	2540.590304
996.903928	2541.293545
997.199234	2542.127856
997.494504	2542.440407
997.789738	2541.603576
998.084936	2541.180119
998.380099	2540.590304
998.675225	2541.795140
998.970316	2539.713143
999.265371	2540.764224
999.560390	2539.879501
999.855373	2541.525438
1000.150320	2539.637526
1000.445232	2540.789429
1000.740108	2540.741538
1001.034948	2540.837320
1001.329752	2537.011085
1001.624521	2538.720036
1001.919254	2534.346835
1002.213951	2536.033101
1002.508613	2532.622760
1002.803239	2539.423277
1003.097829	2534.256094
1003.392384	2539.945036
1003.686903	2537.525282
1003.981386	2542.344625
1004.275834	2535.919675
1004.570246	2541.507794
1004.864623	2538.029398
1005.158964	2539.496373
1005.453270	2537.600900
1005.747540	2538.026877
1006.041775	2539.425797
1006.335974	2537.694161
1006.630138	2537.058976
1006.924266	2539.458565
1007.218359	2538.369676
1007.512416	2538.609130
1007.806438	2541.379244
1008.100425	2535.498738
1008.394376	2537.875642
1008.688292	2537.610982
1008.982172	2539.655170
1009.276017	2538.573842
1009.569827	2538.586445
1009.863602	2539.473688
1010.157341	2537.426980
1010.451045	2539.645088
1010.744714	2536.242309
1011.038347	2539.698020
1011.331945	2536.103677
1011.625508	2536.983358
1011.919036	2536.643080
1012.212528	2538.052083
1012.505986	2539.017464
1012.799408	2537.825231
1013.092795	2539.839172
1013.386147	2539.569470
1013.679464	2538.160468
1013.972745	2538.646939
1014.265992	2538.629295
1014.559204	2537.542926
1014.852380	2538.243647
1015.145521	2538.480581
1015.438628	2536.469161
1015.731699	2540.733977
1016.024736	2538.778009
1016.317737	2540.867567
1016.610703	2540.300437
1016.903635	2536.708615
1017.196531	2534.470343
1017.489393	2536.968235
1017.782219	2533.469674
1018.075011	2538.674665
1018.367768	2537.177443
1018.660490	2537.885725
1018.953177	2537.885725
1019.245829	2537.885725
