Dividing Wavelength (nm)	Counts (n)	Blue Motor Position (mm): 12.900000	Red Motor Position (mm): 0.000000	
326.493990	2137.850003
326.888308	2137.850003
327.282561	2137.850003
327.676750	2106.698192
328.070874	2105.208531
328.464933	2104.293562
328.858929	2112.626589
329.252859	2123.853239
329.646726	2133.829682
330.040528	2147.665129
330.434265	2165.241112
330.827938	2179.159738
331.221547	2198.369054
331.615091	2217.419575
332.008571	2239.852709
332.401986	2261.249887
332.795338	2277.384100
333.188625	2296.994188
333.581847	2316.546303
333.975006	2334.336535
334.368100	2352.288084
334.761129	2369.652339
335.154095	2387.704711
335.546996	2407.937382
335.939833	2424.356420
336.332606	2439.195056
336.725315	2448.553958
337.117960	2461.378653
337.510540	2471.430714
337.903056	2480.265336
338.295508	2485.419916
338.687896	2496.956597
339.080220	2501.854078
339.472480	2510.585356
339.864676	2512.682476
340.256807	2518.517612
340.648875	2523.578930
341.040879	2526.160001
341.432818	2525.950793
341.824694	2529.530012
342.216506	2526.676719
342.608253	2529.925743
342.999937	2528.216792
343.391557	2528.942718
343.783113	2527.475742
344.174605	2525.234949
344.566033	2525.484486
344.957397	2523.868797
345.348697	2522.633714
345.739934	2518.116840
346.131106	2517.080883
346.522215	2517.519463
346.913260	2511.805315
347.304241	2513.108454
347.695159	2509.599811
348.086012	2509.098216
348.476802	2506.227279
348.867528	2505.798781
349.258191	2503.822648
349.648789	2503.439521
350.039324	2499.825013
350.429796	2503.384068
350.820203	2498.973058
351.210548	2500.137565
351.600828	2496.447440
351.991045	2495.766884
352.381198	2496.137409
352.771288	2494.738489
353.161314	2495.663541
353.551276	2496.381905
353.941175	2493.984837
354.331010	2492.802686
354.720782	2491.870072
355.110490	2492.948879
355.500135	2494.141112
355.889717	2495.083808
356.279235	2494.226812
356.668689	2495.391318
357.058080	2496.142450
357.447408	2493.586585
357.836672	2491.859990
358.225873	2490.698004
358.615010	2494.796462
359.004084	2498.657986
359.393095	2495.713952
359.782043	2497.871566
360.170927	2497.831237
360.559748	2498.698315
360.948505	2498.216885
361.337199	2500.261073
361.725830	2501.841475
362.114398	2501.201248
362.502903	2502.829541
362.891344	2505.128307
363.279722	2500.618995
363.668037	2501.745693
364.056289	2505.118225
364.444478	2503.076558
364.832603	2503.807525
365.220665	2503.931033
365.608665	2504.919099
365.996601	2504.409943
366.384474	2505.445900
366.772284	2506.375993
367.160031	2504.989675
367.547715	2509.488905
367.935336	2504.651918
368.322893	2511.144924
368.710388	2506.824655
369.097820	2509.224245
369.485189	2506.872546
369.872495	2505.458503
370.259738	2505.975221
370.646918	2511.250788
371.034035	2508.924296
371.421090	2510.766838
371.808081	2509.060407
372.195010	2509.330109
372.581875	2511.487723
372.968678	2511.802795
373.355418	2507.933709
373.742096	2512.004441
374.128710	2510.290449
374.515262	2511.757424
374.901751	2511.838083
375.288177	2509.768689
375.674540	2511.996879
376.060841	2511.770027
376.447079	2512.067455
376.833254	2512.264060
377.219367	2507.527896
377.605417	2511.840603
377.991404	2511.475120
378.377329	2511.291118
378.763191	2508.818432
379.148991	2514.782117
379.534727	2512.932013
379.920402	2516.294463
380.306013	2513.209277
380.691563	2512.629544
381.077049	2517.753877
381.462474	2515.616428
381.847835	2517.138856
382.233134	2515.482837
382.618371	2516.044926
383.003545	2517.433764
383.388657	2517.506860
383.773706	2517.509381
384.158693	2518.452077
384.543618	2518.809999
384.928480	2515.848321
385.313280	2518.313445
385.698017	2515.679442
386.082692	2520.541635
386.467305	2517.312776
386.851856	2519.208250
387.236344	2516.097858
387.620770	2519.241017
388.005133	2518.280677
388.389435	2518.767149
388.773674	2518.595750
389.157851	2518.121881
389.541965	2522.212778
389.926018	2519.551048
390.310008	2520.236645
390.693936	2520.403003
391.077802	2517.844618
391.461606	2520.130781
391.845348	2518.522653
392.229027	2519.167921
392.612645	2521.050792
392.996200	2520.851666
393.379694	2523.205885
393.763125	2520.826460
394.146494	2522.008611
394.529801	2523.057171
394.913047	2521.345699
395.296230	2525.008097
395.679351	2520.730678
396.062410	2522.777387
396.445408	2521.852335
396.828343	2525.751668
397.211217	2522.306039
397.594028	2522.031296
397.976778	2520.382839
398.359466	2521.779238
398.742092	2520.539114
399.124656	2524.957686
399.507158	2523.215967
399.889598	2525.204702
400.271977	2523.611698
400.654294	2529.230064
401.036549	2524.854342
401.418742	2524.282171
401.800874	2525.043385
402.182944	2527.445495
402.564952	2525.136647
402.946898	2526.170083
403.328783	2524.821575
403.710606	2526.913653
404.092367	2526.901051
404.474067	2527.029600
404.855705	2528.420958
405.237282	2527.740403
405.618797	2526.860721
406.000250	2526.381812
406.381642	2527.059847
406.762972	2528.453726
407.144240	2527.810979
407.525447	2528.085722
407.906593	2528.975485
408.287677	2528.473891
408.668700	2530.291227
409.049661	2526.671678
409.430560	2528.967924
409.811399	2528.869621
410.192176	2528.584796
410.572891	2528.783922
410.953545	2527.072450
411.334138	2529.719056
411.714669	2525.479445
412.095139	2531.932122
412.475547	2527.962213
412.855894	2530.145033
413.236180	2530.306350
413.616405	2530.444982
413.996568	2530.465146
414.376670	2530.984385
414.756711	2530.412214
415.136691	2529.857687
415.516609	2530.293747
415.896466	2531.831299
416.276262	2529.492204
416.655997	2530.616381
417.035670	2527.168232
417.415283	2530.744930
417.794834	2526.999353
418.174324	2529.706453
418.553753	2532.501773
418.933121	2530.223171
419.312428	2530.228212
419.691674	2533.194931
420.070859	2533.928419
420.449983	2530.200486
420.829045	2535.334901
421.208047	2533.862884
421.586988	2531.700229
421.965867	2533.535209
422.344686	2531.922040
422.723444	2532.773995
423.102141	2534.069571
423.480777	2534.044366
423.859352	2534.717360
424.237866	2533.187369
424.616319	2532.370703
424.994712	2534.278779
425.373044	2532.312729
425.751314	2534.881197
426.129524	2534.588810
426.507673	2534.951773
426.885762	2538.334388
427.263789	2535.365148
427.641756	2533.681403
428.019662	2534.714839
428.397508	2533.598223
428.775292	2535.990251
429.153016	2533.827596
429.530679	2539.471168
429.908282	2536.988399
430.285824	2536.295241
430.663305	2537.999151
431.040726	2536.214582
431.418086	2534.172915
431.795385	2537.152237
432.172624	2535.223996
432.549802	2538.049562
432.926920	2536.970755
433.303977	2538.447813
433.680974	2537.910931
434.057910	2536.915303
434.434786	2536.055786
434.811601	2534.815662
435.188355	2537.116949
435.565050	2536.869932
435.941683	2537.580735
436.318257	2533.336083
436.694770	2530.601257
437.071222	2535.740714
437.447614	2536.547298
437.823946	2537.212731
438.200218	2535.881866
438.576429	2539.609799
438.952580	2536.789274
439.328670	2538.798174
439.704700	2539.385468
440.080670	2538.372196
440.456580	2539.937474
440.832429	2538.175591
441.208218	2540.096271
441.583947	2538.082330
441.959616	2539.171219
442.335224	2538.558719
442.710773	2537.895807
443.086261	2538.412525
443.461689	2539.657690
443.837057	2539.251877
444.212365	2539.302289
444.587612	2539.733308
444.962800	2540.930582
445.337927	2538.931764
445.712995	2539.224151
446.088002	2541.046528
446.462949	2538.941847
446.837837	2543.098278
447.212664	2542.596683
447.587431	2540.623071
447.962139	2539.650129
448.336786	2541.603576
448.711374	2541.215407
449.085901	2538.916641
449.460369	2540.615510
449.834776	2540.222300
450.209124	2541.394368
450.583412	2542.410160
450.957640	2539.914789
451.331808	2541.142310
451.705917	2542.475695
452.079965	2542.642053
452.453954	2541.222969
452.827883	2544.058618
453.201752	2541.517876
453.575562	2540.340767
453.949311	2541.492670
454.323001	2541.185160
454.696632	2541.931251
455.070202	2540.759183
455.443713	2541.711961
455.817164	2539.675334
456.190556	2537.963863
456.563888	2539.768596
456.937160	2539.019984
457.310373	2542.377393
457.683526	2541.785057
458.056619	2545.031560
458.429653	2540.078627
458.802628	2545.792775
459.175542	2541.341436
459.548398	2543.972918
459.921194	2542.853782
460.293930	2541.810263
460.666607	2543.700696
461.039224	2542.606765
461.411782	2544.386293
461.784280	2544.320758
462.156719	2544.855120
462.529099	2546.312013
462.901419	2544.731612
463.273680	2544.736653
463.645882	2546.092723
464.018024	2542.876467
464.390106	2543.587270
464.762130	2547.973074
465.134094	2542.838658
465.505999	2549.097251
465.877845	2543.584749
466.249631	2546.042312
466.621358	2546.453166
466.993026	2550.022303
467.364634	2545.898639
467.736184	2546.662374
468.107674	2545.777651
468.479105	2545.248330
468.850477	2545.611293
469.221790	2545.999462
469.593043	2543.312527
469.964238	2547.305121
470.335373	2545.636499
470.706449	2544.724050
471.077467	2548.189843
471.448425	2547.131201
471.819324	2548.835111
472.190164	2549.639175
472.560945	2542.979811
472.931667	2546.493495
473.302330	2546.894267
473.672934	2548.973743
474.043479	2548.154555
474.413965	2545.840666
474.784393	2544.126673
475.154761	2547.279915
475.525070	2543.698175
475.895321	2542.221117
476.265513	2542.904193
476.635645	2547.300080
477.005719	2546.470810
477.375734	2547.632796
477.745691	2545.999462
478.115588	2548.459545
478.485427	2547.022816
478.855207	2546.715306
479.224928	2547.232024
479.594591	2547.448794
479.964194	2547.640357
480.333739	2547.307641
480.703226	2546.364946
481.072653	2548.073897
481.442022	2547.902498
481.811333	2547.789072
482.180584	2547.912580
482.549777	2548.832590
482.918912	2549.984494
483.287988	2548.709082
483.657005	2550.067673
484.025964	2550.632282
484.394864	2549.573640
484.763706	2547.232024
485.132489	2550.259237
485.501213	2550.042467
485.869879	2549.225800
486.238487	2547.549617
486.607036	2553.707386
486.975527	2548.086500
487.343959	2549.540873
487.712333	2548.028526
488.080648	2549.001469
488.448905	2549.336706
488.817104	2547.713454
489.185244	2549.649257
489.553326	2550.294525
489.921350	2550.065153
490.289315	2550.455842
490.657222	2550.034906
491.025070	2552.056408
491.392861	2550.909546
491.760593	2550.082797
492.128267	2550.463404
492.495883	2549.157745
492.863440	2552.147149
493.230939	2550.249155
493.598380	2549.664381
493.965763	2546.163299
494.333088	2548.008362
494.700354	2547.658002
495.067563	2549.911397
495.434713	2545.656663
495.801805	2551.890050
496.168839	2551.441387
496.535815	2551.653116
496.902733	2552.056408
497.269593	2550.453321
497.636395	2550.894422
498.003139	2553.362067
498.369825	2551.247303
498.736453	2552.303425
499.103023	2552.174875
499.469535	2552.114382
499.835989	2550.539021
500.202385	2551.217056
500.568723	2551.839639
500.935003	2550.639844
501.301226	2552.157231
501.667390	2549.697148
502.033497	2550.304607
502.399546	2550.962478
502.765537	2552.517674
503.131470	2551.143959
503.497345	2551.658157
503.863163	2555.565051
504.228923	2550.357539
504.594625	2551.466593
504.960269	2550.723023
505.325856	2555.527243
505.691385	2550.226469
506.056856	2552.552962
506.422270	2550.342416
506.787625	2552.444577
507.152924	2553.518343
507.518164	2551.348126
507.883347	2552.552962
508.248472	2552.769732
508.613540	2551.269988
508.978550	2554.337530
509.343503	2553.306614
509.708398	2555.759136
510.073236	2556.235525
510.438016	2552.215205
510.802738	2551.617828
511.167403	2553.417520
511.532010	2556.540515
511.896561	2555.116389
512.261053	2558.980433
512.625488	2549.739998
512.989866	2550.705379
513.354186	2550.060111
513.718449	2550.264278
514.082655	2556.328786
514.446803	2554.108158
514.810894	2553.198230
515.174927	2557.541184
515.538904	2557.122768
515.902822	2558.372974
516.266684	2556.336348
516.630488	2556.880792
516.994235	2557.110165
517.357925	2557.919270
517.721558	2556.492624
518.085133	2557.289126
518.448651	2560.878427
518.812112	2555.953220
519.175516	2560.749878
519.538863	2556.908519
519.902152	2559.872717
520.265385	2561.034703
520.628560	2559.126627
520.991678	2558.753581
521.354739	2561.271638
521.717743	2557.977243
522.080690	2562.421021
522.443580	2561.364899
522.806413	2563.653583
523.169189	2561.911864
523.531908	2563.144426
523.894569	2559.366081
524.257174	2561.420352
524.619722	2564.218192
524.982213	2563.605692
525.344647	2563.088973
525.707025	2564.475291
526.069345	2560.787687
526.431608	2564.364385
526.793815	2564.944118
527.155964	2566.267421
527.518057	2564.003943
527.880093	2566.600137
528.242072	2565.425548
528.603995	2565.780950
528.965860	2567.842782
529.327669	2567.489901
529.689421	2566.380847
530.051117	2565.445713
530.412755	2566.801783
530.774337	2568.417473
531.135862	2570.721280
531.497331	2567.005950
531.858743	2562.824313
532.220098	2565.486042
532.581396	2566.683316
532.942638	2564.470250
533.303824	2569.284552
533.664953	2570.948132
534.026025	2570.832186
534.387040	2570.509552
534.747999	2567.005950
535.108902	2573.519121
535.469748	2571.711867
535.830537	2569.786146
536.191270	2570.444017
536.551947	2571.994172
536.912567	2573.067937
537.273131	2574.025757
537.633638	2573.438462
537.994089	2573.052814
538.354483	2571.127093
538.714821	2571.759758
539.075103	2574.832341
539.435328	2571.757238
539.795497	2574.358473
540.155609	2574.590366
540.515665	2571.835375
540.875665	2571.974007
541.235609	2573.748493
541.595496	2575.570870
541.955328	2575.162537
542.315102	2574.280335
542.674821	2574.436611
543.034483	2577.400809
543.394090	2573.350242
543.753640	2575.391909
544.113134	2574.693710
544.472571	2578.464493
544.831953	2577.899883
545.191278	2575.870819
545.550548	2576.793350
545.909761	2576.201015
546.268918	2576.679924
546.628019	2577.330233
546.987064	2576.735377
547.346053	2576.609348
547.704986	2574.797053
548.063863	2577.526838
548.422684	2575.865778
548.781449	2577.935172
549.140158	2577.597414
549.498811	2578.343505
549.857408	2578.179667
550.215949	2575.336457
550.574434	2573.312433
550.932864	2575.817887
551.291237	2576.536251
551.649555	2577.090778
552.007817	2575.812846
552.366022	2581.385841
552.724173	2579.928948
553.082267	2581.950451
553.440305	2580.286870
553.798288	2577.355439
554.156215	2577.191601
554.514086	2581.859710
554.871902	2578.459452
555.229661	2579.991962
555.587365	2581.012796
555.945014	2577.446180
556.302606	2582.091603
556.660143	2582.444484
557.017625	2584.080338
557.375050	2581.668146
557.732421	2582.167220
558.089735	2582.691500
558.446994	2584.856676
558.804197	2583.901377
559.161345	2585.743919
559.518437	2583.921542
559.875474	2583.046902
560.232455	2585.219639
560.589381	2584.866758
560.946251	2588.120823
561.303065	2584.090420
561.659825	2584.561768
562.016528	2587.099989
562.373177	2583.384659
562.729770	2586.711820
563.086307	2586.048909
563.442789	2586.590833
563.799216	2587.931780
564.155587	2586.376584
564.511904	2592.609970
564.868164	2592.201637
565.224370	2591.153077
565.580520	2591.561410
565.936615	2590.142326
566.292654	2590.928746
566.648638	2592.504106
567.004567	2592.743561
567.360441	2594.044179
567.716260	2599.246649
568.072023	2595.059971
568.427732	2591.518561
568.783385	2595.012080
569.138982	2594.792790
569.494525	2599.665065
569.850013	2596.277410
570.205445	2605.409460
570.560823	2600.471650
570.916145	2605.411981
571.271412	2603.695468
571.626625	2607.919955
571.981782	2608.207300
572.336884	2608.524893
572.691931	2612.184771
573.046923	2614.213835
573.401860	2612.472117
573.756743	2614.964967
574.111570	2615.383383
574.466342	2618.687859
574.821059	2620.487551
575.175722	2622.272120
575.530330	2622.350257
575.884882	2623.005607
576.239380	2622.861935
576.593823	2627.338479
576.948211	2630.670682
577.302544	2629.682616
577.656823	2634.330560
578.011047	2635.973976
578.365216	2638.242495
578.719330	2636.881383
579.073389	2643.984369
579.427394	2641.441107
579.781344	2644.692651
580.135239	2650.341264
580.489080	2648.350008
580.842866	2652.758497
581.196597	2655.810916
581.550273	2659.967347
581.903895	2662.434992
582.257463	2666.467915
582.610975	2668.244922
582.964434	2672.459327
583.317837	2677.082065
583.671186	2675.841941
584.024481	2682.060204
584.377721	2684.290915
584.730906	2686.050277
585.084037	2691.391380
585.437113	2691.860207
585.790135	2697.647452
586.143103	2701.650128
586.496016	2705.909903
586.848874	2705.662887
587.201679	2711.054401
587.554428	2712.380224
587.907124	2722.717110
588.259765	2722.785166
588.612352	2734.876373
588.964884	2732.920405
589.317362	2739.234451
589.669786	2746.055132
590.022155	2750.458580
590.374470	2757.657347
590.726731	2760.891247
591.078937	2762.146495
591.431090	2771.097063
591.783188	2773.589914
592.135232	2782.600977
592.487222	2783.745318
592.839157	2793.298305
593.191038	2796.703604
593.542866	2799.476239
593.894639	2803.819193
594.246358	2811.048208
594.598022	2819.991215
594.949633	2821.243941
595.301190	2828.084787
595.652692	2835.855726
596.004141	2851.019517
596.355535	2843.964422
596.706876	2853.519929
597.058162	2856.801720
597.409395	2867.965355
597.760573	2881.901625
598.111698	2881.425236
598.462768	2890.708521
598.813785	2894.481824
599.164748	2902.277969
599.515657	2903.356776
599.866511	2918.205494
600.217312	2929.298553
600.568060	2932.164449
600.918753	2946.531738
601.269392	2953.896864
601.619978	2958.088583
601.970510	2973.209524
602.320988	2980.640185
602.671412	3000.225068
603.021783	3002.024759
603.372100	3009.518435
603.722363	3023.227853
604.072572	3026.683563
604.422728	3038.505069
604.772830	3041.837272
605.122878	3053.421843
605.472872	3061.694377
605.822813	3077.289186
606.172701	3085.576843
606.522534	3103.130141
606.872314	3117.099178
607.222041	3130.319604
607.571714	3145.231337
607.921333	3151.164775
608.270899	3167.722445
608.620411	3188.131557
608.969870	3193.588606
609.319276	3206.579659
609.668627	3226.540108
610.017926	3242.843199
610.367171	3270.491407
610.716362	3273.014505
611.065500	3290.731640
611.414585	3310.117397
611.763616	3317.913542
612.112594	3328.205057
612.461518	3350.832276
612.810389	3370.127293
613.159207	3379.201370
613.507971	3388.706465
613.856682	3422.961106
614.205340	3428.259358
614.553945	3461.362095
614.902496	3460.517702
615.250994	3482.532421
615.599439	3499.470698
615.947830	3518.864016
616.296169	3531.247611
616.644454	3553.834501
616.992686	3568.834454
617.340864	3600.881069
617.688990	3600.092128
618.037063	3632.458857
618.385082	3640.948160
618.733048	3677.957791
619.080961	3682.378883
619.428821	3707.146071
619.776628	3725.924369
620.124382	3730.995770
620.472083	3746.512442
620.819731	3771.619908
621.167326	3766.634207
621.514868	3781.639202
621.862357	3771.970269
622.209793	3787.960809
622.557176	3791.250162
622.904506	3800.732572
623.251783	3800.115031
623.599007	3811.374448
623.946179	3820.667815
624.293297	3831.080318
624.640363	3828.466480
624.987376	3843.869725
625.334336	3844.736804
625.681243	3854.229297
626.028097	3863.086604
626.374899	3872.614385
626.721647	3892.373187
627.068343	3886.439749
627.414987	3896.948034
627.761577	3900.804517
628.108115	3923.177158
628.454600	3916.873195
628.801032	3953.724029
629.147412	3949.441569
629.493739	3969.205413
629.840014	3966.493272
630.186236	4002.290506
630.532405	3981.793174
630.878521	4013.570087
631.224585	4014.810211
631.570597	4005.683202
631.916556	4039.257287
632.262462	4049.359759
632.608316	4054.002662
632.954117	4063.422058
633.299866	4065.531781
633.645562	4086.944082
633.991206	4071.124941
634.336797	4068.148139
634.682336	4063.379208
635.027823	4073.040579
635.373257	4078.517793
635.718639	4072.302050
636.063968	4091.851645
636.409245	4068.122934
636.754470	4083.768155
637.099642	4079.962083
637.444762	4075.268769
637.789829	4095.536728
638.134845	4083.995007
638.479808	4097.613684
638.824719	4110.453503
639.169577	4092.706120
639.514383	4116.064307
639.859137	4103.572328
640.203839	4119.308289
640.548489	4132.105258
640.893086	4133.398314
641.237632	4133.899909
641.582125	4152.705933
641.926566	4154.329185
642.270955	4178.604861
642.615292	4188.180533
642.959576	4207.901527
643.303809	4212.055438
643.647990	4236.074015
643.992118	4238.541660
644.336195	4229.434816
644.680219	4260.180813
645.024192	4263.321452
645.368112	4324.470648
645.711981	4351.226572
646.055797	4391.583529
646.399562	4391.833066
646.743274	4466.522802
647.086935	4496.976412
647.430544	4518.658415
647.774101	4542.921488
648.117606	4551.365421
648.461059	4565.861259
648.804460	4562.856731
649.147810	4526.736864
649.491108	4530.500085
649.834354	4529.890105
650.177548	4499.239890
650.520690	4470.747288
650.863781	4472.161332
651.206820	4500.356506
651.549807	4467.465497
651.892742	4451.200214
652.235626	4464.692863
652.578458	4471.158142
652.921238	4433.508285
653.263967	4463.989622
653.606644	4441.916930
653.949269	4457.804126
654.291843	4431.990898
654.634365	4471.677381
654.976836	4463.326710
655.319255	4467.137822
655.661622	4471.105210
656.003938	4485.228003
656.346203	4465.174293
656.688416	4500.195189
657.030577	4477.353721
657.372687	4472.836847
657.714746	4474.792814
658.056753	4513.299668
658.398708	4488.928210
658.740612	4490.082634
659.082465	4532.057802
659.424266	4534.598543
659.766016	4542.666910
660.107715	4547.299730
660.449362	4557.684507
660.790958	4570.433585
661.132503	4571.996343
661.473996	4606.871045
661.815438	4605.429275
662.156829	4614.735245
662.498168	4617.139876
662.839456	4608.607723
663.180693	4647.149864
663.521879	4656.178571
663.863013	4655.855937
664.204097	4683.824259
664.545129	4710.928022
664.886110	4725.365887
665.227040	4758.597173
665.567918	4736.716045
665.908746	4773.912198
666.249522	4779.250780
666.590248	4778.918064
666.930922	4810.079957
667.271545	4828.568388
667.612118	4834.781611
667.952639	4831.570396
668.293109	4854.358932
668.633528	4837.057692
668.973896	4845.567159
669.314213	4851.767778
669.654480	4849.080843
669.994695	4856.435887
670.334859	4859.211042
670.674973	4866.976940
671.015035	4876.484556
671.355047	4884.749527
671.695008	4883.879928
672.034918	4869.898288
672.374777	4886.166092
672.714585	4882.128127
673.054342	4891.756731
673.394049	4896.321496
673.733705	4927.778296
674.073310	4937.278351
674.412864	4900.669491
674.752368	4913.098456
675.091820	4921.711268
675.431223	4881.959249
675.770574	4892.883429
676.109875	4862.578533
676.449125	4877.444896
676.788324	4858.326320
677.127473	4826.476310
677.466571	4827.721475
677.805619	4829.523687
678.144616	4832.681970
678.483562	4823.955733
678.822458	4811.841840
679.161303	4808.181962
679.500098	4810.740348
679.838842	4801.255417
680.177535	4814.062468
680.516179	4829.919418
680.854771	4847.329042
681.193314	4914.946039
681.531805	4995.712885
681.870247	5120.685610
682.208638	5197.520356
682.546978	5211.867480
682.885268	5205.674423
683.223508	5148.222913
683.561697	5113.247387
683.899836	5095.076548
684.237925	5064.887598
684.575963	5037.809041
684.913951	5016.101832
685.251889	5074.175924
685.589776	5045.544691
685.927614	5024.538203
686.265401	5094.718626
686.603137	5079.370833
686.940824	5147.595289
687.278460	5162.902753
687.616046	5172.533877
687.953582	5224.901383
688.291068	5218.509200
688.628504	5274.135812
688.965889	5244.559363
689.303224	5208.373960
689.640510	5174.842726
689.977745	5126.248523
690.314930	5055.324530
690.652065	5018.181308
690.989150	4946.042397
691.326185	4893.866454
691.663170	4861.870251
692.000105	4808.668434
692.336990	4745.510338
692.673825	4731.296804
693.010610	4680.038352
693.347345	4626.753356
693.684030	4622.440649
694.020665	4593.494343
694.357251	4517.264536
694.693786	4535.926887
695.030272	4508.588710
695.366707	4483.950070
695.703093	4456.932006
696.039429	4479.007219
696.375716	4470.084377
696.711952	4452.586532
697.048139	4441.304429
697.384276	4426.949744
697.720363	4440.812917
698.056400	4454.986121
698.392388	4411.024739
698.728326	4392.432963
699.064214	4378.080798
699.400053	4375.860170
699.735842	4352.507025
700.071581	4335.969520
700.407270	4318.272549
700.742910	4302.723110
701.078501	4260.710134
701.414042	4262.172069
701.749533	4240.815220
702.084974	4181.039739
702.420366	4239.673399
702.755709	4189.781099
703.091002	4143.581445
703.426246	4189.183723
703.761440	4151.634688
704.096584	4119.998927
704.431679	4142.916013
704.766725	4133.083242
705.101721	4120.772744
705.436668	4150.331550
705.771565	4103.085856
706.106413	4136.634735
706.441212	4163.456194
706.775961	4173.306609
707.110661	4155.428157
707.445311	4183.827497
707.779913	4207.919171
708.114465	4219.458372
708.448967	4239.464191
708.783421	4295.398314
709.117825	4336.710569
709.452180	4343.140561
709.786485	4377.662383
710.120742	4459.926452
710.454949	4441.188483
710.789107	4502.060416
711.123216	4567.003080
711.457275	4559.169127
711.791286	4624.880567
712.125247	4640.729955
712.459159	4551.574629
712.793023	4623.826966
713.126837	4593.058284
713.460602	4584.906738
713.794318	4514.426366
714.127985	4533.250034
714.461602	4455.034012
714.795171	4433.820837
715.128691	4376.175242
715.462162	4325.171368
715.795584	4286.440183
716.128957	4270.648769
716.462281	4226.684866
716.795556	4201.625290
717.128782	4171.310312
717.461960	4111.761682
717.795088	4121.791058
718.128167	4085.716561
718.461198	4035.299981
718.794180	4025.499978
719.127113	4010.321064
719.459997	3992.785410
719.792833	3951.954584
720.125619	3943.094757
720.458357	3914.952515
720.791046	3916.623658
721.123686	3895.155904
721.456278	3854.441025
721.788821	3875.933984
722.121315	3847.769058
722.453761	3824.166376
722.786158	3840.524920
723.118506	3861.833877
723.450805	3813.859737
723.783056	3836.446626
724.115259	3851.650746
724.447412	3858.531921
724.779518	3851.073534
725.111574	3860.003938
725.443582	3887.238772
725.775542	3872.264024
726.107453	3917.989810
726.439315	3918.050304
726.771129	3932.848611
727.102895	3967.680464
727.434612	4015.982279
727.766281	4026.679608
728.097901	4025.913352
728.429473	4030.924259
728.760996	4037.124879
729.092471	4035.007594
729.423897	4021.484699
729.755276	4029.573230
730.086606	4029.127088
730.417887	4063.749733
730.749120	4127.714413
731.080305	4187.752035
731.411442	4212.483936
731.742530	4184.361859
732.073570	4191.227911
732.404562	4243.280345
732.735506	4237.057040
733.066401	4197.060526
733.397249	4139.666989
733.728048	4065.927511
734.058798	3988.903722
734.389501	3923.585491
734.720156	3866.718755
735.050762	3826.689473
735.381320	3817.179336
735.711831	3772.572687
736.042293	3746.605703
736.372707	3762.913836
736.703073	3738.320567
737.033391	3731.199937
737.363661	3752.536621
737.693883	3771.256945
738.024056	3779.806742
738.354182	3773.545629
738.684260	3839.982996
739.014290	3854.441025
739.344272	3850.047659
739.674207	3890.243300
740.004093	3893.661202
740.333931	3888.952764
740.663722	3889.918145
740.993464	3889.807240
741.323159	3870.287892
741.652806	3841.351669
741.982405	3812.909479
742.311956	3786.461065
742.641460	3773.003705
742.970915	3756.327568
743.300323	3713.127400
743.629683	3684.042463
743.958996	3675.336391
744.288260	3649.674397
744.617477	3620.902011
744.946647	3605.249229
745.275768	3584.482195
745.604842	3580.643357
745.933869	3535.497303
746.262847	3526.629914
746.591778	3566.326480
746.920662	3537.962428
747.249498	3504.700895
747.578286	3553.274933
747.907027	3566.936459
748.235720	3562.354051
748.564365	3591.622990
748.892963	3593.495778
749.221514	3573.074064
749.550017	3551.157648
749.878473	3550.630847
750.206881	3520.026002
750.535242	3515.982997
750.863555	3518.952237
751.191821	3511.088037
751.520039	3496.085563
751.848210	3474.554795
752.176334	3509.454703
752.504411	3515.448635
752.832440	3473.153354
753.160421	3458.198771
753.488356	3466.972899
753.816243	3475.326091
754.144082	3433.010646
754.471875	3423.135025
754.799620	3439.483487
755.127318	3435.851336
755.454969	3436.088270
755.782572	3441.983900
756.110129	3415.797626
756.437638	3410.060793
756.765100	3422.575457
757.092515	3431.800769
757.419882	3436.857046
757.747203	3410.459044
758.074477	3414.040784
758.401703	3428.256838
758.728882	3454.768266
759.056014	3458.292032
759.383099	3460.595840
759.710138	3456.925880
760.037129	3472.114876
760.364073	3503.624608
760.690970	3487.823112
761.017820	3464.790080
761.344623	3485.673059
761.671379	3530.713248
761.998088	3578.291658
762.324751	3703.360165
762.651366	3942.497380
762.977935	4402.303543
763.304456	4832.465200
763.630931	4914.903189
763.957359	4563.665836
764.283740	4235.968151
764.610074	4053.402764
764.936362	3861.712889
765.262602	3707.138510
765.588796	3600.714711
765.914943	3513.333871
766.241044	3428.735747
766.567097	3400.964031
766.893104	3353.612473
767.219064	3325.432423
767.544978	3299.689771
767.870845	3246.452665
768.196665	3227.911302
768.522438	3239.884042
768.848165	3233.436406
769.173846	3195.289995
769.499479	3182.072090
769.825066	3161.884789
770.150607	3149.707882
770.476101	3163.694563
770.801548	3158.562669
771.126949	3113.436780
771.452303	3098.421703
771.777611	3106.139710
772.102872	3109.522324
772.428087	3084.498036
772.753256	3076.527972
773.078378	3069.694688
773.403453	3036.039945
773.728482	3025.035106
774.053465	3043.906666
774.378401	3033.302598
774.703291	3000.008298
775.028135	3005.162878
775.352932	2999.708349
775.677683	2989.331134
776.002388	2983.062459
776.327046	2984.494147
776.651658	2975.021819
776.976224	2962.960858
777.300743	2963.018832
777.625216	2955.862914
777.949643	2948.223045
778.274024	2955.678912
778.598359	2939.819442
778.922647	2948.444856
779.246889	2945.089968
779.571086	2928.925508
779.895236	2924.922832
780.219339	2934.201076
780.543397	2948.764969
780.867409	2948.729681
781.191374	2944.510235
781.515294	2944.048970
781.839167	2941.909000
782.162995	2932.527413
782.486776	2943.812035
782.810511	2939.794236
783.134201	2926.142791
783.457844	2931.148657
783.781441	2924.194385
784.104993	2904.412898
784.428498	2905.867270
784.751958	2919.233890
785.075372	2914.611152
785.398739	2895.512740
785.722061	2915.321954
786.045337	2924.050712
786.368568	2907.770306
786.691752	2902.908113
787.014891	2950.920062
787.337983	2978.742190
787.661030	3003.214472
787.984031	3070.851633
788.306987	3112.559619
788.629897	3105.822117
788.952760	3092.389963
789.275579	3075.900348
789.598351	3018.758870
789.921078	2973.774133
790.243759	2967.104687
790.566395	2950.536935
790.888984	2928.922988
791.211529	2913.169382
791.534027	2901.234450
791.856480	2891.202554
792.178888	2876.885677
792.501249	2870.831251
792.823566	2869.823020
793.145836	2864.461753
793.468062	2861.421937
793.790241	2858.704756
794.112375	2864.998636
794.434464	2875.885008
794.756507	2879.978425
795.078505	2886.995711
795.400457	2899.066754
795.722364	2934.092691
796.044226	2960.702421
796.366042	2963.361630
796.687812	2950.035340
797.009538	2969.640387
797.331218	2957.244190
797.652852	2942.098043
797.974442	2926.586413
798.295986	2921.207502
798.617484	2920.204312
798.938938	2901.731004
799.260346	2888.805485
799.581709	2881.291645
799.903026	2873.634133
800.224299	2868.237577
800.545526	2861.396732
800.866708	2845.436439
801.187845	2835.701971
801.508936	2838.789677
801.829983	2844.617251
802.150984	2830.761640
802.471940	2819.998776
802.792851	2820.129846
803.113717	2820.651606
803.434538	2823.676298
803.755314	2815.749084
804.076045	2811.310348
804.396731	2813.863692
804.717372	2811.161634
805.037967	2806.629636
805.358518	2814.277067
805.679024	2824.881134
805.999485	2821.984991
806.319901	2823.799806
806.640272	2818.408292
806.960598	2819.822336
807.280879	2831.248111
807.601115	2836.417814
807.921306	2824.893737
808.241453	2819.023313
808.561554	2828.493121
808.881611	2828.261227
809.201623	2823.731751
809.521590	2821.702686
809.841513	2820.281081
810.161390	2824.772749
810.481223	2817.402582
810.801011	2809.142652
811.120755	2806.743062
811.440453	2809.094761
811.760107	2806.319605
812.079716	2804.824903
812.399281	2793.328552
812.718801	2788.410906
813.038276	2780.493774
813.357707	2789.386370
813.677093	2797.961372
813.996434	2791.478448
814.315731	2787.180865
814.634983	2784.383024
814.954191	2783.170627
815.273354	2798.747792
815.592473	2805.341622
815.911547	2805.901190
816.230577	2818.015082
816.549562	2823.671257
816.868502	2822.078252
817.187399	2833.866991
817.506250	2845.917869
817.825058	2839.901252
818.143821	2855.407841
818.462539	2868.855119
818.781213	2893.455950
819.099843	2929.462391
819.418429	2984.854589
819.736970	3044.188970
820.055466	3114.981894
820.373919	3219.996690
820.692327	3354.386290
821.010691	3516.345960
821.329011	3945.189356
821.647286	4822.143438
821.965517	6154.946377
822.283704	6856.208686
822.601847	6824.993861
822.919945	6212.793617
823.237999	5732.290997
823.556010	5164.778062
823.873976	4634.090755
824.191897	4241.493256
824.509775	3962.785503
824.827609	3697.552756
825.145398	3579.809046
825.463144	3571.410483
825.780845	3658.947599
826.098502	3766.135133
826.416116	4042.700395
826.733685	4340.940098
827.051210	4400.055188
827.368692	4284.887508
827.686129	4030.049619
828.003522	3715.423646
828.320872	3468.366778
828.638177	3276.644136
828.955439	3146.254692
829.272656	3067.310222
829.589830	3002.662465
829.906960	2956.177986
830.224046	2910.941192
830.541088	2878.627396
830.858086	2863.209027
831.175041	2848.219156
831.491952	2850.021368
831.808819	2859.551669
832.125642	2885.488406
832.442421	2926.682195
832.759157	3007.249915
833.075849	3179.359949
833.392497	3451.937658
833.709101	3646.644663
834.025662	3595.194647
834.342179	3440.758899
834.658653	3269.790687
834.975083	3122.538583
835.291469	3031.598688
835.607811	2952.961730
835.924110	2892.283881
836.240366	2846.449711
836.556578	2805.124852
836.872746	2786.638941
837.188871	2762.176742
837.504952	2744.941037
837.820990	2737.437279
838.136984	2725.761967
838.452935	2721.655947
838.768842	2719.271481
839.084706	2735.894686
839.400526	2811.159113
839.716303	2940.028649
840.032037	3013.770648
840.347727	2999.841940
840.663373	2940.817590
840.978977	2869.374358
841.294537	2797.172432
841.610054	2754.741040
841.925527	2733.497618
842.240957	2713.033053
842.556344	2689.765608
842.871687	2674.392609
843.186987	2667.695436
843.502244	2663.387770
843.817458	2660.572286
844.132629	2647.795482
844.447756	2635.487504
844.762840	2633.236629
845.077881	2637.549336
845.392879	2634.436424
845.707833	2628.888634
846.022745	2621.173148
846.337613	2624.689353
846.652438	2623.048457
846.967221	2623.953344
847.281960	2625.248921
847.596656	2620.772376
847.911309	2616.381531
848.225919	2616.222735
848.540485	2612.600666
848.855009	2617.132663
849.169490	2614.602004
849.483928	2614.125615
849.798323	2614.143259
850.112675	2610.458176
850.426984	2613.417333
850.741251	2610.982456
851.055474	2609.218052
851.369654	2614.082765
851.683792	2614.249123
851.997887	2610.811056
852.311938	2611.884822
852.625947	2612.207456
852.939914	2616.376490
853.253837	2613.911366
853.567718	2610.957250
853.881555	2611.799122
854.195350	2615.411109
854.509103	2615.700976
854.822812	2612.088989
855.136479	2611.819287
855.450103	2611.952878
855.763685	2614.372632
856.077224	2613.180399
856.390720	2609.767537
856.704173	2610.737960
857.017584	2615.980760
857.330953	2616.799947
857.644278	2618.667695
857.957561	2616.217694
858.270802	2613.218207
858.584000	2613.616458
858.897155	2617.372118
859.210268	2620.144753
859.523339	2612.456993
859.836367	2607.556992
860.149352	2612.099071
860.462295	2612.502363
860.775195	2610.732918
861.088054	2609.293669
861.400869	2608.045983
861.713642	2604.267639
862.026373	2603.309819
862.339062	2608.925665
862.651708	2617.135184
862.964312	2615.285080
863.276873	2613.170316
863.589392	2618.440843
863.901869	2620.167438
864.214303	2624.202882
864.526696	2628.351751
864.839045	2629.944756
865.151353	2631.041207
865.463619	2628.805455
865.775842	2631.331073
866.088023	2630.166567
866.400162	2632.979530
866.712258	2629.359982
867.024313	2626.965434
867.336325	2625.145577
867.648296	2628.402163
867.960224	2633.239150
868.272110	2631.315950
868.583954	2625.385032
868.895755	2627.988788
869.207515	2631.404170
869.519233	2637.877011
869.830909	2633.269397
870.142542	2631.638583
870.454134	2631.724283
870.765684	2636.833492
871.077191	2638.502114
871.388657	2642.240130
871.700081	2640.498411
872.011463	2641.274749
872.322803	2640.102681
872.634101	2642.164513
872.945357	2651.236069
873.256571	2654.631286
873.567744	2651.909063
873.878874	2650.870585
874.189963	2654.157418
874.501010	2656.148673
874.812015	2662.392142
875.122979	2660.912564
875.433900	2655.384939
875.744780	2653.534835
876.055618	2661.741834
876.366415	2662.384581
876.677169	2662.190496
876.987882	2654.966523
877.298554	2652.037612
877.609183	2664.259890
877.919771	2671.461178
878.230317	2681.354443
878.540822	2687.635720
878.851285	2701.292206
879.161707	2724.980588
879.472087	2760.271186
879.782425	2805.664255
880.092722	2914.739701
880.402977	3091.437185
880.713191	3342.453879
881.023363	3618.560395
881.333494	3797.576810
881.643583	3962.929176
881.953631	3960.219556
882.263637	3788.752270
882.573602	3574.651945
882.883526	3457.427474
883.193408	3344.445134
883.503248	3249.709251
883.813048	3144.243271
884.122806	3031.374357
884.432522	2952.767645
884.742197	2893.990312
885.051831	2854.409692
885.361424	2824.467759
885.670975	2791.289405
885.980485	2762.169180
886.289954	2745.732498
886.599382	2730.051989
886.908768	2718.820298
887.218113	2702.434027
887.527417	2688.485155
887.836680	2682.276974
888.145901	2679.111129
888.455082	2669.784995
888.764221	2657.943324
889.073319	2652.874444
889.382376	2651.972077
889.691392	2653.721358
890.000366	2653.108858
890.309300	2651.359577
890.618193	2652.002324
890.927044	2654.298570
891.235855	2655.510967
891.544625	2653.996101
891.853353	2654.374187
892.162041	2661.283089
892.470687	2681.926614
892.779293	2693.969930
893.087858	2700.326825
893.396381	2722.089486
893.704864	2759.714138
894.013306	2826.963130
894.321707	2914.953950
894.630068	2959.414407
894.938387	2979.561378
895.246665	2972.765903
895.554903	2931.204110
895.863100	2892.031824
896.171256	2834.829851
896.479371	2779.236006
896.787446	2740.585480
897.095480	2725.220043
897.403473	2719.082438
897.711425	2704.886549
898.019336	2688.187727
898.327207	2672.968483
898.635038	2673.873370
898.942827	2670.989830
899.250576	2659.881648
899.558284	2649.839669
899.865952	2646.948568
900.173579	2646.847745
900.481165	2642.419091
900.788711	2635.583286
901.096216	2628.467698
901.403681	2625.034672
901.711105	2628.833181
902.018489	2624.157511
902.325832	2628.487862
902.633135	2630.343007
902.940397	2639.921199
903.247619	2681.266222
903.554800	2743.511870
903.861941	2863.612319
904.169041	2983.816112
904.476101	3038.205121
904.783121	3033.216899
905.090100	2973.723722
905.397039	2904.848957
905.703938	2838.716581
906.010796	2779.752725
906.317614	2733.033831
906.624391	2699.734490
906.931129	2672.303051
907.237826	2650.064001
907.544483	2633.965076
907.851099	2622.912346
908.157675	2611.728546
908.464211	2606.906683
908.770707	2593.567790
909.077163	2590.200299
909.383578	2591.019486
909.689954	2589.348344
909.996289	2583.669484
910.302584	2589.706266
910.608839	2582.830132
910.915054	2584.397931
911.221229	2585.887592
911.527363	2593.048551
911.833458	2584.957499
912.139513	2590.046544
912.445527	2591.624425
912.751502	2595.601895
913.057436	2600.789242
913.363331	2604.262597
913.669186	2616.189967
913.975000	2630.164046
914.280775	2643.170223
914.586510	2656.539363
914.892205	2692.689477
915.197859	2758.632811
915.503475	2839.233299
915.809050	2898.630694
916.114585	2904.826272
916.420081	2919.216246
916.725536	2929.522885
917.030952	2907.568660
917.336328	2863.546784
917.641665	2820.301246
917.946961	2771.034049
918.252218	2737.275962
918.557435	2715.195708
918.862612	2694.224508
919.167750	2677.218176
919.472848	2665.557987
919.777906	2647.820687
920.082925	2634.799387
920.387904	2628.321504
920.692843	2625.553911
920.997743	2619.509567
921.302603	2611.766355
921.607423	2605.520365
921.912204	2601.381578
922.216946	2598.893769
922.521647	2598.835795
922.826310	2594.409662
923.130932	2587.548652
923.435516	2583.072107
923.740059	2583.404823
924.044564	2583.046902
924.349028	2581.509350
924.653454	2572.909141
924.957840	2569.496280
925.262186	2568.490570
925.566493	2568.914027
925.870761	2564.099725
926.174989	2567.648697
926.479178	2565.564180
926.783328	2562.063099
927.087438	2559.285423
927.391509	2566.048131
927.695541	2561.102759
927.999533	2558.914898
928.303486	2557.740309
928.607400	2558.955227
928.911275	2557.757953
929.215110	2557.573951
929.518906	2559.630742
929.822663	2557.389949
930.126381	2554.786193
930.430060	2558.103272
930.733699	2557.195865
931.037299	2558.229301
931.340861	2557.533622
931.644383	2558.793910
931.947866	2560.016390
932.251309	2556.548076
932.554714	2558.151163
932.858080	2557.856256
933.161407	2556.537994
933.464694	2556.217881
933.767943	2556.313663
934.071153	2553.102448
934.374323	2555.312994
934.677455	2553.523384
934.980548	2555.013045
935.283602	2552.225287
935.586617	2553.503219
935.889593	2553.299053
936.192530	2555.421378
936.495428	2554.856769
936.798287	2555.184444
937.101108	2556.006152
937.403890	2559.451781
937.706632	2562.715928
938.009336	2565.060065
938.312002	2566.048131
938.614628	2569.050138
938.917216	2573.093143
939.219765	2573.314954
939.522275	2573.708164
939.824747	2576.508525
940.127179	2571.152299
940.429573	2563.925805
940.731929	2566.433779
941.034246	2561.044786
941.336524	2566.448902
941.638763	2567.540312
941.940964	2567.023594
942.243126	2566.451423
942.545250	2562.267265
942.847335	2563.552760
943.149381	2559.426575
943.451389	2558.516647
943.753359	2560.190310
944.055290	2556.855587
944.357182	2560.497820
944.659036	2557.382387
944.960851	2558.267110
945.262628	2557.894064
945.564367	2558.998077
945.866067	2556.195196
946.167729	2560.190310
946.469352	2557.808365
946.770937	2556.832902
947.072484	2556.381718
947.373992	2556.800134
947.675462	2557.720145
947.976893	2555.680998
948.278286	2554.602191
948.579641	2553.903991
948.880958	2554.622356
949.182236	2552.830225
949.483476	2554.163611
949.784678	2552.852911
950.085841	2552.058929
950.386967	2556.686708
950.688054	2554.685370
950.989103	2556.706873
951.290114	2554.967675
951.591087	2559.726524
951.892021	2557.707542
952.192917	2561.231308
952.493776	2559.499672
952.794596	2561.921946
953.095378	2563.144426
953.396122	2562.002605
953.696828	2560.903633
953.997496	2559.197203
954.298126	2557.140412
954.598718	2554.776111
954.899272	2553.112530
955.199788	2552.900802
955.500266	2555.441543
955.800706	2549.036757
956.101108	2548.099102
956.401472	2547.804195
956.701798	2544.335881
957.002087	2546.763197
957.302337	2549.147662
957.602550	2549.069525
957.902724	2544.461910
958.202861	2544.164482
958.502960	2544.373690
958.803022	2544.807229
959.103045	2543.720860
959.403031	2543.761190
959.702979	2542.584080
960.002889	2544.519883
960.302762	2544.492157
960.602596	2543.181457
960.902393	2543.143648
961.202153	2543.809081
961.501875	2544.169523
961.801559	2543.725902
962.101205	2544.356046
962.400814	2543.592311
962.700385	2542.074924
962.999918	2543.156251
963.299414	2543.703216
963.598873	2543.136087
963.898293	2540.779347
964.197677	2540.474357
964.497022	2539.413194
964.796331	2541.207845
965.095601	2540.108874
965.394835	2540.471837
965.694030	2543.362938
965.993189	2543.824204
966.292309	2540.862526
966.591393	2540.935623
966.890439	2539.451003
967.189447	2540.008051
967.488419	2539.294727
967.787353	2540.093750
968.086249	2540.686086
968.385108	2541.424615
968.683930	2541.217927
968.982714	2539.705581
969.281462	2541.354039
969.580172	2541.265818
969.878844	2542.077444
970.177480	2542.558874
970.476078	2541.107022
970.774639	2543.713299
971.073162	2544.187167
971.371649	2539.667773
971.670098	2539.640046
971.968510	2538.226003
972.266885	2538.530992
972.565223	2541.976621
972.863524	2546.042312
973.161788	2542.221117
973.460014	2541.127187
973.758204	2542.392516
974.056356	2541.545602
974.354471	2546.082641
974.652550	2542.755479
974.950591	2543.330171
975.248595	2542.637012
975.546563	2542.604245
975.844493	2543.665408
976.142386	2540.653318
976.440243	2541.969059
976.738062	2541.149872
977.035845	2540.391178
977.333590	2542.392516
977.631299	2542.894111
977.928971	2542.311858
978.226606	2540.771785
978.524204	2538.435211
978.821765	2541.656508
979.119290	2542.982331
979.416777	2540.436549
979.714228	2541.291024
980.011642	2537.663914
980.309020	2544.335881
980.606360	2538.452855
980.903664	2542.440407
981.200931	2543.826725
981.498162	2543.075593
981.795356	2544.111550
982.092513	2547.330327
982.389633	2549.752601
982.686717	2552.671429
982.983764	2555.507078
983.280775	2555.829712
983.577749	2555.396173
983.874686	2555.023127
984.171587	2550.949875
984.468451	2549.553475
984.765279	2545.386962
985.062070	2546.168341
985.358824	2545.081972
985.655543	2546.082641
985.952224	2541.568288
986.248869	2542.594162
986.545478	2536.839685
986.842050	2538.082330
987.138586	2537.222813
987.435086	2537.230375
987.731549	2535.755837
988.027975	2541.129707
988.324366	2538.596527
988.620719	2540.282793
988.917037	2537.789943
989.213318	2543.473844
989.509563	2538.614172
989.805772	2538.989738
990.101944	2538.853626
990.398080	2538.473019
990.694180	2537.192566
990.990244	2540.353370
991.286271	2536.433872
991.582262	2539.398071
991.878217	2537.132072
992.174136	2538.962011
992.470019	2539.393030
992.765865	2539.902186
993.061676	2536.403626
993.357450	2539.161137
993.653188	2537.532844
993.948890	2540.108874
994.244556	2539.423277
994.540186	2539.965201
994.835780	2538.770447
995.131337	2540.837320
995.426859	2541.096940
995.722345	2540.295396
996.017795	2544.552651
996.313208	2542.208514
996.608586	2540.723894
996.903928	2541.780016
997.199234	2543.713299
997.494504	2543.093237
997.789738	2543.753628
998.084936	2542.483257
998.380099	2538.105015
998.675225	2539.791281
998.970316	2542.253885
999.265371	2539.080478
999.560390	2538.425128
999.855373	2541.356559
1000.150320	2539.889583
1000.445232	2540.015612
1000.740108	2538.473019
1001.034948	2537.593338
1001.329752	2538.853626
1001.624521	2537.759696
1001.919254	2533.973789
1002.213951	2536.055786
1002.508613	2534.556043
1002.803239	2535.460930
1003.097829	2532.700898
1003.392384	2537.182484
1003.686903	2532.688295
1003.981386	2539.698020
1004.275834	2536.030580
1004.570246	2536.703574
1004.864623	2537.255581
1005.158964	2537.550488
1005.453270	2537.749614
1005.747540	2537.154757
1006.041775	2536.557381
1006.335974	2538.533513
1006.630138	2536.867412
1006.924266	2537.568132
1007.218359	2534.591331
1007.512416	2536.333049
1007.806438	2537.295910
1008.100425	2538.097453
1008.394376	2537.495035
1008.688292	2538.210879
1008.982172	2537.860519
1009.276017	2537.202648
1009.569827	2535.723070
1009.863602	2540.832279
1010.157341	2538.074768
1010.451045	2537.842875
1010.744714	2538.258770
1011.038347	2538.813297
1011.331945	2535.410518
1011.625508	2537.593338
1011.919036	2537.114428
1012.212528	2536.053265
1012.505986	2540.635674
1012.799408	2539.261960
1013.092795	2536.688451
1013.386147	2539.594676
1013.679464	2539.587114
1013.972745	2537.641229
1014.265992	2537.888245
1014.559204	2536.136444
1014.852380	2537.517721
1015.145521	2540.023174
1015.438628	2534.571166
1015.731699	2536.648122
1016.024736	2538.752803
1016.317737	2538.273894
1016.610703	2538.367155
1016.903635	2533.605785
1017.196531	2531.962369
1017.489393	2533.409180
1017.782219	2534.326670
1018.075011	2537.439583
1018.367768	2534.162833
1018.660490	2538.586445
1018.953177	2538.586445
1019.245829	2538.586445
