Dividing Wavelength (nm)	Counts (n)	Blue Motor Position (mm): 31.100000	Red Motor Position (mm): 0.000000	
326.493990	2131.135186
326.888308	2131.135186
327.282561	2131.135186
327.676750	2100.114445
328.070874	2095.521954
328.464933	2101.483119
328.858929	2107.280446
329.252859	2115.174893
329.646726	2128.082767
330.040528	2140.693213
330.434265	2159.831954
330.827938	2177.990190
331.221547	2192.788497
331.615091	2211.965046
332.008571	2230.516493
332.401986	2250.910480
332.795338	2271.095260
333.188625	2289.739968
333.581847	2309.934830
333.975006	2326.164825
334.368100	2344.781806
334.761129	2365.150588
335.154095	2380.901673
335.546996	2401.577966
335.939833	2426.090577
336.332606	2440.173040
336.725315	2454.726851
337.117960	2459.140381
337.510540	2471.982721
337.903056	2481.782724
338.295508	2489.304125
338.687896	2500.336690
339.080220	2507.376662
339.472480	2511.144924
339.864676	2516.478465
340.256807	2518.835204
340.648875	2523.609177
341.040879	2528.110927
341.432818	2526.931297
341.824694	2530.351720
342.216506	2530.117307
342.608253	2532.680733
342.999937	2529.900537
343.391557	2531.228881
343.783113	2529.409025
344.174605	2527.712676
344.566033	2526.835516
344.957397	2525.066071
345.348697	2523.420134
345.739934	2520.345030
346.131106	2518.741943
346.522215	2518.293280
346.913260	2515.497961
347.304241	2514.036026
347.695159	2512.526200
348.086012	2509.105778
348.476802	2508.987310
348.867528	2507.837927
349.258191	2507.059069
349.648789	2505.450941
350.039324	2505.428256
350.429796	2505.929851
350.820203	2503.346259
351.210548	2502.038080
351.600828	2498.131186
351.991045	2499.008346
352.381198	2496.782677
352.771288	2499.086484
353.161314	2498.252173
353.551276	2497.727893
353.941175	2496.341576
354.331010	2498.020280
354.720782	2496.366782
355.110490	2495.068685
355.500135	2495.318222
355.889717	2496.810403
356.279235	2496.903665
356.668689	2498.542040
357.058080	2496.361741
357.447408	2497.322080
357.836672	2494.574652
358.225873	2492.767398
358.615010	2493.289157
359.004084	2501.506238
359.393095	2499.809890
359.782043	2502.345590
360.170927	2499.721670
360.559748	2502.965652
360.948505	2500.455158
361.337199	2504.805673
361.725830	2502.832062
362.114398	2503.797443
362.502903	2502.970693
362.891344	2504.641836
363.279722	2504.616630
363.668037	2507.013699
364.056289	2506.018071
364.444478	2506.108812
364.832603	2507.177536
365.220665	2506.529748
365.608665	2509.738442
365.996601	2508.624347
366.384474	2509.592249
366.772284	2509.108298
367.160031	2508.901611
367.547715	2512.480830
367.935336	2508.901611
368.322893	2510.103926
368.710388	2509.325068
369.097820	2513.196674
369.485189	2506.668380
369.872495	2513.143742
370.259738	2508.450428
370.646918	2511.926303
371.034035	2512.868999
371.421090	2512.304390
371.808081	2510.734070
372.195010	2512.022085
372.581875	2512.808505
372.968678	2510.918072
373.355418	2513.632734
373.742096	2514.086438
374.128710	2514.532580
374.515262	2515.903773
374.901751	2513.824298
375.288177	2513.978053
375.674540	2513.242044
376.060841	2515.671880
376.447079	2515.117353
376.833254	2515.432426
377.219367	2509.990500
377.605417	2516.559123
377.991404	2508.798267
378.377329	2515.366891
378.763191	2513.168948
379.148991	2517.935358
379.534727	2515.477796
379.920402	2515.820594
380.306013	2516.677591
380.691563	2517.975688
381.077049	2518.883095
381.462474	2520.518950
381.847835	2519.006604
382.233134	2517.398476
382.618371	2518.746984
383.003545	2518.099196
383.388657	2520.617252
383.773706	2521.358302
384.158693	2520.687828
384.543618	2521.754033
384.928480	2522.069105
385.313280	2521.895185
385.698017	2518.948630
386.082692	2521.564989
386.467305	2523.415093
386.851856	2522.449712
387.236344	2523.084897
387.620770	2520.236645
388.005133	2521.801923
388.389435	2522.860566
388.773674	2522.893333
389.157851	2520.206398
389.541965	2523.730165
389.926018	2524.453570
390.310008	2523.331914
390.693936	2524.980371
391.077802	2525.847449
391.461606	2527.800897
391.845348	2524.425844
392.229027	2524.367871
392.612645	2522.963909
392.996200	2525.454239
393.379694	2526.051616
393.763125	2525.560104
394.146494	2525.983561
394.529801	2526.056657
394.913047	2528.070598
395.296230	2528.342821
395.679351	2526.472553
396.062410	2526.719569
396.445408	2528.478932
396.828343	2529.835002
397.211217	2523.994825
397.594028	2527.153108
397.976778	2526.880886
398.359466	2528.050434
398.742092	2525.103879
399.124656	2531.627132
399.507158	2530.944056
399.889598	2529.088911
400.271977	2530.538243
400.654294	2531.937163
401.036549	2532.642925
401.418742	2532.247194
401.800874	2534.041845
402.182944	2531.803573
402.564952	2534.782895
402.946898	2533.497400
403.328783	2533.683923
403.710606	2531.899355
404.092367	2534.437576
404.474067	2532.796680
404.855705	2534.813142
405.237282	2536.355735
405.618797	2533.489839
406.000250	2536.799356
406.381642	2536.451517
406.762972	2535.274407
407.144240	2537.411856
407.525447	2536.993441
407.906593	2537.868081
408.287677	2537.371527
408.668700	2537.752134
409.049661	2537.706764
409.430560	2536.945550
409.811399	2536.204500
410.192176	2537.432021
410.572891	2535.561753
410.953545	2538.962011
411.334138	2540.645757
411.714669	2539.380427
412.095139	2539.960160
412.475547	2540.653318
412.855894	2541.437218
413.236180	2542.878988
413.616405	2544.167003
413.996568	2543.304965
414.376670	2543.201622
414.756711	2542.702547
415.136691	2544.598021
415.516609	2544.182126
415.896466	2543.804039
416.276262	2546.959802
416.655997	2545.611293
417.035670	2545.649102
417.415283	2546.629606
417.794834	2544.766900
418.174324	2551.050698
418.553753	2553.538507
418.933121	2558.655279
419.312428	2561.964796
419.691674	2565.627194
420.070859	2570.965776
420.449983	2572.717577
420.829045	2582.746953
421.208047	2588.375401
421.586988	2593.870259
421.965867	2603.584562
422.344686	2615.106119
422.723444	2619.282715
423.102141	2623.156842
423.480777	2643.689462
423.859352	2645.842034
424.237866	2669.212824
424.616319	2679.693382
424.994712	2700.720035
425.373044	2705.607434
425.751314	2729.646176
426.129524	2734.818400
426.507673	2762.282606
426.885762	2785.441667
427.263789	2799.982875
427.641756	2806.354893
428.019662	2837.000068
428.397508	2859.811289
428.775292	2882.073024
429.153016	2914.830442
429.530679	2932.769388
429.908282	2966.547639
430.285824	2974.217755
430.663305	3044.133518
431.040726	3036.508772
431.418086	3063.330231
431.795385	3111.490895
432.172624	3147.739311
432.549802	3177.792150
432.926920	3215.137018
433.303977	3251.670260
433.680974	3297.078453
434.057910	3340.984382
434.434786	3379.715567
434.811601	3414.986000
435.188355	3517.475178
435.565050	3526.198895
435.941683	3561.769277
436.318257	3674.761699
436.694770	3718.924727
437.071222	3775.557050
437.447614	3800.994712
437.823946	3814.426866
438.200218	3921.140532
438.576429	3918.763627
438.952580	4015.828524
439.328670	4080.405705
439.704700	4087.594390
440.080670	4129.962768
440.456580	4317.241633
440.832429	4314.393381
441.208218	4285.368938
441.583947	4414.677055
441.959616	4467.150425
442.335224	4480.088547
442.710773	4610.730048
443.086261	4682.243857
443.461689	4605.043627
443.837057	4745.301130
444.212365	4899.492382
444.587612	4876.708887
444.962800	5027.550293
445.337927	5061.941044
445.712995	4850.504969
446.088002	5289.034942
446.462949	5222.070775
446.837837	5222.199325
447.212664	5383.783429
447.587431	5543.857708
447.962139	5995.466954
448.336786	6729.317802
448.711374	6587.232881
449.085901	5939.721875
449.460369	5927.330719
449.834776	5915.007618
450.209124	6276.977588
450.583412	6449.193486
450.957640	6590.872594
451.331808	6447.406397
451.705917	6109.278564
452.079965	6076.271609
452.453954	6293.910824
452.827883	6222.031532
453.201752	6333.700651
453.575562	6181.107445
453.949311	6397.723305
454.323001	6320.255894
454.696632	6410.757208
455.070202	6565.059366
455.443713	6733.292752
455.817164	6843.361305
456.190556	6946.014321
456.563888	7039.840276
456.937160	7100.099709
457.310373	6795.460261
457.683526	6836.449883
458.056619	6752.038283
458.429653	6755.451144
458.802628	6711.174689
459.175542	6827.489232
459.548398	7178.812285
459.921194	7349.120106
460.293930	7357.160746
460.666607	7880.303966
461.039224	8189.881224
461.411782	8320.547931
461.784280	8351.974484
462.156719	8258.854291
462.529099	8152.927045
462.901419	7754.479287
463.273680	7657.290882
463.645882	7673.019282
464.018024	7552.901188
464.390106	7719.014769
464.762130	8108.156558
465.134094	8573.170233
465.505999	9584.266898
465.877845	10801.856787
466.249631	11445.425610
466.621358	11069.065667
466.993026	10450.450555
467.364634	10202.609788
467.736184	9848.398154
468.107674	9519.732567
468.479105	9546.571670
468.850477	9316.405188
469.221790	9095.544677
469.593043	8767.718442
469.964238	8634.745407
470.335373	8643.567426
470.706449	8704.008340
471.077467	8691.556690
471.448425	9996.010700
471.819324	11063.104502
472.190164	11075.225957
472.560945	9837.650414
472.931667	9055.994304
473.302330	8924.969675
473.672934	8570.768123
474.043479	8928.014532
474.413965	8873.007981
474.784393	8749.469465
475.154761	8910.962829
475.525070	8995.949121
475.895321	8826.210950
476.265513	8998.096652
476.635645	9171.897993
477.005719	9169.989916
477.375734	9282.059807
477.745691	9521.897743
478.115588	9648.405498
478.485427	9890.358198
478.855207	10435.576630
479.224928	11250.864798
479.594591	11867.685259
479.964194	11678.798266
480.333739	11625.198197
480.703226	11537.061184
481.072653	11618.831220
481.442022	11866.898839
481.811333	12048.317363
482.180584	11858.033970
482.549777	11571.325907
482.918912	11390.071220
483.287988	11418.452916
483.657005	11420.539954
484.025964	11110.229208
484.394864	11238.902140
484.763706	11213.015815
485.132489	10968.545059
485.501213	10930.940572
485.869879	11011.294044
486.238487	10847.262459
486.607036	10959.733122
486.975527	10741.423434
487.343959	10934.073649
487.712333	10985.662297
488.080648	10914.065309
488.448905	10960.075921
488.817104	10896.186857
489.185244	11158.727629
489.553326	11309.811010
489.921350	11852.834020
490.289315	12911.035227
490.657222	13253.949635
491.025070	13154.243173
491.392861	13030.649204
491.760593	12657.117348
492.128267	12297.352884
492.495883	11985.000471
492.863440	11637.952317
493.230939	11311.393932
493.598380	11248.389591
493.965763	11112.059147
494.333088	11012.957624
494.700354	10925.992679
495.067563	10992.198153
495.434713	10823.672380
495.801805	10951.974786
496.168839	10876.337314
496.535815	10811.782818
496.902733	10811.586213
497.269593	10749.852243
497.636395	10849.682213
498.003139	10837.086890
498.369825	10703.415655
498.736453	10858.204284
499.103023	10783.809456
499.469535	10816.216513
499.835989	10805.652775
500.202385	10763.342371
500.568723	10622.122008
500.935003	10842.493528
501.301226	10651.963118
501.667390	10900.489482
502.033497	10999.747281
502.399546	10863.641168
502.765537	10770.299163
503.131470	10840.656027
503.497345	11018.828048
503.863163	10635.392845
504.228923	10939.334093
504.594625	11005.431182
504.960269	10753.378531
505.325856	10968.998763
505.691385	10769.754719
506.056856	10923.537638
506.422270	10943.051944
506.787625	10828.032978
507.152924	10948.193921
507.518164	10929.145921
507.883347	10855.613131
508.248472	10774.745461
508.613540	11008.947387
508.978550	10888.675538
509.343503	10861.155879
509.708398	10984.860753
510.073236	11097.056673
510.438016	11104.109248
510.802738	11044.505165
511.167403	11104.847777
511.532010	10999.223001
511.896561	11228.303114
512.261053	11301.513271
512.625488	11170.483600
512.989866	11160.759214
513.354186	11153.948615
513.718449	11043.491893
514.082655	11234.967519
514.446803	11130.252672
514.810894	11257.060376
515.174927	11118.552153
515.538904	11145.237501
515.902822	11304.439660
516.266684	11182.844509
516.630488	11119.610796
516.994235	11175.186996
517.357925	11237.730072
517.721558	11331.399751
518.085133	11348.040600
518.448651	11355.541837
518.812112	11242.516647
519.175516	11256.158009
519.538863	11370.347706
519.902152	11292.328288
520.265385	11451.994233
520.628560	11363.947961
520.991678	11337.728920
521.354739	11397.625389
521.717743	11340.473828
522.080690	11315.441979
522.443580	11452.006836
522.806413	11403.407593
523.169189	11438.005032
523.531908	11493.354380
523.894569	11313.995168
524.257174	11318.179325
524.619722	11432.764752
524.982213	11383.537885
525.344647	11429.987076
525.707025	11388.783205
526.069345	11478.296454
526.431608	11400.680328
526.793815	11504.066832
527.155964	11293.326437
527.518057	11348.615292
527.880093	11297.195522
528.242072	11366.287056
528.603995	11272.617377
528.965860	11198.857734
529.327669	11241.984805
529.689421	11189.070334
530.051117	11161.754842
530.412755	11268.171079
530.774337	11155.544140
531.135862	11139.762808
531.497331	11159.133442
531.858743	11013.416369
532.220098	11175.549959
532.581396	11050.299972
532.942638	11027.065293
533.303824	10997.393062
533.664953	11012.100628
534.026025	10926.726167
534.387040	11023.796105
534.747999	11024.481702
535.108902	11082.795249
535.469748	10847.731287
535.830537	10943.510689
536.191270	10924.371948
536.551947	10947.261308
536.912567	10944.833992
537.273131	10868.896571
537.633638	10848.295896
537.994089	10838.758033
538.354483	10787.476895
538.714821	10932.077352
539.075103	10939.770153
539.435328	10908.273024
539.795497	10734.448998
540.155609	10889.406505
540.515665	10979.789353
540.875665	10717.233458
541.235609	10785.142841
541.595496	10777.626481
541.955328	10933.773700
542.315102	10814.799949
542.674821	10768.953175
543.034483	10769.013669
543.394090	10774.828640
543.753640	10703.357682
544.113134	10926.811867
544.472571	10779.456419
544.831953	10921.833727
545.191278	10731.303318
545.550548	10752.713098
545.909761	10892.834490
546.268918	10866.020593
546.628019	10948.138468
546.987064	10813.706019
547.346053	10733.544111
547.704986	10836.978505
548.063863	10818.530403
548.422684	10814.265587
548.781449	10725.931968
549.140158	10829.268061
549.498811	10710.538805
549.857408	10563.508512
550.215949	10796.281270
550.574434	10650.241564
550.932864	10742.305636
551.291237	10804.805862
551.649555	10752.745866
552.007817	10761.346074
552.366022	10734.910263
552.724173	10716.890659
553.082267	10701.132012
553.440305	10840.517395
553.798288	10647.216872
554.156215	10797.120623
554.514086	10771.690522
554.871902	10624.173758
555.229661	10660.250775
555.587365	10635.758329
555.945014	10524.018633
556.302606	10661.125415
556.660143	10551.266070
557.017625	10702.394821
557.375050	10603.144584
557.732421	10730.254758
558.089735	10645.170163
558.446994	10647.904989
558.804197	10686.502584
559.161345	10688.521566
559.518437	10540.198217
559.875474	10622.598397
560.232455	10654.191308
560.589381	10605.934863
560.946251	10599.698956
561.303065	10709.361696
561.659825	10640.353341
562.016528	10576.895296
562.373177	10451.239495
562.729770	10559.871320
563.086307	10481.952725
563.442789	10570.808103
563.799216	10453.757552
564.155587	10503.312094
564.511904	10457.114960
564.868164	10441.273134
565.224370	10461.233583
565.580520	10389.099712
565.936615	10387.153827
566.292654	10265.961968
566.648638	10397.641948
567.004567	10349.985400
567.360441	10328.535290
567.716260	10243.969934
568.072023	10344.971972
568.427732	10288.284197
568.783385	10203.635662
569.138982	10270.297360
569.494525	10285.645153
569.850013	10166.144601
570.205445	10242.475232
570.560823	10143.119131
570.916145	10059.483868
571.271412	10125.709506
571.626625	10076.482639
571.981782	10048.708402
572.336884	10018.617755
572.691931	10028.702583
573.046923	9974.195107
573.401860	9927.019989
573.756743	9865.807779
574.111570	9912.443493
574.466342	9894.658302
574.821059	9920.511860
575.175722	9815.416405
575.530330	9822.710954
575.884882	9821.516201
576.239380	9750.970294
576.593823	9720.867044
576.948211	9740.124252
577.302544	9622.758628
577.656823	9630.811872
578.011047	9634.073498
578.365216	9616.603379
578.719330	9538.079847
579.073389	9545.220641
579.427394	9490.453546
579.781344	9472.360844
580.135239	9414.337164
580.489080	9425.198330
580.842866	9328.514040
581.196597	9338.727418
581.550273	9369.256645
581.903895	9342.530968
582.257463	9409.522862
582.610975	9283.761197
582.964434	9310.007964
583.317837	9232.263290
583.671186	9219.420950
584.024481	9207.622130
584.377721	9130.953741
584.730906	9108.369372
585.084037	9138.775092
585.437113	9071.132889
585.790135	9098.390408
586.143103	8992.763112
586.496016	8967.653124
586.848874	9023.925004
587.201679	9013.240278
587.554428	8898.002022
587.907124	8944.443652
588.259765	8919.628572
588.612352	8922.628059
588.964884	8793.977812
589.317362	8807.803177
589.669786	8809.323085
590.022155	8860.137916
590.374470	8872.413125
590.726731	8811.097571
591.078937	8665.493924
591.431090	8779.804608
591.783188	8653.291812
592.135232	8647.522211
592.487222	8646.461048
592.839157	8693.762195
593.191038	8630.805745
593.542866	8568.885252
593.894639	8476.564081
594.246358	8524.676853
594.598022	8540.614461
594.949633	8438.558822
595.301190	8416.949916
595.652692	8442.609389
596.004141	8550.258189
596.355535	8333.788522
596.706876	8315.552148
597.058162	8247.380624
597.409395	8324.795103
597.760573	8383.585040
598.111698	8293.648334
598.462768	8281.647868
598.813785	8246.193433
599.164748	8211.225469
599.515657	8209.713123
599.866511	8114.311807
600.217312	8243.108247
600.568060	8100.267152
600.918753	8203.298255
601.269392	8169.358686
601.619978	8086.353568
601.970510	8149.400758
602.320988	8146.736508
602.671412	8197.954632
603.021783	8139.288204
603.372100	8111.135880
603.722363	8110.281404
604.072572	8091.906399
604.422728	8099.455527
604.772830	8025.567335
605.122878	8033.340794
605.472872	8031.402470
605.822813	8062.932367
606.172701	8009.339860
606.522534	8077.042557
606.872314	8079.053977
607.222041	8050.115233
607.571714	8097.696164
607.921333	8067.683654
608.270899	8070.839417
608.620411	8160.070360
608.969870	8064.069147
609.319276	8056.252838
609.668627	8065.455464
610.017926	8104.922658
610.367171	8151.812950
610.716362	8130.312429
611.065500	8124.343703
611.414585	8150.776993
611.763616	8134.567163
612.112594	8115.178885
612.461518	8138.113615
612.810389	8194.665279
613.159207	8134.257132
613.507971	8081.090603
613.856682	8201.377575
614.205340	8158.061461
614.553945	8236.428718
614.902496	8136.470199
615.250994	8191.491872
615.599439	8171.183584
615.947830	8185.336623
616.296169	8158.421903
616.644454	8166.649066
616.992686	8160.703025
617.340864	8222.129485
617.688990	8125.598950
618.037063	8222.822643
618.385082	8167.594282
618.733048	8251.474041
619.080961	8193.883900
619.428821	8209.952578
619.776628	8213.047846
620.124382	8163.589086
620.472083	8148.992425
620.819731	8174.440169
621.167326	8066.287255
621.514868	8083.119667
621.862357	7965.945608
622.209793	7983.503947
622.557176	7914.861076
622.904506	7893.380719
623.251783	7821.009914
623.599007	7771.757841
623.946179	7778.081969
624.293297	7733.908858
624.640363	7658.215933
624.987376	7639.714899
625.334336	7588.227074
625.681243	7538.231431
626.028097	7526.533433
626.374899	7498.174422
626.721647	7494.146540
627.068343	7424.286230
627.414987	7399.640029
627.761577	7354.289809
628.108115	7389.361116
628.454600	7282.211391
628.801032	7338.430339
629.147412	7297.150851
629.493739	7282.221474
629.840014	7223.547484
630.186236	7275.887264
630.532405	7160.890983
630.878521	7212.628345
631.224585	7169.483630
631.570597	7093.400015
631.916556	7125.116435
632.262462	7123.664582
632.608316	7077.464928
632.954117	7056.695374
633.299866	7048.369908
633.645562	7038.063269
633.991206	6957.682071
634.336797	6907.968733
634.682336	6864.924841
635.027823	6833.394944
635.373257	6818.649569
635.718639	6749.857983
636.063968	6766.831548
636.409245	6658.754251
636.754470	6660.788357
637.099642	6617.885617
637.444762	6561.550723
637.789829	6567.035498
638.134845	6512.641448
638.479808	6495.395661
638.824719	6498.964798
639.169577	6428.524755
639.514383	6444.205264
639.859137	6376.857969
640.203839	6386.602520
640.548489	6373.740016
640.893086	6351.712694
641.237632	6319.827396
641.582125	6340.102917
641.926566	6312.018648
642.270955	6324.248488
642.615292	6323.888045
642.959576	6333.695610
643.303809	6326.055741
643.647990	6329.778633
643.992118	6322.710936
644.336195	6264.841010
644.680219	6294.147758
645.024192	6283.984792
645.368112	6383.998764
645.711981	6399.482668
646.055797	6474.449667
646.399562	6434.160765
646.743274	6558.868829
647.086935	6610.044102
647.430544	6606.774914
647.774101	6632.489840
648.117606	6632.630992
648.461059	6630.538913
648.804460	6592.684889
649.147810	6495.473799
649.491108	6471.636703
649.834354	6442.720644
650.177548	6361.011102
650.520690	6271.644047
650.863781	6253.695019
651.206820	6274.706548
651.549807	6193.536410
651.892742	6140.493389
652.235626	6143.457587
652.578458	6131.444518
652.921238	6037.679056
653.263967	6070.789355
653.606644	6015.281210
653.949269	6021.156674
654.291843	5957.771727
654.634365	6006.365929
654.976836	5964.123580
655.319255	5965.303210
655.661622	5939.873110
656.003938	5936.987049
656.346203	5897.605555
656.688416	5931.086379
657.030577	5880.531167
657.372687	5851.423545
657.714746	5841.941135
658.056753	5884.301950
658.398708	5822.716694
658.740612	5811.502648
659.082465	5859.711202
659.424266	5857.621644
659.766016	5853.417321
660.107715	5827.261295
660.449362	5842.440209
660.790958	5835.644733
661.132503	5822.467157
661.473996	5857.510738
661.815438	5847.219223
662.156829	5841.747050
662.498168	5837.683880
662.839456	5812.808307
663.180693	5847.667885
663.521879	5850.480849
663.863013	5838.674467
664.204097	5857.140213
664.545129	5898.880967
664.886110	5895.458024
665.227040	5925.994813
665.567918	5888.430655
665.908746	5921.850985
666.249522	5920.542805
666.590248	5912.487042
666.930922	5936.311535
667.271545	5955.102436
667.612118	5953.693433
667.952639	5927.668476
668.293109	5947.202948
668.633528	5908.736423
668.973896	5911.093163
669.314213	5902.586215
669.654480	5881.183997
669.994695	5878.514706
670.334859	5862.740935
670.674973	5860.757241
671.015035	5859.542323
671.355047	5860.094330
671.695008	5849.991857
672.034918	5821.700902
672.374777	5832.826728
672.714585	5817.231919
673.054342	5818.842568
673.394049	5816.233771
673.733705	5846.213513
674.073310	5832.378066
674.412864	5788.330984
674.752368	5782.468122
675.091820	5788.792250
675.431223	5726.264298
675.770574	5726.619699
676.109875	5682.277710
676.449125	5683.149830
676.788324	5648.242360
677.127473	5592.784626
677.466571	5581.396660
677.805619	5568.347633
678.144616	5561.239606
678.483562	5538.778745
678.822458	5508.983005
679.161303	5503.228528
679.500098	5492.379965
679.838842	5476.795238
680.177535	5484.591382
680.516179	5498.073948
680.854771	5506.676677
681.193314	5585.411939
681.531805	5693.398495
681.870247	5845.772412
682.208638	5943.812772
682.546978	5958.522858
682.885268	5938.282626
683.223508	5850.543864
683.561697	5803.300690
683.899836	5768.836842
684.237925	5719.433534
684.575963	5687.270973
684.913951	5647.239170
685.251889	5709.492379
685.589776	5679.038769
685.927614	5650.931815
686.265401	5723.620213
686.603137	5704.547007
686.940824	5779.561897
687.278460	5806.950486
687.616046	5814.991126
687.953582	5883.427310
688.291068	5864.109609
688.628504	5925.354587
688.965889	5885.557198
689.303224	5832.829249
689.640510	5785.071878
689.977745	5712.796855
690.314930	5610.849601
690.652065	5556.604265
690.989150	5462.342250
691.326185	5386.374582
691.663170	5337.064536
692.000105	5259.851703
692.336990	5180.561915
692.673825	5155.824973
693.010610	5088.404581
693.347345	5022.005023
693.684030	5008.499772
694.020665	4965.249193
694.357251	4874.221078
694.693786	4885.795567
695.030272	4851.291389
695.366707	4813.089526
695.703093	4783.351759
696.039429	4799.468328
696.375716	4784.934681
696.711952	4761.354684
697.048139	4747.660390
697.384276	4728.178851
697.720363	4740.108741
698.056400	4747.589814
698.392388	4698.824212
698.728326	4685.588662
699.064214	4659.430115
699.400053	4648.904186
699.735842	4617.936378
700.071581	4594.048870
700.407270	4567.156835
700.742910	4547.430800
701.078501	4494.594467
701.414042	4493.734950
701.749533	4464.050116
702.084974	4398.288264
702.420366	4457.345381
702.755709	4397.642996
703.091002	4342.492773
703.426246	4392.095206
703.761440	4346.986962
704.096584	4312.417249
704.431679	4330.023479
704.766725	4318.154082
705.101721	4301.966937
705.436668	4332.564220
705.771565	4283.735604
706.106413	4306.960200
706.441212	4339.712577
706.775961	4349.484853
707.110661	4328.112882
707.445311	4357.596070
707.779913	4382.254874
708.114465	4393.426071
708.448967	4417.888270
708.783421	4479.410511
709.117825	4515.053990
709.452180	4522.197305
709.786485	4565.463007
710.120742	4650.227489
710.454949	4635.209892
710.789107	4704.301426
711.123216	4773.314822
711.457275	4766.531949
711.791286	4844.982385
712.125247	4859.936968
712.459159	4762.861989
712.793023	4835.273123
713.126837	4798.626455
713.460602	4786.956184
713.794318	4710.549936
714.127985	4719.061924
714.461602	4634.025220
714.795171	4606.472794
715.128691	4535.669788
715.462162	4481.469823
715.795584	4430.770938
716.128957	4415.135800
716.462281	4364.993963
716.795556	4337.244932
717.128782	4298.773366
717.461960	4227.733426
717.795088	4241.883945
718.128167	4201.337945
718.461198	4141.139006
718.794180	4139.019201
719.127113	4116.734780
719.459997	4092.539762
719.792833	4053.143145
720.125619	4041.553532
720.458357	4008.221423
720.791046	4015.609234
721.123686	3987.537569
721.456278	3945.186835
721.788821	3962.525884
722.121315	3935.908592
722.453761	3908.583017
722.786158	3922.516767
723.118506	3942.799849
723.450805	3896.726223
723.783056	3920.500305
724.115259	3934.935649
724.447412	3938.575362
724.779518	3933.022531
725.111574	3936.357254
725.443582	3966.531081
725.775542	3952.085654
726.107453	4002.645907
726.439315	4005.143799
726.771129	4018.306251
727.102895	4051.983680
727.434612	4101.308849
727.766281	4112.643884
728.097901	4115.298051
728.429473	4119.172178
728.760996	4125.579485
729.092471	4120.961788
729.423897	4101.500413
729.755276	4107.653142
730.086606	4109.682206
730.417887	4148.945233
730.749120	4208.950087
731.080305	4279.022125
731.411442	4299.222029
731.742530	4271.266310
732.073570	4277.192187
732.404562	4331.026668
732.735506	4324.697500
733.066401	4285.986479
733.397249	4221.434504
733.728048	4143.644459
734.058798	4060.160431
734.389501	3989.211232
734.720156	3927.603291
735.050762	3882.658884
735.381320	3875.107235
735.711831	3825.870286
736.042293	3797.178558
736.372707	3822.215449
736.703073	3790.950213
737.033391	3782.367648
737.363661	3799.197541
737.693883	3821.978515
738.024056	3831.629804
738.354182	3829.651151
738.684260	3896.741347
739.014290	3910.586876
739.344272	3910.145775
739.674207	3951.619348
740.004093	3953.681180
740.333931	3951.122794
740.663722	3951.400057
740.993464	3948.317392
741.323159	3926.516922
741.652806	3895.044999
741.982405	3866.653220
742.311956	3834.828416
742.641460	3828.189216
742.970915	3808.513593
743.300323	3762.497941
743.629683	3729.284298
743.958996	3714.992627
744.288260	3693.376160
744.617477	3660.442302
744.946647	3646.634581
745.275768	3619.442597
745.604842	3618.953605
745.933869	3572.058272
746.262847	3566.513003
746.591778	3599.230091
746.920662	3570.432500
747.249498	3541.650032
747.578286	3583.819284
747.907027	3606.121348
748.235720	3602.282510
748.564365	3626.243114
748.892963	3626.449801
749.221514	3610.809621
749.550017	3583.932710
749.878473	3585.122422
750.206881	3556.937331
750.535242	3552.047412
750.863555	3553.602607
751.191821	3550.340981
751.520039	3529.238711
751.848210	3506.732480
752.176334	3541.849157
752.504411	3547.873336
752.832440	3505.431862
753.160421	3486.353615
753.488356	3499.359792
753.816243	3513.192718
754.144082	3466.017601
754.471875	3455.907567
754.799620	3471.777119
755.127318	3463.431489
755.454969	3466.587251
755.782572	3467.540029
756.110129	3443.413067
756.437638	3438.129938
756.765100	3448.623099
757.092515	3459.401086
757.419882	3466.627580
757.747203	3439.347376
758.074477	3438.704629
758.401703	3457.281281
758.728882	3482.063593
759.056014	3486.827484
759.383099	3489.438801
759.710138	3483.545693
760.037129	3502.835668
760.364073	3531.431613
760.690970	3520.930889
761.017820	3497.560100
761.344623	3517.107174
761.671379	3557.524625
761.998088	3611.475054
762.324751	3736.538519
762.651366	3987.262826
762.977935	4456.160710
763.304456	4901.352568
763.630931	4993.373790
763.957359	4635.323317
764.283740	4292.489568
764.610074	4098.705093
764.936362	3900.265113
765.262602	3740.780650
765.588796	3632.736120
765.914943	3544.710012
766.241044	3457.792958
766.567097	3423.397165
766.893104	3382.851165
767.219064	3344.868591
767.544978	3321.197853
767.870845	3267.968310
768.196665	3247.851586
768.522438	3255.957761
768.848165	3254.175713
769.173846	3215.172306
769.499479	3199.338042
769.825066	3184.209539
770.150607	3161.070643
770.476101	3179.702747
770.801548	3174.366686
771.126949	3131.539563
771.452303	3113.610700
771.777611	3122.495733
772.102872	3126.566465
772.428087	3103.430090
772.753256	3091.643872
773.078378	3081.881677
773.403453	3052.058211
773.728482	3037.542209
774.053465	3061.555745
774.378401	3043.634443
774.703291	3015.794671
775.028135	3015.124198
775.352932	3012.497757
775.677683	2998.304388
776.002388	2997.263390
776.327046	2997.926301
776.651658	2986.119919
776.976224	2974.729432
777.300743	2978.767396
777.625216	2965.846919
777.949643	2958.721248
778.274024	2963.437247
778.598359	2953.750670
778.922647	2956.785445
779.246889	2956.356947
779.571086	2944.747169
779.895236	2938.165943
780.219339	2945.596604
780.543397	2958.413738
780.867409	2961.572020
781.191374	2957.402986
781.515294	2950.506688
781.839167	2954.600105
782.162995	2942.564350
782.486776	2952.364353
782.810511	2950.231945
783.134201	2935.181580
783.457844	2946.486368
783.781441	2933.613781
784.104993	2917.996287
784.428498	2914.001172
784.751958	2928.575148
785.075372	2920.312697
785.398739	2907.339287
785.722061	2923.448294
786.045337	2936.336004
786.368568	2921.527615
786.691752	2912.859351
787.014891	2958.202009
787.337983	2990.021772
787.661030	3018.441277
787.984031	3084.969384
788.306987	3129.966723
788.629897	3122.528501
788.952760	3106.767333
789.275579	3089.382914
789.598351	3033.305119
789.921078	2985.716627
790.243759	2977.847386
790.566395	2959.268213
790.888984	2936.192331
791.211529	2922.568613
791.534027	2911.034453
791.856480	2901.448699
792.178888	2887.101575
792.501249	2879.691079
792.823566	2873.901314
793.145836	2871.105994
793.468062	2870.122969
793.790241	2866.821013
794.112375	2874.533979
794.434464	2885.858931
794.756507	2887.749363
795.078505	2897.244377
795.400457	2908.531520
795.722364	2944.585853
796.044226	2970.353710
796.366042	2972.760861
796.687812	2962.096300
797.009538	2981.774444
797.331218	2968.790953
797.652852	2954.164045
797.974442	2937.263577
798.295986	2932.522371
798.617484	2927.387956
798.938938	2912.884557
799.260346	2896.331928
799.581709	2890.902605
799.903026	2886.531925
800.224299	2879.688558
800.545526	2872.141951
800.866708	2853.527491
801.187845	2841.683300
801.508936	2845.859896
801.829983	2853.325844
802.150984	2838.739266
802.471940	2826.753922
802.792851	2826.456494
803.113717	2827.641166
803.434538	2830.749037
803.755314	2824.434992
804.076045	2818.839311
804.396731	2820.956596
804.717372	2821.531287
805.037967	2814.730771
805.358518	2822.473983
805.679024	2833.519151
805.999485	2826.716114
806.319901	2831.832885
806.640272	2822.927687
806.960598	2829.052689
807.280879	2837.970490
807.601115	2845.517097
807.921306	2830.945642
808.241453	2827.920950
808.561554	2834.759275
808.881611	2835.558298
809.201623	2829.856753
809.521590	2832.699963
809.841513	2825.970023
810.161390	2828.926660
810.481223	2823.759477
810.801011	2816.532983
811.120755	2809.903866
811.440453	2813.561223
811.760107	2813.276398
812.079716	2812.429484
812.399281	2801.459933
812.718801	2796.983388
813.038276	2792.912657
813.357707	2798.231074
813.677093	2804.035963
813.996434	2796.068419
814.315731	2794.732513
814.634983	2790.132460
814.954191	2792.469035
815.273354	2804.860191
815.592473	2813.689772
815.911547	2814.647592
816.230577	2819.915597
816.549562	2834.371106
816.868502	2831.873214
817.187399	2840.929647
817.506250	2857.378932
817.825058	2849.164372
818.143821	2861.553007
818.462539	2878.796274
818.781213	2907.888773
819.099843	2940.631067
819.418429	2999.257166
819.736970	3062.062381
820.055466	3131.763895
820.373919	3240.289855
820.692327	3376.700957
821.010691	3548.468192
821.329011	3988.228207
821.647286	4891.214807
821.965517	6273.237052
822.283704	7014.014445
822.601847	6986.348593
822.919945	6360.184353
823.237999	5856.941088
823.556010	5271.164052
823.873976	4715.686872
824.191897	4306.619922
824.509775	4011.568749
824.827609	3745.844489
825.145398	3620.743215
825.463144	3607.285855
825.780845	3701.366388
826.098502	3800.876245
826.416116	4086.326540
826.733685	4404.859408
827.051210	4466.152277
827.368692	4352.396120
827.686129	4086.651695
828.003522	3761.519957
828.320872	3503.967407
828.638177	3308.287458
828.955439	3170.795028
829.272656	3088.170517
829.589830	3018.814322
829.906960	2970.406643
830.224046	2926.972061
830.541088	2893.816392
830.858086	2876.368959
831.175041	2858.258613
831.491952	2858.109899
831.808819	2875.080944
832.125642	2894.875034
832.442421	2941.349432
832.759157	3023.623583
833.075849	3200.691591
833.392497	3483.437308
833.709101	3688.450952
834.025662	3632.403404
834.342179	3474.849702
834.658653	3297.827064
834.975083	3150.181750
835.291469	3050.540824
835.607811	2971.220789
835.924110	2911.672159
836.240366	2859.188706
836.556578	2814.234217
836.872746	2794.233439
837.188871	2770.509769
837.504952	2753.939496
837.820990	2747.227200
838.136984	2730.588872
838.452935	2724.783983
838.768842	2721.474466
839.084706	2741.775192
839.400526	2821.070022
839.716303	2950.506688
840.032037	3032.949718
840.347727	3017.496061
840.663373	2957.246710
840.978977	2884.031512
841.294537	2810.576860
841.610054	2759.603233
841.925527	2739.665469
842.240957	2721.159393
842.556344	2696.125023
842.871687	2679.698424
843.186987	2671.040242
843.502244	2668.292813
843.817458	2662.072029
844.132629	2649.252375
844.447756	2640.175777
844.762840	2631.812503
845.077881	2637.985396
845.392879	2634.766619
845.707833	2630.164046
846.022745	2623.224898
846.337613	2629.959879
846.652438	2627.698922
846.967221	2626.594909
847.281960	2624.119702
847.596656	2622.675412
847.911309	2624.028962
848.225919	2616.807509
848.540485	2616.822632
848.855009	2617.319186
849.169490	2617.500667
849.483928	2615.733743
849.798323	2614.763321
850.112675	2611.458845
850.426984	2615.698455
850.741251	2614.349946
851.055474	2611.610079
851.369654	2616.099227
851.683792	2616.361367
851.997887	2615.285080
852.311938	2610.178392
852.625947	2614.407920
852.939914	2617.699793
853.253837	2617.162910
853.567718	2611.095882
853.881555	2612.212497
854.195350	2617.147787
854.509103	2612.444390
854.822812	2612.497322
855.136479	2612.162086
855.450103	2614.952364
855.763685	2617.120060
856.077224	2612.167127
856.390720	2611.559668
856.704173	2614.130656
857.017584	2617.782972
857.330953	2617.518312
857.644278	2621.505864
857.957561	2621.768004
858.270802	2617.414968
858.584000	2614.634772
858.897155	2618.017386
859.210268	2622.173817
859.523339	2615.564864
859.836367	2611.095882
860.149352	2613.306427
860.462295	2615.698455
860.775195	2611.975563
861.088054	2611.040429
861.400869	2609.233175
861.713642	2604.166816
862.026373	2609.684358
862.339062	2610.175871
862.651708	2616.076542
862.964312	2618.425719
863.276873	2616.126953
863.589392	2615.522015
863.901869	2621.636934
864.214303	2628.084570
864.526696	2629.949797
864.839045	2628.722276
865.151353	2632.488018
865.463619	2631.613378
865.775842	2634.537247
866.088023	2632.863584
866.400162	2634.660755
866.712258	2635.479943
867.024313	2632.460292
867.336325	2629.150774
867.648296	2630.234622
867.960224	2635.986579
868.272110	2632.291413
868.583954	2627.020887
868.895755	2631.033645
869.207515	2636.790643
869.519233	2640.150572
869.830909	2638.116466
870.142542	2628.818058
870.454134	2635.495066
870.765684	2641.630150
871.077191	2642.290542
871.388657	2646.736839
871.700081	2643.407157
872.011463	2643.870943
872.322803	2644.443114
872.634101	2647.999648
872.945357	2657.572799
873.256571	2661.207471
873.567744	2657.882830
873.878874	2655.619352
874.189963	2655.573982
874.501010	2663.632266
874.812015	2667.297185
875.122979	2667.839109
875.433900	2656.257058
875.744780	2655.490803
876.055618	2663.975065
876.366415	2666.263749
876.677169	2670.682320
876.987882	2662.649241
877.298554	2661.212513
877.609183	2671.776250
877.919771	2680.545337
878.230317	2684.903415
878.540822	2694.252235
878.851285	2710.005841
879.161707	2732.179356
879.472087	2771.031528
879.782425	2818.478868
880.092722	2934.624533
880.402977	3124.146711
880.713191	3381.663973
881.023363	3676.974766
881.333494	3866.345710
881.643583	4035.531874
881.953631	4039.451371
882.263637	3860.868496
882.573602	3642.747852
882.883526	3510.838499
883.193408	3395.524626
883.503248	3295.268679
883.813048	3181.199970
884.122806	3063.115982
884.432522	2978.550627
884.742197	2913.333219
885.051831	2876.540358
885.361424	2841.837055
885.670975	2805.482774
885.980485	2776.405398
886.289954	2754.539394
886.599382	2740.761920
886.908768	2729.701629
887.218113	2712.420553
887.527417	2698.809438
887.836680	2689.954651
888.145901	2685.780576
888.455082	2678.964936
888.764221	2665.386588
889.073319	2658.823006
889.382376	2660.567245
889.691392	2657.038437
890.000366	2660.141267
890.309300	2655.843684
890.618193	2660.048006
890.927044	2663.533964
891.235855	2661.867862
891.544625	2660.484066
891.853353	2660.572286
892.162041	2669.802639
892.470687	2690.831812
892.779293	2701.566949
893.087858	2711.097250
893.396381	2732.645662
893.704864	2775.339194
894.013306	2844.662622
894.321707	2939.602672
894.630068	2990.233501
894.938387	3010.236799
895.246665	3003.713546
895.554903	2959.159828
895.863100	2913.451686
896.171256	2857.121833
896.479371	2794.009108
896.787446	2755.456884
897.095480	2738.450551
897.403473	2729.633573
897.711425	2715.190667
898.019336	2697.445806
898.327207	2684.230421
898.635038	2683.524659
898.942827	2679.317817
899.250576	2671.463699
899.558284	2660.776453
899.865952	2652.692962
900.173579	2653.776811
900.481165	2649.690955
900.788711	2640.848772
901.096216	2636.546147
901.403681	2632.767802
901.711105	2633.072792
902.018489	2629.231432
902.325832	2631.784777
902.633135	2635.217803
902.940397	2651.707417
903.247619	2688.611184
903.554800	2759.920825
903.861941	2885.231307
904.169041	3010.592200
904.476101	3073.316757
904.783121	3067.521951
905.090100	3010.060359
905.397039	2934.301899
905.703938	2859.493696
906.010796	2796.159160
906.317614	2744.628485
906.624391	2709.516849
906.931129	2684.341326
907.237826	2661.124292
907.544483	2642.403967
907.851099	2627.116668
908.157675	2618.455966
908.464211	2612.308279
908.770707	2601.643718
909.077163	2595.352358
909.383578	2591.074939
909.689954	2592.310022
909.996289	2590.354054
910.302584	2589.015628
910.608839	2586.663929
910.915054	2587.389856
911.221229	2589.376070
911.527363	2590.535536
911.833458	2587.616707
912.139513	2591.889085
912.445527	2593.703901
912.751502	2600.373347
913.057436	2604.602875
913.363331	2610.337188
913.669186	2620.679115
913.975000	2633.355096
914.280775	2651.747746
914.586510	2668.819614
914.892205	2705.819162
915.197859	2773.113525
915.503475	2858.177955
915.809050	2922.049374
916.114585	2939.264915
916.420081	2951.930814
916.725536	2963.152422
917.030952	2934.180911
917.336328	2891.061402
917.641665	2840.508711
917.946961	2788.990639
918.252218	2755.681215
918.557435	2728.222050
918.862612	2710.000799
919.167750	2689.705114
919.472848	2672.978566
919.777906	2657.892913
920.082925	2644.763227
920.387904	2637.314923
920.692843	2629.307050
920.997743	2626.342851
921.302603	2619.542335
921.607423	2611.093361
921.912204	2607.042794
922.216946	2603.168667
922.521647	2602.248657
922.826310	2596.103490
923.130932	2591.337079
923.435516	2585.827098
923.740059	2587.006728
924.044564	2582.590677
924.349028	2579.969277
924.653454	2575.898545
924.957840	2570.827145
925.262186	2571.048955
925.566493	2574.890315
925.870761	2566.343038
926.174989	2566.665672
926.479178	2565.324725
926.783328	2565.549057
927.087438	2563.363716
927.391509	2560.530588
927.695541	2558.622511
927.999533	2558.922460
928.303486	2557.614280
928.607400	2557.642007
928.911275	2556.182593
929.215110	2559.129147
929.518906	2556.233004
929.822663	2557.281564
930.126381	2558.065464
930.430060	2558.851884
930.733699	2558.320042
931.037299	2556.651420
931.340861	2557.894064
931.644383	2560.253324
931.947866	2557.450443
932.251309	2557.125288
932.554714	2557.163097
932.858080	2556.623694
933.161407	2556.744681
933.464694	2559.345917
933.767943	2553.218394
934.071153	2557.110165
934.374323	2553.344423
934.677455	2556.520350
934.980548	2555.524722
935.283602	2553.493137
935.586617	2556.709393
935.889593	2554.944989
936.192530	2554.314845
936.495428	2554.745864
936.798287	2554.080432
937.101108	2558.594785
937.403890	2562.121072
937.706632	2562.945301
938.009336	2565.609550
938.312002	2570.325550
938.614628	2570.002916
938.917216	2576.132959
939.219765	2576.261508
939.522275	2575.802763
939.824747	2577.418453
940.127179	2571.558112
940.429573	2567.613409
940.731929	2569.831517
941.034246	2564.997050
941.336524	2568.397308
941.638763	2568.742627
941.940964	2567.124417
942.243126	2564.997050
942.545250	2563.472101
942.847335	2565.140723
943.149381	2562.678119
943.451389	2562.158881
943.753359	2561.420352
944.055290	2558.390618
944.357182	2559.083777
944.659036	2559.476987
944.960851	2556.648899
945.262628	2556.979095
945.564367	2559.623180
945.866067	2559.376164
946.167729	2559.305587
946.469352	2557.412634
946.770937	2560.765002
947.072484	2557.591595
947.373992	2557.553787
947.675462	2556.709393
947.976893	2554.002294
948.278286	2556.716955
948.579641	2555.290308
948.880958	2552.434495
949.182236	2553.805689
949.483476	2553.483055
949.784678	2556.006152
950.085841	2554.183775
950.386967	2556.112017
950.688054	2552.227808
950.989103	2553.868703
951.290114	2556.583364
951.591087	2559.199723
951.892021	2556.961451
952.192917	2560.457491
952.493776	2561.213664
952.794596	2560.026472
953.095378	2563.726679
953.396122	2561.831206
953.696828	2559.151832
953.997496	2559.998746
954.298126	2559.431616
954.598718	2558.249466
954.899272	2555.834753
955.199788	2554.415668
955.500266	2554.675288
955.800706	2550.821326
956.101108	2547.065666
956.401472	2546.546427
956.701798	2545.006355
957.002087	2545.754966
957.302337	2545.830583
957.602550	2546.455686
957.902724	2544.328319
958.202861	2544.502239
958.502960	2543.990562
958.803022	2544.212373
959.103045	2542.463093
959.403031	2542.178267
959.702979	2539.796322
960.002889	2543.995603
960.302762	2541.827907
960.602596	2541.636343
960.902393	2542.299255
961.202153	2538.588966
961.501875	2540.993596
961.801559	2539.894625
962.101205	2539.647608
962.400814	2537.517721
962.700385	2540.444110
962.999918	2541.636343
963.299414	2537.295910
963.598873	2542.188350
963.898293	2539.566950
964.197677	2539.635005
964.497022	2539.506456
964.796331	2540.698689
965.095601	2538.452855
965.394835	2540.393699
965.694030	2540.265149
965.993189	2540.698689
966.292309	2535.559232
966.591393	2537.701723
966.890439	2541.046528
967.189447	2538.296579
967.488419	2540.592824
967.787353	2538.646939
968.086249	2539.720705
968.385108	2540.111394
968.683930	2538.856147
968.982714	2539.337577
969.281462	2539.309851
969.580172	2537.437062
969.878844	2536.017977
970.177480	2538.967052
970.476078	2538.898997
970.774639	2540.005530
971.073162	2538.810777
971.371649	2536.358255
971.670098	2535.460930
971.968510	2535.982689
972.266885	2534.979500
972.565223	2539.014943
972.863524	2539.571991
973.161788	2540.562578
973.460014	2544.487116
973.758204	2538.241126
974.056356	2542.705068
974.354471	2540.388658
974.652550	2538.228523
974.950591	2538.329346
975.248595	2540.330684
975.546563	2538.730118
975.844493	2539.375386
976.142386	2538.546116
976.440243	2539.559388
976.738062	2539.148534
977.035845	2537.958822
977.333590	2539.108205
977.631299	2539.193904
977.928971	2539.108205
978.226606	2538.263811
978.524204	2538.326826
978.821765	2538.410005
979.119290	2537.525282
979.416777	2534.908923
979.714228	2539.629964
980.011642	2535.410518
980.309020	2540.701209
980.606360	2535.488656
980.903664	2539.259439
981.200931	2538.778009
981.498162	2541.336395
981.795356	2541.288504
982.092513	2544.091385
982.389633	2546.052394
982.686717	2548.494833
982.983764	2554.224104
983.280775	2553.314176
983.577749	2555.030689
983.874686	2552.999104
984.171587	2549.770245
984.468451	2547.153886
984.765279	2545.633978
985.062070	2540.968390
985.358824	2541.469985
985.655543	2539.216589
985.952224	2538.155427
986.248869	2539.773637
986.545478	2534.462781
986.842050	2535.312216
987.138586	2532.854653
987.435086	2533.162164
987.731549	2531.070085
988.027975	2535.135775
988.324366	2535.939839
988.620719	2536.385982
988.917037	2534.790456
989.213318	2535.985210
989.509563	2535.932278
989.805772	2532.955476
990.101944	2536.131403
990.398080	2535.942360
990.694180	2535.135775
990.990244	2536.217103
991.286271	2535.100487
991.582262	2536.179294
991.878217	2536.645601
992.174136	2532.393388
992.470019	2534.929088
992.765865	2534.926568
993.061676	2534.001516
993.357450	2534.868594
993.653188	2536.141486
993.948890	2535.917154
994.244556	2534.896321
994.540186	2536.454037
994.835780	2536.774150
995.131337	2538.052083
995.426859	2535.294572
995.722345	2539.335057
996.017795	2535.297092
996.313208	2538.578883
996.608586	2538.916641
996.903928	2538.064686
997.199234	2540.693647
997.494504	2539.632485
997.789738	2537.978986
998.084936	2538.271373
998.380099	2537.575694
998.675225	2536.058307
998.970316	2538.316743
999.265371	2537.585776
999.560390	2534.500590
999.855373	2536.441434
1000.150320	2537.268183
1000.445232	2537.172402
1000.740108	2536.212062
1001.034948	2534.102339
1001.329752	2533.946063
1001.624521	2535.004705
1001.919254	2529.192255
1002.213951	2529.651000
1002.508613	2529.961031
1002.803239	2533.247863
1003.097829	2530.497914
1003.392384	2535.402957
1003.686903	2532.431196
1003.981386	2533.941022
1004.275834	2533.996475
1004.570246	2536.156609
1004.864623	2534.530837
1005.158964	2534.828265
1005.453270	2534.424973
1005.747540	2534.838347
1006.041775	2534.742565
1006.335974	2533.199972
1006.630138	2532.070754
1006.924266	2535.100487
1007.218359	2535.491177
1007.512416	2534.041845
1007.806438	2532.353058
1008.100425	2532.768954
1008.394376	2533.623429
1008.688292	2531.168387
1008.982172	2532.441279
1009.276017	2533.973789
1009.569827	2535.720549
1009.863602	2533.111752
1010.157341	2531.793490
1010.451045	2530.407173
1010.744714	2531.107893
1011.038347	2534.419932
1011.331945	2532.252235
1011.625508	2533.023532
1011.919036	2530.329035
1012.212528	2534.732483
1012.505986	2535.236598
1012.799408	2531.233922
1013.092795	2533.658717
1013.386147	2532.393388
1013.679464	2531.443130
1013.972745	2533.704088
1014.265992	2531.864067
1014.559204	2533.850281
1014.852380	2531.586803
1015.145521	2534.903882
1015.438628	2530.886083
1015.731699	2534.931609
1016.024736	2530.805424
1016.317737	2532.221988
1016.610703	2533.479756
1016.903635	2529.797193
1017.196531	2529.426669
1017.489393	2526.409538
1017.782219	2529.202337
1018.075011	2532.675692
1018.367768	2531.453213
1018.660490	2533.714170
1018.953177	2533.714170
1019.245829	2533.714170
