Dividing Wavelength (nm)	Counts (n)	Blue Motor Position (mm): 47.900000	Red Motor Position (mm): 0.000000	
326.493990	2131.389764
326.888308	2131.389764
327.282561	2131.389764
327.676750	2099.620412
328.070874	2095.738724
328.464933	2098.518920
328.858929	2105.901690
329.252859	2115.016096
329.646726	2125.761316
330.040528	2138.500311
330.434265	2158.727941
330.827938	2171.923161
331.221547	2189.983095
331.615091	2208.766434
332.008571	2231.315515
332.401986	2250.184554
332.795338	2269.252719
333.188625	2288.489762
333.581847	2305.808646
333.975006	2325.711121
334.368100	2342.286435
334.761129	2358.912160
335.154095	2376.523431
335.546996	2398.031514
335.939833	2422.985226
336.332606	2440.961980
336.725315	2452.980091
337.117960	2460.652727
337.510540	2469.237812
337.903056	2481.119812
338.295508	2490.198930
338.687896	2496.144971
339.080220	2506.844820
339.472480	2512.057373
339.864676	2516.264216
340.256807	2521.711183
340.648875	2525.489527
341.040879	2525.461801
341.432818	2530.450023
341.824694	2530.187883
342.216506	2530.407173
342.608253	2532.290044
342.999937	2528.151257
343.391557	2531.501103
343.783113	2530.011443
344.174605	2529.025897
344.566033	2527.064888
344.957397	2524.556914
345.348697	2522.845442
345.739934	2520.652540
346.131106	2519.382170
346.522215	2519.669515
346.913260	2518.131963
347.304241	2517.090965
347.695159	2511.180212
348.086012	2512.581653
348.476802	2512.521159
348.867528	2507.600993
349.258191	2509.075531
349.648789	2507.568226
350.039324	2504.563698
350.429796	2501.833913
350.820203	2502.907679
351.210548	2501.319715
351.600828	2501.773419
351.991045	2500.054386
352.381198	2499.837616
352.771288	2497.803511
353.161314	2498.985661
353.551276	2500.664365
353.941175	2496.898623
354.331010	2501.012205
354.720782	2498.100939
355.110490	2498.310147
355.500135	2498.340393
355.889717	2497.974910
356.279235	2498.446258
356.668689	2501.939777
357.058080	2496.523058
357.447408	2498.708398
357.836672	2494.935094
358.225873	2498.307626
358.615010	2496.775115
359.004084	2502.501866
359.393095	2502.108656
359.782043	2503.540344
360.170927	2506.648215
360.559748	2505.004799
360.948505	2506.270128
361.337199	2508.097547
361.725830	2507.701816
362.114398	2509.335150
362.502903	2507.064110
362.891344	2507.807680
363.279722	2508.813391
363.668037	2512.470748
364.056289	2511.245747
364.444478	2510.857578
364.832603	2511.331447
365.220665	2509.763648
365.608665	2512.485871
365.996601	2511.437311
366.384474	2513.158865
366.772284	2512.364883
367.160031	2515.941582
367.547715	2512.914369
367.935336	2515.127436
368.322893	2517.748836
368.710388	2518.694052
369.097820	2520.851666
369.485189	2519.939217
369.872495	2525.207223
370.259738	2523.717562
370.646918	2527.085053
371.034035	2530.129910
371.421090	2536.945550
371.808081	2541.137269
372.195010	2544.897970
372.581875	2551.963147
372.968678	2561.841288
373.355418	2568.306568
373.742096	2582.714185
374.128710	2592.937645
374.515262	2604.653287
374.901751	2616.169803
375.288177	2629.496093
375.674540	2647.626603
376.060841	2664.312822
376.447079	2678.465862
376.833254	2697.559232
377.219367	2710.545244
377.605417	2741.331571
377.991404	2753.112747
378.377329	2774.227620
378.763191	2792.060702
379.148991	2826.416165
379.534727	2853.209898
379.920402	2881.594115
380.306013	2897.103224
380.691563	2942.362704
381.077049	2969.925212
381.462474	2990.236021
381.847835	3030.860159
382.233134	3055.045095
382.618371	3065.664286
383.003545	3131.615181
383.388657	3141.579021
383.773706	3178.513035
384.158693	3203.938094
384.543618	3235.709967
384.928480	3271.229937
385.313280	3318.727688
385.698017	3326.329748
386.082692	3381.119529
386.467305	3388.658574
386.851856	3427.508226
387.236344	3452.777010
387.620770	3488.579285
388.005133	3514.735311
388.389435	3543.968962
388.773674	3558.807599
389.157851	3604.228395
389.541965	3621.781693
389.926018	3590.735747
390.310008	3660.528001
390.693936	3681.993234
391.077802	3723.055953
391.461606	3716.593194
391.845348	3778.659880
392.229027	3782.178605
392.612645	3794.025317
392.996200	3869.456102
393.379694	3912.187442
393.763125	3976.061382
394.146494	3944.869243
394.529801	4004.543901
394.913047	4053.057445
395.296230	4018.074358
395.679351	4077.247422
396.062410	4098.453036
396.445408	4077.970828
396.828343	4116.346611
397.211217	4140.082884
397.594028	4060.006676
397.976778	4124.029330
398.359466	4149.356087
398.742092	4182.766334
399.124656	4106.160960
399.507158	4179.640818
399.889598	4208.140982
400.271977	4267.193058
400.654294	4245.639605
401.036549	4251.996500
401.418742	4220.443918
401.800874	4320.024350
402.182944	4339.445395
402.564952	4405.900406
402.946898	4393.317686
403.328783	4389.778796
403.710606	4302.198830
404.092367	4499.270137
404.474067	4462.484837
404.855705	4468.451043
405.237282	4396.208788
405.618797	4506.998226
406.000250	4537.020817
406.381642	4622.581801
406.762972	4585.128549
407.144240	4595.140280
407.525447	4595.810754
407.906593	4655.145134
408.287677	4697.395045
408.668700	4625.009117
409.049661	4677.081715
409.430560	4716.248960
409.811399	4643.812621
410.192176	4807.539215
410.572891	4743.388012
410.953545	4847.626471
411.334138	4729.025765
411.714669	4794.316269
412.095139	4692.371535
412.475547	4832.281198
412.855894	4812.842509
413.236180	4822.070341
413.616405	4776.629380
413.996568	4864.279922
414.376670	4803.503772
414.756711	4760.079272
415.136691	4793.302997
415.516609	4871.735789
415.896466	4904.742744
416.276262	4938.354637
416.655997	4920.004837
417.035670	5105.685657
417.415283	5192.839645
417.794834	5139.068177
418.174324	5089.508594
418.553753	4994.838245
418.933121	5185.610630
419.312428	5248.536833
419.691674	5192.678328
420.070859	5317.255322
420.449983	5227.306014
420.829045	5341.341955
421.208047	5252.786526
421.586988	5321.714222
421.965867	5335.726109
422.344686	5466.962467
422.723444	5318.961752
423.102141	5142.939783
423.480777	5436.791162
423.859352	5206.513775
424.237866	5468.187468
424.616319	5458.402588
424.994712	5563.966870
425.373044	5441.131595
425.751314	5590.430407
426.129524	5390.611672
426.507673	5582.160395
426.885762	5666.267005
427.263789	5595.955512
427.641756	5479.628367
428.019662	5597.672025
428.397508	5609.065033
428.775292	5555.550664
429.153016	5655.226878
429.530679	5583.982772
429.908282	5663.789278
430.285824	5536.401841
430.663305	5815.361651
431.040726	5546.831988
431.418086	5548.709818
431.795385	5656.754348
432.172624	5662.440770
432.549802	5657.996992
432.926920	5672.850752
433.303977	5682.368451
433.680974	5715.297268
434.057910	5733.359722
434.434786	5741.823819
434.811601	5711.518923
435.188355	5947.959121
435.565050	5816.334594
435.941683	5804.833201
436.318257	6018.603330
436.694770	5997.180947
437.071222	6036.063366
437.447614	5964.572243
437.823946	5878.713831
438.200218	6033.394075
438.576429	5897.590432
438.952580	5988.835317
439.328670	6041.381784
439.704700	5949.249656
440.080670	5935.129384
440.456580	6204.803388
440.832429	6090.848106
441.208218	5936.573675
441.583947	6089.426500
441.959616	6094.444969
442.335224	6024.072982
442.710773	6158.797818
443.086261	6181.162897
443.461689	5980.771991
443.837057	6129.738087
444.212365	6281.587723
444.587612	6172.824829
444.962800	6330.186967
445.337927	6310.876827
445.712995	5921.843423
446.088002	6498.511094
446.462949	6330.557492
446.837837	6257.594352
447.212664	6431.562050
447.587431	6573.016827
447.962139	7119.175435
448.336786	8041.807412
448.711374	7785.832743
449.085901	6857.494180
449.460369	6776.871006
449.834776	6714.459001
450.209124	7107.222859
450.583412	7250.197544
450.957640	7399.778661
451.331808	7165.047414
451.705917	6719.427058
452.079965	6642.126005
452.453954	6853.998140
452.827883	6728.291927
453.201752	6820.542522
453.575562	6618.858560
453.949311	6822.584189
454.323001	6709.705193
454.696632	6785.811493
455.070202	6928.733245
455.443713	7081.719662
455.817164	7183.044333
456.190556	7261.683813
456.563888	7339.057963
456.937160	7385.179479
457.310373	7038.393465
457.683526	7066.664256
458.056619	6956.754499
458.429653	6942.656912
458.802628	6884.363530
459.175542	6986.469580
459.548398	7342.312027
459.921194	7499.888414
460.293930	7507.808067
460.666607	8036.234416
461.039224	8343.530552
461.411782	8470.837330
461.784280	8490.013880
462.156719	8379.998259
462.529099	8254.498734
462.901419	7844.857093
463.273680	7734.619661
463.645882	7756.226046
464.018024	7620.455170
464.390106	7780.100951
464.762130	8168.738624
465.134094	8641.142631
465.505999	9661.192385
465.877845	10885.061031
466.249631	11542.782894
466.621358	11153.164716
466.993026	10520.164671
467.364634	10266.009859
467.736184	9904.720445
468.107674	9574.482018
468.479105	9603.657696
468.850477	9367.298157
469.221790	9144.148962
469.593043	8815.574116
469.964238	8670.220006
470.335373	8683.634517
470.706449	8742.028722
471.077467	8723.278150
471.448425	10039.493173
471.819324	11114.110897
472.190164	11134.638475
472.560945	9883.257733
472.931667	9095.310263
473.302330	8962.425448
473.672934	8605.602496
474.043479	8964.343607
474.413965	8902.261797
474.784393	8783.648488
475.154761	8940.569525
475.525070	9026.518678
475.895321	8858.938121
476.265513	9034.692909
476.635645	9202.071819
477.005719	9204.698260
477.375734	9322.010952
477.745691	9556.802692
478.115588	9687.436632
478.485427	9934.052399
478.855207	10469.211209
479.224928	11283.745724
479.594591	11915.709811
479.964194	11724.768547
480.333739	11663.722695
480.703226	11584.511045
481.072653	11665.688745
481.442022	11912.554049
481.811333	12098.512132
482.180584	11910.020869
482.549777	11612.310488
482.918912	11434.146028
483.287988	11460.160903
483.657005	11471.556431
484.025964	11150.956690
484.394864	11284.481732
484.763706	11257.637588
485.132489	11009.196924
485.501213	10974.861625
485.869879	11051.479602
486.238487	10887.392564
486.607036	11003.679381
486.975527	10788.069231
487.343959	10967.400717
487.712333	11017.169508
488.080648	10948.274579
488.448905	10999.031437
488.817104	10935.734709
489.185244	11201.032992
489.553326	11352.532268
489.921350	11900.793037
490.289315	12957.275210
490.657222	13295.032518
491.025070	13208.133108
491.392861	13084.574427
491.760593	12708.224566
492.128267	12351.021008
492.495883	12024.422294
492.863440	11684.348576
493.230939	11350.619150
493.598380	11276.115937
493.965763	11148.420990
494.333088	11046.070443
494.700354	10964.915428
495.067563	11032.383711
495.434713	10857.501043
495.801805	10985.954684
496.168839	10912.537840
496.535815	10841.881028
496.902733	10847.806904
497.269593	10778.959866
497.636395	10885.333253
498.003139	10868.757939
498.369825	10737.244318
498.736453	10896.088555
499.103023	10825.678759
499.469535	10853.130362
499.835989	10835.725779
500.202385	10806.056068
500.568723	10656.921093
500.935003	10873.731038
501.301226	10682.895638
501.667390	10934.260172
502.033497	11038.813702
502.399546	10894.551003
502.765537	10804.372322
503.131470	10881.043231
503.497345	11050.103367
503.863163	10657.480661
504.228923	10971.564710
504.594625	11035.541994
504.960269	10780.653693
505.325856	11006.741882
505.691385	10795.663729
506.056856	10949.940681
506.422270	10972.998918
506.787625	10871.185255
507.152924	10981.707512
507.518164	10959.407968
507.883347	10886.401978
508.248472	10811.583693
508.613540	11039.479135
508.978550	10918.912379
509.343503	10904.303115
509.708398	11015.551298
510.073236	11127.248144
510.438016	11131.248299
510.802738	11082.182749
511.167403	11138.588219
511.532010	11027.587053
511.896561	11261.325192
512.261053	11343.924498
512.625488	11202.338651
512.989866	11193.133504
513.354186	11174.408138
513.718449	11077.416338
514.082655	11269.015472
514.446803	11160.597897
514.810894	11288.736466
515.174927	11152.516928
515.538904	11186.411125
515.902822	11333.050729
516.266684	11218.447658
516.630488	11151.100363
516.994235	11215.261649
517.357925	11279.619539
517.721558	11360.393947
518.085133	11380.893800
518.448651	11391.916283
518.812112	11269.970771
519.175516	11288.658328
519.538863	11407.516133
519.902152	11323.444810
520.265385	11489.666776
520.628560	11396.571788
520.991678	11373.841225
521.354739	11440.886051
521.717743	11368.374094
522.080690	11352.323060
522.443580	11485.112094
522.806413	11441.725403
523.169189	11476.577420
523.531908	11525.143896
523.894569	11349.419356
524.257174	11356.567712
524.619722	11465.174330
524.982213	11420.756724
525.344647	11474.157666
525.707025	11419.877042
526.069345	11518.038390
526.431608	11437.349682
526.793815	11540.910105
527.155964	11332.234062
527.518057	11376.293747
527.880093	11334.638692
528.242072	11400.138404
528.603995	11306.385546
528.965860	11232.628424
529.327669	11287.589604
529.689421	11225.593494
530.051117	11195.744822
530.412755	11300.830194
530.774337	11190.063441
531.135862	11172.537870
531.497331	11190.983452
531.858743	11049.818541
532.220098	11205.456605
532.581396	11084.665517
532.942638	11067.651623
533.303824	11033.114678
533.664953	11045.427696
534.026025	10960.973246
534.387040	11059.623586
534.747999	11058.416229
535.108902	11121.211362
535.469748	10878.474763
535.830537	10988.200518
536.191270	10957.492329
536.551947	10979.408746
536.912567	10980.406894
537.273131	10907.413507
537.633638	10888.178984
537.994089	10882.069106
538.354483	10823.657256
538.714821	10973.563528
539.075103	10986.128604
539.435328	10938.925760
539.795497	10782.070258
540.155609	10926.832032
540.515665	11016.025167
540.875665	10752.703016
541.235609	10819.611730
541.595496	10810.020935
541.955328	10969.543207
542.315102	10852.487615
542.674821	10800.604060
543.034483	10798.025510
543.394090	10805.350306
543.753640	10728.954140
544.113134	10955.054931
544.472571	10815.462861
544.831953	10951.009405
545.191278	10759.682493
545.550548	10784.878180
545.909761	10925.163410
546.268918	10898.488144
546.628019	10980.860598
546.987064	10846.405463
547.346053	10766.798082
547.704986	10875.054340
548.063863	10860.538338
548.422684	10839.816675
548.781449	10766.384708
549.140158	10864.528411
549.498811	10741.804041
549.857408	10599.741805
550.215949	10835.977836
550.574434	10676.543784
550.932864	10780.767119
551.291237	10842.077633
551.649555	10784.605958
552.007817	10796.268668
552.366022	10760.005127
552.724173	10754.331309
553.082267	10742.797149
553.440305	10876.052489
553.798288	10680.526296
554.156215	10835.226704
554.514086	10807.606223
554.871902	10651.322892
555.229661	10696.194202
555.587365	10664.382001
555.945014	10562.505322
556.302606	10690.313696
556.660143	10585.795453
557.017625	10743.628939
557.375050	10645.341563
557.732421	10770.851170
558.089735	10683.170381
558.446994	10686.915958
558.804197	10724.326361
559.161345	10723.653367
559.518437	10567.448174
559.875474	10665.070118
560.232455	10688.816473
560.589381	10645.820472
560.946251	10638.709925
561.303065	10745.189176
561.659825	10676.384988
562.016528	10610.504669
562.373177	10484.014557
562.729770	10599.111661
563.086307	10517.749959
563.442789	10617.557243
563.799216	10483.994392
564.155587	10537.596981
564.511904	10488.604528
564.868164	10484.672428
565.224370	10493.348253
565.580520	10424.662532
565.936615	10431.513460
566.292654	10298.316093
566.648638	10433.348440
567.004567	10382.279031
567.360441	10363.944355
567.716260	10282.197004
568.072023	10376.285099
568.427732	10325.041771
568.783385	10233.053316
569.138982	10305.824892
569.494525	10318.455503
569.850013	10191.322644
570.205445	10270.456157
570.560823	10170.207771
570.916145	10090.749104
571.271412	10162.499847
571.626625	10103.064643
571.981782	10081.238968
572.336884	10055.524042
572.691931	10057.502695
573.046923	10001.334159
573.401860	9964.879055
573.756743	9902.943438
574.111570	9937.283778
574.466342	9923.637375
574.821059	9957.128281
575.175722	9843.596455
575.530330	9857.978867
575.884882	9854.931489
576.239380	9778.558008
576.593823	9751.328216
576.948211	9773.365620
577.302544	9648.639912
577.656823	9662.082149
578.011047	9669.477522
578.365216	9637.841761
578.719330	9565.349968
579.073389	9571.916071
579.427394	9526.535604
579.781344	9502.012911
580.135239	9443.429662
580.489080	9459.503382
580.842866	9360.250624
581.196597	9365.727838
581.550273	9404.698478
581.903895	9376.810814
582.257463	9440.830948
582.610975	9311.200197
582.964434	9342.087347
583.317837	9261.746478
583.671186	9246.436494
584.024481	9241.314681
584.377721	9167.151747
584.730906	9136.562025
585.084037	9168.868259
585.437113	9103.413918
585.790135	9126.741857
586.143103	9015.715485
586.496016	8999.213268
586.848874	9052.273933
587.201679	9042.294969
587.554428	8928.569058
587.907124	8979.003282
588.259765	8942.790153
588.612352	8944.978014
588.964884	8825.384201
589.317362	8838.763423
589.669786	8839.804422
590.022155	8885.865444
590.374470	8904.648783
590.726731	8838.544133
591.078937	8692.196916
591.431090	8802.409142
591.783188	8678.931120
592.135232	8673.428701
592.487222	8671.850819
592.839157	8722.678253
593.191038	8651.953385
593.542866	8601.841795
593.894639	8502.760437
594.246358	8552.332623
594.598022	8566.846105
594.949633	8463.898182
595.301190	8442.569060
595.652692	8472.765572
596.004141	8580.308507
596.355535	8355.566307
596.706876	8338.769182
597.058162	8272.667052
597.409395	8348.322168
597.760573	8412.856499
598.111698	8320.552973
598.462768	8307.403123
598.813785	8270.479191
599.164748	8236.902586
599.515657	8228.322542
599.866511	8134.990620
600.217312	8268.306454
600.568060	8126.869321
600.918753	8226.195175
601.269392	8195.854991
601.619978	8108.300231
601.970510	8170.452617
602.320988	8168.378182
602.671412	8228.272131
603.021783	8160.319897
603.372100	8132.356617
603.722363	8135.061196
604.072572	8109.051363
604.422728	8126.483673
604.772830	8051.660347
605.122878	8057.024135
605.472872	8059.990854
605.822813	8088.884227
606.172701	8029.247377
606.522534	8105.363759
606.872314	8108.935416
607.222041	8071.144407
607.571714	8128.565669
607.921333	8092.103004
608.270899	8093.890093
608.620411	8186.516253
608.969870	8084.886592
609.319276	8084.904236
609.668627	8095.601564
610.017926	8132.835527
610.367171	8180.605501
610.716362	8153.300091
611.065500	8149.204153
611.414585	8174.397320
611.763616	8173.782299
612.112594	8152.710276
612.461518	8156.304618
612.810389	8219.608908
613.159207	8162.147316
613.507971	8103.740507
613.856682	8225.605360
614.205340	8183.363012
614.553945	8263.184642
614.902496	8162.157398
615.250994	8214.981129
615.599439	8199.824900
615.947830	8213.728402
616.296169	8184.461983
616.644454	8193.001698
616.992686	8197.921864
617.340864	8243.821570
617.688990	8156.861666
618.037063	8247.317610
618.385082	8189.674536
618.733048	8281.673073
619.080961	8216.281746
619.428821	8237.255467
619.776628	8238.331753
620.124382	8191.239815
620.472083	8176.965788
620.819731	8203.651135
621.167326	8092.095442
621.514868	8099.614323
621.862357	7995.766554
622.209793	8010.229624
622.557176	7943.779655
622.904506	7909.978718
623.251783	7845.222576
623.599007	7799.648025
623.946179	7802.138355
624.293297	7755.424503
624.640363	7678.854417
624.987376	7659.448495
625.334336	7609.450332
625.681243	7557.201293
626.028097	7544.560599
626.374899	7522.815582
626.721647	7516.166300
627.068343	7448.458563
627.414987	7420.278513
627.761577	7376.087758
628.108115	7413.997235
628.454600	7308.536297
628.801032	7359.736776
629.147412	7314.683984
629.493739	7301.166130
629.840014	7238.252530
630.186236	7297.576828
630.532405	7178.661050
630.878521	7235.235399
631.224585	7190.575817
631.570597	7118.361288
631.916556	7149.571072
632.262462	7143.776266
632.608316	7101.836386
632.954117	7083.282419
633.299866	7065.736683
633.645562	7061.320633
633.991206	6979.036399
634.336797	6924.549088
634.682336	6887.282358
635.027823	6848.004208
635.373257	6839.167065
635.718639	6769.190808
636.063968	6788.594210
636.409245	6677.928280
636.754470	6675.427868
637.099642	6637.667105
637.444762	6578.380615
637.789829	6589.330001
638.134845	6525.077975
638.479808	6514.292426
638.824719	6519.792325
639.169577	6446.746006
639.514383	6468.057483
639.859137	6393.788684
640.203839	6402.451907
640.548489	6392.493108
640.893086	6370.377566
641.237632	6340.576785
641.582125	6359.460947
641.926566	6332.894067
642.270955	6338.961095
642.615292	6339.369429
642.959576	6350.401994
643.303809	6341.612742
643.647990	6348.501479
643.992118	6341.748853
644.336195	6284.002436
644.680219	6314.332538
645.024192	6301.023892
645.368112	6400.188429
645.711981	6417.348517
646.055797	6497.976732
646.399562	6451.497293
646.743274	6582.433703
647.086935	6629.825590
647.430544	6621.802593
647.774101	6650.428786
648.117606	6656.170660
648.461059	6645.838815
648.804460	6615.929649
649.147810	6516.616398
649.491108	6490.165464
649.834354	6464.551361
650.177548	6376.371498
650.520690	6293.285721
650.863781	6272.874089
651.206820	6289.840092
651.549807	6217.313012
651.892742	6158.787736
652.235626	6159.629609
652.578458	6145.592516
652.921238	6053.546088
653.263967	6091.362303
653.606644	6033.590680
653.949269	6035.758377
654.291843	5977.137319
654.634365	6026.575915
654.976836	5979.206713
655.319255	5979.610005
655.661622	5958.855575
656.003938	5957.645698
656.346203	5912.529891
656.688416	5947.104645
657.030577	5900.461369
657.372687	5869.513726
657.714746	5854.201221
658.056753	5898.636471
658.398708	5837.628428
658.740612	5831.505946
659.082465	5879.732144
659.424266	5869.158324
659.766016	5866.620103
660.107715	5843.130847
660.449362	5861.644484
660.790958	5848.681157
661.132503	5839.135732
661.473996	5878.376074
661.815438	5862.844279
662.156829	5863.131625
662.498168	5852.169636
662.839456	5828.302293
663.180693	5864.911152
663.521879	5865.785792
663.863013	5855.983269
664.204097	5870.242172
664.545129	5914.022073
664.886110	5908.726341
665.227040	5948.546415
665.567918	5906.931690
665.908746	5940.692297
666.249522	5942.053409
666.590248	5928.079330
666.930922	5954.759637
667.271545	5973.023738
667.612118	5972.988449
667.952639	5946.068688
668.293109	5964.796574
668.633528	5925.853661
668.973896	5928.265853
669.314213	5917.016518
669.654480	5898.886008
669.994695	5895.102623
670.334859	5886.268000
670.674973	5878.660899
671.015035	5881.115941
671.355047	5876.624273
671.695008	5867.104054
672.034918	5840.310321
672.374777	5853.129976
672.714585	5831.742880
673.054342	5837.693963
673.394049	5832.887222
673.733705	5862.599783
674.073310	5848.867680
674.412864	5810.416279
674.752368	5798.967819
675.091820	5804.845804
675.431223	5741.657461
675.770574	5744.379684
676.109875	5695.374628
676.449125	5698.603487
676.788324	5665.410009
677.127473	5607.862717
677.466571	5602.745946
677.805619	5590.984934
678.144616	5576.242080
678.483562	5553.932454
678.822458	5524.388772
679.161303	5519.123286
679.500098	5512.751268
679.838842	5495.283670
680.177535	5492.208566
680.516179	5510.944014
680.854771	5522.828534
681.193314	5601.770483
681.531805	5712.451536
681.870247	5860.530389
682.208638	5966.061904
682.546978	5977.233101
682.885268	5956.544206
683.223508	5871.026072
683.561697	5817.378113
683.899836	5786.556498
684.237925	5741.652420
684.575963	5707.233942
684.913951	5661.261140
685.251889	5726.047528
685.589776	5695.835893
685.927614	5667.623076
686.265401	5740.858438
686.603137	5723.779009
686.940824	5798.990504
687.278460	5821.773999
687.616046	5834.303787
687.953582	5898.460031
688.291068	5883.848247
688.628504	5947.273524
688.965889	5909.646351
689.303224	5846.508420
689.640510	5806.378315
689.977745	5730.082972
690.314930	5631.644361
690.652065	5571.402572
690.989150	5483.620960
691.326185	5403.930400
691.663170	5352.205641
692.000105	5275.355772
692.336990	5194.301579
692.673825	5171.460111
693.010610	5103.810347
693.347345	5032.120098
693.684030	5016.613509
694.020665	4977.791583
694.357251	4888.739601
694.693786	4895.671187
695.030272	4863.884192
695.366707	4828.505374
695.703093	4797.023368
696.039429	4816.275535
696.375716	4797.998832
696.711952	4773.710552
697.048139	4763.451804
697.384276	4742.200820
697.720363	4753.500567
698.056400	4761.120271
698.392388	4712.460533
698.728326	4692.931103
699.064214	4670.495448
699.400053	4665.860107
699.735842	4631.507164
700.071581	4607.448257
700.407270	4582.691151
700.742910	4563.658274
701.078501	4508.825644
701.414042	4509.130634
701.749533	4478.505624
702.084974	4410.268566
702.420366	4468.708142
702.755709	4408.965428
703.091002	4353.548023
703.426246	4401.859921
703.761440	4357.439794
704.096584	4319.127025
704.431679	4342.402032
704.766725	4324.757994
705.101721	4314.310202
705.436668	4342.754913
705.771565	4292.217346
706.106413	4316.109894
706.441212	4350.193135
706.775961	4359.312583
707.110661	4341.061085
707.445311	4364.356257
707.779913	4391.762490
708.114465	4405.504675
708.448967	4426.372532
708.783421	4486.682376
709.117825	4528.415568
709.452180	4535.674829
709.786485	4578.010439
710.120742	4664.834232
710.454949	4649.488960
710.789107	4715.296182
711.123216	4794.747287
711.457275	4781.095843
711.791286	4854.668962
712.125247	4873.233012
712.459159	4775.245584
712.793023	4847.951625
713.126837	4809.895955
713.460602	4803.685253
713.794318	4721.527048
714.127985	4730.923759
714.461602	4644.377230
714.795171	4613.626191
715.128691	4548.108835
715.462162	4491.564733
715.795584	4442.733597
716.128957	4427.408489
716.462281	4374.388153
716.795556	4350.404864
717.128782	4308.903565
717.461960	4239.191969
717.795088	4248.931478
718.128167	4213.184656
718.461198	4152.189215
718.794180	4147.586642
719.127113	4126.663333
719.459997	4106.155919
719.792833	4061.347623
720.125619	4052.762538
720.458357	4017.124101
720.791046	4019.425387
721.123686	3993.584433
721.456278	3951.082465
721.788821	3970.203561
722.121315	3945.857309
722.453761	3917.896549
722.786158	3928.828291
723.118506	3951.828556
723.450805	3904.025814
723.783056	3928.268723
724.115259	3945.600210
724.447412	3949.625571
724.779518	3943.550981
725.111574	3943.397226
725.443582	3974.871670
725.775542	3960.544711
726.107453	4012.453472
726.439315	4012.390457
726.771129	4026.019217
727.102895	4064.400042
727.434612	4112.868215
727.766281	4118.728557
728.097901	4122.121253
728.429473	4128.120226
728.760996	4133.315135
729.092471	4127.979074
729.423897	4112.313688
729.755276	4118.547075
730.086606	4121.856593
730.417887	4156.217097
730.749120	4218.787899
731.080305	4287.123260
731.411442	4312.971776
731.742530	4286.984628
732.073570	4283.511273
732.404562	4344.088298
732.735506	4333.269982
733.066401	4293.898570
733.397249	4231.345413
733.728048	4151.518742
734.058798	4069.214343
734.389501	3998.459229
734.720156	3939.820527
735.050762	3892.085841
735.381320	3885.721385
735.711831	3833.991584
736.042293	3805.826658
736.372707	3827.269206
736.703073	3799.217705
737.033391	3789.876447
737.363661	3805.004950
737.693883	3832.491841
738.024056	3842.178418
738.354182	3840.252698
738.684260	3901.096904
739.014290	3921.180861
739.344272	3918.768669
739.674207	3958.941624
740.004093	3965.883292
740.333931	3961.961275
740.663722	3959.279381
740.993464	3959.102941
741.323159	3932.583951
741.652806	3904.827358
741.982405	3878.825086
742.311956	3846.050024
742.641460	3836.668437
742.970915	3813.179181
743.300323	3774.684930
743.629683	3737.965165
743.958996	3727.116602
744.288260	3701.663817
744.617477	3669.332376
744.946647	3651.960560
745.275768	3629.696304
745.604842	3627.987353
745.933869	3577.767378
746.262847	3567.798497
746.591778	3609.521607
746.920662	3576.519693
747.249498	3546.731515
747.578286	3594.433433
747.907027	3611.926237
748.235720	3611.855661
748.564365	3634.311481
748.892963	3633.993888
749.221514	3615.916310
749.550017	3593.447887
749.878473	3591.113833
750.206881	3561.166859
750.535242	3560.735840
750.863555	3560.887075
751.191821	3555.828277
751.520039	3534.100904
751.848210	3512.779344
752.176334	3548.742935
752.504411	3554.502453
752.832440	3514.155579
753.160421	3494.918536
753.488356	3503.911954
753.816243	3516.275384
754.144082	3476.195690
754.471875	3460.873103
754.799620	3476.813232
755.127318	3471.179742
755.454969	3468.896099
755.782572	3475.459682
756.110129	3453.112247
756.437638	3442.651853
756.765100	3457.626600
757.092515	3464.270841
757.419882	3468.951552
757.747203	3449.187708
758.074477	3449.041515
758.401703	3464.028865
758.728882	3485.481496
759.056014	3493.055829
759.383099	3495.836026
759.710138	3491.689677
760.037129	3507.463447
760.364073	3538.733724
760.690970	3523.799306
761.017820	3502.162674
761.344623	3522.596991
761.671379	3566.286151
761.998088	3617.400930
762.324751	3742.673603
762.651366	3991.426819
762.977935	4469.857525
763.304456	4917.116256
763.630931	5009.485318
763.957359	4649.312519
764.283740	4307.285354
764.610074	4110.894603
764.936362	3912.903286
765.262602	3755.357146
765.588796	3644.252636
765.914943	3554.232752
766.241044	3465.077425
766.567097	3433.184566
766.893104	3384.512225
767.219064	3354.555168
767.544978	3330.198834
767.870845	3271.635749
768.196665	3255.761156
768.522438	3261.460180
768.848165	3254.256372
769.173846	3221.642627
769.499479	3203.224771
769.825066	3187.425795
770.150607	3169.128927
770.476101	3190.379911
770.801548	3181.459589
771.126949	3135.955614
771.452303	3117.910804
771.777611	3125.787607
772.102872	3128.870272
772.428087	3106.578290
772.753256	3096.369954
773.078378	3088.883840
773.403453	3053.114333
773.728482	3042.921120
774.053465	3062.763102
774.378401	3052.191802
774.703291	3017.065042
775.028135	3021.677698
775.352932	3014.496574
775.677683	3001.949142
776.002388	2999.221878
776.327046	3003.464009
776.651658	2989.782317
776.976224	2978.127170
777.300743	2977.996100
777.625216	2967.772640
777.949643	2965.224336
778.274024	2967.487814
778.598359	2953.186061
778.922647	2961.403142
779.246889	2958.801906
779.571086	2942.224072
779.895236	2938.470933
780.219339	2948.207922
780.543397	2961.080508
780.867409	2965.431024
781.191374	2958.912812
781.515294	2952.755042
781.839167	2955.573047
782.162995	2947.708847
782.486776	2955.414251
782.810511	2954.516926
783.134201	2938.007147
783.457844	2947.131635
783.781441	2937.301385
784.104993	2917.545103
784.428498	2918.157603
784.751958	2933.225612
785.075372	2924.839653
785.398739	2912.267015
785.722061	2924.431319
786.045337	2937.319029
786.368568	2920.894950
786.691752	2915.074938
787.014891	2962.227370
787.337983	2995.647700
787.661030	3020.666946
787.984031	3088.941813
788.306987	3137.525934
788.629897	3128.159470
788.952760	3108.100719
789.275579	3095.462546
789.598351	3036.284441
789.921078	2991.902123
790.243759	2982.959116
790.566395	2965.231898
790.888984	2940.157199
791.211529	2924.176741
791.534027	2915.851276
791.856480	2903.208062
792.178888	2888.213150
792.501249	2881.515977
792.823566	2874.927189
793.145836	2873.727394
793.468062	2869.220602
793.790241	2867.549460
794.112375	2873.019112
794.434464	2888.644168
794.756507	2889.987636
795.078505	2896.647000
795.400457	2909.567477
795.722364	2949.715227
796.044226	2975.478043
796.366042	2975.883856
796.687812	2964.137968
797.009538	2983.490957
797.331218	2974.028712
797.652852	2956.644293
797.974442	2942.937395
798.295986	2933.570931
798.617484	2933.757454
798.938938	2916.718354
799.260346	2902.867784
799.581709	2892.528377
799.903026	2888.041750
800.224299	2882.796430
800.545526	2874.712940
800.866708	2857.444467
801.187845	2845.587673
801.508936	2848.246882
801.829983	2855.919518
802.150984	2839.092147
802.471940	2828.951866
802.792851	2828.591423
803.113717	2829.274499
803.434538	2832.039572
803.755314	2830.159222
804.076045	2820.467604
804.396731	2822.002635
804.717372	2823.320897
805.037967	2816.948878
805.358518	2824.878613
805.679024	2832.705005
805.999485	2832.175683
806.319901	2832.556291
806.640272	2826.048161
806.960598	2831.054027
807.280879	2838.333453
807.601115	2849.582788
807.921306	2834.597958
808.241453	2828.762822
808.561554	2836.460664
808.881611	2842.875532
809.201623	2834.189624
809.521590	2832.768019
809.841513	2831.232988
810.161390	2834.900427
810.481223	2827.414314
810.801011	2815.897798
811.120755	2811.290183
811.440453	2816.391831
811.760107	2814.508960
812.079716	2815.474341
812.399281	2805.374389
812.718801	2798.654531
813.038276	2792.373253
813.357707	2800.728966
813.677093	2806.967394
813.996434	2799.652679
814.315731	2795.057668
814.634983	2790.956689
814.954191	2794.175466
815.273354	2806.624595
815.592473	2815.575164
815.911547	2817.707572
816.230577	2825.392811
816.549562	2833.342711
816.868502	2833.267093
817.187399	2846.124556
817.506250	2859.130733
817.825058	2853.741740
818.143821	2866.750437
818.462539	2881.243754
818.781213	2907.961870
819.099843	2944.568208
819.418429	3005.009122
819.736970	3065.883576
820.055466	3139.804535
820.373919	3246.293869
820.692327	3391.027917
821.010691	3559.664595
821.329011	4010.742000
821.647286	4920.982821
821.965517	6312.202651
822.283704	7077.459887
822.601847	7062.780047
822.919945	6418.921357
823.237999	5902.525722
823.556010	5310.979085
823.873976	4753.901338
824.191897	4336.680322
824.509775	4036.867780
824.827609	3765.280657
825.145398	3636.816934
825.463144	3623.190695
825.780845	3715.504304
826.098502	3822.865758
826.416116	4106.312195
826.733685	4430.798665
827.051210	4497.115044
827.368692	4380.419894
827.686129	4108.857977
828.003522	3780.015950
828.320872	3515.143645
828.638177	3319.287256
828.955439	3179.276770
829.272656	3097.731065
829.589830	3027.936290
829.906960	2977.066007
830.224046	2930.863832
830.541088	2898.083729
830.858086	2880.588404
831.175041	2861.401773
831.491952	2863.098121
831.808819	2876.310985
832.125642	2901.441137
832.442421	2947.481995
832.759157	3029.274717
833.075849	3212.808005
833.392497	3495.210922
833.709101	3699.032334
834.025662	3652.552896
834.342179	3489.829491
834.658653	3313.084116
834.975083	3159.447391
835.291469	3061.601116
835.607811	2971.765233
835.924110	2915.364804
836.240366	2862.392360
836.556578	2819.106492
836.872746	2796.917853
837.188871	2772.438010
837.504952	2754.433529
837.820990	2746.133270
838.136984	2733.878225
838.452935	2724.567213
838.768842	2725.572924
839.084706	2742.919534
839.400526	2823.383911
839.716303	2955.436936
840.032037	3042.220400
840.347727	3025.188861
840.663373	2963.966568
840.978977	2887.215001
841.294537	2812.971408
841.610054	2766.713780
841.925527	2743.814339
842.240957	2719.957078
842.556344	2696.117462
842.871687	2681.203208
843.186987	2671.572084
843.502244	2665.033707
843.817458	2662.445075
844.132629	2651.289001
844.447756	2642.966056
844.762840	2636.916672
845.077881	2639.114615
845.392879	2637.932464
845.707833	2635.038842
846.022745	2623.797069
846.337613	2627.464508
846.652438	2624.870834
846.967221	2625.490896
847.281960	2623.469394
847.596656	2620.714403
847.911309	2620.951337
848.225919	2618.400513
848.540485	2616.991511
848.855009	2616.389093
849.169490	2615.436315
849.483928	2616.903291
849.798323	2615.653085
850.112675	2613.288783
850.426984	2613.692076
850.741251	2610.702672
851.055474	2612.822477
851.369654	2617.021758
851.683792	2617.457818
851.997887	2613.485388
852.311938	2611.365583
852.625947	2613.921448
852.939914	2617.404886
853.253837	2617.052005
853.567718	2609.659153
853.881555	2612.361211
854.195350	2616.124432
854.509103	2613.745008
854.822812	2610.720316
855.136479	2612.025974
855.450103	2615.776593
855.763685	2617.155348
856.077224	2613.298866
856.390720	2609.676797
856.704173	2616.051336
857.017584	2617.840945
857.330953	2619.131481
857.644278	2621.037037
857.957561	2618.307252
858.270802	2618.382869
858.584000	2618.103085
858.897155	2617.490585
859.210268	2620.956378
859.523339	2616.532766
859.836367	2608.315685
860.149352	2611.534462
860.462295	2612.313320
860.775195	2611.078237
861.088054	2614.302055
861.400869	2608.028339
861.713642	2604.857454
862.026373	2606.906683
862.339062	2608.655963
862.651708	2618.090482
862.964312	2618.277005
863.276873	2616.605863
863.589392	2617.644340
863.901869	2622.040227
864.214303	2628.455095
864.526696	2630.403501
864.839045	2631.948614
865.151353	2635.185035
865.463619	2633.710498
865.775842	2632.949283
866.088023	2632.447689
866.400162	2633.057668
866.712258	2633.589510
867.024313	2630.711011
867.336325	2628.336628
867.648296	2631.376443
867.960224	2636.457927
868.272110	2637.239305
868.583954	2630.358130
868.895755	2631.578090
869.207515	2634.544809
869.519233	2643.792805
869.830909	2639.172588
870.142542	2635.338790
870.454134	2637.705612
870.765684	2641.068062
871.077191	2645.771458
871.388657	2649.655667
871.700081	2646.603249
872.011463	2642.426653
872.322803	2646.686428
872.634101	2649.839669
872.945357	2657.847542
873.256571	2662.835764
873.567744	2660.509272
873.878874	2657.744199
874.189963	2659.780825
874.501010	2666.533450
874.812015	2667.692916
875.122979	2669.724501
875.433900	2663.312153
875.744780	2659.274189
876.055618	2667.750889
876.366415	2669.149809
876.677169	2670.740293
876.987882	2665.568069
877.298554	2664.025476
877.609183	2675.632733
877.919771	2681.760256
878.230317	2686.685463
878.540822	2700.425128
878.851285	2714.547920
879.161707	2739.610017
879.472087	2777.761469
879.782425	2824.785352
880.092722	2944.016202
880.402977	3138.166160
880.713191	3402.937643
881.023363	3706.039538
881.333494	3902.760485
881.643583	4076.884459
881.953631	4078.336311
882.263637	3896.786717
882.573602	3672.611647
882.883526	3539.825134
883.193408	3421.174017
883.503248	3311.324754
883.813048	3197.251004
884.122806	3079.456883
884.432522	2991.539159
884.742197	2926.460384
885.051831	2884.765000
885.361424	2849.728981
885.670975	2813.609114
885.980485	2780.153496
886.289954	2760.833274
886.599382	2747.108733
886.908768	2736.577762
887.218113	2716.317365
887.527417	2702.030735
887.836680	2693.002029
888.145901	2689.574044
888.455082	2682.967612
888.764221	2668.754079
889.073319	2661.482214
889.382376	2660.360557
889.691392	2661.532626
890.000366	2659.087666
890.309300	2659.135557
890.618193	2660.592451
890.927044	2664.080929
891.235855	2666.367092
891.544625	2663.871721
891.853353	2664.590086
892.162041	2668.980931
892.470687	2693.382636
892.779293	2704.213555
893.087858	2715.755277
893.396381	2737.112125
893.704864	2780.382869
894.013306	2852.035309
894.321707	2947.955864
894.630068	2998.316991
894.938387	3025.256917
895.246665	3017.334744
895.554903	2970.762044
895.863100	2924.113727
896.171256	2867.597351
896.479371	2801.880869
896.787446	2763.172370
897.095480	2742.836355
897.403473	2733.558111
897.711425	2720.688046
898.019336	2700.180632
898.327207	2686.680422
898.635038	2685.326872
898.942827	2682.788651
899.250576	2673.828000
899.558284	2662.495486
899.865952	2657.184631
900.173579	2654.003662
900.481165	2652.501399
900.788711	2645.337919
901.096216	2635.084212
901.403681	2633.574387
901.711105	2635.830303
902.018489	2631.061371
902.325832	2636.457927
902.633135	2638.113946
902.940397	2654.464928
903.247619	2692.790300
903.554800	2763.845364
903.861941	2894.476783
904.169041	3025.201464
904.476101	3091.772421
904.783121	3086.277564
905.090100	3026.582740
905.397039	2949.556430
905.703938	2870.609440
906.010796	2803.751137
906.317614	2752.394383
906.624391	2715.644371
906.931129	2689.291739
907.237826	2662.760147
907.544483	2644.680048
907.851099	2629.980044
908.157675	2622.612397
908.464211	2613.208125
908.770707	2603.513986
909.077163	2596.950404
909.383578	2593.194744
909.689954	2598.233377
909.996289	2593.414034
910.302584	2592.317583
910.608839	2588.816502
910.915054	2588.377922
911.221229	2589.378591
911.527363	2595.362440
911.833458	2591.203488
912.139513	2591.148036
912.445527	2593.867738
912.751502	2600.940477
913.057436	2603.869387
913.363331	2610.692589
913.669186	2623.073663
913.975000	2634.968266
914.280775	2653.865031
914.586510	2676.608196
914.892205	2713.214535
915.197859	2783.669701
915.503475	2867.751106
915.809050	2936.232661
916.114585	2953.823767
916.420081	2968.637198
916.725536	2980.312510
917.030952	2947.683642
917.336328	2902.530027
917.641665	2850.661595
917.946961	2801.086888
918.252218	2764.344438
918.557435	2737.177660
918.862612	2716.365256
919.167750	2695.532688
919.472848	2681.558609
919.777906	2662.825682
920.082925	2648.503764
920.387904	2637.730818
920.692843	2631.270579
920.997743	2625.201030
921.302603	2619.491923
921.607423	2613.835749
921.912204	2608.166971
922.216946	2604.111363
922.521647	2607.322578
922.826310	2599.203800
923.130932	2594.316401
923.435516	2587.392376
923.740059	2586.762232
924.044564	2586.013621
924.349028	2581.179154
924.653454	2576.190932
924.957840	2574.207238
925.262186	2569.327401
925.566493	2569.884449
925.870761	2566.642987
926.174989	2567.898234
926.479178	2563.832544
926.783328	2565.080229
927.087438	2563.824982
927.391509	2562.350444
927.695541	2559.910526
927.999533	2557.140412
928.303486	2555.857438
928.607400	2555.335679
928.911275	2555.950700
929.215110	2555.214691
929.518906	2553.359547
929.822663	2556.248128
930.126381	2557.662171
930.430060	2556.575803
930.733699	2555.532284
931.037299	2555.993549
931.340861	2559.232491
931.644383	2558.622511
931.947866	2556.520350
932.251309	2556.812737
932.554714	2555.297870
932.858080	2559.572769
933.161407	2554.410627
933.464694	2557.064795
933.767943	2552.482386
934.071153	2556.817778
934.374323	2552.207643
934.677455	2553.888868
934.980548	2552.966337
935.283602	2552.338713
935.586617	2553.379711
935.889593	2552.701676
936.192530	2552.603373
936.495428	2552.477345
936.798287	2555.837274
937.101108	2558.531770
937.403890	2558.642676
937.706632	2562.121072
938.009336	2565.034859
938.312002	2571.084243
938.614628	2572.941909
938.917216	2575.878381
939.219765	2579.208063
939.522275	2579.707137
939.824747	2577.226889
940.127179	2569.755899
940.429573	2570.159192
940.731929	2567.855384
941.034246	2568.188101
941.336524	2567.202555
941.638763	2565.196176
941.940964	2564.369427
942.243126	2566.753892
942.545250	2561.347255
942.847335	2561.790876
943.149381	2562.559652
943.451389	2562.675599
943.753359	2561.259035
944.055290	2559.171997
944.357182	2558.110834
944.659036	2558.007490
944.960851	2558.869528
945.262628	2558.055381
945.564367	2558.037737
945.866067	2557.727706
946.167729	2557.190823
946.469352	2557.193344
946.770937	2556.898437
947.072484	2555.512119
947.373992	2557.513457
947.675462	2554.478683
947.976893	2557.006821
948.278286	2552.479865
948.579641	2552.983981
948.880958	2550.687735
949.182236	2552.782334
949.483476	2556.008673
949.784678	2555.859959
950.085841	2555.731409
950.386967	2553.256203
950.688054	2555.648230
950.989103	2554.042623
951.290114	2559.066133
951.591087	2555.915412
951.892021	2559.000598
952.192917	2557.775597
952.493776	2559.653427
952.794596	2562.214333
953.095378	2563.817420
953.396122	2561.211144
953.696828	2561.087635
953.997496	2558.534291
954.298126	2560.124775
954.598718	2556.981616
954.899272	2556.432130
955.199788	2553.916594
955.500266	2552.152190
955.800706	2549.669422
956.101108	2546.836293
956.401472	2546.891746
956.701798	2542.969728
957.002087	2544.330840
957.302337	2545.636499
957.602550	2544.668597
957.902724	2544.756818
958.202861	2541.517876
958.502960	2541.727084
958.803022	2544.114070
959.103045	2541.212886
959.403031	2539.498894
959.702979	2540.239944
960.002889	2537.308513
960.302762	2538.793133
960.602596	2539.098122
960.902393	2539.866898
961.202153	2538.626774
961.501875	2540.348328
961.801559	2539.267001
962.101205	2538.609130
962.400814	2538.803215
962.700385	2540.239944
962.999918	2539.231713
963.299414	2533.814993
963.598873	2536.098636
963.898293	2534.787936
964.197677	2538.841023
964.497022	2541.333874
964.796331	2537.479912
965.095601	2536.948070
965.394835	2536.146527
965.694030	2535.491177
965.993189	2537.222813
966.292309	2538.672145
966.591393	2537.744572
966.890439	2537.701723
967.189447	2535.592000
967.488419	2539.599717
967.787353	2535.407998
968.086249	2534.934129
968.385108	2538.059645
968.683930	2536.620395
968.982714	2538.253729
969.281462	2535.216434
969.580172	2536.968235
969.878844	2537.921013
970.177480	2538.122659
970.476078	2537.991589
970.774639	2539.093081
971.073162	2536.544778
971.371649	2534.137627
971.670098	2534.810621
971.968510	2534.026722
972.266885	2533.827596
972.565223	2535.949922
972.863524	2537.510159
973.161788	2539.229192
973.460014	2539.566950
973.758204	2538.513348
974.056356	2537.424459
974.354471	2539.198945
974.652550	2539.705581
974.950591	2537.139634
975.248595	2539.418236
975.546563	2539.569470
975.844493	2538.619213
976.142386	2537.348842
976.440243	2538.457896
976.738062	2536.953111
977.035845	2536.320447
977.333590	2539.781199
977.631299	2536.552340
977.928971	2538.178112
978.226606	2538.057124
978.524204	2538.162988
978.821765	2538.853626
979.119290	2533.799870
979.416777	2536.905220
979.714228	2533.389016
980.011642	2539.433359
980.309020	2539.874460
980.606360	2538.231044
980.903664	2539.062834
981.200931	2537.074099
981.498162	2540.481919
981.795356	2541.580891
982.092513	2543.967877
982.389633	2544.655994
982.686717	2548.673794
982.983764	2552.787376
983.280775	2555.444064
983.577749	2553.944320
983.874686	2552.883158
984.171587	2550.554144
984.468451	2545.114739
984.765279	2545.263453
985.062070	2543.299924
985.358824	2541.129707
985.655543	2539.629964
985.952224	2537.573173
986.248869	2539.803884
986.545478	2535.506300
986.842050	2534.631660
987.138586	2533.389016
987.435086	2529.708973
987.731549	2532.098480
988.027975	2534.054448
988.324366	2533.343645
988.620719	2535.576876
988.917037	2533.643594
989.213318	2535.292051
989.509563	2533.928419
989.805772	2532.589993
990.101944	2534.659386
990.398080	2535.060158
990.694180	2531.269210
990.990244	2532.274921
991.286271	2534.729963
991.582262	2532.726104
991.878217	2535.022349
992.174136	2534.548481
992.470019	2531.707791
992.765865	2533.915816
993.061676	2532.227030
993.357450	2533.535209
993.653188	2534.966897
993.948890	2533.966228
994.244556	2536.635519
994.540186	2534.712318
994.835780	2532.292565
995.131337	2535.594520
995.426859	2537.074099
995.722345	2533.701567
996.017795	2536.310364
996.313208	2538.876312
996.608586	2537.971424
996.903928	2537.038811
997.199234	2537.313554
997.494504	2537.162319
997.789738	2538.823379
998.084936	2534.752648
998.380099	2536.108718
998.675225	2533.275590
998.970316	2536.275076
999.265371	2535.158461
999.560390	2534.669469
999.855373	2534.523275
1000.150320	2532.834489
1000.445232	2536.501928
1000.740108	2534.298944
1001.034948	2533.081505
1001.329752	2532.232071
1001.624521	2532.153933
1001.919254	2529.552697
1002.213951	2532.103521
1002.508613	2528.360465
1002.803239	2531.276772
1003.097829	2528.420958
1003.392384	2532.128727
1003.686903	2532.574869
1003.981386	2534.261135
1004.275834	2530.462626
1004.570246	2532.363141
1004.864623	2533.225178
1005.158964	2533.459592
1005.453270	2530.003881
1005.747540	2533.167205
1006.041775	2532.285003
1006.335974	2531.513706
1006.630138	2528.914992
1006.924266	2530.349200
1007.218359	2530.329035
1007.512416	2532.831968
1007.806438	2531.899355
1008.100425	2532.093439
1008.394376	2533.537730
1008.688292	2529.426669
1008.982172	2532.547143
1009.276017	2533.507483
1009.569827	2530.409694
1009.863602	2531.070085
1010.157341	2531.286854
1010.451045	2530.555887
1010.744714	2530.757533
1011.038347	2532.337935
1011.331945	2529.789632
1011.625508	2532.486649
1011.919036	2531.148223
1012.212528	2532.647966
1012.505986	2530.548325
1012.799408	2533.585621
1013.092795	2530.389529
1013.386147	2528.536905
1013.679464	2530.301309
1013.972745	2530.855836
1014.265992	2531.372554
1014.559204	2532.216947
1014.852380	2529.333407
1015.145521	2531.165867
1015.438628	2528.930115
1015.731699	2531.244005
1016.024736	2529.025897
1016.317737	2530.805424
1016.610703	2530.374406
1016.903635	2528.400794
1017.196531	2524.554393
1017.489393	2529.925743
1017.782219	2524.624970
1018.075011	2530.981865
1018.367768	2530.366844
1018.660490	2533.381454
1018.953177	2533.381454
1019.245829	2533.381454
