Dividing Wavelength (nm)	Counts (n)	Blue Motor Position (mm): 42.400000	Red Motor Position (mm): 0.000000	
326.493990	2130.510083
326.888308	2130.510083
327.282561	2130.510083
327.676750	2097.170412
328.070874	2095.113621
328.464933	2099.577563
328.858929	2105.994951
329.252859	2114.012907
329.646726	2126.391460
330.040528	2140.869654
330.434265	2157.770122
330.827938	2175.462051
331.221547	2191.306398
331.615091	2210.198122
332.008571	2228.734445
332.401986	2250.240007
332.795338	2269.953439
333.188625	2290.551594
333.581847	2307.114305
333.975006	2323.616522
334.368100	2342.964470
334.761129	2360.187572
335.154095	2378.464276
335.546996	2398.795249
335.939833	2422.760894
336.332606	2443.061621
336.725315	2450.396500
337.117960	2463.621967
337.510540	2472.128914
337.903056	2482.233907
338.295508	2486.826398
338.687896	2495.290495
339.080220	2506.638133
339.472480	2511.649040
339.864676	2518.283198
340.256807	2521.393590
340.648875	2525.721421
341.040879	2526.366688
341.432818	2528.640249
341.824694	2531.019673
342.216506	2529.449354
342.608253	2531.924560
342.999937	2530.417255
343.391557	2530.422297
343.783113	2530.457585
344.174605	2529.504807
344.566033	2525.706297
344.957397	2528.894827
345.348697	2520.884433
345.739934	2523.901564
346.131106	2518.832684
346.522215	2519.782941
346.913260	2516.216325
347.304241	2514.943434
347.695159	2511.205418
348.086012	2512.818587
348.476802	2510.262722
348.867528	2506.875067
349.258191	2508.551251
349.648789	2502.819459
350.039324	2505.672752
350.429796	2505.650067
350.820203	2500.268635
351.210548	2501.327277
351.600828	2499.784684
351.991045	2499.827534
352.381198	2496.414673
352.771288	2499.509941
353.161314	2495.499703
353.551276	2498.048007
353.941175	2495.068685
354.331010	2497.866525
354.720782	2495.219919
355.110490	2497.047338
355.500135	2497.329642
355.889717	2497.561535
356.279235	2498.065651
356.668689	2499.424242
357.058080	2498.186638
357.447408	2499.192348
357.836672	2495.328304
358.225873	2497.616988
358.615010	2494.612460
359.004084	2503.147134
359.393095	2498.521875
359.782043	2500.180415
360.170927	2501.886845
360.559748	2503.278204
360.948505	2501.639829
361.337199	2502.965652
361.725830	2502.617812
362.114398	2507.066631
362.502903	2508.488236
362.891344	2507.149810
363.279722	2507.681652
363.668037	2507.704337
364.056289	2507.502691
364.444478	2510.910511
364.832603	2510.418998
365.220665	2508.606703
365.608665	2508.306755
365.996601	2513.375635
366.384474	2511.540655
366.772284	2510.136693
367.160031	2511.828001
367.547715	2512.228772
367.935336	2511.384379
368.322893	2512.357322
368.710388	2513.156345
369.097820	2518.023579
369.485189	2511.182733
369.872495	2516.039885
370.259738	2514.986283
370.646918	2515.800430
371.034035	2517.665657
371.421090	2517.128774
371.808081	2517.653054
372.195010	2518.114319
372.581875	2517.199350
372.968678	2518.608353
373.355418	2516.491068
373.742096	2519.331758
374.128710	2520.347551
374.515262	2519.818229
374.901751	2519.513240
375.288177	2520.642458
375.674540	2522.759743
376.060841	2521.375946
376.447079	2523.372243
376.833254	2522.835360
377.219367	2518.071470
377.605417	2519.024248
377.991404	2518.752025
378.377329	2521.338137
378.763191	2520.876872
379.148991	2527.785773
379.534727	2529.109076
379.920402	2527.105217
380.306013	2526.648993
380.691563	2532.766433
381.077049	2533.915816
381.462474	2538.364634
381.847835	2543.050387
382.233134	2550.546583
382.618371	2553.157900
383.003545	2563.966134
383.388657	2570.912844
383.773706	2579.671849
384.158693	2594.689446
384.543618	2607.156220
384.928480	2619.814557
385.313280	2638.741569
385.698017	2649.960657
386.082692	2672.882784
386.467305	2683.280163
386.851856	2709.877291
387.236344	2726.228274
387.620770	2752.001173
388.005133	2779.861109
388.389435	2803.085705
388.773674	2826.804334
389.157851	2858.780373
389.541965	2887.598129
389.926018	2900.493400
390.310008	2948.016358
390.693936	2977.355873
391.077802	3020.208201
391.461606	3045.744166
391.845348	3101.277517
392.229027	3128.819861
392.612645	3160.241373
392.996200	3228.685119
393.379694	3277.254115
393.763125	3344.339270
394.146494	3358.910725
394.529801	3425.494285
394.913047	3485.206753
395.296230	3496.516581
395.679351	3562.674164
396.062410	3611.648973
396.445408	3627.757981
396.828343	3683.525745
397.211217	3727.194740
397.594028	3695.306922
397.976778	3774.450516
398.359466	3822.850634
398.742092	3869.481307
399.124656	3833.227850
399.507158	3922.887291
399.889598	3961.913384
400.271977	4036.290568
400.654294	4033.936349
401.036549	4062.597829
401.418742	4053.256571
401.800874	4158.485616
402.182944	4193.781255
402.564952	4269.940487
402.946898	4271.520888
403.328783	4281.182260
403.710606	4211.392526
404.092367	4407.047268
404.474067	4382.769072
404.855705	4404.093152
405.237282	4339.062268
405.618797	4452.092499
406.000250	4488.721523
406.381642	4576.240994
406.762972	4547.024987
407.144240	4558.113005
407.525447	4561.742636
407.906593	4628.863079
408.287677	4666.649047
408.668700	4600.259572
409.049661	4657.070855
409.430560	4697.783214
409.811399	4627.902739
410.192176	4788.982728
410.572891	4729.552565
410.953545	4833.770859
411.334138	4715.714598
411.714669	4785.393426
412.095139	4681.482643
412.475547	4823.673428
412.855894	4803.193741
413.236180	4816.280576
413.616405	4769.118061
413.996568	4857.870095
414.376670	4798.787772
414.756711	4750.997634
415.136691	4784.692706
415.516609	4863.417885
415.896466	4898.453904
416.276262	4936.454122
416.655997	4916.218930
417.035670	5094.295169
417.415283	5184.521741
417.794834	5128.648112
418.174324	5080.981482
418.553753	4998.046940
418.933121	5176.589485
419.312428	5240.176079
419.691674	5186.147513
420.070859	5314.540660
420.449983	5219.968614
420.829045	5335.947920
421.208047	5249.580352
421.586988	5318.298841
421.965867	5333.026572
422.344686	5459.564574
422.723444	5319.405374
423.102141	5129.169872
423.480777	5430.497281
423.859352	5203.174010
424.237866	5460.630778
424.616319	5450.291372
424.994712	5558.582918
425.373044	5441.076142
425.751314	5575.231329
426.129524	5383.977513
426.507673	5575.395166
426.885762	5658.879194
427.263789	5594.238999
427.641756	5473.916739
428.019662	5593.760090
428.397508	5602.748467
428.775292	5548.462802
429.153016	5650.364686
429.530679	5575.637142
429.908282	5661.808105
430.285824	5530.299524
430.663305	5805.619621
431.040726	5542.000042
431.418086	5543.819899
431.795385	5650.699922
432.172624	5657.487836
432.549802	5650.851157
432.926920	5667.212222
433.303977	5673.553993
433.680974	5711.642431
434.057910	5725.636674
434.434786	5734.393158
434.811601	5705.676226
435.188355	5940.989725
435.565050	5816.059851
435.941683	5793.218383
436.318257	6009.320045
436.694770	5991.819680
437.071222	6028.289907
437.447614	5964.383200
437.823946	5869.274271
438.200218	6028.373086
438.576429	5889.282610
438.952580	5993.407643
439.328670	6035.052615
439.704700	5945.814110
440.080670	5928.386841
440.456580	6199.893305
440.832429	6081.247228
441.208218	5928.217962
441.583947	6084.612198
441.959616	6080.730510
442.335224	6015.762640
442.710773	6152.211551
443.086261	6179.559811
443.461689	5973.333768
443.837057	6120.711901
444.212365	6273.118585
444.587612	6168.605383
444.962800	6322.952911
445.337927	6299.377955
445.712995	5913.515437
446.088002	6487.395350
446.462949	6319.658517
446.837837	6254.264669
447.212664	6424.859836
447.587431	6566.047432
447.962139	7107.941223
448.336786	8034.535547
448.711374	7773.237420
449.085901	6846.660740
449.460369	6772.344050
449.834776	6706.166303
450.209124	7096.147444
450.583412	7249.133860
450.957640	7392.295068
451.331808	7155.633059
451.705917	6710.443722
452.079965	6634.256764
452.453954	6847.535380
452.827883	6724.785805
453.201752	6814.727551
453.575562	6623.309898
453.949311	6819.418345
454.323001	6709.432971
454.696632	6783.220340
455.070202	6924.022287
455.443713	7078.208498
455.817164	7182.320928
456.190556	7257.817248
456.563888	7334.324319
456.937160	7376.720423
457.310373	7034.685696
457.683526	7059.715025
458.056619	6949.144877
458.429653	6937.535100
458.802628	6870.016406
459.175542	6979.671584
459.548398	7328.194276
459.921194	7494.338104
460.293930	7503.823035
460.666607	8028.781070
461.039224	8337.024943
461.411782	8462.728634
461.784280	8475.727250
462.156719	8369.585755
462.529099	8250.180985
462.901419	7834.149682
463.273680	7730.967345
463.645882	7742.975373
464.018024	7618.789069
464.390106	7776.917462
464.762130	8165.948346
465.134094	8636.875294
465.505999	9657.913115
465.877845	10878.207582
466.249631	11527.868640
466.621358	11148.504169
466.993026	10512.686120
467.364634	10247.655018
467.736184	9889.297035
468.107674	9560.205471
468.479105	9589.134132
468.850477	9362.100727
469.221790	9131.694791
469.593043	8793.004870
469.964238	8661.486207
470.335373	8676.808794
470.706449	8731.180159
471.077467	8709.369607
471.448425	10022.156645
471.819324	11102.284350
472.190164	11114.914961
472.560945	9868.865238
472.931667	9078.724867
473.302330	8950.724930
473.672934	8590.121113
474.043479	8947.581770
474.413965	8891.851814
474.784393	8772.144575
475.154761	8929.075694
475.525070	9018.309159
475.895321	8843.013116
476.265513	9020.307976
476.635645	9193.401035
477.005719	9188.705200
477.375734	9304.132499
477.745691	9542.924395
478.115588	9675.612606
478.485427	9925.464793
478.855207	10462.849273
479.224928	11273.560072
479.594591	11906.116495
479.964194	11709.771115
480.333739	11649.604944
480.703226	11562.884495
481.072653	11654.779688
481.442022	11896.606359
481.811333	12092.331677
482.180584	11882.758309
482.549777	11597.852458
482.918912	11415.327401
483.287988	11446.368306
483.657005	11456.884153
484.025964	11133.544545
484.394864	11266.683939
484.763706	11238.771070
485.132489	10998.996149
485.501213	10955.745569
485.869879	11030.886488
486.238487	10876.927129
486.607036	10983.177008
486.975527	10771.947621
487.343959	10960.186826
487.712333	11007.684578
488.080648	10935.696901
488.448905	10974.203754
488.817104	10915.181925
489.185244	11175.338231
489.553326	11337.025679
489.921350	11884.646221
490.289315	12942.524794
490.657222	13276.619703
491.025070	13191.467053
491.392861	13064.878639
491.760593	12679.235411
492.128267	12327.599807
492.495883	12001.911021
492.863440	11666.956595
493.230939	11333.103661
493.598380	11258.227403
493.965763	11133.904987
494.333088	11027.869358
494.700354	10953.890425
495.067563	11008.644917
495.434713	10845.724907
495.801805	10968.252672
496.168839	10893.441949
496.535815	10829.126908
496.902733	10831.622279
497.269593	10762.883626
497.636395	10869.428413
498.003139	10852.722029
498.369825	10724.681762
498.736453	10882.979034
499.103023	10808.942128
499.469535	10833.984060
499.835989	10827.206229
500.202385	10797.234048
500.568723	10644.759309
500.935003	10863.459687
501.301226	10664.235807
501.667390	10925.352453
502.033497	11021.419201
502.399546	10878.933508
502.765537	10783.418766
503.131470	10864.173010
503.497345	11034.957220
503.863163	10648.071347
504.228923	10960.171702
504.594625	11021.406598
504.960269	10767.642475
505.325856	10991.326033
505.691385	10779.239650
506.056856	10931.099368
506.422270	10958.717330
506.787625	10847.060813
507.152924	10967.778804
507.518164	10952.310023
507.883347	10867.091838
508.248472	10791.439242
508.613540	11030.105109
508.978550	10902.752960
509.343503	10879.246060
509.708398	11004.337251
510.073236	11114.362955
510.438016	11120.346804
510.802738	11069.184134
511.167403	11123.868050
511.532010	11015.122800
511.896561	11250.940415
512.261053	11321.014974
512.625488	11190.807012
512.989866	11175.244970
513.354186	11159.904738
513.718449	11061.077958
514.082655	11251.862946
514.446803	11152.506845
514.810894	11271.800710
515.174927	11137.819443
515.538904	11157.308544
515.902822	11315.552884
516.266684	11193.619975
516.630488	11146.414611
516.994235	11199.931500
517.357925	11257.652712
517.721558	11342.034065
518.085133	11361.613907
518.448651	11373.989939
518.812112	11251.258008
519.175516	11274.916143
519.538863	11390.255222
519.902152	11311.565331
520.265385	11470.180196
520.628560	11380.530837
520.991678	11361.175326
521.354739	11424.867785
521.717743	11355.345232
522.080690	11332.092910
522.443580	11469.272788
522.806413	11421.996847
523.169189	11455.263422
523.531908	11510.509427
523.894569	11335.825884
524.257174	11341.028355
524.619722	11458.270470
524.982213	11405.189641
525.344647	11458.235182
525.707025	11407.190979
526.069345	11504.898623
526.431608	11418.594069
526.793815	11523.472754
527.155964	11314.542133
527.518057	11366.876871
527.880093	11318.887607
528.242072	11388.042156
528.603995	11296.812395
528.965860	11211.087573
529.327669	11261.098340
529.689421	11214.949097
530.051117	11177.982316
530.412755	11282.109869
530.774337	11179.310660
531.135862	11157.459779
531.497331	11181.884169
531.858743	11036.086438
532.220098	11206.890813
532.581396	11068.314535
532.942638	11052.823069
533.303824	11024.181753
533.664953	11032.537466
534.026025	10941.486666
534.387040	11042.251769
534.747999	11047.963397
535.108902	11098.642116
535.469748	10862.703513
535.830537	10966.626900
536.191270	10945.549836
536.551947	10971.383229
536.912567	10967.065480
537.273131	10892.806764
537.633638	10880.771009
537.994089	10859.144459
538.354483	10811.475308
538.714821	10955.004520
539.075103	10966.425254
539.435328	10925.276836
539.795497	10755.226113
540.155609	10911.292675
540.515665	10995.888277
540.875665	10735.500078
541.235609	10805.312498
541.595496	10801.881992
541.955328	10966.216046
542.315102	10838.054792
542.674821	10783.466657
543.034483	10785.213417
543.394090	10791.151896
543.753640	10715.766482
544.113134	10942.068919
544.472571	10792.301279
544.831953	10936.203537
545.191278	10739.374205
545.550548	10775.317632
545.909761	10917.702502
546.268918	10882.734538
546.628019	10967.894750
546.987064	10833.207722
547.346053	10753.333160
547.704986	10854.584735
548.063863	10836.350882
548.422684	10831.307207
548.781449	10753.340722
549.140158	10853.901659
549.498811	10728.394572
549.857408	10587.459034
550.215949	10814.489918
550.574434	10664.949130
550.932864	10759.430436
551.291237	10826.129942
551.649555	10767.841601
552.007817	10782.796184
552.366022	10747.961811
552.724173	10738.860008
553.082267	10724.374252
553.440305	10865.319872
553.798288	10660.245734
554.156215	10819.273973
554.514086	10790.166351
554.871902	10642.213527
555.229661	10683.102325
555.587365	10656.686679
555.945014	10550.845134
556.302606	10677.524289
556.660143	10563.352236
557.017625	10720.883253
557.375050	10620.140834
557.732421	10753.600341
558.089735	10667.873000
558.446994	10666.222022
558.804197	10704.444050
559.161345	10704.456653
559.518437	10551.687006
559.875474	10642.606737
560.232455	10668.573720
560.589381	10621.232244
560.946251	10626.016299
561.303065	10724.510363
561.659825	10658.776238
562.016528	10596.772566
562.373177	10468.510488
562.729770	10587.678324
563.086307	10504.857208
563.442789	10589.977090
563.799216	10475.883176
564.155587	10519.786585
564.511904	10484.901800
564.868164	10472.568617
565.224370	10485.363066
565.580520	10404.981868
565.936615	10414.184494
566.292654	10286.459300
566.648638	10415.084340
567.004567	10376.539678
567.360441	10352.387510
567.716260	10263.756463
568.072023	10355.664260
568.427732	10312.403598
568.783385	10217.208969
569.138982	10291.757552
569.494525	10310.664400
569.850013	10180.877373
570.205445	10263.325445
570.560823	10160.075052
570.916145	10072.069109
571.271412	10150.373352
571.626625	10089.443446
571.981782	10063.683149
572.336884	10035.392194
572.691931	10044.415859
573.046923	9987.072734
573.401860	9952.571078
573.756743	9886.451304
574.111570	9926.651985
574.466342	9913.832331
574.821059	9943.607906
575.175722	9834.227470
575.530330	9842.205096
575.884882	9832.594137
576.239380	9759.716696
576.593823	9739.874714
576.948211	9750.196477
577.302544	9631.401687
577.656823	9647.392227
578.011047	9653.008072
578.365216	9626.526891
578.719330	9549.054438
579.073389	9556.948885
579.427394	9507.449796
579.781344	9487.207043
580.135239	9433.554042
580.489080	9442.050907
580.842866	9347.478861
581.196597	9353.099747
581.550273	9391.231035
581.903895	9355.849697
582.257463	9425.513402
582.610975	9307.477305
582.964434	9333.671140
583.317837	9250.333306
583.671186	9233.757992
584.024481	9229.170542
584.377721	9144.068303
584.730906	9124.362433
585.084037	9156.845108
585.437113	9089.681815
585.790135	9110.584959
586.143103	9008.491512
586.496016	8982.101071
586.848874	9040.084423
587.201679	9032.704173
587.554428	8916.019106
587.907124	8964.812434
588.259765	8934.699102
588.612352	8934.615922
588.964884	8808.214031
589.317362	8828.194644
589.669786	8818.881112
590.022155	8873.708702
590.374470	8885.683963
590.726731	8827.723296
591.078937	8680.604783
591.431090	8796.876476
591.783188	8668.478288
592.135232	8657.554107
592.487222	8660.553594
592.839157	8709.566212
593.191038	8638.543916
593.542866	8586.562058
593.894639	8488.771235
594.246358	8545.942961
594.598022	8559.218840
594.949633	8451.575082
595.301190	8430.036752
595.652692	8453.523488
596.004141	8571.141168
596.355535	8343.553237
596.706876	8326.766195
597.058162	8255.872448
597.409395	8338.320519
597.760573	8398.315291
598.111698	8308.310530
598.462768	8289.602808
598.813785	8260.522913
599.164748	8227.790701
599.515657	8218.603198
599.866511	8126.665154
600.217312	8254.586954
600.568060	8110.024306
600.918753	8215.250830
601.269392	8188.726799
601.619978	8093.302798
601.970510	8160.942480
602.320988	8159.818303
602.671412	8212.178247
603.021783	8149.181468
603.372100	8123.131306
603.722363	8126.460988
604.072572	8104.771423
604.422728	8111.521528
604.772830	8042.752628
605.122878	8049.447280
605.472872	8039.763224
605.822813	8072.233296
606.172701	8016.669698
606.522534	8092.823889
606.872314	8091.608971
607.222041	8060.830206
607.571714	8114.432795
607.921333	8073.173471
608.270899	8081.204029
608.620411	8166.858274
608.969870	8071.494767
609.319276	8066.703150
609.668627	8084.624452
610.017926	8121.003939
610.367171	8173.898245
610.716362	8142.567474
611.065500	8138.189232
611.414585	8160.763519
611.763616	8149.919997
612.112594	8135.640929
612.461518	8145.007393
612.810389	8211.618679
613.159207	8145.388000
613.507971	8096.914785
613.856682	8213.269657
614.205340	8170.891197
614.553945	8248.247703
614.902496	8144.946899
615.250994	8197.790794
615.599439	8180.245058
615.947830	8196.142337
616.296169	8168.400867
616.644454	8177.477465
616.992686	8180.096344
617.340864	8241.280828
617.688990	8144.296590
618.037063	8236.544664
618.385082	8179.887136
618.733048	8264.820496
619.080961	8204.934109
619.428821	8226.994198
619.776628	8231.833706
620.124382	8180.403854
620.472083	8160.060278
620.819731	8191.091101
621.167326	8078.358298
621.514868	8085.841891
621.862357	7977.096640
622.209793	7999.028180
622.557176	7930.995288
622.904506	7899.588900
623.251783	7833.053231
623.599007	7784.592619
623.946179	7788.612939
624.293297	7749.947289
624.640363	7660.986047
624.987376	7648.141187
625.334336	7598.238805
625.681243	7551.368678
626.028097	7534.616923
626.374899	7512.922318
626.721647	7508.337388
627.068343	7440.498581
627.414987	7405.452479
627.761577	7364.510748
628.108115	7398.294041
628.454600	7298.794267
628.801032	7340.845052
629.147412	7304.518497
629.493739	7290.998122
629.840014	7227.136786
630.186236	7286.597195
630.532405	7168.137642
630.878521	7219.012966
631.224585	7182.245311
631.570597	7100.797908
631.916556	7139.970194
632.262462	7128.451158
632.608316	7095.393792
632.954117	7069.668783
633.299866	7054.688995
633.645562	7050.973664
633.991206	6969.637168
634.336797	6916.563900
634.682336	6870.709565
635.027823	6838.796540
635.373257	6830.403019
635.718639	6757.928871
636.063968	6773.967302
636.409245	6671.369739
636.754470	6669.370921
637.099642	6620.988447
637.444762	6567.095992
637.789829	6578.705769
638.134845	6517.831316
638.479808	6502.289439
638.824719	6506.445870
639.169577	6436.540190
639.514383	6458.184384
639.859137	6387.293158
640.203839	6391.260546
640.548489	6378.937445
640.893086	6356.153950
641.237632	6331.570764
641.582125	6347.669688
641.926566	6317.979813
642.270955	6329.579508
642.615292	6321.594320
642.959576	6339.510581
643.303809	6335.207956
643.647990	6335.979253
643.992118	6327.742007
644.336195	6273.559686
644.680219	6298.483150
645.024192	6290.989475
645.368112	6386.597478
645.711981	6411.026910
646.055797	6485.451985
646.399562	6441.420027
646.743274	6567.985756
647.086935	6622.941894
647.430544	6616.448888
647.774101	6638.060315
648.117606	6640.656509
648.461059	6637.848586
648.804460	6598.898111
649.147810	6509.528536
649.491108	6479.563917
649.834354	6449.858918
650.177548	6367.952771
650.520690	6282.064112
650.863781	6263.358911
651.206820	6280.156036
651.549807	6203.308686
651.892742	6145.025386
652.235626	6146.537732
652.578458	6136.790661
652.921238	6040.391197
653.263967	6084.889462
653.606644	6020.150964
653.949269	6024.526686
654.291843	5969.389066
654.634365	6013.393297
654.976836	5967.470907
655.319255	5967.584333
655.661622	5946.126661
656.003938	5946.015756
656.346203	5904.151494
656.688416	5933.203663
657.030577	5886.648608
657.372687	5856.084092
657.714746	5845.701835
658.056753	5889.527106
658.398708	5830.031409
658.740612	5821.368186
659.082465	5870.678232
659.424266	5861.034505
659.766016	5858.902097
660.107715	5833.038457
660.449362	5848.056054
660.790958	5845.207802
661.132503	5832.713303
661.473996	5873.881885
661.815438	5854.763309
662.156829	5852.187280
662.498168	5847.511610
662.839456	5820.314585
663.180693	5857.480491
663.521879	5857.830852
663.863013	5842.823337
664.204097	5863.126584
664.545129	5904.998408
664.886110	5898.417181
665.227040	5933.904384
665.567918	5900.615124
665.908746	5924.510193
666.249522	5930.927582
666.590248	5917.326549
666.930922	5950.598165
667.271545	5961.318178
667.612118	5961.963446
667.952639	5938.673315
668.293109	5952.818793
668.633528	5913.775056
668.973896	5919.660603
669.314213	5908.940590
669.654480	5893.870060
669.994695	5883.238267
670.334859	5874.479262
670.674973	5863.613055
671.015035	5868.341657
671.355047	5868.155135
671.695008	5854.952353
672.034918	5827.445297
672.374777	5842.803172
672.714585	5823.616540
673.054342	5833.923179
673.394049	5822.462116
673.733705	5852.126786
674.073310	5835.548952
674.412864	5800.326410
674.752368	5790.191170
675.091820	5794.239216
675.431223	5731.255040
675.770574	5732.553137
676.109875	5680.760323
676.449125	5688.889183
676.788324	5658.720398
677.127473	5597.689669
677.466571	5593.422332
677.805619	5578.782822
678.144616	5566.477365
678.483562	5544.140012
678.822458	5511.405280
679.161303	5508.267162
679.500098	5500.062684
679.838842	5479.199868
680.177535	5487.149768
680.516179	5499.591336
680.854771	5513.963665
681.193314	5595.224545
681.531805	5706.402152
681.870247	5850.934553
682.208638	5956.501356
682.546978	5967.876719
682.885268	5943.517864
683.223508	5859.002920
683.561697	5808.873686
683.899836	5777.187513
684.237925	5735.285443
684.575963	5695.588877
684.913951	5658.949771
685.251889	5717.011260
685.589776	5685.879614
685.927614	5657.097147
686.265401	5727.141459
686.603137	5712.106217
686.940824	5790.811232
687.278460	5811.142205
687.616046	5821.282486
687.953582	5889.043156
688.291068	5873.917173
688.628504	5939.132060
688.965889	5899.150669
689.303224	5842.838460
689.640510	5794.924813
689.977745	5722.480912
690.314930	5619.296054
690.652065	5557.718360
690.989150	5471.965813
691.326185	5395.811622
691.663170	5343.413869
692.000105	5264.466879
692.336990	5186.462585
692.673825	5163.971477
693.010610	5091.898101
693.347345	5020.704406
693.684030	5005.500286
694.020665	4970.938135
694.357251	4879.799114
694.693786	4889.460486
695.030272	4853.572512
695.366707	4818.884332
695.703093	4786.759579
696.039429	4811.738496
696.375716	4792.085558
696.711952	4766.143780
697.048139	4757.210856
697.384276	4732.385694
697.720363	4745.200307
698.056400	4755.748921
698.392388	4705.937280
698.728326	4682.596738
699.064214	4659.901463
699.400053	4654.769568
699.735842	4622.566678
700.071581	4596.904684
700.407270	4571.615736
700.742910	4554.511101
701.078501	4497.851052
701.414042	4501.112679
701.749533	4467.773008
702.084974	4400.471083
702.420366	4460.299497
702.755709	4400.203902
703.091002	4346.485367
703.426246	4393.620155
703.761440	4353.444680
704.096584	4310.834327
704.431679	4336.045137
704.766725	4320.745235
705.101721	4308.313750
705.436668	4338.820292
705.771565	4284.050676
706.106413	4310.617557
706.441212	4345.015870
706.775961	4351.176160
707.110661	4331.329138
707.445311	4361.664281
707.779913	4382.169174
708.114465	4395.271133
708.448967	4421.928755
708.783421	4481.805059
709.117825	4521.970453
709.452180	4525.615207
709.786485	4572.059357
710.120742	4658.623531
710.454949	4645.085512
710.789107	4710.897775
711.123216	4787.430052
711.457275	4777.955204
711.791286	4851.248540
712.125247	4867.019789
712.459159	4770.176703
712.793023	4841.254452
713.126837	4801.240293
713.460602	4793.386176
713.794318	4715.006316
714.127985	4719.929002
714.461602	4636.734841
714.795171	4607.385243
715.128691	4542.029204
715.462162	4485.084330
715.795584	4434.080456
716.128957	4418.689813
716.462281	4365.961865
716.795556	4339.097556
717.128782	4301.669509
717.461960	4232.731730
717.795088	4242.186414
718.128167	4202.220147
718.461198	4144.337618
718.794180	4141.832165
719.127113	4119.993886
719.459997	4097.349023
719.792833	4054.136252
720.125619	4044.827762
720.458357	4010.411804
720.791046	4016.438504
721.123686	3987.963546
721.456278	3949.847382
721.788821	3964.421358
722.121315	3939.634004
722.453761	3909.891197
722.786158	3923.456942
723.118506	3949.512145
723.450805	3898.644382
723.783056	3919.083741
724.115259	3937.728448
724.447412	3942.545271
724.779518	3934.875155
725.111574	3943.634160
725.443582	3967.819096
725.775542	3954.444914
726.107453	4005.907533
726.439315	4005.882328
726.771129	4023.415461
727.102895	4055.583063
727.434612	4102.861525
727.766281	4115.494656
728.097901	4116.197897
728.429473	4121.259216
728.760996	4128.795741
729.092471	4124.946820
729.423897	4109.099953
729.755276	4116.565902
730.086606	4115.749235
730.417887	4150.979338
730.749120	4218.200604
731.080305	4282.578659
731.411442	4311.282989
731.742530	4276.216723
732.073570	4278.691930
732.404562	4332.208819
732.735506	4330.545238
733.066401	4289.477478
733.397249	4224.441553
733.728048	4147.541271
734.058798	4062.391142
734.389501	3992.876151
734.720156	3932.475566
735.050762	3885.885222
735.381320	3880.730642
735.711831	3828.597550
736.042293	3802.665854
736.372707	3822.714523
736.703073	3797.420534
737.033391	3784.575674
737.363661	3803.779949
737.693883	3829.585616
738.024056	3839.841843
738.354182	3830.760205
738.684260	3896.454001
739.014290	3917.130294
739.344272	3912.227772
739.674207	3955.516160
740.004093	3961.358857
740.333931	3956.058084
740.663722	3955.196046
740.993464	3952.798978
741.323159	3929.813837
741.652806	3898.440216
741.982405	3869.801421
742.311956	3840.920650
742.641460	3829.638548
742.970915	3806.933191
743.300323	3769.220319
743.629683	3729.755646
743.958996	3720.565623
744.288260	3697.376315
744.617477	3662.559586
744.946647	3651.406033
745.275768	3621.121302
745.604842	3620.889408
745.933869	3575.647573
746.262847	3564.546953
746.591778	3599.013321
746.920662	3571.133220
747.249498	3540.404867
747.578286	3587.418667
747.907027	3607.633694
748.235720	3605.765947
748.564365	3629.197230
748.892963	3630.142446
749.221514	3612.813480
749.550017	3589.551076
749.878473	3586.357505
750.206881	3558.963875
750.535242	3554.840211
750.863555	3555.306517
751.191821	3552.110426
751.520039	3530.604864
751.848210	3505.837675
752.176334	3544.445352
752.504411	3550.219993
752.832440	3504.045545
753.160421	3492.239162
753.488356	3501.769464
753.816243	3514.821011
754.144082	3471.371306
754.471875	3453.966722
754.799620	3474.408601
755.127318	3466.254535
755.454969	3464.822847
755.782572	3471.754434
756.110129	3451.405816
756.437638	3437.436779
756.765100	3452.199798
757.092515	3462.720686
757.419882	3469.034731
757.747203	3442.903910
758.074477	3444.723767
758.401703	3461.157928
758.728882	3478.761638
759.056014	3489.547186
759.383099	3489.474089
759.710138	3489.128770
760.037129	3506.654342
760.364073	3539.812531
760.690970	3521.583719
761.017820	3498.633866
761.344623	3516.363604
761.671379	3560.932445
761.998088	3614.091412
762.324751	3743.782657
762.651366	3989.551510
762.977935	4463.979539
763.304456	4912.808590
763.630931	5005.817878
763.957359	4642.075943
764.283740	4296.865289
764.610074	4102.722893
764.936362	3906.077564
765.262602	3749.655601
765.588796	3636.070843
765.914943	3549.950292
766.241044	3460.855459
766.567097	3431.306736
766.893104	3385.742267
767.219064	3354.129191
767.544978	3323.176506
767.870845	3269.712549
768.196665	3251.771083
768.522438	3257.908687
768.848165	3253.855600
769.173846	3215.474775
769.499479	3201.523382
769.825066	3185.152235
770.150607	3169.060872
770.476101	3179.700227
770.801548	3178.976821
771.126949	3132.157105
771.452303	3114.601287
771.777611	3121.550517
772.102872	3128.565283
772.428087	3101.572424
772.753256	3089.710589
773.078378	3083.265474
773.403453	3051.302038
773.728482	3039.566232
774.053465	3061.989284
774.378401	3048.930175
774.703291	3016.543283
775.028135	3015.963550
775.352932	3014.184022
775.677683	3002.380161
776.002388	2998.531240
776.327046	3000.676251
776.651658	2987.816267
776.976224	2974.610965
777.300743	2974.729432
777.625216	2965.867083
777.949643	2962.570169
778.274024	2964.916826
778.598359	2954.950465
778.922647	2958.428861
779.246889	2957.783593
779.571086	2945.689865
779.895236	2936.159564
780.219339	2946.085596
780.543397	2958.688480
780.867409	2966.729121
781.191374	2956.467852
781.515294	2954.602625
781.839167	2952.780248
782.162995	2945.944443
782.486776	2954.118674
782.810511	2950.378138
783.134201	2934.995057
783.457844	2942.710543
783.781441	2934.213678
784.104993	2915.258940
784.428498	2920.441246
784.751958	2928.300405
785.075372	2924.143974
785.398739	2906.822569
785.722061	2923.367636
786.045337	2937.266097
786.368568	2923.904519
786.691752	2912.188877
787.014891	2960.737709
787.337983	2991.589571
787.661030	3017.793489
787.984031	3086.965681
788.306987	3132.837661
788.629897	3124.973461
788.952760	3109.746655
789.275579	3094.807196
789.598351	3034.603216
789.921078	2987.818788
790.243759	2980.204125
790.566395	2960.019345
790.888984	2938.879266
791.211529	2921.560382
791.534027	2911.435225
791.856480	2903.649163
792.178888	2888.800444
792.501249	2879.398692
792.823566	2875.476674
793.145836	2873.492980
793.468062	2869.336549
793.790241	2866.740355
794.112375	2873.407281
794.434464	2887.051164
794.756507	2891.346227
795.078505	2896.382339
795.400457	2911.614186
795.722364	2947.194650
796.044226	2971.175418
796.366042	2976.282107
796.687812	2964.382464
797.009538	2983.453149
797.331218	2969.877321
797.652852	2955.804940
797.974442	2938.947322
798.295986	2935.655448
798.617484	2929.694284
798.938938	2913.411357
799.260346	2897.904768
799.581709	2892.432595
799.903026	2885.649723
800.224299	2880.462376
800.545526	2870.180942
800.866708	2856.695856
801.187845	2844.667663
801.508936	2849.008096
801.829983	2853.746781
802.150984	2840.133145
802.471940	2825.775939
802.792851	2828.432627
803.113717	2828.649396
803.434538	2831.172494
803.755314	2826.839622
804.076045	2820.608756
804.396731	2821.299394
804.717372	2821.511122
805.037967	2813.213383
805.358518	2822.337872
805.679024	2833.428410
805.999485	2830.504541
806.319901	2833.216682
806.640272	2828.130157
806.960598	2831.848008
807.280879	2838.194821
807.601115	2846.658918
807.921306	2832.581496
808.241453	2829.340034
808.561554	2834.363544
808.881611	2838.406550
809.201623	2831.845488
809.521590	2830.726352
809.841513	2827.429437
810.161390	2829.781135
810.481223	2826.385918
810.801011	2816.598518
811.120755	2811.249854
811.440453	2815.895277
811.760107	2814.939978
812.079716	2813.750266
812.399281	2804.237609
812.718801	2797.064047
813.038276	2791.070115
813.357707	2798.823410
813.677093	2802.967238
813.996434	2796.799386
814.315731	2795.120682
814.634983	2788.874692
814.954191	2791.410393
815.273354	2805.308854
815.592473	2815.212201
815.911547	2817.992397
816.230577	2823.847697
816.549562	2833.095694
816.868502	2831.618636
817.187399	2843.057014
817.506250	2855.516226
817.825058	2853.265351
818.143821	2864.771784
818.462539	2881.508415
818.781213	2909.244843
819.099843	2944.422015
819.418429	2999.499141
819.736970	3065.278637
820.055466	3138.622385
820.373919	3244.244640
820.692327	3382.795712
821.010691	3557.585119
821.329011	4004.508613
821.647286	4914.719187
821.965517	6305.137473
822.283704	7063.563946
822.601847	7046.250103
822.919945	6400.944602
823.237999	5885.484101
823.556010	5297.544410
823.873976	4735.811158
824.191897	4323.598528
824.509775	4027.455946
824.827609	3754.172475
825.145398	3632.874752
825.463144	3618.162144
825.780845	3711.289900
826.098502	3818.442145
826.416116	4101.238273
826.733685	4421.520421
827.051210	4489.157582
827.368692	4371.076115
827.686129	4098.498406
828.003522	3773.598561
828.320872	3510.359590
828.638177	3314.344405
828.955439	3178.142510
829.272656	3091.938779
829.589830	3022.519570
829.906960	2973.196921
830.224046	2928.418872
830.541088	2894.312946
830.858086	2878.503887
831.175041	2860.854808
831.491952	2860.199458
831.808819	2872.303268
832.125642	2896.863770
832.442421	2943.466716
832.759157	3027.653986
833.075849	3208.606203
833.392497	3492.014831
833.709101	3697.396480
834.025662	3649.462668
834.342179	3485.020230
834.658653	3307.193528
834.975083	3157.488903
835.291469	3057.777400
835.607811	2970.693988
835.924110	2913.716347
836.240366	2861.177442
836.556578	2815.638178
836.872746	2795.534057
837.188871	2772.130500
837.504952	2754.788931
837.820990	2748.220307
838.136984	2731.939901
838.452935	2723.957234
838.768842	2724.577296
839.084706	2740.920717
839.400526	2821.974909
839.716303	2953.196143
840.032037	3038.920964
840.347727	3022.585105
840.663373	2961.592185
840.978977	2883.955895
841.294537	2810.430666
841.610054	2764.369644
841.925527	2741.724781
842.240957	2721.592933
842.556344	2698.920343
842.871687	2682.879392
843.186987	2673.001251
843.502244	2666.694767
843.817458	2663.375167
844.132629	2649.872437
844.447756	2641.375572
844.762840	2635.573204
845.077881	2640.004378
845.392879	2637.526651
845.707833	2631.073974
846.022745	2622.057871
846.337613	2627.109107
846.652438	2626.438633
846.967221	2626.171452
847.281960	2624.160032
847.596656	2622.803961
847.911309	2625.190948
848.225919	2618.624845
848.540485	2615.227107
848.855009	2615.688373
849.169490	2615.947992
849.483928	2612.265429
849.798323	2614.841459
850.112675	2615.370780
850.426984	2613.235851
850.741251	2612.653598
851.055474	2613.929010
851.369654	2618.413116
851.683792	2617.518312
851.997887	2615.569906
852.311938	2611.486571
852.625947	2613.760131
852.939914	2615.915225
853.253837	2615.721140
853.567718	2611.844493
853.881555	2616.237858
854.195350	2615.290122
854.509103	2612.492281
854.822812	2611.300048
855.136479	2611.544544
855.450103	2614.468413
855.763685	2615.582508
856.077224	2613.147631
856.390720	2611.647888
856.704173	2613.066973
857.017584	2617.243569
857.330953	2618.347581
857.644278	2621.319342
857.957561	2620.926132
858.270802	2618.380349
858.584000	2614.165944
858.897155	2619.985956
859.210268	2621.762963
859.523339	2618.413116
859.836367	2611.511777
860.149352	2613.868516
860.462295	2612.956067
860.775195	2608.706375
861.088054	2608.471961
861.400869	2610.564040
861.713642	2604.459202
862.026373	2608.212342
862.339062	2609.528083
862.651708	2616.104268
862.964312	2616.126953
863.276873	2615.569906
863.589392	2616.167282
863.901869	2623.050978
864.214303	2625.352265
864.526696	2629.107924
864.839045	2632.669499
865.151353	2635.588327
865.463619	2634.184366
865.775842	2634.479274
866.088023	2634.002885
866.400162	2636.243677
866.712258	2634.375930
867.024313	2631.699077
867.336325	2629.463326
867.648296	2633.874335
867.960224	2641.047897
868.272110	2636.702422
868.583954	2625.974847
868.895755	2631.454581
869.207515	2633.995323
869.519233	2640.611837
869.830909	2639.749800
870.142542	2634.680920
870.454134	2636.082361
870.765684	2641.899852
871.077191	2640.463123
871.388657	2643.570995
871.700081	2643.989410
872.011463	2642.998824
872.322803	2643.812970
872.634101	2648.531490
872.945357	2658.369302
873.256571	2662.074550
873.567744	2657.673622
873.878874	2659.264107
874.189963	2657.318221
874.501010	2662.094714
874.812015	2667.145951
875.122979	2667.970179
875.433900	2656.778818
875.744780	2657.610608
876.055618	2665.736948
876.366415	2668.134017
876.677169	2669.974038
876.987882	2663.080260
877.298554	2662.281237
877.609183	2675.494101
877.919771	2678.914524
878.230317	2684.290915
878.540822	2697.806248
878.851285	2713.335523
879.161707	2735.360324
879.472087	2775.926489
879.782425	2822.925166
880.092722	2940.285748
880.402977	3132.257928
880.713191	3399.912950
881.023363	3703.546688
881.333494	3894.230852
881.643583	4075.790529
881.953631	4071.936567
882.263637	3890.820512
882.573602	3663.933301
882.883526	3531.378681
883.193408	3414.905342
883.503248	3310.382058
883.813048	3190.873944
884.122806	3075.844896
884.432522	2989.489930
884.742197	2922.099786
885.051831	2881.392468
885.361424	2847.369721
885.670975	2810.987714
885.980485	2780.607200
886.289954	2761.163470
886.599382	2746.158475
886.908768	2736.068606
887.218113	2714.462221
887.527417	2704.793287
887.836680	2693.135619
888.145901	2687.154290
888.455082	2679.610203
888.764221	2670.851199
889.073319	2661.429282
889.382376	2659.359888
889.691392	2664.511948
890.000366	2663.786022
890.309300	2659.541370
890.618193	2662.218223
890.927044	2665.169818
891.235855	2665.351300
891.544625	2663.720487
891.853353	2662.893737
892.162041	2671.433452
892.470687	2691.955989
892.779293	2704.354707
893.087858	2714.300904
893.396381	2736.514748
893.704864	2779.137704
894.013306	2855.143180
894.321707	2947.066100
894.630068	2999.872187
894.938387	3020.588808
895.246665	3010.398116
895.554903	2964.755509
895.863100	2923.370157
896.171256	2863.294726
896.479371	2802.858853
896.787446	2760.850918
897.095480	2741.172774
897.403473	2738.813514
897.711425	2718.540514
898.019336	2702.101311
898.327207	2686.415761
898.635038	2685.989784
898.942827	2679.708506
899.250576	2674.180881
899.558284	2660.930208
899.865952	2656.982984
900.173579	2654.666574
900.481165	2652.839156
900.788711	2643.296252
901.096216	2637.367855
901.403681	2633.778553
901.711105	2632.868625
902.018489	2630.796711
902.325832	2638.837351
902.633135	2636.916672
902.940397	2654.613642
903.247619	2691.698890
903.554800	2762.267482
903.861941	2894.766650
904.169041	3024.704911
904.476101	3089.551793
904.783121	3083.071390
905.090100	3026.723893
905.397039	2946.957715
905.703938	2870.523741
906.010796	2806.304482
906.317614	2752.187695
906.624391	2712.150852
906.931129	2685.135308
907.237826	2662.676968
907.544483	2646.066366
907.851099	2629.725466
908.157675	2622.403190
908.464211	2613.906325
908.770707	2602.815786
909.077163	2597.870414
909.383578	2594.389498
909.689954	2590.918663
909.996289	2591.062336
910.302584	2591.206009
910.608839	2589.234918
910.915054	2587.858683
911.221229	2589.522264
911.527363	2592.874631
911.833458	2591.770618
912.139513	2592.015114
912.445527	2596.055599
912.751502	2600.176742
913.057436	2603.367793
913.363331	2610.385079
913.669186	2621.657099
913.975000	2636.604120
914.280775	2655.044661
914.586510	2671.612413
914.892205	2712.710420
915.197859	2781.675925
915.503475	2867.282279
915.809050	2936.832558
916.114585	2954.340485
916.420081	2967.460088
916.725536	2975.987200
917.030952	2950.368056
917.336328	2901.158833
917.641665	2854.374404
917.946961	2798.626805
918.252218	2763.530292
918.557435	2736.368555
918.862612	2713.932899
919.167750	2694.466484
919.472848	2679.214473
919.777906	2660.317708
920.082925	2649.254896
920.387904	2637.229223
920.692843	2629.919550
920.997743	2626.915022
921.302603	2618.856738
921.607423	2613.888681
921.912204	2606.163112
922.216946	2603.128338
922.521647	2603.637494
922.826310	2597.031062
923.130932	2593.164497
923.435516	2588.824064
923.740059	2586.242993
924.044564	2584.060173
924.349028	2581.529514
924.653454	2572.357135
924.957840	2575.016343
925.262186	2569.624829
925.566493	2572.256312
925.870761	2564.626525
926.174989	2569.332442
926.479178	2564.124931
926.783328	2563.615774
927.087438	2565.475960
927.391509	2558.950186
927.695541	2560.560835
927.999533	2560.399518
928.303486	2558.309960
928.607400	2558.443550
928.911275	2555.824671
929.215110	2557.894064
929.518906	2556.643858
929.822663	2556.049002
930.126381	2554.536656
930.430060	2555.829712
930.733699	2557.861297
931.037299	2554.055226
931.340861	2559.189641
931.644383	2558.007490
931.947866	2561.483366
932.251309	2558.960268
932.554714	2555.643189
932.858080	2559.550083
933.161407	2559.035886
933.464694	2556.018755
933.767943	2556.444733
934.071153	2554.324928
934.374323	2550.970040
934.677455	2554.685370
934.980548	2550.617159
935.283602	2553.541028
935.586617	2552.873075
935.889593	2553.926676
936.192530	2553.687222
936.495428	2554.849207
936.798287	2554.665205
937.101108	2555.323076
937.403890	2557.137891
937.706632	2562.723490
938.009336	2565.506207
938.312002	2567.399160
938.614628	2572.457958
938.917216	2574.983576
939.219765	2579.240830
939.522275	2579.933989
939.824747	2579.250913
940.127179	2570.507031
940.429573	2566.587534
940.731929	2569.836558
941.034246	2568.218348
941.336524	2567.908317
941.638763	2569.040056
941.940964	2567.983934
942.243126	2563.746844
942.545250	2565.541495
942.847335	2562.378171
943.149381	2559.086297
943.451389	2561.216185
943.753359	2560.984292
944.055290	2558.904816
944.357182	2558.882131
944.659036	2558.733417
944.960851	2555.106306
945.262628	2556.938766
945.564367	2557.110165
945.866067	2559.711400
946.167729	2555.728889
946.469352	2559.860114
946.770937	2557.505896
947.072484	2557.137891
947.373992	2558.090669
947.675462	2556.560679
947.976893	2558.441030
948.278286	2554.428271
948.579641	2554.748384
948.880958	2554.496327
949.182236	2553.702345
949.483476	2553.903991
949.784678	2554.677808
950.085841	2554.060267
950.386967	2555.378529
950.688054	2552.487427
950.989103	2556.217881
951.290114	2558.322562
951.591087	2555.912891
951.892021	2556.447253
952.192917	2560.598643
952.493776	2560.439847
952.794596	2562.257183
953.095378	2562.925136
953.396122	2566.458985
953.696828	2559.315670
953.997496	2561.289282
954.298126	2557.788200
954.598718	2556.028837
954.899272	2555.983467
955.199788	2553.306614
955.500266	2552.847869
955.800706	2549.805533
956.101108	2545.240768
956.401472	2546.826211
956.701798	2546.080120
957.002087	2545.412167
957.302337	2546.329658
957.602550	2545.243289
957.902724	2545.702034
958.202861	2543.551982
958.502960	2542.064841
958.803022	2541.374203
959.103045	2542.349667
959.403031	2544.035932
959.702979	2540.880170
960.002889	2542.248843
960.302762	2541.212886
960.602596	2540.754141
960.902393	2541.795140
961.202153	2538.377237
961.501875	2542.251364
961.801559	2540.343287
962.101205	2538.306661
962.400814	2535.929757
962.700385	2537.661393
962.999918	2540.169367
963.299414	2538.745242
963.598873	2537.550488
963.898293	2538.062165
964.197677	2540.917979
964.497022	2538.248688
964.796331	2536.174253
965.095601	2539.544264
965.394835	2540.497043
965.694030	2537.593338
965.993189	2538.205838
966.292309	2538.654501
966.591393	2538.367155
966.890439	2540.857485
967.189447	2537.479912
967.488419	2538.271373
967.787353	2535.995292
968.086249	2538.089892
968.385108	2536.975797
968.683930	2539.057793
968.982714	2538.795653
969.281462	2535.967566
969.580172	2539.231713
969.878844	2538.969573
970.177480	2536.416228
970.476078	2538.215920
970.774639	2538.367155
971.073162	2537.058976
971.371649	2536.418749
971.670098	2532.658048
971.968510	2539.193904
972.266885	2533.862884
972.565223	2538.979655
972.863524	2536.837165
973.161788	2537.603420
973.460014	2537.414377
973.758204	2539.188863
974.056356	2538.503266
974.354471	2538.394881
974.652550	2539.682896
974.950591	2539.037628
975.248595	2539.816487
975.546563	2536.935467
975.844493	2538.780530
976.142386	2539.327495
976.440243	2538.127700
976.738062	2539.854295
977.035845	2537.724408
977.333590	2538.848585
977.631299	2535.304654
977.928971	2536.822041
978.226606	2537.704243
978.524204	2537.104346
978.821765	2534.924047
979.119290	2536.290200
979.416777	2535.844057
979.714228	2534.823224
980.011642	2536.756506
980.309020	2537.522762
980.606360	2537.512679
980.903664	2539.882022
981.200931	2538.563760
981.498162	2540.454193
981.795356	2538.362114
982.092513	2543.856972
982.389633	2548.479710
982.686717	2551.272509
982.983764	2552.242931
983.280775	2554.982798
983.577749	2553.974567
983.874686	2552.094217
984.171587	2549.223280
984.468451	2543.977959
984.765279	2545.197918
985.062070	2542.601724
985.358824	2541.762372
985.655543	2540.471837
985.952224	2536.759027
986.248869	2536.920344
986.545478	2530.979344
986.842050	2536.159130
987.138586	2533.444468
987.435086	2531.773326
987.731549	2531.110414
988.027975	2536.741383
988.324366	2534.845909
988.620719	2536.864891
988.917037	2534.354397
989.213318	2535.266845
989.509563	2533.565456
989.805772	2535.917154
990.101944	2532.932791
990.398080	2531.317101
990.694180	2529.119158
990.990244	2534.142668
991.286271	2535.216434
991.582262	2534.220806
991.878217	2532.955476
992.174136	2531.337266
992.470019	2534.213244
992.765865	2532.123686
993.061676	2534.208203
993.357450	2534.278779
993.653188	2538.430169
993.948890	2533.429345
994.244556	2537.391692
994.540186	2535.755837
994.835780	2535.082843
995.131337	2535.697864
995.426859	2538.157947
995.722345	2538.273894
996.017795	2537.593338
996.313208	2537.686599
996.608586	2539.622402
996.903928	2539.929913
997.199234	2536.927906
997.494504	2537.666435
997.789738	2537.704243
998.084936	2538.346990
998.380099	2533.983872
998.675225	2537.679037
998.970316	2536.726259
999.265371	2536.012936
999.560390	2535.783564
999.855373	2535.942360
1000.150320	2533.996475
1000.445232	2531.680064
1000.740108	2532.920188
1001.034948	2530.777698
1001.329752	2532.710980
1001.624521	2533.850281
1001.919254	2527.601771
1002.213951	2534.571166
1002.508613	2530.039169
1002.803239	2530.439941
1003.097829	2526.608664
1003.392384	2535.471012
1003.686903	2531.609488
1003.981386	2532.605116
1004.275834	2532.965559
1004.570246	2534.548481
1004.864623	2532.547143
1005.158964	2532.710980
1005.453270	2532.325332
1005.747540	2530.490352
1006.041775	2529.958510
1006.335974	2534.578728
1006.630138	2529.691329
1006.924266	2530.694519
1007.218359	2530.480270
1007.512416	2531.811134
1007.806438	2530.354241
1008.100425	2531.433048
1008.394376	2528.667975
1008.688292	2532.277441
1008.982172	2530.029087
1009.276017	2532.675692
1009.569827	2532.884900
1009.863602	2530.414735
1010.157341	2530.387008
1010.451045	2530.031607
1010.744714	2530.578572
1011.038347	2533.845240
1011.331945	2530.253418
1011.625508	2531.569159
1011.919036	2528.642769
1012.212528	2530.916330
1012.505986	2531.667462
1012.799408	2533.502442
1013.092795	2531.785929
1013.386147	2530.462626
1013.679464	2530.442461
1013.972745	2530.490352
1014.265992	2532.405991
1014.559204	2530.981865
1014.852380	2529.991278
1015.145521	2531.377595
1015.438628	2530.581093
1015.731699	2533.220137
1016.024736	2530.389529
1016.317737	2534.795498
1016.610703	2531.894313
1016.903635	2530.815507
1017.196531	2528.816689
1017.489393	2529.066226
1017.782219	2526.414579
1018.075011	2529.658562
1018.367768	2534.651825
1018.660490	2530.903727
1018.953177	2530.903727
1019.245829	2530.903727
