Dividing Wavelength (nm)	Counts (n)	Blue Motor Position (mm): 5.700000	Red Motor Position (mm): 0.000000	
326.493990	2142.702113
326.888308	2142.702113
327.282561	2142.702113
327.676750	2110.506784
328.070874	2110.733636
328.464933	2111.406630
328.858929	2116.478031
329.252859	2125.531943
329.646726	2138.825466
330.040528	2150.697383
330.434265	2170.889725
330.827938	2185.967816
331.221547	2204.862061
331.615091	2223.095914
332.008571	2242.264902
332.401986	2264.138468
332.795338	2280.764193
333.188625	2302.476443
333.581847	2316.001859
333.975006	2338.770230
334.368100	2356.280678
334.761129	2374.199459
335.154095	2390.046327
335.546996	2407.624830
335.939833	2422.423137
336.332606	2437.234047
336.725315	2449.254678
337.117960	2461.187090
337.510540	2466.351752
337.903056	2480.179637
338.295508	2485.092241
338.687896	2495.139261
339.080220	2503.222751
339.472480	2509.378000
339.864676	2512.740449
340.256807	2520.587005
340.648875	2519.041892
341.040879	2521.189423
341.432818	2523.699918
341.824694	2527.508510
342.216506	2525.497089
342.608253	2524.763601
342.999937	2527.316946
343.391557	2527.324508
343.783113	2526.190248
344.174605	2524.443488
344.566033	2525.592871
344.957397	2519.893847
345.348697	2521.348220
345.739934	2518.653723
346.131106	2516.438136
346.522215	2513.562157
346.913260	2511.523011
347.304241	2515.079545
347.695159	2509.138545
348.086012	2506.444048
348.476802	2504.709891
348.867528	2506.096209
349.258191	2502.408605
349.648789	2501.591938
350.039324	2498.262256
350.429796	2502.582524
350.820203	2498.292503
351.210548	2498.108500
351.600828	2494.635145
351.991045	2495.126658
352.381198	2493.072388
352.771288	2497.019611
353.161314	2496.664210
353.551276	2491.837305
353.941175	2493.682367
354.331010	2491.895278
354.720782	2494.466267
355.110490	2494.012563
355.500135	2494.758654
355.889717	2492.722028
356.279235	2497.027173
356.668689	2494.148674
357.058080	2494.589775
357.447408	2492.359064
357.836672	2491.607933
358.225873	2493.352172
358.615010	2490.955103
359.004084	2497.511124
359.393095	2496.437358
359.782043	2501.780981
360.170927	2498.347955
360.559748	2500.714777
360.948505	2499.913233
361.337199	2501.355003
361.725830	2498.617657
362.114398	2501.496156
362.502903	2500.351814
362.891344	2498.602533
363.279722	2503.570591
363.668037	2500.762668
364.056289	2502.665703
364.444478	2502.302740
364.832603	2501.254180
365.220665	2504.742659
365.608665	2504.593945
365.996601	2505.387927
366.384474	2507.157372
366.772284	2505.229130
367.160031	2503.560508
367.547715	2506.612927
367.935336	2504.233502
368.322893	2508.803308
368.710388	2507.177536
369.097820	2508.531086
369.485189	2507.598473
369.872495	2507.406909
370.259738	2506.194511
370.646918	2509.491426
371.034035	2506.537310
371.421090	2506.965808
371.808081	2509.383041
372.195010	2510.386231
372.581875	2509.909842
372.968678	2508.793226
373.355418	2508.858761
373.742096	2508.135355
374.128710	2509.473782
374.515262	2507.853051
374.901751	2511.462517
375.288177	2510.701303
375.674540	2510.764317
376.060841	2510.338340
376.447079	2510.038391
376.833254	2511.885974
377.219367	2507.853051
377.605417	2512.422857
377.991404	2507.661487
378.377329	2509.554440
378.763191	2509.383041
379.148991	2514.661129
379.534727	2514.862775
379.920402	2515.439987
380.306013	2513.657939
380.691563	2514.323372
381.077049	2514.381345
381.462474	2516.080214
381.847835	2516.554082
382.233134	2517.637930
382.618371	2515.505522
383.003545	2511.339009
383.388657	2514.416633
383.773706	2518.003414
384.158693	2516.995183
384.543618	2516.392765
384.928480	2516.264216
385.313280	2518.073990
385.698017	2515.969308
386.082692	2516.039885
386.467305	2518.661285
386.851856	2515.629031
387.236344	2519.130112
387.620770	2519.228414
388.005133	2517.506860
388.389435	2518.235307
388.773674	2522.084228
389.157851	2518.051305
389.541965	2519.190606
389.926018	2517.307735
390.310008	2517.655574
390.693936	2516.090296
391.077802	2520.682787
391.461606	2522.434588
391.845348	2518.409227
392.229027	2524.224198
392.612645	2522.694208
392.996200	2519.059536
393.379694	2520.753363
393.763125	2520.939886
394.146494	2520.773528
394.529801	2523.326873
394.913047	2523.352078
395.296230	2521.930473
395.679351	2523.924249
396.062410	2522.106913
396.445408	2523.830988
396.828343	2526.336441
397.211217	2518.426871
397.594028	2518.943589
397.976778	2520.317304
398.359466	2522.021214
398.742092	2517.655574
399.124656	2525.018180
399.507158	2523.710000
399.889598	2523.410052
400.271977	2522.205216
400.654294	2526.613705
401.036549	2523.231091
401.418742	2525.436595
401.800874	2524.884589
402.182944	2526.071781
402.564952	2524.715710
402.946898	2525.731503
403.328783	2524.803931
403.710606	2524.803931
404.092367	2525.015659
404.474067	2526.948942
404.855705	2528.063037
405.237282	2523.972140
405.618797	2523.984743
406.000250	2526.356606
406.381642	2525.355937
406.762972	2527.039682
407.144240	2526.800228
407.525447	2529.582944
407.906593	2527.866432
408.287677	2528.247039
408.668700	2526.913653
409.049661	2529.398942
409.430560	2526.170083
409.811399	2528.310053
410.192176	2528.405835
410.572891	2528.504137
410.953545	2529.202337
411.334138	2528.879703
411.714669	2529.204858
412.095139	2530.066895
412.475547	2526.212933
412.855894	2527.455577
413.236180	2528.791483
413.616405	2527.382481
413.996568	2528.521782
414.376670	2529.048582
414.756711	2528.967924
415.136691	2531.561597
415.516609	2531.465815
415.896466	2533.041176
416.276262	2533.320960
416.655997	2527.069929
417.035670	2527.697553
417.415283	2530.407173
417.794834	2528.390712
418.174324	2529.585465
418.553753	2530.235774
418.933121	2530.523120
419.312428	2532.181659
419.691674	2533.194931
420.070859	2532.892462
420.449983	2533.474715
420.829045	2531.727955
421.208047	2533.567977
421.586988	2529.167049
421.965867	2531.470857
422.344686	2532.340456
422.723444	2531.990095
423.102141	2529.683768
423.480777	2533.517565
423.859352	2533.283151
424.237866	2535.055117
424.616319	2532.428676
424.994712	2532.252235
425.373044	2533.089067
425.751314	2533.860363
426.129524	2532.121165
426.507673	2532.884900
426.885762	2534.843388
427.263789	2535.155940
427.641756	2532.327853
428.019662	2535.821372
428.397508	2535.796167
428.775292	2533.605785
429.153016	2533.588141
429.530679	2536.078471
429.908282	2534.921526
430.285824	2534.510672
430.663305	2536.201979
431.040726	2535.130734
431.418086	2536.837165
431.795385	2536.670807
432.172624	2534.422452
432.549802	2534.104859
432.926920	2535.876825
433.303977	2534.407329
433.680974	2533.467153
434.057910	2535.841537
434.434786	2537.303472
434.811601	2539.771116
435.188355	2536.204500
435.565050	2536.396064
435.941683	2536.267514
436.318257	2536.491846
436.694770	2532.837009
437.071222	2534.019160
437.447614	2529.746782
437.823946	2531.732997
438.200218	2537.031249
438.576429	2538.553678
438.952580	2538.072247
439.328670	2537.784902
439.704700	2537.174922
440.080670	2537.787422
440.456580	2537.230375
440.832429	2538.306661
441.208218	2539.251877
441.583947	2539.309851
441.959616	2540.043339
442.335224	2536.753986
442.710773	2538.546116
443.086261	2539.025026
443.461689	2537.913451
443.837057	2539.970242
444.212365	2539.173740
444.587612	2541.512835
444.962800	2539.183822
445.337927	2539.849254
445.712995	2538.619213
446.088002	2539.017464
446.462949	2539.922351
446.837837	2540.812115
447.212664	2539.307330
447.587431	2539.498894
447.962139	2538.026877
448.336786	2541.948895
448.711374	2540.585263
449.085901	2541.606096
449.460369	2540.744059
449.834776	2539.362783
450.209124	2541.500232
450.583412	2540.542413
450.957640	2539.433359
451.331808	2538.604089
451.705917	2540.943185
452.079965	2543.163813
452.453954	2541.656508
452.827883	2540.837320
453.201752	2539.037628
453.575562	2539.541744
453.949311	2540.736497
454.323001	2543.695655
454.696632	2542.145500
455.070202	2539.365303
455.443713	2540.799512
455.817164	2539.067875
456.190556	2538.283976
456.563888	2538.402443
456.937160	2537.038811
457.310373	2542.107691
457.683526	2541.699358
458.056619	2543.022661
458.429653	2540.640715
458.802628	2541.986703
459.175542	2541.038967
459.548398	2540.174409
459.921194	2540.643236
460.293930	2539.582073
460.666607	2542.609286
461.039224	2542.773123
461.411782	2542.342105
461.784280	2544.298073
462.156719	2541.447300
462.529099	2544.154400
462.901419	2542.211035
463.273680	2543.302445
463.645882	2544.575336
464.018024	2543.753628
464.390106	2542.352187
464.762130	2545.578526
465.134094	2543.143648
465.505999	2542.568957
465.877845	2540.822197
466.249631	2545.485264
466.621358	2541.336395
466.993026	2543.327650
467.364634	2548.825029
467.736184	2543.068031
468.107674	2543.068031
468.479105	2544.638350
468.850477	2543.483926
469.221790	2543.985521
469.593043	2543.506611
469.964238	2545.208001
470.335373	2543.781354
470.706449	2547.126160
471.077467	2545.364277
471.448425	2545.404606
471.819324	2544.721529
472.190164	2544.335881
472.560945	2542.926879
472.931667	2546.821170
473.302330	2544.683721
473.672934	2546.100285
474.043479	2546.133053
474.413965	2545.452497
474.784393	2539.433359
475.154761	2542.798329
475.525070	2541.056611
475.895321	2540.733977
476.265513	2539.720705
476.635645	2543.627599
477.005719	2543.894780
477.375734	2544.441745
477.745691	2543.541899
478.115588	2545.576005
478.485427	2545.442414
478.855207	2545.762528
479.224928	2542.793288
479.594591	2546.755635
479.964194	2546.548948
480.333739	2547.975594
480.703226	2544.499719
481.072653	2548.134391
481.442022	2547.133722
481.811333	2545.785213
482.180584	2545.059287
482.549777	2547.085831
482.918912	2546.717826
483.287988	2547.579864
483.657005	2544.603062
484.025964	2547.441232
484.394864	2545.260933
484.763706	2546.412837
485.132489	2546.155738
485.501213	2548.215049
485.869879	2546.332178
486.238487	2543.380582
486.607036	2547.438711
486.975527	2548.386448
487.343959	2544.920655
487.712333	2546.304452
488.080648	2548.237734
488.448905	2546.019627
488.817104	2545.180274
489.185244	2548.537683
489.553326	2546.488454
489.921350	2547.148845
490.289315	2546.518701
490.657222	2546.243958
491.025070	2549.180430
491.392861	2548.449463
491.760593	2545.870913
492.128267	2549.707231
492.495883	2546.503577
492.863440	2547.950388
493.230939	2546.140614
493.598380	2551.443908
493.965763	2542.954605
494.333088	2543.854451
494.700354	2544.340922
495.067563	2544.565254
495.434713	2542.851261
495.801805	2549.059442
496.168839	2547.307641
496.535815	2546.962322
496.902733	2548.600697
497.269593	2550.347457
497.636395	2549.165307
498.003139	2546.707744
498.369825	2547.000131
498.736453	2548.159596
499.103023	2546.080120
499.469535	2549.341747
499.835989	2544.285470
500.202385	2549.455173
500.568723	2550.128167
500.935003	2548.774617
501.301226	2546.712785
501.667390	2545.737322
502.033497	2547.531973
502.399546	2548.804864
502.765537	2548.641027
503.131470	2547.700851
503.497345	2547.300080
503.863163	2549.860986
504.228923	2548.570450
504.594625	2549.450132
504.960269	2548.036088
505.325856	2547.395862
505.691385	2548.641027
506.056856	2546.067517
506.422270	2549.457693
506.787625	2550.614638
507.152924	2546.067517
507.518164	2548.633465
507.883347	2548.688917
508.248472	2547.373176
508.613540	2548.691438
508.978550	2549.394679
509.343503	2548.383928
509.708398	2550.531459
510.073236	2549.823177
510.438016	2548.958619
510.802738	2549.341747
511.167403	2550.281922
511.532010	2547.660522
511.896561	2549.775286
512.261053	2547.766386
512.625488	2544.716488
512.989866	2543.942671
513.354186	2546.019627
513.718449	2545.492826
514.082655	2546.122970
514.446803	2548.620862
514.810894	2551.451470
515.174927	2552.048847
515.538904	2550.115564
515.902822	2549.371994
516.266684	2548.202446
516.630488	2549.253527
516.994235	2549.866027
517.357925	2551.169165
517.721558	2550.944834
518.085133	2550.415513
518.448651	2550.884340
518.812112	2548.116747
519.175516	2549.462735
519.538863	2548.391489
519.902152	2548.721685
520.265385	2550.228990
520.628560	2549.291335
520.991678	2549.251006
521.354739	2549.561037
521.717743	2546.337219
522.080690	2551.320400
522.443580	2550.496171
522.806413	2547.784030
523.169189	2549.127498
523.531908	2549.828218
523.894569	2549.490461
524.257174	2551.781665
524.619722	2547.138763
524.982213	2551.539690
525.344647	2550.090358
525.707025	2550.317210
526.069345	2548.948537
526.431608	2549.606408
526.793815	2547.925183
527.155964	2550.380225
527.518057	2550.428116
527.880093	2551.418702
528.242072	2551.191850
528.603995	2553.034392
528.965860	2551.408620
529.327669	2551.234700
529.689421	2549.825698
530.051117	2552.626059
530.412755	2549.571119
530.774337	2548.252858
531.135862	2549.346788
531.497331	2549.969371
531.858743	2547.927703
532.220098	2544.141797
532.581396	2547.988197
532.942638	2547.247147
533.303824	2547.978115
533.664953	2550.271840
534.026025	2550.415513
534.387040	2552.462221
534.747999	2549.949206
535.108902	2551.569937
535.469748	2551.519525
535.830537	2550.954916
536.191270	2549.452652
536.551947	2549.402241
536.912567	2549.866027
537.273131	2551.910215
537.633638	2552.540359
537.994089	2551.985832
538.354483	2548.671273
538.714821	2553.581357
539.075103	2550.831408
539.435328	2549.215718
539.795497	2550.382745
540.155609	2552.999104
540.515665	2551.161603
540.875665	2550.254196
541.235609	2549.755122
541.595496	2552.552962
541.955328	2552.182437
542.315102	2552.439536
542.674821	2552.563044
543.034483	2552.119423
543.394090	2551.423743
543.753640	2549.591284
544.113134	2548.187323
544.472571	2550.632282
544.831953	2549.392158
545.191278	2552.137067
545.550548	2552.207643
545.909761	2550.327292
546.268918	2552.852911
546.628019	2553.629248
546.987064	2551.459032
547.346053	2550.944834
547.704986	2549.334185
548.063863	2550.939793
548.422684	2549.871068
548.781449	2550.493651
549.140158	2553.624207
549.498811	2554.075390
549.857408	2552.888199
550.215949	2549.147662
550.574434	2543.362938
550.932864	2548.235214
551.291237	2549.702189
551.649555	2549.772766
552.007817	2550.470965
552.366022	2550.904505
552.724173	2552.247972
553.082267	2552.550441
553.440305	2553.125133
553.798288	2552.247972
554.156215	2547.133722
554.514086	2553.490617
554.871902	2551.229659
555.229661	2552.182437
555.587365	2550.571788
555.945014	2553.021789
556.302606	2549.926521
556.660143	2551.307797
557.017625	2550.977601
557.375050	2548.923331
557.732421	2550.793599
558.089735	2554.700493
558.446994	2552.875596
558.804197	2552.734443
559.161345	2550.667570
559.518437	2550.342416
559.875474	2550.675132
560.232455	2550.982642
560.589381	2553.021789
560.946251	2555.202088
561.303065	2551.269988
561.659825	2551.635472
562.016528	2553.316697
562.373177	2549.792930
562.729770	2552.426933
563.086307	2549.803012
563.442789	2553.162942
563.799216	2553.397355
564.155587	2551.264947
564.511904	2551.000287
564.868164	2551.033054
565.224370	2551.655637
565.580520	2551.297715
565.936615	2551.753939
566.292654	2553.137736
566.648638	2553.152859
567.004567	2552.719320
567.360441	2551.073383
567.716260	2552.071532
568.072023	2551.501881
568.427732	2546.798485
568.783385	2548.308310
569.138982	2545.258412
569.494525	2548.182282
569.850013	2545.192877
570.205445	2550.586912
570.560823	2550.924669
570.916145	2554.120761
571.271412	2551.138918
571.626625	2552.555483
571.981782	2553.435164
572.336884	2550.390307
572.691931	2548.756973
573.046923	2551.426264
573.401860	2547.355532
573.756743	2554.766028
574.111570	2550.637323
574.466342	2554.362736
574.821059	2553.346944
575.175722	2551.517005
575.530330	2550.816284
575.884882	2549.999617
576.239380	2551.474155
576.593823	2551.436346
576.948211	2551.824515
577.302544	2550.236552
577.656823	2551.418702
578.011047	2552.956254
578.365216	2552.033723
578.719330	2554.463559
579.073389	2551.643034
579.427394	2551.552293
579.781344	2552.033723
580.135239	2551.577499
580.489080	2553.175544
580.842866	2553.558672
581.196597	2556.873231
581.550273	2552.578168
581.903895	2553.997252
582.257463	2551.474155
582.610975	2551.285112
582.964434	2554.713096
583.317837	2550.710420
583.671186	2553.132695
584.024481	2552.676470
584.377721	2550.526418
584.730906	2552.300904
585.084037	2553.291491
585.437113	2552.323589
585.790135	2552.081614
586.143103	2554.279557
586.496016	2554.629917
586.848874	2545.760007
587.201679	2549.092210
587.554428	2549.981973
587.907124	2548.988866
588.259765	2549.165307
588.612352	2550.710420
588.964884	2552.379042
589.317362	2552.565565
589.669786	2551.665719
590.022155	2550.929710
590.374470	2552.116902
590.726731	2550.743188
591.078937	2553.926676
591.431090	2553.115051
591.783188	2553.737633
592.135232	2554.103117
592.487222	2549.795451
592.839157	2553.117571
593.191038	2552.086655
593.542866	2551.572457
593.894639	2550.279402
594.246358	2548.940975
594.598022	2551.222097
594.949633	2553.228477
595.301190	2553.556152
595.652692	2550.866696
596.004141	2550.750749
596.355535	2554.894578
596.706876	2552.666388
597.058162	2553.780483
597.409395	2551.688404
597.760573	2553.452808
598.111698	2552.618497
598.462768	2550.879299
598.813785	2551.199412
599.164748	2551.796789
599.515657	2552.033723
599.866511	2552.946172
600.217312	2550.564227
600.568060	2553.712427
600.918753	2553.127653
601.269392	2551.728733
601.619978	2552.053888
601.970510	2554.453477
602.320988	2554.773590
602.671412	2553.198230
603.021783	2552.721841
603.372100	2552.797458
603.722363	2552.126984
604.072572	2554.556821
604.422728	2552.920966
604.772830	2548.928372
605.122878	2548.968702
605.472872	2549.291335
605.822813	2546.490974
606.172701	2550.710420
606.522534	2551.343085
606.872314	2552.326110
607.222041	2550.133208
607.571714	2553.891388
607.921333	2554.763508
608.270899	2552.331151
608.620411	2552.749567
608.969870	2554.846687
609.319276	2555.260062
609.668627	2555.476831
610.017926	2556.948848
610.367171	2559.237532
610.716362	2558.544373
611.065500	2557.034548
611.414585	2556.109496
611.763616	2555.769218
612.112594	2555.766697
612.461518	2553.024310
612.810389	2553.467931
613.159207	2551.569937
613.507971	2553.573796
613.856682	2552.968857
614.205340	2553.530946
614.553945	2553.750236
614.902496	2551.965668
615.250994	2554.713096
615.599439	2551.385935
615.947830	2550.370142
616.296169	2553.972047
616.644454	2555.030689
616.992686	2550.612118
617.340864	2552.381563
617.688990	2553.414999
618.037063	2552.941131
618.385082	2551.602704
618.733048	2551.272509
619.080961	2551.673281
619.428821	2552.943651
619.776628	2555.454146
620.124382	2556.086811
620.472083	2548.759494
620.819731	2553.357026
621.167326	2549.891233
621.514868	2551.257385
621.862357	2550.113043
622.209793	2552.905843
622.557176	2553.964485
622.904506	2550.271840
623.251783	2547.264792
623.599007	2548.547765
623.946179	2547.773948
624.293297	2548.867878
624.640363	2551.640513
624.987376	2551.305276
625.334336	2551.517005
625.681243	2553.268806
626.028097	2550.876778
626.374899	2554.307283
626.721647	2551.396017
627.068343	2551.771583
627.414987	2551.501881
627.761577	2547.332847
628.108115	2553.006666
628.454600	2553.646892
628.801032	2552.321069
629.147412	2552.721841
629.493739	2553.346944
629.840014	2552.472303
630.186236	2551.771583
630.532405	2555.590257
630.878521	2551.590102
631.224585	2551.194371
631.570597	2551.637993
631.916556	2553.914073
632.262462	2551.547252
632.608316	2552.323589
632.954117	2552.303425
633.299866	2550.052550
633.645562	2552.316028
633.991206	2552.253013
634.336797	2551.557334
634.682336	2552.101779
635.027823	2550.433157
635.373257	2551.716130
635.718639	2552.215205
636.063968	2554.093034
636.409245	2554.808878
636.754470	2552.046326
637.099642	2552.862993
637.444762	2553.339382
637.789829	2554.476162
638.134845	2550.566747
638.479808	2551.388455
638.824719	2552.873075
639.169577	2550.566747
639.514383	2550.576830
639.859137	2551.196892
640.203839	2555.340720
640.548489	2553.044474
640.893086	2550.433157
641.237632	2548.341078
641.582125	2548.701520
641.926566	2546.571633
642.270955	2552.253013
642.615292	2554.841646
642.959576	2552.454659
643.303809	2551.552293
643.647990	2551.217056
643.992118	2549.137580
644.336195	2552.132026
644.680219	2553.430123
645.024192	2551.960626
645.368112	2552.003476
645.711981	2552.192519
646.055797	2551.731254
646.399562	2552.270657
646.743274	2551.897612
647.086935	2552.316028
647.430544	2552.747046
647.774101	2551.484237
648.117606	2549.223280
648.461059	2550.458363
648.804460	2554.803837
649.147810	2551.184289
649.491108	2553.062118
649.834354	2553.465411
650.177548	2551.358208
650.520690	2551.151521
650.863781	2549.956768
651.206820	2553.793086
651.549807	2552.991542
651.892742	2552.825184
652.235626	2551.363250
652.578458	2549.694628
652.921238	2552.772252
653.263967	2553.200750
653.606644	2551.053219
653.949269	2551.358208
654.291843	2549.757642
654.634365	2552.174875
654.976836	2550.649926
655.319255	2553.046995
655.661622	2550.327292
656.003938	2551.786707
656.346203	2552.323589
656.688416	2552.215205
657.030577	2549.641696
657.372687	2552.464742
657.714746	2553.044474
658.056753	2551.549772
658.398708	2546.387631
658.740612	2549.240924
659.082465	2549.014072
659.424266	2546.453166
659.766016	2544.759338
660.107715	2550.481048
660.449362	2551.849721
660.790958	2550.826367
661.132503	2554.037582
661.473996	2550.418033
661.815438	2551.232180
662.156829	2550.226469
662.498168	2552.792417
662.839456	2551.990873
663.180693	2553.346944
663.521879	2548.295708
663.863013	2548.023485
664.204097	2551.955585
664.545129	2551.038095
664.886110	2547.365615
665.227040	2550.654968
665.567918	2550.050029
665.908746	2550.448280
666.249522	2550.584391
666.590248	2550.828887
666.930922	2549.220759
667.271545	2551.080945
667.612118	2553.455328
667.952639	2551.390976
668.293109	2550.740667
668.633528	2550.276881
668.973896	2549.079607
669.314213	2552.187478
669.654480	2553.304094
669.994695	2551.580019
670.334859	2549.621531
670.674973	2549.346788
671.015035	2552.018600
671.355047	2550.072714
671.695008	2548.066335
672.034918	2549.911397
672.374777	2552.908363
672.714585	2550.022303
673.054342	2550.148332
673.394049	2550.917107
673.733705	2554.030020
674.073310	2550.448280
674.412864	2552.520194
674.752368	2551.138918
675.091820	2548.146993
675.431223	2549.903836
675.770574	2546.894267
676.109875	2545.593649
676.449125	2547.156407
676.788324	2549.059442
677.127473	2549.767724
677.466571	2547.743701
677.805619	2548.641027
678.144616	2549.467776
678.483562	2551.963147
678.822458	2549.308979
679.161303	2553.732592
679.500098	2552.739485
679.838842	2551.995914
680.177535	2550.087838
680.516179	2550.909546
680.854771	2551.217056
681.193314	2550.627241
681.531805	2551.310317
681.870247	2551.660678
682.208638	2550.604556
682.546978	2549.465255
682.885268	2552.043805
683.223508	2550.556665
683.561697	2550.559186
683.899836	2551.756460
684.237925	2550.533980
684.575963	2550.697817
684.913951	2550.443239
685.251889	2550.899463
685.589776	2551.925338
685.927614	2548.530121
686.265401	2550.962478
686.603137	2552.169834
686.940824	2548.923331
687.278460	2551.877447
687.616046	2548.651109
687.953582	2553.470452
688.291068	2550.029864
688.628504	2550.082797
688.965889	2548.502395
689.303224	2549.109854
689.640510	2552.545400
689.977745	2551.212015
690.314930	2550.027344
690.652065	2551.179247
690.989150	2550.264278
691.326185	2552.336192
691.663170	2551.295194
692.000105	2552.661347
692.336990	2550.836449
692.673825	2549.379556
693.010610	2550.705379
693.347345	2549.193033
693.684030	2546.697662
694.020665	2546.566592
694.357251	2544.900490
694.693786	2548.572971
695.030272	2550.032385
695.366707	2550.299566
695.703093	2548.204967
696.039429	2550.410472
696.375716	2551.330482
696.711952	2546.879143
697.048139	2549.752601
697.384276	2550.770914
697.720363	2550.329813
698.056400	2547.658002
698.392388	2551.398538
698.728326	2550.697817
699.064214	2547.365615
699.400053	2549.545914
699.735842	2550.670091
700.071581	2551.393497
700.407270	2546.720347
700.742910	2551.453990
701.078501	2551.771583
701.414042	2548.172199
701.749533	2552.888199
702.084974	2551.953065
702.420366	2552.777293
702.755709	2550.763352
703.091002	2549.896274
703.426246	2552.875596
703.761440	2550.251675
704.096584	2550.390307
704.431679	2551.597663
704.766725	2549.911397
705.101721	2550.160934
705.436668	2550.448280
705.771565	2549.339226
706.106413	2551.101110
706.441212	2550.148332
706.775961	2553.488096
707.110661	2549.142621
707.445311	2548.197405
707.779913	2550.009700
708.114465	2551.723692
708.448967	2549.674463
708.783421	2551.398538
709.117825	2551.764021
709.452180	2552.018600
709.786485	2548.184802
710.120742	2551.421223
710.454949	2552.361398
710.789107	2548.502395
711.123216	2546.848896
711.457275	2549.467776
711.791286	2548.794782
712.125247	2546.107847
712.459159	2550.307128
712.793023	2550.864175
713.126837	2551.063301
713.460602	2550.024823
713.794318	2548.935934
714.127985	2548.726726
714.461602	2550.614638
714.795171	2550.148332
715.128691	2550.476007
715.462162	2549.901315
715.795584	2548.968702
716.128957	2549.172868
716.462281	2550.334854
716.795556	2551.343085
717.128782	2547.973074
717.461960	2548.983825
717.795088	2551.675801
718.128167	2549.377035
718.461198	2549.704710
718.794180	2549.382076
719.127113	2549.800492
719.459997	2549.956768
719.792833	2551.748898
720.125619	2549.782848
720.458357	2550.516336
720.791046	2549.054401
721.123686	2551.083466
721.456278	2549.661860
721.788821	2548.116747
722.121315	2552.832746
722.453761	2546.029709
722.786158	2549.762683
723.118506	2551.398538
723.450805	2550.448280
723.783056	2550.728064
724.115259	2550.223949
724.447412	2553.127653
724.779518	2550.460883
725.111574	2549.200595
725.443582	2551.073383
725.775542	2550.783517
726.107453	2549.452652
726.439315	2550.717982
726.771129	2553.258723
727.102895	2549.193033
727.434612	2547.892415
727.766281	2547.854607
728.097901	2548.336037
728.429473	2549.180430
728.760996	2548.633465
729.092471	2545.036602
729.423897	2551.847200
729.755276	2547.327806
730.086606	2549.172868
730.417887	2552.379042
730.749120	2547.746222
731.080305	2547.418547
731.411442	2548.736808
731.742530	2549.843342
732.073570	2549.498023
732.404562	2549.709751
732.735506	2549.263609
733.066401	2550.365101
733.397249	2548.298228
733.728048	2549.818136
734.058798	2550.244113
734.389501	2548.961140
734.720156	2549.838301
735.050762	2549.130018
735.381320	2549.518187
735.711831	2550.286963
736.042293	2549.979453
736.372707	2550.115564
736.703073	2551.327962
737.033391	2547.053063
737.363661	2549.263609
737.693883	2548.809905
738.024056	2551.731254
738.354182	2547.234545
738.684260	2550.685214
739.014290	2549.916438
739.344272	2547.408464
739.674207	2549.230842
740.004093	2549.190512
740.333931	2549.452652
740.663722	2547.678166
740.993464	2549.860986
741.323159	2547.894936
741.652806	2551.149001
741.982405	2549.437529
742.311956	2548.842673
742.641460	2551.350647
742.970915	2547.889895
743.300323	2549.072045
743.629683	2548.774617
743.958996	2551.738816
744.288260	2551.658157
744.617477	2549.114895
744.946647	2547.882333
745.275768	2548.993907
745.604842	2546.112888
745.933869	2547.032898
746.262847	2545.344112
746.591778	2549.213198
746.920662	2547.468958
747.249498	2549.588763
747.578286	2548.905687
747.907027	2549.644216
748.235720	2550.092879
748.564365	2551.680842
748.892963	2547.842004
749.221514	2550.017262
749.550017	2549.130018
749.878473	2549.452652
750.206881	2550.405430
750.535242	2547.912580
750.863555	2549.457693
751.191821	2553.009186
751.520039	2550.370142
751.848210	2549.248486
752.176334	2550.586912
752.504411	2550.407951
752.832440	2549.651778
753.160421	2549.944165
753.488356	2549.583722
753.816243	2549.185471
754.144082	2547.111036
754.471875	2550.717982
754.799620	2552.764690
755.127318	2547.630275
755.454969	2550.375183
755.782572	2550.070194
756.110129	2547.342929
756.437638	2547.421067
756.765100	2548.998948
757.092515	2550.019782
757.419882	2549.785368
757.747203	2547.211859
758.074477	2547.925183
758.401703	2549.833259
758.728882	2549.172868
759.056014	2549.964329
759.383099	2551.441387
759.710138	2550.246634
760.037129	2548.913249
760.364073	2552.187478
760.690970	2551.118754
761.017820	2549.767724
761.344623	2549.316541
761.671379	2549.467776
761.998088	2549.316541
762.324751	2547.915100
762.651366	2545.807898
762.977935	2551.264947
763.304456	2546.433001
763.630931	2550.294525
763.957359	2549.354350
764.283740	2550.551624
764.610074	2551.685883
764.936362	2550.866696
765.262602	2549.571119
765.588796	2550.191181
765.914943	2547.416026
766.241044	2550.377704
766.567097	2547.113557
766.893104	2550.773435
767.219064	2549.828218
767.544978	2549.019113
767.870845	2548.318393
768.196665	2549.112374
768.522438	2550.856614
768.848165	2549.334185
769.173846	2549.969371
769.499479	2551.307797
769.825066	2549.830739
770.150607	2549.021634
770.476101	2549.860986
770.801548	2547.446273
771.126949	2548.056253
771.452303	2549.855945
771.777611	2547.163968
772.102872	2550.365101
772.428087	2548.870399
772.753256	2548.149514
773.078378	2549.293856
773.403453	2548.973743
773.728482	2550.196222
774.053465	2548.857796
774.378401	2551.963147
774.703291	2549.498023
775.028135	2549.009031
775.352932	2549.452652
775.677683	2548.804864
776.002388	2551.653116
776.327046	2546.064997
776.651658	2549.989535
776.976224	2547.877292
777.300743	2549.462735
777.625216	2546.196067
777.949643	2549.382076
778.274024	2551.890050
778.598359	2544.991231
778.922647	2544.945861
779.246889	2544.426622
779.571086	2544.575336
779.895236	2549.777807
780.219339	2547.650440
780.543397	2548.078938
780.867409	2547.284956
781.191374	2548.759494
781.515294	2545.596170
781.839167	2547.826880
782.162995	2549.482899
782.486776	2549.039278
782.810511	2548.784699
783.134201	2548.063814
783.457844	2548.681356
783.781441	2548.051212
784.104993	2550.047508
784.428498	2548.373845
784.751958	2548.023485
785.075372	2548.663712
785.398739	2546.919473
785.722061	2549.775286
786.045337	2545.293700
786.368568	2549.394679
786.691752	2550.105482
787.014891	2548.840152
787.337983	2546.672456
787.661030	2549.598846
787.984031	2545.729760
788.306987	2546.387631
788.629897	2546.717826
788.952760	2549.359391
789.275579	2549.939124
789.598351	2550.586912
789.921078	2550.012220
790.243759	2549.697148
790.566395	2547.849565
790.888984	2549.324103
791.211529	2549.006510
791.534027	2545.777651
791.856480	2547.912580
792.178888	2548.008362
792.501249	2548.310831
792.823566	2548.053732
793.145836	2543.577188
793.468062	2549.911397
793.790241	2547.443753
794.112375	2551.078424
794.434464	2548.681356
794.756507	2549.122457
795.078505	2548.363763
795.400457	2547.806716
795.722364	2546.455686
796.044226	2545.510470
796.366042	2545.139945
796.687812	2544.262784
797.009538	2548.840152
797.331218	2547.950388
797.652852	2550.339895
797.974442	2547.917621
798.295986	2549.871068
798.617484	2550.002138
798.938938	2546.664894
799.260346	2549.805533
799.581709	2550.211346
799.903026	2550.919628
800.224299	2549.326623
800.545526	2547.766386
800.866708	2546.785882
801.187845	2546.967363
801.508936	2546.932075
801.829983	2547.063145
802.150984	2546.622044
802.471940	2545.986859
802.792851	2546.145655
803.113717	2548.242775
803.434538	2547.809236
803.755314	2548.111705
804.076045	2548.124308
804.396731	2549.419885
804.717372	2545.845707
805.037967	2548.812426
805.358518	2548.368804
805.679024	2547.567261
805.999485	2549.828218
806.319901	2549.079607
806.640272	2548.633465
806.960598	2547.955430
807.280879	2544.335881
807.601115	2549.311500
807.921306	2549.331665
808.241453	2547.849565
808.561554	2547.131201
808.881611	2547.330327
809.201623	2548.764535
809.521590	2548.593136
809.841513	2549.805533
810.161390	2545.926365
810.481223	2548.855276
810.801011	2547.431150
811.120755	2548.709082
811.440453	2548.215049
811.760107	2549.273691
812.079716	2545.109698
812.399281	2544.691282
812.718801	2546.702703
813.038276	2542.211035
813.357707	2548.096582
813.677093	2546.233876
813.996434	2547.847045
814.315731	2548.842673
814.634983	2548.966181
814.954191	2548.212528
815.273354	2546.997610
815.592473	2548.346119
815.911547	2545.056766
816.230577	2547.262271
816.549562	2548.807385
816.868502	2545.006355
817.187399	2549.492982
817.506250	2547.163968
817.825058	2548.288146
818.143821	2547.970553
818.462539	2547.058104
818.781213	2550.135729
819.099843	2548.701520
819.418429	2549.906356
819.736970	2548.101623
820.055466	2548.343598
820.373919	2550.292004
820.692327	2548.343598
821.010691	2551.907694
821.329011	2552.028682
821.647286	2556.570762
821.965517	2553.024310
822.283704	2555.038251
822.601847	2557.407593
822.919945	2560.039075
823.237999	2559.673592
823.556010	2555.529763
823.873976	2555.502037
824.191897	2551.607746
824.509775	2553.011707
824.827609	2551.695966
825.145398	2549.271171
825.463144	2549.800492
825.780845	2549.107333
826.098502	2553.924156
826.416116	2551.388455
826.733685	2553.851059
827.051210	2554.050185
827.368692	2552.933569
827.686129	2552.759649
828.003522	2549.810574
828.320872	2547.721016
828.638177	2546.644730
828.955439	2545.477703
829.272656	2545.026519
829.589830	2543.549461
829.906960	2546.939637
830.224046	2548.250337
830.541088	2546.652291
830.858086	2550.123126
831.175041	2546.947199
831.491952	2549.379556
831.808819	2547.355532
832.125642	2545.553320
832.442421	2547.360573
832.759157	2547.267312
833.075849	2550.037426
833.392497	2549.014072
833.709101	2551.136398
834.025662	2553.041954
834.342179	2550.927190
834.658653	2548.683876
834.975083	2547.652960
835.291469	2554.231666
835.607811	2545.505429
835.924110	2548.653629
836.240366	2548.804864
836.556578	2549.099772
836.872746	2547.537014
837.188871	2547.277394
837.504952	2546.828732
837.820990	2545.603731
838.136984	2545.039122
838.452935	2547.486602
838.768842	2547.607590
839.084706	2545.785213
839.400526	2545.457538
839.716303	2546.521221
840.032037	2550.765873
840.347727	2543.206663
840.663373	2547.917621
840.978977	2546.100285
841.294537	2545.674307
841.610054	2546.208670
841.925527	2547.748742
842.240957	2546.546427
842.556344	2546.803526
842.871687	2547.811757
843.186987	2546.642209
843.502244	2548.782179
843.817458	2545.417209
844.132629	2545.717157
844.447756	2546.349822
844.762840	2541.989224
845.077881	2544.048535
845.392879	2540.744059
845.707833	2544.847558
846.022745	2540.892773
846.337613	2544.726571
846.652438	2544.782023
846.967221	2546.851417
847.281960	2544.792106
847.596656	2546.291849
847.911309	2543.214224
848.225919	2545.482744
848.540485	2545.702034
848.855009	2545.177754
849.169490	2546.503577
849.483928	2545.087013
849.798323	2547.262271
850.112675	2544.809750
850.426984	2542.770603
850.741251	2547.557178
851.055474	2544.877805
851.369654	2547.726057
851.683792	2544.633309
851.997887	2545.540717
852.311938	2546.619524
852.625947	2548.197405
852.939914	2547.032898
853.253837	2544.446787
853.567718	2543.967877
853.881555	2550.279402
854.195350	2545.812939
854.509103	2545.573484
854.822812	2544.983669
855.136479	2543.574667
855.450103	2545.797816
855.763685	2547.105995
856.077224	2545.931406
856.390720	2544.618186
856.704173	2546.042312
857.017584	2543.952753
857.330953	2545.724719
857.644278	2544.595501
857.957561	2545.165151
858.270802	2547.002652
858.584000	2544.643392
858.897155	2547.403423
859.210268	2545.523073
859.523339	2546.634647
859.836367	2546.599359
860.149352	2545.702034
860.462295	2547.441232
860.775195	2543.514173
861.088054	2542.324461
861.400869	2543.234389
861.713642	2542.352187
862.026373	2545.470141
862.339062	2546.516180
862.651708	2548.827549
862.964312	2544.650953
863.276873	2549.054401
863.589392	2544.910573
863.901869	2543.652805
864.214303	2546.556509
864.526696	2545.949050
864.839045	2545.765048
865.151353	2546.102806
865.463619	2542.821014
865.775842	2547.758825
866.088023	2546.238917
866.400162	2544.189688
866.712258	2545.265974
867.024313	2546.364946
867.336325	2546.221273
867.648296	2546.377548
867.960224	2547.259750
868.272110	2547.584905
868.583954	2546.269164
868.895755	2544.855120
869.207515	2544.562733
869.519233	2545.059287
869.830909	2545.180274
870.142542	2547.973074
870.454134	2545.444935
870.765684	2545.923845
871.077191	2543.612476
871.388657	2548.152035
871.700081	2547.350491
872.011463	2546.024668
872.322803	2547.655481
872.634101	2545.195398
872.945357	2545.213042
873.256571	2546.687579
873.567744	2546.007024
873.878874	2544.305634
874.189963	2544.829914
874.501010	2546.803526
874.812015	2544.403937
875.122979	2548.144473
875.433900	2544.040974
875.744780	2544.900490
876.055618	2547.257230
876.366415	2544.582898
876.677169	2544.716488
876.987882	2544.983669
877.298554	2541.389327
877.609183	2544.807229
877.919771	2542.758000
878.230317	2543.418391
878.540822	2548.540203
878.851285	2547.877292
879.161707	2549.198074
879.472087	2546.773279
879.782425	2544.613145
880.092722	2547.562220
880.402977	2549.543393
880.713191	2552.492468
881.023363	2549.470296
881.333494	2553.379711
881.643583	2553.225956
881.953631	2551.567416
882.263637	2551.267468
882.573602	2552.847869
882.883526	2553.551110
883.193408	2553.805689
883.503248	2552.192519
883.813048	2549.276212
884.122806	2550.705379
884.432522	2548.832590
884.742197	2547.902498
885.051831	2546.833773
885.361424	2547.388300
885.670975	2546.864020
885.980485	2546.128011
886.289954	2549.858465
886.599382	2549.319062
886.908768	2547.660522
887.218113	2546.153217
887.527417	2547.557178
887.836680	2546.329658
888.145901	2543.826725
888.455082	2545.220604
888.764221	2545.752445
889.073319	2545.762528
889.382376	2545.873433
889.691392	2545.301262
890.000366	2546.440563
890.309300	2546.690100
890.618193	2545.777651
890.927044	2548.585574
891.235855	2547.237065
891.544625	2545.744884
891.853353	2547.360573
892.162041	2544.121632
892.470687	2546.649771
892.779293	2547.950388
893.087858	2543.831766
893.396381	2541.996786
893.704864	2543.126004
894.013306	2539.405633
894.321707	2547.383259
894.630068	2548.968702
894.938387	2547.836963
895.246665	2552.742005
895.554903	2548.462066
895.863100	2546.851417
896.171256	2547.736139
896.479371	2546.536345
896.787446	2545.150027
897.095480	2546.503577
897.403473	2547.610111
897.711425	2545.795295
898.019336	2545.644061
898.327207	2544.126673
898.635038	2546.226314
898.942827	2546.231355
899.250576	2546.349822
899.558284	2545.384441
899.865952	2547.968032
900.173579	2545.999462
900.481165	2545.535676
900.788711	2545.137425
901.096216	2545.548279
901.403681	2547.224462
901.711105	2545.049204
902.018489	2546.014585
902.325832	2549.908877
902.633135	2545.003834
902.940397	2544.537527
903.247619	2543.730943
903.554800	2545.079451
903.861941	2547.635316
904.169041	2548.439380
904.476101	2548.162117
904.783121	2549.117416
905.090100	2546.806047
905.397039	2546.939637
905.703938	2545.815460
906.010796	2548.267981
906.317614	2544.774462
906.624391	2547.847045
906.931129	2545.417209
907.237826	2546.170861
907.544483	2544.580377
907.851099	2546.647250
908.157675	2543.650284
908.464211	2544.928217
908.770707	2541.369162
909.077163	2543.224307
909.383578	2538.538554
909.689954	2544.214893
909.996289	2541.414532
910.302584	2544.401416
910.608839	2544.030891
910.915054	2543.337733
911.221229	2543.919986
911.527363	2547.093392
911.833458	2545.550799
912.139513	2544.227496
912.445527	2545.233207
912.751502	2542.561395
913.057436	2544.948381
913.363331	2544.376210
913.669186	2543.783875
913.975000	2544.194729
914.280775	2546.730429
914.586510	2545.666746
914.892205	2544.290511
915.197859	2548.656150
915.503475	2546.861499
915.809050	2548.749411
916.114585	2547.131201
916.420081	2547.710934
916.725536	2548.202446
917.030952	2550.395348
917.336328	2546.012065
917.641665	2547.136242
917.946961	2544.469472
918.252218	2544.605583
918.557435	2547.663043
918.862612	2544.739173
919.167750	2544.930737
919.472848	2547.778989
919.777906	2540.524769
920.082925	2544.093906
920.387904	2544.207332
920.692843	2543.733463
920.997743	2543.670449
921.302603	2545.225645
921.607423	2545.636499
921.912204	2543.418391
922.216946	2544.179605
922.521647	2545.059287
922.826310	2542.337064
923.130932	2546.425439
923.435516	2544.998793
923.740059	2544.393854
924.044564	2544.270346
924.349028	2544.645912
924.653454	2539.332536
924.957840	2540.464275
925.262186	2543.884698
925.566493	2543.637681
925.870761	2540.456713
926.174989	2544.330840
926.479178	2545.011396
926.783328	2543.362938
927.087438	2542.503422
927.391509	2546.087682
927.695541	2544.345963
927.999533	2543.297403
928.303486	2540.905376
928.607400	2544.527445
928.911275	2541.802701
929.215110	2543.829245
929.518906	2543.274718
929.822663	2543.098278
930.126381	2542.500901
930.430060	2545.792775
930.733699	2541.878319
931.037299	2543.796478
931.340861	2540.262629
931.644383	2544.361087
931.947866	2541.719522
932.251309	2542.601724
932.554714	2544.046015
932.858080	2543.798998
933.161407	2542.836138
933.464694	2542.750438
933.767943	2543.274718
934.071153	2545.956612
934.374323	2544.164482
934.677455	2541.676673
934.980548	2542.798329
935.283602	2545.157589
935.586617	2545.835624
935.889593	2546.059956
936.192530	2540.416384
936.495428	2544.885367
936.798287	2543.042825
937.101108	2546.178423
937.403890	2543.186498
937.706632	2545.651622
938.009336	2542.899152
938.312002	2544.615665
938.614628	2540.887732
938.917216	2544.103988
939.219765	2543.370500
939.522275	2542.246323
939.824747	2543.834286
940.127179	2542.889070
940.429573	2539.113246
940.731929	2539.864378
941.034246	2538.389840
941.336524	2541.885880
941.638763	2544.010727
941.940964	2542.344625
942.243126	2543.085675
942.545250	2542.566436
942.847335	2543.506611
943.149381	2543.173895
943.451389	2543.173895
943.753359	2542.299255
944.055290	2546.271684
944.357182	2543.118443
944.659036	2541.722043
944.960851	2547.000131
945.262628	2543.317568
945.564367	2542.354708
945.866067	2543.509132
946.167729	2542.775644
946.469352	2541.611137
946.770937	2542.755479
947.072484	2542.422763
947.373992	2544.121632
947.675462	2544.751776
947.976893	2542.208514
948.278286	2544.161961
948.579641	2541.837989
948.880958	2543.897301
949.182236	2544.615665
949.483476	2543.793957
949.784678	2545.230686
950.085841	2543.839328
950.386967	2543.224307
950.688054	2542.014430
950.989103	2543.645243
951.290114	2543.778834
951.591087	2542.735315
951.892021	2542.740356
952.192917	2542.982331
952.493776	2544.887887
952.794596	2542.095088
953.095378	2538.994779
953.396122	2545.180274
953.696828	2543.307486
953.997496	2545.253371
954.298126	2542.889070
954.598718	2543.415871
954.899272	2543.620037
955.199788	2542.516025
955.500266	2543.922507
955.800706	2538.997299
956.101108	2538.291538
956.401472	2539.181301
956.701798	2541.094419
957.002087	2541.638864
957.302337	2540.716333
957.602550	2543.793957
957.902724	2542.077444
958.202861	2541.482588
958.502960	2542.664739
958.803022	2543.897301
959.103045	2544.250182
959.403031	2541.946374
959.702979	2539.834131
960.002889	2541.941333
960.302762	2543.002496
960.602596	2543.521735
960.902393	2540.890253
961.202153	2543.451159
961.501875	2543.942671
961.801559	2541.447300
962.101205	2543.294883
962.400814	2542.909235
962.700385	2540.116435
962.999918	2544.071221
963.299414	2542.047197
963.598873	2541.401930
963.898293	2540.880170
964.197677	2543.925027
964.497022	2543.302445
964.796331	2544.673638
965.095601	2542.158103
965.394835	2544.023330
965.694030	2541.346477
965.993189	2545.593649
966.292309	2542.823535
966.591393	2544.436704
966.890439	2540.103833
967.189447	2543.385624
967.488419	2543.335212
967.787353	2542.485778
968.086249	2542.226158
968.385108	2544.983669
968.683930	2541.996786
968.982714	2539.813966
969.281462	2542.637012
969.580172	2542.042156
969.878844	2541.653987
970.177480	2540.398740
970.476078	2540.771785
970.774639	2544.151879
971.073162	2541.452341
971.371649	2540.935623
971.670098	2540.406302
971.968510	2539.566950
972.266885	2537.984027
972.565223	2542.926879
972.863524	2541.094419
973.161788	2541.401930
973.460014	2541.074255
973.758204	2543.209183
974.056356	2540.345808
974.354471	2543.456200
974.652550	2543.226827
974.950591	2542.838658
975.248595	2542.107691
975.546563	2540.542413
975.844493	2542.130376
976.142386	2543.640202
976.440243	2542.677342
976.738062	2541.442259
977.035845	2539.945036
977.333590	2541.253216
977.631299	2542.974770
977.928971	2542.332023
978.226606	2542.415202
978.524204	2543.211704
978.821765	2540.986034
979.119290	2541.850592
979.416777	2541.956457
979.714228	2543.882177
980.011642	2542.069883
980.309020	2544.504760
980.606360	2540.915458
980.903664	2542.669780
981.200931	2537.588297
981.498162	2541.449821
981.795356	2542.508463
982.092513	2542.019471
982.389633	2541.086858
982.686717	2542.692465
982.983764	2542.805891
983.280775	2540.633154
983.577749	2542.405119
983.874686	2540.471837
984.171587	2541.054090
984.468451	2539.589635
984.765279	2541.616179
985.062070	2540.938143
985.358824	2542.793288
985.655543	2542.778165
985.952224	2541.159954
986.248869	2545.291180
986.545478	2537.341280
986.842050	2541.999306
987.138586	2537.290869
987.435086	2538.210879
987.731549	2537.459747
988.027975	2542.667259
988.324366	2541.190201
988.620719	2543.105840
988.917037	2541.774975
989.213318	2544.348484
989.509563	2542.208514
989.805772	2541.185160
990.101944	2539.571991
990.398080	2539.249357
990.694180	2542.074924
990.990244	2541.883360
991.286271	2542.858823
991.582262	2543.201622
991.878217	2540.073586
992.174136	2540.749100
992.470019	2541.462423
992.765865	2543.642723
993.061676	2539.453524
993.357450	2541.248174
993.653188	2542.929399
993.948890	2542.543751
994.244556	2543.244471
994.540186	2545.376879
994.835780	2542.828576
995.131337	2541.931251
995.426859	2541.149872
995.722345	2540.562578
996.017795	2539.536703
996.313208	2543.297403
996.608586	2540.582742
996.903928	2543.040305
997.199234	2541.701878
997.494504	2543.027702
997.789738	2541.875798
998.084936	2541.107022
998.380099	2541.966539
998.675225	2540.713812
998.970316	2540.464275
999.265371	2540.484440
999.560390	2541.119625
999.855373	2542.715150
1000.150320	2541.127187
1000.445232	2540.862526
1000.740108	2540.877650
1001.034948	2540.870088
1001.329752	2542.286652
1001.624521	2541.117104
1001.919254	2539.876981
1002.213951	2541.202804
1002.508613	2537.444624
1002.803239	2539.330015
1003.097829	2537.616023
1003.392384	2541.810263
1003.686903	2543.587270
1003.981386	2539.985365
1004.275834	2539.945036
1004.570246	2543.912424
1004.864623	2542.306817
1005.158964	2542.266488
1005.453270	2543.864533
1005.747540	2536.043183
1006.041775	2541.389327
1006.335974	2540.123997
1006.630138	2540.618030
1006.924266	2541.684234
1007.218359	2541.248174
1007.512416	2541.724563
1007.806438	2540.239944
1008.100425	2541.606096
1008.394376	2539.753472
1008.688292	2542.374872
1008.982172	2539.771116
1009.276017	2541.772454
1009.569827	2539.619882
1009.863602	2543.993083
1010.157341	2542.090047
1010.451045	2539.224151
1010.744714	2541.674152
1011.038347	2540.754141
1011.331945	2540.401261
1011.625508	2538.873791
1011.919036	2540.159285
1012.212528	2542.553833
1012.505986	2541.901004
1012.799408	2541.336395
1013.092795	2541.505273
1013.386147	2542.044677
1013.679464	2540.363452
1013.972745	2539.720705
1014.265992	2538.445293
1014.559204	2540.716333
1014.852380	2541.154913
1015.145521	2540.713812
1015.438628	2539.400592
1015.731699	2540.618030
1016.024736	2538.999820
1016.317737	2540.799512
1016.610703	2540.570139
1016.903635	2538.168029
1017.196531	2538.775488
1017.489393	2538.629295
1017.782219	2535.269366
1018.075011	2539.261960
1018.367768	2540.408822
1018.660490	2541.134748
1018.953177	2541.134748
1019.245829	2541.134748
