Dividing Wavelength (nm)	Counts (n)	Blue Motor Position (mm): 45.300000	Red Motor Position (mm): 0.000000	
326.493990	2127.750051
326.888308	2127.750051
327.282561	2127.750051
327.676750	2096.830134
328.070874	2093.475246
328.464933	2099.149064
328.858929	2105.594180
329.252859	2114.842176
329.646726	2126.220061
330.040528	2138.311268
330.434265	2153.507826
330.827938	2172.444921
331.221547	2190.799762
331.615091	2208.201825
332.008571	2230.579507
332.401986	2250.963413
332.795338	2267.228695
333.188625	2286.246448
333.581847	2306.113636
333.975006	2323.266162
334.368100	2341.731908
334.761129	2356.537777
335.154095	2379.056611
335.546996	2399.478325
335.939833	2423.653179
336.332606	2437.687751
336.725315	2452.609566
337.117960	2461.361009
337.510540	2467.919551
337.903056	2479.519246
338.295508	2485.203147
338.687896	2496.636483
339.080220	2503.638646
339.472480	2512.513597
339.864676	2516.594412
340.256807	2519.324196
340.648875	2522.190092
341.040879	2526.003725
341.432818	2525.421472
341.824694	2527.909281
342.216506	2528.506658
342.608253	2530.190403
342.999937	2531.049920
343.391557	2531.281813
343.783113	2527.367357
344.174605	2524.665299
344.566033	2525.988602
344.957397	2522.560617
345.348697	2520.251769
345.739934	2522.149763
346.131106	2520.511388
346.522215	2518.691532
346.913260	2515.311438
347.304241	2514.157014
347.695159	2510.814729
348.086012	2509.861951
348.476802	2506.406240
348.867528	2506.454131
349.258191	2501.750734
349.648789	2502.985817
350.039324	2502.249808
350.429796	2502.486743
350.820203	2501.397853
351.210548	2498.163953
351.600828	2497.266628
351.991045	2498.030363
352.381198	2497.614467
352.771288	2494.960300
353.161314	2498.456340
353.551276	2495.857625
353.941175	2496.482728
354.331010	2494.809065
354.720782	2494.390649
355.110490	2497.319560
355.500135	2498.277379
355.889717	2496.129848
356.279235	2497.682523
356.668689	2498.259735
357.058080	2498.342914
357.447408	2496.838130
357.836672	2495.839981
358.225873	2493.463077
358.615010	2494.478870
359.004084	2500.099756
359.393095	2497.518685
359.782043	2503.126969
360.170927	2503.066475
360.559748	2500.543378
360.948505	2504.752741
361.337199	2504.659480
361.725830	2503.091681
362.114398	2505.748369
362.502903	2503.895745
362.891344	2506.847341
363.279722	2510.590397
363.668037	2509.556961
364.056289	2506.033194
364.444478	2508.659635
364.832603	2510.615603
365.220665	2509.478823
365.608665	2510.146776
365.996601	2511.873371
366.384474	2507.727022
366.772284	2509.002434
367.160031	2511.149965
367.547715	2511.124760
367.935336	2513.547034
368.322893	2516.168434
368.710388	2516.233969
369.097820	2517.038033
369.485189	2514.540141
369.872495	2515.893691
370.259738	2515.805471
370.646918	2515.003928
371.034035	2519.540966
371.421090	2518.681449
371.808081	2517.111130
372.195010	2521.227232
372.581875	2517.096006
372.968678	2519.684639
373.355418	2520.516429
373.742096	2523.765453
374.128710	2523.823426
374.515262	2528.126051
374.901751	2529.628315
375.288177	2536.401105
375.674540	2540.028215
376.060841	2546.942158
376.447079	2550.528939
376.833254	2561.710218
377.219367	2563.681309
377.605417	2577.801581
377.991404	2590.664085
378.377329	2600.834613
378.763191	2610.856427
379.148991	2631.951135
379.534727	2649.517036
379.920402	2665.794921
380.306013	2678.556602
380.691563	2706.542568
381.077049	2726.021586
381.462474	2743.786612
381.847835	2771.949018
382.233134	2794.805610
382.618371	2809.954277
383.003545	2854.903726
383.388657	2874.022302
383.773706	2906.205028
384.158693	2930.705035
384.543618	2964.402628
384.928480	3000.325891
385.313280	3048.259702
385.698017	3062.609346
386.082692	3117.338633
386.467305	3140.641367
386.851856	3183.317255
387.236344	3213.060062
387.620770	3253.217894
388.005133	3294.550314
388.389435	3329.974502
388.773674	3357.418544
389.157851	3407.729259
389.541965	3440.421142
389.926018	3427.029317
390.310008	3502.586131
390.693936	3530.287271
391.077802	3585.966815
391.461606	3589.732557
391.845348	3658.667815
392.229027	3669.103004
392.612645	3689.940613
392.996200	3778.604427
393.379694	3822.926252
393.763125	3893.721696
394.146494	3874.903068
394.529801	3941.403449
394.913047	3994.743898
395.296230	3971.549549
395.679351	4030.977192
396.062410	4060.152869
396.445408	4050.844379
396.828343	4085.295624
397.211217	4111.106332
397.594028	4039.078326
397.976778	4105.873614
398.359466	4136.753202
398.742092	4165.301256
399.124656	4092.995987
399.507158	4171.670754
399.889598	4199.729817
400.271977	4262.156945
400.654294	4235.317842
401.036549	4244.918720
401.418742	4217.709092
401.800874	4317.150893
402.182944	4343.435469
402.564952	4402.542997
402.946898	4390.209815
403.328783	4387.248137
403.710606	4302.380312
404.092367	4490.314527
404.474067	4458.633396
404.855705	4467.447853
405.237282	4395.825660
405.618797	4504.243235
406.000250	4540.733627
406.381642	4619.577273
406.762972	4584.039659
407.144240	4591.097275
407.525447	4589.337912
407.906593	4652.382582
408.287677	4692.933624
408.668700	4625.440135
409.049661	4676.393598
409.430560	4717.264753
409.811399	4643.593330
410.192176	4802.767763
410.572891	4742.946911
410.953545	4843.681768
411.334138	4721.516966
411.714669	4794.102020
412.095139	4688.383982
412.475547	4832.412268
412.855894	4814.133044
413.236180	4823.794416
413.616405	4774.363382
413.996568	4858.681721
414.376670	4803.728103
414.756711	4757.205815
415.136691	4788.793685
415.516609	4868.244790
415.896466	4905.236777
416.276262	4939.947642
416.655997	4917.302778
417.035670	5100.092496
417.415283	5192.035581
417.794834	5135.960306
418.174324	5093.047484
418.553753	5000.514584
418.933121	5186.165157
419.312428	5248.093212
419.691674	5187.193553
420.070859	5312.168798
420.449983	5227.646292
420.829045	5341.833467
421.208047	5250.187811
421.586988	5319.501156
421.965867	5333.702086
422.344686	5468.573116
422.723444	5319.417977
423.102141	5138.269154
423.480777	5438.963899
423.859352	5207.617787
424.237866	5466.291994
424.616319	5453.232885
424.994712	5562.235234
425.373044	5443.715187
425.751314	5585.487556
426.129524	5388.562443
426.507673	5581.910857
426.885762	5665.790616
427.263789	5596.270584
427.641756	5480.954190
428.019662	5605.072439
428.397508	5610.768943
428.775292	5555.260798
429.153016	5655.032794
429.530679	5583.758440
429.908282	5666.836656
430.285824	5539.567686
430.663305	5809.912164
431.040726	5547.772164
431.418086	5545.115476
431.795385	5651.493904
432.172624	5666.844217
432.549802	5659.295090
432.926920	5668.094424
433.303977	5677.344941
433.680974	5713.797524
434.057910	5730.153548
434.434786	5742.509416
434.811601	5707.914498
435.188355	5941.430826
435.565050	5821.068237
435.941683	5801.251461
436.318257	6016.987640
436.694770	5995.177088
437.071222	6032.244692
437.447614	5964.242048
437.823946	5878.308018
438.200218	6031.937182
438.576429	5895.440380
438.952580	5997.891749
439.328670	6041.563265
439.704700	5953.297703
440.080670	5932.913797
440.456580	6207.147525
440.832429	6088.032621
441.208218	5931.875319
441.583947	6087.152940
441.959616	6092.821718
442.335224	6019.331777
442.710773	6154.873280
443.086261	6184.779925
443.461689	5975.801413
443.837057	6125.347242
444.212365	6281.746520
444.587612	6174.264078
444.962800	6329.851730
445.337927	6312.621066
445.712995	5918.914513
446.088002	6497.346587
446.462949	6327.681513
446.837837	6259.817500
447.212664	6432.797133
447.587431	6575.986067
447.962139	7120.483614
448.336786	8048.648257
448.711374	7780.418544
449.085901	6855.883531
449.460369	6777.755729
449.834776	6710.456325
450.209124	7104.054494
450.583412	7251.818275
450.957640	7401.026346
451.331808	7164.167733
451.705917	6718.774229
452.079965	6638.382948
452.453954	6857.552153
452.827883	6735.352063
453.201752	6823.206772
453.575562	6624.431555
453.949311	6827.350600
454.323001	6720.878911
454.696632	6787.875845
455.070202	6929.328102
455.443713	7080.580361
455.817164	7185.063316
456.190556	7266.278825
456.563888	7342.611976
456.937160	7384.221660
457.310373	7041.287087
457.683526	7063.717701
458.056619	6959.915303
458.429653	6943.135822
458.802628	6880.325566
459.175542	6988.498645
459.548398	7344.338571
459.921194	7505.630289
460.293930	7503.432346
460.666607	8032.471195
461.039224	8343.172630
461.411782	8473.549471
461.784280	8488.070515
462.156719	8378.319554
462.529099	8257.115093
462.901419	7845.840118
463.273680	7740.429591
463.645882	7747.356136
464.018024	7618.952907
464.390106	7787.695449
464.762130	8172.000251
465.134094	8649.997417
465.505999	9669.190176
465.877845	10889.192256
466.249631	11535.402644
466.621358	11156.769141
466.993026	10521.724908
467.364634	10272.601168
467.736184	9905.925281
468.107674	9580.082740
468.479105	9608.489642
468.850477	9365.868990
469.221790	9146.230958
469.593043	8817.474631
469.964238	8676.314761
470.335373	8689.154580
470.706449	8742.341274
471.077467	8723.941062
471.448425	10031.243324
471.819324	11109.556214
472.190164	11131.815429
472.560945	9879.975942
472.931667	9097.152805
473.302330	8958.828584
473.672934	8602.613092
474.043479	8960.787073
474.413965	8905.324298
474.784393	8782.662943
475.154761	8947.632182
475.525070	9037.132827
475.895321	8854.426288
476.265513	9034.599647
476.635645	9201.653403
477.005719	9199.921767
477.375734	9314.131628
477.745691	9553.256240
478.115588	9690.292446
478.485427	9936.825033
478.855207	10467.073760
479.224928	11284.307812
479.594591	11914.411714
479.964194	11723.793084
480.333739	11662.374186
480.703226	11580.042062
481.072653	11673.381546
481.442022	11906.270251
481.811333	12098.779313
482.180584	11900.891339
482.549777	11613.490118
482.918912	11445.102976
483.287988	11454.305603
483.657005	11468.188940
484.025964	11147.652214
484.394864	11286.737649
484.763706	11248.636608
485.132489	11011.125165
485.501213	10972.373815
485.869879	11047.580269
486.238487	10888.305013
486.607036	10998.245017
486.975527	10783.247367
487.343959	10975.552263
487.712333	11020.070692
488.080648	10946.205186
488.448905	10995.114460
488.817104	10934.761767
489.185244	11199.966788
489.553326	11348.766526
489.921350	11893.823642
490.289315	12956.680354
490.657222	13296.370944
491.025070	13204.127911
491.392861	13074.660998
491.760593	12699.523535
492.128267	12351.131913
492.495883	12014.798731
492.863440	11680.817248
493.230939	11342.886020
493.598380	11288.451641
493.965763	11146.454940
494.333088	11041.223374
494.700354	10972.141922
495.067563	11024.514470
495.434713	10860.888698
495.801805	10985.256484
496.168839	10908.136913
496.535815	10845.208189
496.902733	10845.888745
497.269593	10783.149065
497.636395	10880.513910
498.003139	10861.753256
498.369825	10733.017310
498.736453	10890.192925
499.103023	10822.825466
499.469535	10843.892448
499.835989	10828.771507
500.202385	10798.486775
500.568723	10655.940588
500.935003	10866.000428
501.301226	10681.353045
501.667390	10934.552559
502.033497	11036.749350
502.399546	10888.957843
502.765537	10798.874944
503.131470	10878.129444
503.497345	11048.467512
503.863163	10662.103399
504.228923	10969.291150
504.594625	11034.664833
504.960269	10777.341655
505.325856	11004.664926
505.691385	10795.638523
506.056856	10945.539753
506.422270	10970.969854
506.787625	10858.816784
507.152924	10985.465692
507.518164	10964.963319
507.883347	10887.001875
508.248472	10797.768411
508.613540	11038.002077
508.978550	10923.993862
509.343503	10902.153063
509.708398	11018.966680
510.073236	11129.123453
510.438016	11134.154525
510.802738	11076.443395
511.167403	11137.763991
511.532010	11035.768846
511.896561	11266.862900
512.261053	11329.400934
512.625488	11199.195492
512.989866	11187.038749
513.354186	11179.166987
513.718449	11077.658313
514.082655	11265.088413
514.446803	11166.932107
514.810894	11278.344127
515.174927	11148.214303
515.538904	11178.488952
515.902822	11335.805720
516.266684	11207.982223
516.630488	11157.300982
516.994235	11210.820392
517.357925	11275.384970
517.721558	11367.988446
518.085133	11375.207378
518.448651	11388.508462
518.812112	11273.968406
519.175516	11280.282451
519.538863	11412.448902
519.902152	11323.056642
520.265385	11485.258287
520.628560	11391.941488
520.991678	11372.008766
521.354739	11441.249014
521.717743	11369.525998
522.080690	11353.966476
522.443580	11484.393729
522.806413	11441.138109
523.169189	11477.023562
523.531908	11527.770338
523.894569	11344.640342
524.257174	11350.959428
524.619722	11472.904940
524.982213	11424.207393
525.344647	11471.591719
525.707025	11419.163719
526.069345	11517.317505
526.431608	11434.143508
526.793815	11539.652337
527.155964	11336.022489
527.518057	11374.113448
527.880093	11325.947743
528.242072	11391.896118
528.603995	11303.340689
528.965860	11225.447300
529.327669	11279.354879
529.689421	11224.716333
530.051117	11194.038391
530.412755	11293.795264
530.774337	11193.743484
531.135862	11167.600060
531.497331	11195.825480
531.858743	11045.137830
532.220098	11208.481297
532.581396	11084.743655
532.942638	11062.648278
533.303824	11034.674915
533.664953	11047.464322
534.026025	10961.933586
534.387040	11053.443131
534.747999	11060.236086
535.108902	11120.130035
535.469748	10872.180883
535.830537	10982.335135
536.191270	10957.313368
536.551947	10978.120731
536.912567	10981.982255
537.273131	10908.222612
537.633638	10880.234126
537.994089	10868.422702
538.354483	10822.275980
538.714821	10971.027827
539.075103	10976.081584
539.435328	10937.423496
539.795497	10767.755901
540.155609	10924.646691
540.515665	11009.416214
540.875665	10748.286965
541.235609	10819.523510
541.595496	10811.283744
541.955328	10965.701848
542.315102	10850.695485
542.674821	10803.099431
543.034483	10800.999790
543.394090	10808.417848
543.753640	10735.878165
544.113134	10950.981679
544.472571	10808.294340
544.831953	10953.414036
545.191278	10761.320868
545.550548	10785.480598
545.909761	10930.212125
546.268918	10893.716692
546.628019	10978.526544
546.987064	10839.776346
547.346053	10770.029462
547.704986	10868.634431
548.063863	10854.123470
548.422684	10849.626760
548.781449	10767.264389
549.140158	10868.263906
549.498811	10739.447302
549.857408	10594.125960
550.215949	10830.326703
550.574434	10679.984372
550.932864	10778.009608
551.291237	10839.572179
551.649555	10789.649633
552.007817	10793.677514
552.366022	10759.085117
552.724173	10749.479198
553.082267	10739.399411
553.440305	10878.812521
553.798288	10676.198465
554.156215	10830.858545
554.514086	10806.741665
554.871902	10654.980249
555.229661	10694.044150
555.587365	10672.813330
555.945014	10561.207225
556.302606	10688.846720
556.660143	10580.638353
557.017625	10748.435679
557.375050	10636.688422
557.732421	10762.964285
558.089735	10675.507827
558.446994	10682.378920
558.804197	10719.063396
559.161345	10718.652542
559.518437	10567.463297
559.875474	10654.977728
560.232455	10684.907058
560.589381	10637.220264
560.946251	10633.935952
561.303065	10743.576007
561.659825	10680.816162
562.016528	10609.841757
562.373177	10490.018571
562.729770	10607.152302
563.086307	10521.465289
563.442789	10610.625657
563.799216	10486.323406
564.155587	10530.940138
564.511904	10494.248099
564.868164	10486.305762
565.224370	10499.425364
565.580520	10422.396534
565.936615	10426.832749
566.292654	10296.861721
566.648638	10426.263099
567.004567	10387.748683
567.360441	10367.009376
567.716260	10282.197004
568.072023	10380.028156
568.427732	10330.894550
568.783385	10238.376774
569.138982	10307.637187
569.494525	10320.159413
569.850013	10200.641217
570.205445	10278.214493
570.560823	10173.953349
570.916145	10085.130738
571.271412	10162.071349
571.626625	10106.059089
571.981782	10078.443648
572.336884	10053.641171
572.691931	10061.419671
573.046923	10005.901444
573.401860	9962.529877
573.756743	9896.705011
574.111570	9943.938102
574.466342	9924.912787
574.821059	9953.082755
575.175722	9844.803811
575.530330	9852.511735
575.884882	9847.452937
576.239380	9771.404611
576.593823	9750.546837
576.948211	9762.703580
577.302544	9649.804419
577.656823	9669.263272
578.011047	9664.690946
578.365216	9639.031473
578.719330	9563.187313
579.073389	9569.410618
579.427394	9520.299697
579.781344	9497.954782
580.135239	9456.503895
580.489080	9460.249472
580.842866	9358.645017
581.196597	9371.930978
581.550273	9396.458712
581.903895	9372.097336
582.257463	9444.516031
582.610975	9321.317793
582.964434	9347.030198
583.317837	9263.094987
583.671186	9253.675591
584.024481	9242.950536
584.377721	9164.679061
584.730906	9135.868866
585.084037	9166.559411
585.437113	9104.107077
585.790135	9124.919480
586.143103	9021.472483
586.496016	8996.831323
586.848874	9056.495899
587.201679	9044.775216
587.554428	8932.354965
587.907124	8973.742838
588.259765	8945.744270
588.612352	8943.437942
588.964884	8828.993667
589.317362	8842.990431
589.669786	8838.148402
590.022155	8889.487513
590.374470	8900.552846
590.726731	8839.670831
591.078937	8695.113224
591.431090	8806.190008
591.783188	8676.859206
592.135232	8673.085902
592.487222	8665.496445
592.839157	8719.308242
593.191038	8654.262234
593.542866	8598.645704
593.894639	8501.041404
594.246358	8555.115340
594.598022	8567.345180
594.949633	8468.722566
595.301190	8442.949667
595.652692	8471.021333
596.004141	8582.319927
596.355535	8360.983026
596.706876	8337.511414
597.058162	8268.298892
597.409395	8347.424843
597.760573	8412.259123
598.111698	8315.915111
598.462768	8303.350035
598.813785	8274.502032
599.164748	8237.288234
599.515657	8224.962613
599.866511	8138.400961
600.217312	8266.242102
600.568060	8127.396122
600.918753	8228.705670
601.269392	8197.979837
601.619978	8101.426618
601.970510	8173.714243
602.320988	8167.304416
602.671412	8227.858756
603.021783	8160.408118
603.372100	8140.024212
603.722363	8139.850292
604.072572	8113.865665
604.422728	8127.343190
604.772830	8056.330976
605.122878	8063.333139
605.472872	8052.116571
605.822813	8084.203516
606.172701	8027.356944
606.522534	8098.853109
606.872314	8104.143800
607.222041	8070.189108
607.571714	8126.823951
607.921333	8086.643434
608.270899	8094.409332
608.620411	8179.350253
608.969870	8088.203671
609.319276	8079.459790
609.668627	8100.506607
610.017926	8127.015515
610.367171	8179.146087
610.716362	8148.387486
611.065500	8140.306517
611.414585	8169.668717
611.763616	8159.588930
612.112594	8142.635530
612.461518	8162.018766
612.810389	8222.046306
613.159207	8160.027511
613.507971	8104.209335
613.856682	8225.194506
614.205340	8182.543824
614.553945	8259.524764
614.902496	8156.372674
615.250994	8212.057259
615.599439	8196.172584
615.947830	8205.382772
616.296169	8177.545520
616.644454	8194.609826
616.992686	8191.534722
617.340864	8246.919359
617.688990	8157.448960
618.037063	8246.891633
618.385082	8190.897016
618.733048	8282.572919
619.080961	8214.277888
619.428821	8235.617092
619.776628	8231.795897
620.124382	8186.523815
620.472083	8172.569901
620.819731	8198.670475
621.167326	8089.874814
621.514868	8105.053728
621.862357	7988.154411
622.209793	8003.993717
622.557176	7941.430477
622.904506	7905.792040
623.251783	7844.831887
623.599007	7797.999568
623.946179	7804.285887
624.293297	7754.433916
624.640363	7680.470107
624.987376	7659.834144
625.334336	7610.259437
625.681243	7551.719038
626.028097	7546.561937
626.374899	7522.765171
626.721647	7511.261258
627.068343	7447.215918
627.414987	7415.161742
627.761577	7370.663477
628.108115	7405.936430
628.454600	7306.708878
628.801032	7354.776280
629.147412	7316.418141
629.493739	7301.357694
629.840014	7241.672953
630.186236	7299.568084
630.532405	7178.950917
630.878521	7230.413536
631.224585	7185.015425
631.570597	7112.924404
631.916556	7140.587736
632.262462	7144.177037
632.608316	7101.778413
632.954117	7083.393325
633.299866	7062.742238
633.645562	7055.006587
633.991206	6977.929866
634.336797	6922.867863
634.682336	6880.318004
635.027823	6844.435071
635.373257	6840.508012
635.718639	6767.691065
636.063968	6781.171111
636.409245	6679.052457
636.754470	6673.789493
637.099642	6630.359952
637.444762	6573.674698
637.789829	6587.691626
638.134845	6523.719384
638.479808	6512.704463
638.824719	6514.317632
639.169577	6444.850532
639.514383	6466.668646
639.859137	6395.091823
640.203839	6402.754377
640.548489	6385.319546
640.893086	6364.290373
641.237632	6337.098389
641.582125	6359.599579
641.926566	6326.333005
642.270955	6334.484551
642.615292	6332.168140
642.959576	6345.685994
643.303809	6339.737433
643.647990	6344.708011
643.992118	6338.547721
644.336195	6283.641993
644.680219	6304.356095
645.024192	6294.508201
645.368112	6390.121245
645.711981	6412.277116
646.055797	6490.079764
646.399562	6450.559638
646.743274	6578.489000
647.086935	6627.867102
647.430544	6624.577749
647.774101	6648.876110
648.117606	6653.864332
648.461059	6646.030379
648.804460	6603.251147
649.147810	6512.475090
649.491108	6483.395194
649.834354	6457.972655
650.177548	6374.516353
650.520690	6289.751872
650.863781	6268.084993
651.206820	6287.879083
651.549807	6203.538059
651.892742	6150.371530
652.235626	6154.787581
652.578458	6141.521784
652.921238	6048.381426
653.263967	6087.445327
653.606644	6028.897366
653.949269	6032.900042
654.291843	5974.730168
654.634365	6024.141038
654.976836	5975.660261
655.319255	5971.158511
655.661622	5953.829544
656.003938	5950.595644
656.346203	5907.972688
656.688416	5942.144150
657.030577	5892.183794
657.372687	5861.105081
657.714746	5849.429769
658.056753	5891.810749
658.398708	5832.773796
658.740612	5828.183826
659.082465	5875.106886
659.424266	5866.060535
659.766016	5866.269743
660.107715	5842.465415
660.449362	5858.564339
660.790958	5847.171332
661.132503	5832.136090
661.473996	5871.946082
661.815438	5855.345563
662.156829	5862.002406
662.498168	5847.458678
662.839456	5827.717519
663.180693	5856.996541
663.521879	5862.100709
663.863013	5848.716445
664.204097	5867.777048
664.545129	5910.087452
664.886110	5906.115023
665.227040	5937.574344
665.567918	5902.893726
665.908746	5931.376245
666.249522	5935.724240
666.590248	5920.444503
666.930922	5950.769564
667.271545	5961.739115
667.612118	5971.322348
667.952639	5939.537873
668.293109	5960.914886
668.633528	5919.952990
668.973896	5918.155819
669.314213	5909.071660
669.654480	5892.864350
669.994695	5884.460747
670.334859	5878.557556
670.674973	5867.146904
671.015035	5870.925249
671.355047	5872.457759
671.695008	5858.186253
672.034918	5833.008210
672.374777	5842.268810
672.714585	5830.001162
673.054342	5827.795657
673.394049	5828.829093
673.733705	5862.443507
674.073310	5843.254355
674.412864	5802.206760
674.752368	5795.781809
675.091820	5801.715248
675.431223	5737.579168
675.770574	5738.100927
676.109875	5690.787178
676.449125	5690.492270
676.788324	5656.769472
677.127473	5601.798209
677.466571	5592.182208
677.805619	5584.812042
678.144616	5568.758487
678.483562	5552.226023
678.822458	5522.750397
679.161303	5513.830075
679.500098	5500.813816
679.838842	5486.859902
680.177535	5492.790819
680.516179	5504.864383
680.854771	5515.849057
681.193314	5596.263022
681.531805	5709.356268
681.870247	5856.943608
682.208638	5960.904804
682.546978	5973.021217
682.885268	5948.874090
683.223508	5865.337130
683.561697	5806.811854
683.899836	5780.502072
684.237925	5732.414506
684.575963	5702.364187
684.913951	5658.107898
685.251889	5714.339448
685.589776	5688.553947
685.927614	5660.646119
686.265401	5728.263115
686.603137	5716.905396
686.940824	5789.379544
687.278460	5816.672351
687.616046	5826.129556
687.953582	5893.060955
688.291068	5871.378953
688.628504	5935.653664
688.965889	5897.502212
689.303224	5846.518502
689.640510	5795.708713
689.977745	5713.792483
690.314930	5621.118432
690.652065	5566.439556
690.989150	5474.015042
691.326185	5396.023351
691.663170	5347.063664
692.000105	5268.847642
692.336990	5186.278583
692.673825	5167.245707
693.010610	5093.881795
693.347345	5028.200601
693.684030	5010.251573
694.020665	4971.666582
694.357251	4881.835741
694.693786	4893.374942
695.030272	4855.893963
695.366707	4823.784333
695.703093	4789.756545
696.039429	4811.025173
696.375716	4798.175272
696.711952	4769.609574
697.048139	4753.931585
697.384276	4735.589347
697.720363	4747.269700
698.056400	4754.450824
698.392388	4701.521229
698.728326	4682.306871
699.064214	4664.932535
699.400053	4661.491947
699.735842	4620.678766
700.071581	4598.348975
700.407270	4573.090273
700.742910	4550.379875
701.078501	4497.785517
701.414042	4498.082945
701.749533	4470.959017
702.084974	4404.211619
702.420366	4461.625321
702.755709	4406.480139
703.091002	4347.100388
703.426246	4399.966968
703.761440	4350.248588
704.096584	4316.767765
704.431679	4336.090508
704.766725	4320.682221
705.101721	4307.360972
705.436668	4338.754757
705.771565	4287.955050
706.106413	4312.734842
706.441212	4346.576108
706.775961	4354.868806
707.110661	4333.602698
707.445311	4361.818036
707.779913	4381.660018
708.114465	4398.487389
708.448967	4419.496398
708.783421	4481.742045
709.117825	4520.450545
709.452180	4530.978995
709.786485	4573.420469
710.120742	4660.760980
710.454949	4643.593330
710.789107	4712.601685
711.123216	4786.865443
711.457275	4770.716107
711.791286	4849.146378
712.125247	4864.824367
712.459159	4769.758288
712.793023	4845.761244
713.126837	4804.391015
713.460602	4798.341630
713.794318	4717.710895
714.127985	4725.464189
714.461602	4639.089059
714.795171	4610.430100
715.128691	4542.314029
715.462162	4487.725895
715.795584	4437.155560
716.128957	4419.191408
716.462281	4367.325497
716.795556	4342.079398
717.128782	4303.587668
717.461960	4235.900095
717.795088	4242.771188
718.128167	4202.537739
718.461198	4144.130931
718.794180	4135.530722
719.127113	4124.782982
719.459997	4101.389508
719.792833	4057.816295
720.125619	4046.440931
720.458357	4010.978934
720.791046	4014.593442
721.123686	3989.750635
721.456278	3947.810756
721.788821	3962.233497
722.121315	3937.761216
722.453761	3910.594438
722.786158	3926.032971
723.118506	3948.670273
723.450805	3902.949528
723.783056	3923.845111
724.115259	3935.613684
724.447412	3940.412863
724.779518	3939.200465
725.111574	3941.121145
725.443582	3965.079228
725.775542	3956.358032
726.107453	4005.116072
726.439315	4001.753623
726.771129	4018.028988
727.102895	4054.201787
727.434612	4101.792800
727.766281	4116.911221
728.097901	4113.284110
728.429473	4121.150831
728.760996	4131.349085
729.092471	4124.205770
729.423897	4107.179273
729.755276	4113.125314
730.086606	4112.623719
730.417887	4149.640912
730.749120	4215.218762
731.080305	4282.656797
731.411442	4307.948266
731.742530	4276.655304
732.073570	4280.655459
732.404562	4334.164787
732.735506	4325.531811
733.066401	4290.170637
733.397249	4228.053539
733.728048	4147.357269
734.058798	4063.656471
734.389501	3993.965040
734.720156	3930.706121
735.050762	3884.415726
735.381320	3883.750293
735.711831	3830.072087
736.042293	3801.660144
736.372707	3824.302487
736.703073	3794.816778
737.033391	3783.053245
737.363661	3803.341369
737.693883	3828.549659
738.024056	3834.977130
738.354182	3831.866738
738.684260	3898.440216
739.014290	3916.290942
739.344272	3915.323040
739.674207	3954.434832
740.004093	3959.652426
740.333931	3957.923311
740.663722	3955.415337
740.993464	3953.393834
741.323159	3928.566151
741.652806	3897.787386
741.982405	3872.087584
742.311956	3838.468129
742.641460	3828.277437
742.970915	3806.572749
743.300323	3767.345010
743.629683	3734.312849
743.958996	3722.390521
744.288260	3695.523691
744.617477	3664.676871
744.946647	3649.137514
745.275768	3624.312352
745.604842	3618.714151
745.933869	3573.457192
746.262847	3565.381263
746.591778	3603.179835
746.920662	3575.365269
747.249498	3545.229251
747.578286	3589.142742
747.907027	3609.488839
748.235720	3606.484311
748.564365	3628.826705
748.892963	3630.505409
749.221514	3610.441617
749.550017	3587.690890
749.878473	3585.694593
750.206881	3557.512022
750.535242	3556.193761
750.863555	3554.031106
751.191821	3550.656053
751.520039	3529.886499
751.848210	3508.005371
752.176334	3541.077861
752.504411	3548.105229
752.832440	3507.264321
753.160421	3491.223370
753.488356	3500.259638
753.816243	3511.514014
754.144082	3466.703198
754.471875	3454.972433
754.799620	3473.488591
755.127318	3467.245122
755.454969	3467.895430
755.782572	3471.898107
756.110129	3445.628654
756.437638	3435.591717
756.765100	3450.493367
757.092515	3462.521560
757.419882	3464.686736
757.747203	3439.191100
758.074477	3441.454578
758.401703	3458.947382
758.728882	3479.114518
759.056014	3484.868995
759.383099	3490.983915
759.710138	3486.144407
760.037129	3501.182169
760.364073	3536.714742
760.690970	3516.960981
761.017820	3497.819720
761.344623	3517.202956
761.671379	3560.514029
761.998088	3613.488995
762.324751	3739.429621
762.651366	3986.683093
762.977935	4461.353098
763.304456	4907.139812
763.630931	5003.829143
763.957359	4639.192403
764.283740	4299.211947
764.610074	4108.532823
764.936362	3906.037235
765.262602	3750.825149
765.588796	3633.620842
765.914943	3547.018861
766.241044	3456.870427
766.567097	3432.935028
766.893104	3381.724467
767.219064	3348.752800
767.544978	3321.139880
767.870845	3269.339504
768.196665	3250.233531
768.522438	3255.957761
768.848165	3249.968870
769.173846	3215.994014
769.499479	3198.584389
769.825066	3182.233407
770.150607	3168.357631
770.476101	3177.840041
770.801548	3173.988599
771.126949	3131.143833
771.452303	3112.862088
771.777611	3119.186216
772.102872	3128.328348
772.428087	3103.692230
772.753256	3088.815785
773.078378	3083.520052
773.403453	3049.519990
773.728482	3037.428783
774.053465	3059.642627
774.378401	3048.108467
774.703291	3015.993797
775.028135	3017.566637
775.352932	3009.765451
775.677683	2999.904954
776.002388	2994.967144
776.327046	2997.580982
776.651658	2987.745691
776.976224	2975.503249
777.300743	2975.528455
777.625216	2965.519244
777.949643	2960.667133
778.274024	2963.215437
778.598359	2951.950978
778.922647	2957.770990
779.246889	2955.096658
779.571086	2944.094340
779.895236	2935.189142
780.219339	2947.928138
780.543397	2957.327369
780.867409	2961.887093
781.191374	2953.755711
781.515294	2952.870989
781.839167	2954.484158
782.162995	2942.130811
782.486776	2950.960392
782.810511	2948.770010
783.134201	2937.122424
783.457844	2943.499484
783.781441	2934.228802
784.104993	2913.943199
784.428498	2913.184505
784.751958	2929.933739
785.075372	2921.842687
785.398739	2904.140675
785.722061	2922.843356
786.045337	2933.777619
786.368568	2919.969898
786.691752	2911.163003
787.014891	2957.985239
787.337983	2989.479848
787.661030	3017.417923
787.984031	3087.016093
788.306987	3131.458905
788.629897	3125.817854
788.952760	3107.515945
789.275579	3091.956423
789.598351	3033.287475
789.921078	2987.435660
790.243759	2975.709936
790.566395	2965.725931
790.888984	2938.420521
791.211529	2921.741864
791.534027	2909.771644
791.856480	2900.165725
792.178888	2884.089486
792.501249	2879.239896
792.823566	2876.701675
793.145836	2873.409801
793.468062	2868.648432
793.790241	2867.448637
794.112375	2872.898124
794.434464	2884.409599
794.756507	2891.411762
795.078505	2895.343862
795.400457	2909.023033
795.722364	2947.018209
796.044226	2969.600058
796.366042	2974.159782
796.687812	2960.392390
797.009538	2983.007007
797.331218	2967.255921
797.652852	2956.495578
797.974442	2935.731066
798.295986	2930.536157
798.617484	2929.704366
798.938938	2912.569484
799.260346	2895.432082
799.581709	2889.596946
799.903026	2884.989332
800.224299	2878.365256
800.545526	2872.217568
800.866708	2855.367512
801.187845	2844.781089
801.508936	2843.283866
801.829983	2852.131091
802.150984	2839.855881
802.471940	2825.654951
802.792851	2827.247956
803.113717	2827.552945
803.434538	2834.706343
803.755314	2825.017245
804.076045	2819.419044
804.396731	2819.101451
804.717372	2818.831749
805.037967	2814.914773
805.358518	2822.864672
805.679024	2831.724500
805.999485	2825.997749
806.319901	2832.309274
806.640272	2821.024651
806.960598	2825.808706
807.280879	2840.531396
807.601115	2847.165554
807.921306	2835.079388
808.241453	2828.833398
808.561554	2836.508555
808.881611	2837.141220
809.201623	2829.705518
809.521590	2829.347596
809.841513	2824.896257
810.161390	2829.607216
810.481223	2826.249807
810.801011	2812.477375
811.120755	2810.450831
811.440453	2815.401244
811.760107	2814.612303
812.079716	2813.349494
812.399281	2800.454223
812.718801	2796.849798
813.038276	2790.402162
813.357707	2797.157308
813.677093	2802.672331
813.996434	2796.522123
814.315731	2794.225877
814.634983	2788.582306
814.954191	2791.589354
815.273354	2806.997641
815.592473	2809.041828
815.911547	2816.210349
816.230577	2822.531956
816.549562	2831.704336
816.868502	2830.053358
817.187399	2842.512569
817.506250	2856.597553
817.825058	2847.836028
818.143821	2864.156763
818.462539	2878.216542
818.781213	2907.997158
819.099843	2943.297838
819.418429	2999.935201
819.736970	3063.915005
820.055466	3139.222282
820.373919	3243.261615
820.692327	3385.427195
821.010691	3554.683935
821.329011	3998.156759
821.647286	4907.492693
821.965517	6297.749662
822.283704	7051.296298
822.601847	7033.682507
822.919945	6396.578963
823.237999	5882.837495
823.556010	5291.197597
823.873976	4739.980192
824.191897	4322.741532
824.509775	4024.847148
824.827609	3755.233638
825.145398	3629.280409
825.463144	3618.386476
825.780845	3709.643963
826.098502	3813.632885
826.416116	4094.732664
826.733685	4415.385337
827.051210	4480.925378
827.368692	4369.606619
827.686129	4102.367492
828.003522	3771.801390
828.320872	3508.887573
828.638177	3312.118735
828.955439	3174.447344
829.272656	3092.596650
829.589830	3023.313552
829.906960	2973.335553
830.224046	2928.401228
830.541088	2894.050806
830.858086	2879.128990
831.175041	2859.150898
831.491952	2862.036958
831.808819	2873.324102
832.125642	2894.812020
832.442421	2944.006120
832.759157	3025.582071
833.075849	3203.111345
833.392497	3487.518122
833.709101	3690.845500
834.025662	3644.905465
834.342179	3483.245744
834.658653	3306.202941
834.975083	3156.125271
835.291469	3056.267575
835.607811	2970.512507
835.924110	2909.670821
836.240366	2857.262986
836.556578	2819.061122
836.872746	2794.044396
837.188871	2772.725356
837.504952	2754.499064
837.820990	2747.612848
838.136984	2733.752196
838.452935	2725.094014
838.768842	2722.780124
839.084706	2740.703947
839.400526	2820.051708
839.716303	2955.764611
840.032037	3037.595141
840.347727	3020.724920
840.663373	2958.575054
840.978977	2885.644682
841.294537	2811.151551
841.610054	2760.170362
841.925527	2740.739235
842.240957	2715.853579
842.556344	2693.448171
842.871687	2680.373938
843.186987	2669.376661
843.502244	2666.180570
843.817458	2660.995743
844.132629	2648.720533
844.447756	2640.460603
844.762840	2634.161681
845.077881	2638.333236
845.392879	2633.478605
845.707833	2630.942904
846.022745	2625.609363
846.337613	2627.199847
846.652438	2624.296143
846.967221	2624.880917
847.281960	2622.453601
847.596656	2623.444188
847.911309	2620.905967
848.225919	2616.431943
848.540485	2614.241562
848.855009	2614.475975
849.169490	2614.201232
849.483928	2614.914556
849.798323	2617.546038
850.112675	2610.342229
850.426984	2614.397837
850.741251	2608.655963
851.055474	2609.515480
851.369654	2616.736933
851.683792	2614.211315
851.997887	2613.427415
852.311938	2613.142590
852.625947	2613.931531
852.939914	2614.861623
853.253837	2616.285749
853.567718	2614.344905
853.881555	2610.649739
854.195350	2612.494802
854.509103	2615.375821
854.822812	2611.088320
855.136479	2611.017744
855.450103	2617.243569
855.763685	2615.161572
856.077224	2611.526900
856.390720	2608.381220
856.704173	2611.458845
857.017584	2614.677621
857.330953	2617.021758
857.644278	2619.930504
857.957561	2618.219032
858.270802	2616.671398
858.584000	2615.592591
858.897155	2619.005452
859.210268	2619.721296
859.523339	2613.377004
859.836367	2609.999431
860.149352	2612.484719
860.462295	2611.685697
860.775195	2608.058586
861.088054	2608.439193
861.400869	2608.381220
861.713642	2603.977772
862.026373	2605.525407
862.339062	2610.589246
862.651708	2615.648043
862.964312	2616.676439
863.276873	2614.140738
863.589392	2615.610235
863.901869	2624.722120
864.214303	2625.180865
864.526696	2629.196144
864.839045	2627.038531
865.151353	2633.521454
865.463619	2631.605816
865.775842	2633.266876
866.088023	2629.864097
866.400162	2634.484315
866.712258	2631.862915
867.024313	2632.699746
867.336325	2627.285547
867.648296	2631.285703
867.960224	2633.153450
868.272110	2633.828965
868.583954	2625.465691
868.895755	2629.864097
869.207515	2634.622947
869.519233	2644.730460
869.830909	2639.003709
870.142542	2632.215796
870.454134	2634.015487
870.765684	2640.858854
871.077191	2641.272228
871.388657	2646.499905
871.700081	2643.069400
872.011463	2644.370017
872.322803	2644.629637
872.634101	2648.105512
872.945357	2655.274033
873.256571	2660.600012
873.567744	2660.259734
873.878874	2657.552635
874.189963	2658.684374
874.501010	2661.666216
874.812015	2663.675116
875.122979	2664.058244
875.433900	2657.708911
875.744780	2655.531132
876.055618	2663.415497
876.366415	2667.337514
876.677169	2665.520178
876.987882	2662.074550
877.298554	2660.955414
877.609183	2671.987979
877.919771	2678.307065
878.230317	2686.836697
878.540822	2696.606454
878.851285	2712.712940
879.161707	2733.525344
879.472087	2774.293155
879.782425	2820.707058
880.092722	2939.945470
880.402977	3127.683081
880.713191	3397.294071
881.023363	3697.519988
881.333494	3894.130029
881.643583	4067.084456
881.953631	4067.011359
882.263637	3888.367990
882.573602	3668.107376
882.883526	3529.495810
883.193408	3412.997265
883.503248	3306.354176
883.813048	3190.253882
884.122806	3071.706108
884.432522	2986.384580
884.742197	2922.130033
885.051831	2879.325595
885.361424	2844.821418
885.670975	2810.665080
885.980485	2777.537137
886.289954	2761.904519
886.599382	2743.070769
886.908768	2733.137175
887.218113	2712.559185
887.527417	2698.443954
887.836680	2692.273582
888.145901	2684.999197
888.455082	2678.881757
888.764221	2668.055879
889.073319	2660.635300
889.382376	2658.220588
889.691392	2660.012718
890.000366	2658.442398
890.309300	2658.654127
890.618193	2657.905516
890.927044	2664.320384
891.235855	2662.523212
891.544625	2661.774601
891.853353	2663.171001
892.162041	2668.255004
892.470687	2689.858869
892.779293	2701.743389
893.087858	2712.554144
893.396381	2733.018708
893.704864	2777.274997
894.013306	2848.970288
894.321707	2945.205914
894.630068	2997.878410
894.938387	3018.269878
895.246665	3009.954494
895.554903	2967.313895
895.863100	2922.387132
896.171256	2861.426979
896.479371	2799.461116
896.787446	2760.611463
897.095480	2741.429873
897.403473	2733.540467
897.711425	2719.420195
898.019336	2699.409335
898.327207	2682.682787
898.635038	2683.496933
898.942827	2681.062056
899.250576	2671.821621
899.558284	2658.308808
899.865952	2654.719506
900.173579	2652.319917
900.481165	2649.423774
900.788711	2642.514873
901.096216	2634.839716
901.403681	2633.118162
901.711105	2631.091618
902.018489	2630.494242
902.325832	2631.704118
902.633135	2636.462968
902.940397	2653.043323
903.247619	2688.606142
903.554800	2761.912081
903.861941	2893.166083
904.169041	3022.033099
904.476101	3086.935434
904.783121	3079.774475
905.090100	3021.922194
905.397039	2941.709874
905.703938	2869.659183
906.010796	2803.136117
906.317614	2747.799371
906.624391	2710.812425
906.931129	2686.151101
907.237826	2660.784014
907.544483	2642.305665
907.851099	2627.764457
908.157675	2618.312293
908.464211	2612.588063
908.770707	2600.544747
909.077163	2596.141299
909.383578	2592.239446
909.689954	2590.764908
909.996289	2590.918663
910.302584	2589.842377
910.608839	2585.070925
910.915054	2588.647623
911.221229	2589.827253
911.527363	2592.181472
911.833458	2591.611822
912.139513	2591.188365
912.445527	2592.821699
912.751502	2596.723552
913.057436	2603.521548
913.363331	2611.060593
913.669186	2620.885802
913.975000	2634.900210
914.280775	2653.086172
914.586510	2675.078206
914.892205	2709.242106
915.197859	2779.384720
915.503475	2864.537371
915.809050	2935.473967
916.114585	2951.779579
916.420081	2959.979016
916.725536	2974.311016
917.030952	2946.083075
917.336328	2897.773698
917.641665	2849.802078
917.946961	2795.198820
918.252218	2761.027359
918.557435	2734.200858
918.862612	2710.008361
919.167750	2693.352389
919.472848	2676.237672
919.777906	2659.987512
920.082925	2647.361942
920.387904	2635.106897
920.692843	2629.271762
920.997743	2627.860239
921.302603	2618.299690
921.607423	2611.035388
921.912204	2605.417022
922.216946	2603.173708
922.521647	2601.361413
922.826310	2597.789756
923.130932	2593.464446
923.435516	2585.522108
923.740059	2584.332396
924.044564	2584.329875
924.349028	2583.871130
924.653454	2575.301169
924.957840	2571.941240
925.262186	2568.036866
925.566493	2567.041238
925.870761	2564.840774
926.174989	2567.777247
926.479178	2564.497976
926.783328	2563.109138
927.087438	2561.909343
927.391509	2560.018911
927.695541	2559.285423
927.999533	2558.022614
928.303486	2556.124619
928.607400	2557.669733
928.911275	2556.311142
929.215110	2555.370967
929.518906	2552.941131
929.822663	2556.001111
930.126381	2553.344423
930.430060	2553.639331
930.733699	2552.966337
931.037299	2555.454146
931.340861	2556.694270
931.644383	2556.169990
931.947866	2553.697304
932.251309	2557.001780
932.554714	2554.778631
932.858080	2557.137891
933.161407	2555.005483
933.464694	2557.289126
933.767943	2556.495144
934.071153	2554.496327
934.374323	2552.126984
934.677455	2552.522715
934.980548	2553.916594
935.283602	2553.044474
935.586617	2550.891902
935.889593	2552.978939
936.192530	2549.568599
936.495428	2556.149825
936.798287	2554.473642
937.101108	2555.655792
937.403890	2558.153684
937.706632	2559.885320
938.009336	2565.458316
938.312002	2566.862277
938.614628	2570.254974
938.917216	2577.113463
939.219765	2575.419636
939.522275	2575.991807
939.824747	2575.505335
940.127179	2571.139696
940.429573	2566.635425
940.731929	2568.351938
941.034246	2563.275496
941.336524	2567.525189
941.638763	2565.609550
941.940964	2566.395970
942.243126	2562.657955
942.545250	2562.594940
942.847335	2561.100238
943.149381	2561.344734
943.451389	2559.406411
943.753359	2557.147974
944.055290	2558.372974
944.357182	2556.356512
944.659036	2556.008673
944.960851	2559.552604
945.262628	2556.318704
945.564367	2556.439692
945.866067	2556.250648
946.167729	2556.999260
946.469352	2556.112017
946.770937	2556.938766
947.072484	2550.813764
947.373992	2556.318704
947.675462	2554.478683
947.976893	2554.788714
948.278286	2553.994732
948.579641	2553.757798
948.880958	2553.372149
949.182236	2552.285781
949.483476	2553.578837
949.784678	2553.583878
950.085841	2553.730071
950.386967	2551.459032
950.688054	2555.670916
950.989103	2555.915412
951.290114	2555.925494
951.591087	2555.275185
951.892021	2558.302398
952.192917	2558.055381
952.493776	2560.810372
952.794596	2561.042265
953.095378	2559.691236
953.396122	2561.861453
953.696828	2557.785680
953.997496	2561.556463
954.298126	2556.253169
954.598718	2555.686039
954.899272	2554.488765
955.199788	2553.253682
955.500266	2551.126315
955.800706	2548.348640
956.101108	2544.131714
956.401472	2543.257074
956.701798	2543.118442
957.002087	2542.453010
957.302337	2544.930737
957.602550	2543.360418
957.902724	2542.153062
958.202861	2540.270191
958.502960	2541.354039
958.803022	2542.513504
959.103045	2537.963863
959.403031	2539.040149
959.702979	2538.530992
960.002889	2536.731301
960.302762	2537.716846
960.602596	2538.760365
960.902393	2540.542413
961.202153	2538.823379
961.501875	2535.947401
961.801559	2538.291538
962.101205	2538.218441
962.400814	2538.594007
962.700385	2536.670807
962.999918	2539.753472
963.299414	2538.727598
963.598873	2536.204500
963.898293	2535.705426
964.197677	2538.775488
964.497022	2538.283976
964.796331	2535.213913
965.095601	2532.862215
965.394835	2537.684079
965.694030	2534.135106
965.993189	2536.995961
966.292309	2535.171063
966.591393	2534.639222
966.890439	2537.356404
967.189447	2536.322967
967.488419	2536.133924
967.787353	2536.862371
968.086249	2536.920344
968.385108	2536.474202
968.683930	2536.401105
968.982714	2533.729293
969.281462	2535.092926
969.580172	2537.023688
969.878844	2538.873791
970.177480	2538.011754
970.476078	2535.992772
970.774639	2537.220293
971.073162	2536.943029
971.371649	2536.161650
971.670098	2533.013450
971.968510	2536.007895
972.266885	2532.675692
972.565223	2535.700385
972.863524	2536.262473
973.161788	2538.457896
973.460014	2536.267514
973.758204	2539.100643
974.056356	2536.141486
974.354471	2537.817669
974.652550	2537.391692
974.950591	2537.608461
975.248595	2534.845909
975.546563	2537.152237
975.844493	2537.681558
976.142386	2535.934798
976.440243	2539.282124
976.738062	2539.607279
977.035845	2535.768440
977.333590	2537.414377
977.631299	2537.449665
977.928971	2535.375230
978.226606	2532.658048
978.524204	2535.097967
978.821765	2534.614016
979.119290	2536.814480
979.416777	2533.590662
979.714228	2535.695343
980.011642	2535.768440
980.309020	2537.973945
980.606360	2535.990251
980.903664	2536.443955
981.200931	2535.186187
981.498162	2539.753472
981.795356	2538.107536
982.092513	2543.062990
982.389633	2544.353525
982.686717	2548.580533
982.983764	2551.335523
983.280775	2553.036913
983.577749	2553.213353
983.874686	2551.370811
984.171587	2547.375697
984.468451	2544.698844
984.765279	2544.393854
985.062070	2542.100129
985.358824	2538.266332
985.655543	2538.934285
985.952224	2537.142155
986.248869	2537.986548
986.545478	2528.080681
986.842050	2533.257946
987.138586	2527.536236
987.435086	2532.761392
987.731549	2526.868283
988.027975	2535.355066
988.324366	2531.541433
988.620719	2534.235929
988.917037	2532.022863
989.213318	2531.579241
989.509563	2533.809952
989.805772	2529.295599
990.101944	2533.396577
990.398080	2532.413552
990.694180	2532.736186
990.990244	2534.062010
991.286271	2528.920033
991.582262	2532.894982
991.878217	2532.837009
992.174136	2533.996475
992.470019	2529.708973
992.765865	2531.735517
993.061676	2533.129396
993.357450	2533.807431
993.653188	2531.511186
993.948890	2533.782226
994.244556	2530.944056
994.540186	2535.468492
994.835780	2531.853984
995.131337	2535.768440
995.426859	2531.894313
995.722345	2533.404139
996.017795	2536.040663
996.313208	2538.493184
996.608586	2536.418749
996.903928	2536.431352
997.199234	2537.784902
997.494504	2535.150899
997.789738	2535.362627
998.084936	2534.528316
998.380099	2536.229706
998.675225	2531.995137
998.970316	2533.774664
999.265371	2533.252904
999.560390	2531.390198
999.855373	2531.995137
1000.150320	2533.515044
1000.445232	2533.837678
1000.740108	2531.526309
1001.034948	2530.855836
1001.329752	2531.680064
1001.624521	2531.808614
1001.919254	2530.583613
1002.213951	2528.468849
1002.508613	2528.380629
1002.803239	2528.597399
1003.097829	2524.952645
1003.392384	2528.680578
1003.686903	2531.957328
1003.981386	2529.003212
1004.275834	2530.891124
1004.570246	2531.349869
1004.864623	2529.928263
1005.158964	2530.845753
1005.453270	2531.710311
1005.747540	2531.332225
1006.041775	2531.692667
1006.335974	2529.277955
1006.630138	2530.447502
1006.924266	2533.933460
1007.218359	2531.914478
1007.512416	2527.768129
1007.806438	2529.545136
1008.100425	2528.173942
1008.394376	2528.914992
1008.688292	2531.087729
1008.982172	2530.780218
1009.276017	2531.642256
1009.569827	2530.021525
1009.863602	2532.431196
1010.157341	2530.127389
1010.451045	2531.962369
1010.744714	2530.586134
1011.038347	2532.889941
1011.331945	2528.075639
1011.625508	2530.941535
1011.919036	2528.781401
1012.212528	2530.419776
1012.505986	2529.691329
1012.799408	2529.688809
1013.092795	2528.872142
1013.386147	2531.211237
1013.679464	2530.462626
1013.972745	2530.656710
1014.265992	2530.530681
1014.559204	2527.473222
1014.852380	2529.648479
1015.145521	2528.703263
1015.438628	2532.942873
1015.731699	2530.507996
1016.024736	2527.390043
1016.317737	2530.545805
1016.610703	2532.305168
1016.903635	2526.444826
1017.196531	2524.932480
1017.489393	2526.666637
1017.782219	2525.426513
1018.075011	2528.378109
1018.367768	2530.437420
1018.660490	2527.730320
1018.953177	2527.730320
1019.245829	2527.730320
