Dividing Wavelength (nm)	Counts (n)	Blue Motor Position (mm): 31.800000	Red Motor Position (mm): 0.000000	
326.493990	2132.534106
326.888308	2132.534106
327.282561	2132.534106
327.676750	2098.211410
328.070874	2096.860381
328.464933	2101.165526
328.858929	2106.264653
329.252859	2117.609770
329.646726	2129.731224
330.040528	2141.570374
330.434265	2158.871614
330.827938	2175.308296
331.221547	2194.111800
331.615091	2211.377752
332.008571	2229.682182
332.401986	2249.902250
332.795338	2268.473860
333.188625	2286.901798
333.581847	2309.564305
333.975006	2325.912767
334.368100	2343.967660
334.761129	2361.394929
335.154095	2379.008720
335.546996	2400.428583
335.939833	2422.811306
336.332606	2438.801846
336.725315	2451.369443
337.117960	2460.415793
337.510540	2470.243523
337.903056	2484.164669
338.295508	2488.089207
338.687896	2496.316370
339.080220	2504.959428
339.472480	2512.521159
339.864676	2516.783455
340.256807	2520.629855
340.648875	2524.771163
341.040879	2525.986081
341.432818	2525.940711
341.824694	2532.426155
342.216506	2527.332069
342.608253	2528.562111
342.999937	2529.192255
343.391557	2528.307533
343.783113	2531.554036
344.174605	2525.325690
344.566033	2524.907274
344.957397	2524.171266
345.348697	2520.339989
345.739934	2522.898374
346.131106	2518.681449
346.522215	2518.683970
346.913260	2512.765655
347.304241	2513.998217
347.695159	2511.462517
348.086012	2510.784482
348.476802	2508.493277
348.867528	2507.563184
349.258191	2505.710560
349.648789	2504.624192
350.039324	2502.113697
350.429796	2503.046311
350.820203	2502.968173
351.210548	2495.850063
351.600828	2498.473984
351.991045	2497.506082
352.381198	2498.791577
352.771288	2499.953563
353.161314	2494.970382
353.551276	2498.347955
353.941175	2497.886690
354.331010	2497.233860
354.720782	2495.613129
355.110490	2498.100939
355.500135	2496.026504
355.889717	2498.441217
356.279235	2494.834271
356.668689	2496.863335
357.058080	2495.724035
357.447408	2495.676144
357.836672	2494.955259
358.225873	2494.219250
358.615010	2495.340907
359.004084	2499.255363
359.393095	2499.366268
359.782043	2499.638491
360.170927	2500.276197
360.559748	2502.663183
360.948505	2500.979437
361.337199	2503.222751
361.725830	2505.337515
362.114398	2504.999758
362.502903	2504.283914
362.891344	2503.411794
363.279722	2504.301558
363.668037	2507.240551
364.056289	2504.508245
364.444478	2506.502022
364.832603	2505.917248
365.220665	2508.074862
365.608665	2504.530930
365.996601	2507.994203
366.384474	2508.732732
366.772284	2508.425222
367.160031	2506.131497
367.547715	2511.961591
367.935336	2507.167454
368.322893	2510.209790
368.710388	2512.886643
369.097820	2509.950171
369.485189	2510.605521
369.872495	2510.476971
370.259738	2509.660304
370.646918	2512.059894
371.034035	2512.145593
371.421090	2510.509739
371.808081	2511.339009
372.195010	2511.661642
372.581875	2513.138701
372.968678	2515.311438
373.355418	2510.981087
373.742096	2514.353619
374.128710	2513.080727
374.515262	2514.976201
374.901751	2514.348577
375.288177	2514.086437
375.674540	2513.698269
376.060841	2517.025430
376.447079	2517.569875
376.833254	2516.508712
377.219367	2511.212980
377.605417	2513.347908
377.991404	2512.211128
378.377329	2513.110974
378.763191	2513.123577
379.148991	2513.935203
379.534727	2518.641120
379.920402	2518.033661
380.306013	2516.932169
380.691563	2518.605832
381.077049	2516.319669
381.462474	2519.533404
381.847835	2515.949144
382.233134	2518.555420
382.618371	2518.885616
383.003545	2519.399814
383.388657	2520.390400
383.773706	2520.251769
384.158693	2520.710514
384.543618	2520.733199
384.928480	2522.719413
385.313280	2521.416275
385.698017	2519.427540
386.082692	2521.380987
386.467305	2523.130268
386.851856	2523.130268
387.236344	2520.982736
387.620770	2521.398631
388.005133	2523.878879
388.389435	2526.923736
388.773674	2520.821419
389.157851	2521.343178
389.541965	2522.411903
389.926018	2524.075484
390.310008	2523.626821
390.693936	2523.609177
391.077802	2524.773684
391.461606	2525.277799
391.845348	2523.480628
392.229027	2525.955834
392.612645	2522.442150
392.996200	2524.630011
393.379694	2525.832326
393.763125	2527.200999
394.146494	2527.095135
394.529801	2528.216792
394.913047	2526.414579
395.296230	2530.298788
395.679351	2527.059847
396.062410	2528.559590
396.445408	2528.887265
396.828343	2526.472552
397.211217	2523.165556
397.594028	2525.381143
397.976778	2525.769312
398.359466	2529.996319
398.742092	2528.814168
399.124656	2531.433048
399.507158	2531.836340
399.889598	2529.870290
400.271977	2531.523789
400.654294	2533.116793
401.036549	2530.888603
401.418742	2531.440610
401.800874	2530.389529
402.182944	2532.524458
402.564952	2530.634025
402.946898	2533.391536
403.328783	2532.842050
403.710606	2532.925229
404.092367	2534.966897
404.474067	2534.835827
404.855705	2534.576207
405.237282	2537.442103
405.618797	2534.833306
406.000250	2536.015457
406.381642	2536.297761
406.762972	2537.374048
407.144240	2537.086702
407.525447	2539.019984
407.906593	2536.234747
408.287677	2537.492515
408.668700	2538.241126
409.049661	2540.474357
409.430560	2539.602238
409.811399	2541.787578
410.192176	2539.844213
410.572891	2540.945705
410.953545	2540.791950
411.334138	2540.270191
411.714669	2542.450490
412.095139	2542.100129
412.475547	2543.410829
412.855894	2543.698175
413.236180	2544.797147
413.616405	2546.075079
413.996568	2548.149514
414.376670	2546.768238
414.756711	2548.827549
415.136691	2551.741336
415.516609	2554.632438
415.896466	2559.852553
416.276262	2560.442368
416.655997	2558.317521
417.035670	2567.305899
417.415283	2570.922927
417.794834	2577.221848
418.174324	2583.412385
418.553753	2590.618715
418.933121	2600.658172
419.312428	2611.763834
419.691674	2618.735750
420.070859	2633.289561
420.449983	2643.013947
420.829045	2655.775628
421.208047	2665.336176
421.586988	2683.254958
421.965867	2694.816844
422.344686	2716.566902
422.723444	2723.296843
423.102141	2728.610219
423.480777	2763.190014
423.859352	2767.906013
424.237866	2806.576704
424.616319	2822.945331
424.994712	2858.777852
425.373044	2867.531816
425.751314	2908.362642
426.129524	2909.063362
426.507673	2964.405149
426.885762	2995.957731
427.263789	3019.701565
427.641756	3026.507123
428.019662	3077.536203
428.397508	3110.991820
428.775292	3141.137920
429.153016	3191.471321
429.530679	3210.584856
429.908282	3264.074019
430.285824	3266.755912
430.663305	3374.974362
431.040726	3351.364118
431.418086	3384.023233
431.795385	3460.583237
432.172624	3505.754496
432.549802	3545.902245
432.926920	3594.345213
433.303977	3642.566370
433.680974	3701.232798
434.057910	3756.325048
434.434786	3810.467040
434.811601	3839.773788
435.188355	3981.377279
435.565050	3982.687979
435.941683	4020.103423
436.318257	4175.197041
436.694770	4217.832600
437.071222	4288.403713
437.447614	4304.863080
437.823946	4309.193431
438.200218	4444.898772
438.576429	4429.621555
438.952580	4535.069891
439.328670	4609.260552
439.704700	4606.455150
440.080670	4642.958145
440.456580	4866.790417
440.832429	4846.270400
441.208218	4789.050783
441.583947	4935.602167
441.959616	4990.386906
442.335224	4985.275176
442.710773	5128.133915
443.086261	5197.777455
443.461689	5088.656639
443.837057	5245.451647
444.212365	5401.346809
444.587612	5359.510273
444.962800	5523.249471
445.337927	5545.672523
445.712995	5277.762922
446.088002	5780.060971
446.462949	5679.316032
446.837837	5658.816180
447.212664	5835.501061
447.587431	5996.447459
447.962139	6496.766855
448.336786	7320.055333
448.711374	7137.575646
449.085901	6368.441763
449.460369	6333.120918
449.834776	6309.004038
450.209124	6684.075967
450.583412	6850.839857
450.957640	7005.701582
451.331808	6819.574621
451.705917	6433.825528
452.079965	6378.617332
452.453954	6597.264777
452.827883	6496.779457
453.201752	6602.268122
453.575562	6429.480054
453.949311	6639.809595
454.323001	6546.855759
454.696632	6631.716023
455.070202	6775.227590
455.443713	6936.025274
455.817164	7050.691360
456.190556	7137.487426
456.563888	7221.210909
456.937160	7269.185050
457.310373	6949.112110
457.683526	6974.333003
458.056619	6873.051181
458.429653	6871.614452
458.802628	6811.317211
459.175542	6923.797956
459.548398	7281.414889
459.921194	7435.591018
460.293930	7444.740712
460.666607	7972.907442
461.039224	8274.862475
461.411782	8410.409019
461.784280	8435.680323
462.156719	8324.187644
462.529099	8211.399389
462.901419	7797.555946
463.273680	7694.073661
463.645882	7708.032616
464.018024	7579.949499
464.390106	7747.020899
464.762130	8137.750652
465.134094	8605.567208
465.505999	9624.996901
465.877845	10837.384318
466.249631	11474.402162
466.621358	11099.037847
466.993026	10478.209668
467.364634	10221.093178
467.736184	9858.767807
468.107674	9529.038537
468.479105	9566.476666
468.850477	9327.916663
469.221790	9103.638249
469.593043	8778.418291
469.964238	8637.331518
470.335373	8647.229824
470.706449	8709.888846
471.077467	8694.790590
471.448425	10002.576803
471.819324	11074.253014
472.190164	11078.369116
472.560945	9840.276855
472.931667	9052.163027
473.302330	8923.946320
473.672934	8572.497239
474.043479	8927.828009
474.413965	8871.543526
474.784393	8753.719158
475.154761	8906.718177
475.525070	9000.221499
475.895321	8823.471083
476.265513	8999.757713
476.635645	9167.471860
477.005719	9162.007249
477.375734	9283.917473
477.745691	9521.645685
478.115588	9656.625100
478.485427	9888.180419
478.855207	10436.862125
479.224928	11237.780483
479.594591	11869.308511
479.964194	11684.494769
480.333739	11616.784512
480.703226	11531.493230
481.072653	11627.973353
481.442022	11859.294258
481.811333	12042.741847
482.180584	11854.716891
482.549777	11563.887684
482.918912	11387.953936
483.287988	11408.385732
483.657005	11425.087075
484.025964	11108.210226
484.394864	11235.189330
484.763706	11209.121523
485.132489	10965.081786
485.501213	10932.236148
485.869879	11005.552169
486.238487	10846.924702
486.607036	10954.457555
486.975527	10743.515513
487.343959	10925.070148
487.712333	10976.043775
488.080648	10904.517364
488.448905	10950.722060
488.817104	10887.392564
489.185244	11152.842082
489.553326	11316.044397
489.921350	11853.194462
490.289315	12904.121284
490.657222	13246.871855
491.025070	13149.524653
491.392861	13023.228626
491.760593	12648.202068
492.128267	12298.232565
492.495883	11970.348357
492.863440	11636.124898
493.230939	11304.338837
493.598380	11229.654143
493.965763	11105.185534
494.333088	11002.799699
494.700354	10927.230283
495.067563	10987.963584
495.434713	10822.094499
495.801805	10940.044896
496.168839	10868.911694
496.535815	10806.744185
496.902733	10806.366099
497.269593	10745.443754
497.636395	10837.850625
498.003139	10827.886784
498.369825	10695.551455
498.736453	10853.039622
499.103023	10785.571339
499.469535	10810.441872
499.835989	10802.958279
500.202385	10765.709193
500.568723	10623.208377
500.935003	10837.603608
501.301226	10642.228650
501.667390	10899.566951
502.033497	10998.376087
502.399546	10852.432163
502.765537	10763.181054
503.131470	10840.658548
503.497345	11017.587924
503.863163	10627.054777
504.228923	10939.515575
504.594625	10996.888947
504.960269	10744.667417
505.325856	10963.869389
505.691385	10761.651064
506.056856	10911.668241
506.422270	10933.602301
506.787625	10826.245889
507.152924	10949.552512
507.518164	10929.350088
507.883347	10845.873621
508.248472	10764.174162
508.613540	10996.601601
508.978550	10882.946267
509.343503	10862.146466
509.708398	10982.347738
510.073236	11088.370765
510.438016	11102.160842
510.802738	11042.826461
511.167403	11096.466858
511.532010	11001.126036
511.896561	11221.840355
512.261053	11296.091510
512.625488	11168.484782
512.989866	11149.275466
513.354186	11132.223763
513.718449	11041.425020
514.082655	11226.450490
514.446803	11132.561520
514.810894	11248.843295
515.174927	11110.607295
515.538904	11141.743982
515.902822	11295.000100
516.266684	11178.723366
516.630488	11121.806218
516.994235	11170.218939
517.357925	11240.172511
517.721558	11324.788278
518.085133	11342.432316
518.448651	11349.452123
518.812112	11232.391490
519.175516	11250.595096
519.538863	11365.462828
519.902152	11282.533326
520.265385	11448.102463
520.628560	11357.999399
520.991678	11332.919659
521.354739	11397.736295
521.717743	11328.755666
522.080690	11307.217336
522.443580	11443.076432
522.806413	11394.509956
523.169189	11436.681729
523.531908	11488.439255
523.894569	11308.775053
524.257174	11313.967441
524.619722	11434.168713
524.982213	11372.306194
525.344647	11437.079980
525.707025	11380.112421
526.069345	11470.281019
526.431608	11393.600028
526.793815	11502.620021
527.155964	11287.060283
527.518057	11341.154384
527.880093	11288.325612
528.242072	11360.744308
528.603995	11265.277457
528.965860	11175.668427
529.327669	11242.942625
529.689421	11188.523369
530.051117	11157.316106
530.412755	11261.569688
530.774337	11148.443675
531.135862	11129.756118
531.497331	11154.664459
531.858743	11006.280616
532.220098	11180.586072
532.581396	11041.742613
532.942638	11022.692093
533.303824	10993.503812
533.664953	11004.601912
534.026025	10920.278532
534.387040	11015.233705
534.747999	11016.743531
535.108902	11074.008518
535.469748	10839.113434
535.830537	10941.738723
536.191270	10918.420866
536.551947	10937.289905
536.912567	10936.821078
537.273131	10866.489420
537.633638	10842.294402
537.994089	10837.812816
538.354483	10788.956474
538.714821	10931.215315
539.075103	10936.435430
539.435328	10899.788762
539.795497	10732.508154
540.155609	10888.544468
540.515665	10971.693260
540.875665	10713.059382
541.235609	10783.486822
541.595496	10775.287385
541.955328	10928.281363
542.315102	10808.059926
542.674821	10756.483881
543.034483	10763.977557
543.394090	10767.982753
543.753640	10692.315034
544.113134	10924.787844
544.472571	10767.193813
544.831953	10910.113045
545.191278	10721.357121
545.550548	10751.651935
545.909761	10886.956505
546.268918	10860.349295
546.628019	10942.283168
546.987064	10810.404063
547.346053	10732.528318
547.704986	10833.817702
548.063863	10818.648870
548.422684	10806.996243
548.781449	10722.231762
549.140158	10824.572226
549.498811	10702.644358
549.857408	10567.347351
550.215949	10789.619386
550.574434	10640.645728
550.932864	10738.517209
551.291237	10797.748246
551.649555	10748.113045
552.007817	10761.580488
552.366022	10726.746115
552.724173	10713.182890
553.082267	10701.109327
553.440305	10840.008239
553.798288	10637.905861
554.156215	10793.657350
554.514086	10765.555438
554.871902	10616.627150
555.229661	10653.805660
555.587365	10627.926897
555.945014	10529.576506
556.302606	10649.180401
556.660143	10548.805987
557.017625	10700.206960
557.375050	10596.969171
557.732421	10725.901722
558.089735	10641.323763
558.446994	10644.282920
558.804197	10680.241471
559.161345	10680.982520
559.518437	10531.101455
559.875474	10619.785433
560.232455	10650.196194
560.589381	10599.459501
560.946251	10599.275499
561.303065	10699.977588
561.659825	10637.018617
562.016528	10565.071270
562.373177	10446.147930
562.729770	10566.253420
563.086307	10475.648762
563.442789	10573.058978
563.799216	10452.202356
564.155587	10501.174645
564.511904	10460.101844
564.868164	10451.126069
565.224370	10459.108737
565.580520	10385.129804
565.936615	10387.592407
566.292654	10259.905022
566.648638	10387.748683
567.004567	10344.714873
567.360441	10333.984778
567.716260	10245.588145
568.072023	10337.052320
568.427732	10287.079362
568.783385	10201.306649
569.138982	10269.309294
569.494525	10284.793198
569.850013	10158.837449
570.205445	10238.525488
570.560823	10138.090580
570.916145	10055.193846
571.271412	10130.712852
571.626625	10064.033510
571.981782	10048.610099
572.336884	10022.101192
572.691931	10020.092292
573.046923	9972.297113
573.401860	9928.502088
573.756743	9867.136123
574.111570	9909.806969
574.466342	9893.811388
574.821059	9922.556047
575.175722	9813.861209
575.530330	9820.903701
575.884882	9812.484974
576.239380	9743.484181
576.593823	9720.746056
576.948211	9737.659127
577.302544	9617.656981
577.656823	9630.012849
578.011047	9635.109455
578.365216	9604.199620
578.719330	9528.589874
579.073389	9538.672182
579.427394	9487.282660
579.781344	9470.165422
580.135239	9414.405219
580.489080	9427.726468
580.842866	9327.536056
581.196597	9336.786573
581.550273	9373.811328
581.903895	9345.190177
582.257463	9406.165453
582.610975	9276.345659
582.964434	9310.449065
583.317837	9236.344104
583.671186	9212.474240
584.024481	9208.779074
584.377721	9130.326118
584.730906	9108.477757
585.084037	9138.482705
585.437113	9076.579856
585.790135	9092.358668
586.143103	8988.778079
586.496016	8969.170512
586.848874	9025.283595
587.201679	9007.006892
587.554428	8898.632166
587.907124	8948.307696
588.259765	8915.769569
588.612352	8918.910208
588.964884	8795.356568
589.317362	8811.836100
589.669786	8810.747211
590.022155	8862.492134
590.374470	8870.686530
590.726731	8810.094381
591.078937	8662.759098
591.431090	8778.619937
591.783188	8652.485227
592.135232	8640.252867
592.487222	8642.803691
592.839157	8698.957104
593.191038	8627.826423
593.542866	8573.245850
593.894639	8472.085016
594.246358	8526.463943
594.598022	8545.665697
594.949633	8439.975387
595.301190	8417.388497
595.652692	8438.722660
596.004141	8557.406545
596.355535	8332.606371
596.706876	8313.268505
597.058162	8243.808967
597.409395	8318.841501
597.760573	8379.418526
598.111698	8293.529867
598.462768	8277.793906
598.813785	8237.605827
599.164748	8216.732930
599.515657	8204.435035
599.866511	8117.293649
600.217312	8238.614058
600.568060	8098.626257
600.918753	8201.901855
601.269392	8169.724170
601.619978	8083.580933
601.970510	8142.673338
602.320988	8145.405644
602.671412	8199.010753
603.021783	8137.304510
603.372100	8112.643185
603.722363	8114.223587
604.072572	8086.923218
604.422728	8096.617357
604.772830	8028.730659
605.122878	8037.567801
605.472872	8029.065895
605.822813	8055.839463
606.172701	8004.538161
606.522534	8080.974657
606.872314	8078.605314
607.222041	8050.495840
607.571714	8101.774457
607.921333	8059.239722
608.270899	8065.503355
608.620411	8158.595823
608.969870	8071.066269
609.319276	8056.880462
609.668627	8074.743790
610.017926	8106.422401
610.367171	8155.319073
610.716362	8128.719425
611.065500	8122.982592
611.414585	8150.164493
611.763616	8139.134448
612.112594	8126.667675
612.461518	8135.434242
612.810389	8196.903551
613.159207	8131.038355
613.507971	8085.529339
613.856682	8205.833955
614.205340	8158.310998
614.553945	8235.601968
614.902496	8131.776884
615.250994	8188.199999
615.599439	8172.600148
615.947830	8184.398969
616.296169	8153.111048
616.644454	8167.480857
616.992686	8166.757451
617.340864	8227.997388
617.688990	8129.034497
618.037063	8222.005977
618.385082	8171.755755
618.733048	8254.017303
619.080961	8191.751492
619.428821	8211.192702
619.776628	8214.605563
620.124382	8164.516658
620.472083	8150.640882
620.819731	8176.479316
621.167326	8068.923778
621.514868	8080.906601
621.862357	7969.116494
622.209793	7986.808423
622.557176	7915.778566
622.904506	7890.207313
623.251783	7826.161974
623.599007	7776.632637
623.946179	7781.048688
624.293297	7739.817091
624.640363	7660.141654
624.987376	7641.093654
625.334336	7586.157680
625.681243	7536.169599
626.028097	7525.910851
626.374899	7503.376893
626.721647	7493.420614
627.068343	7427.081550
627.414987	7400.625575
627.761577	7355.020776
628.108115	7390.152578
628.454600	7284.840353
628.801032	7332.789288
629.147412	7298.053217
629.493739	7285.082328
629.840014	7221.079839
630.186236	7276.587984
630.532405	7160.888462
630.878521	7213.371915
631.224585	7168.591345
631.570597	7090.208965
631.916556	7126.840509
632.262462	7122.041331
632.608316	7083.685712
632.954117	7065.585449
633.299866	7051.480300
633.645562	7042.963271
633.991206	6962.186342
634.336797	6904.757518
634.682336	6863.160437
635.027823	6828.699109
635.373257	6819.138561
635.718639	6751.534167
636.063968	6765.808194
636.409245	6661.168964
636.754470	6662.179715
637.099642	6617.416790
637.444762	6561.578449
637.789829	6565.739922
638.134845	6512.580954
638.479808	6495.017574
638.824719	6503.390931
639.169577	6428.280259
639.514383	6450.015194
639.859137	6382.191510
640.203839	6387.227623
640.548489	6370.647268
640.893086	6348.183886
641.237632	6323.804866
641.582125	6344.892013
641.926566	6312.437064
642.270955	6325.196225
642.615292	6323.661193
642.959576	6340.627197
643.303809	6324.697150
643.647990	6331.626216
643.992118	6323.406615
644.336195	6273.297546
644.680219	6296.194467
645.024192	6285.449247
645.368112	6380.752261
645.711981	6403.959212
646.055797	6478.888402
646.399562	6435.945333
646.743274	6557.958901
647.086935	6613.202385
647.430544	6613.666171
647.774101	6633.303986
648.117606	6643.529967
648.461059	6631.925230
648.804460	6589.403098
649.147810	6505.246075
649.491108	6472.549152
649.834354	6447.429082
650.177548	6364.963367
650.520690	6274.295694
650.863781	6254.630153
651.206820	6273.211846
651.549807	6193.087747
651.892742	6138.431557
652.235626	6142.219984
652.578458	6129.445700
652.921238	6041.729623
653.263967	6079.172793
653.606644	6019.147775
653.949269	6025.325709
654.291843	5961.081244
654.634365	6011.618811
654.976836	5967.410413
655.319255	5965.756914
655.661622	5941.755981
656.003938	5937.067708
656.346203	5898.722171
656.688416	5930.599907
657.030577	5883.878493
657.372687	5854.206262
657.714746	5839.226473
658.056753	5882.769440
658.398708	5826.757179
658.740612	5811.490045
659.082465	5859.817066
659.424266	5857.689699
659.766016	5854.576787
660.107715	5831.402603
660.449362	5841.585733
660.790958	5837.255382
661.132503	5828.564433
661.473996	5862.004927
661.815438	5849.707032
662.156829	5846.500858
662.498168	5838.752605
662.839456	5812.190765
663.180693	5849.570921
663.521879	5852.078895
663.863013	5841.878120
664.204097	5858.128280
664.545129	5899.001955
664.886110	5895.752931
665.227040	5933.657367
665.567918	5894.767386
665.908746	5923.875008
666.249522	5924.187560
666.590248	5914.054840
666.930922	5937.032420
667.271545	5949.539522
667.612118	5956.206448
667.952639	5929.664773
668.293109	5952.917095
668.633528	5909.028810
668.973896	5915.705818
669.314213	5904.965640
669.654480	5888.360079
669.994695	5880.014449
670.334859	5872.596391
670.674973	5859.252457
671.015035	5863.071131
671.355047	5861.541141
671.695008	5848.824830
672.034918	5822.961190
672.374777	5830.467468
672.714585	5816.753009
673.054342	5821.564791
673.394049	5816.863915
673.733705	5847.771229
674.073310	5836.728582
674.412864	5790.808711
674.752368	5783.398215
675.091820	5788.386437
675.431223	5728.416871
675.770574	5727.829576
676.109875	5679.996588
676.449125	5683.931208
676.788324	5650.352083
677.127473	5590.538792
677.466571	5582.614098
677.805619	5577.174693
678.144616	5562.383948
678.483562	5538.887130
678.822458	5513.600702
679.161303	5506.560731
679.500098	5495.177806
679.838842	5479.572914
680.177535	5480.263552
680.516179	5500.473538
680.854771	5509.434189
681.193314	5590.216158
681.531805	5695.641809
681.870247	5849.328946
682.208638	5949.854594
682.546978	5959.115194
682.885268	5933.813643
683.223508	5851.484039
683.561697	5799.358508
683.899836	5769.809785
684.237925	5727.688424
684.575963	5690.971180
684.913951	5649.237988
685.251889	5708.219488
685.589776	5681.319891
685.927614	5650.568852
686.265401	5722.753134
686.603137	5708.070774
686.940824	5788.562877
687.278460	5805.654909
687.616046	5817.604964
687.953582	5883.059306
688.291068	5862.420822
688.628504	5930.352891
688.965889	5888.526437
689.303224	5836.501730
689.640510	5789.616478
689.977745	5716.247525
690.314930	5612.619046
690.652065	5555.096960
690.989150	5467.945492
691.326185	5386.891300
691.663170	5335.249720
692.000105	5262.004276
692.336990	5184.289848
692.673825	5157.423018
693.010610	5089.294345
693.347345	5022.708264
693.684030	5010.140668
694.020665	4967.636179
694.357251	4873.941294
694.693786	4884.041245
695.030272	4850.512531
695.366707	4818.581863
695.703093	4781.113487
696.039429	4805.235408
696.375716	4786.038694
696.711952	4762.446094
697.048139	4748.073764
697.384276	4727.566351
697.720363	4739.879369
698.056400	4749.981841
698.392388	4700.659192
698.728326	4681.049103
699.064214	4658.048839
699.400053	4653.448786
699.735842	4617.507880
700.071581	4597.522225
700.407270	4567.466866
700.742910	4549.487591
701.078501	4497.596474
701.414042	4493.654292
701.749533	4466.888285
702.084974	4397.237183
702.420366	4458.005772
702.755709	4399.241042
703.091002	4340.118389
703.426246	4391.573447
703.761440	4345.633412
704.096584	4307.555056
704.431679	4331.954241
704.766725	4314.416067
705.101721	4307.053461
705.436668	4331.261082
705.771565	4283.465903
706.106413	4309.132937
706.441212	4340.940098
706.775961	4350.344370
707.110661	4330.983819
707.445311	4351.294628
707.779913	4378.978124
708.114465	4391.656626
708.448967	4414.034308
708.783421	4475.637208
709.117825	4517.725801
709.452180	4522.378786
709.786485	4565.674736
710.120742	4654.598169
710.454949	4641.372702
710.789107	4706.496848
711.123216	4783.379485
711.457275	4770.068319
711.791286	4847.903734
712.125247	4859.301783
712.459159	4762.214201
712.793023	4836.551056
713.126837	4795.752997
713.460602	4790.253099
713.794318	4709.632446
714.127985	4717.857088
714.461602	4630.645127
714.795171	4603.995067
715.128691	4537.708935
715.462162	4483.140965
715.795584	4432.295887
716.128957	4416.948095
716.462281	4362.604456
716.795556	4338.008667
717.128782	4296.184734
717.461960	4232.673757
717.795088	4241.488214
718.128167	4197.978016
718.461198	4140.657576
718.794180	4136.791011
719.127113	4115.449286
719.459997	4094.326851
719.792833	4049.392527
720.125619	4037.197975
720.458357	4007.727390
720.791046	4014.235520
721.123686	3988.296262
721.456278	3943.750107
721.788821	3961.061429
722.121315	3935.860701
722.453761	3905.908685
722.786158	3923.212446
723.118506	3943.646763
723.450805	3896.650606
723.783056	3918.652722
724.115259	3933.947583
724.447412	3939.875980
724.779518	3929.211419
725.111574	3936.488324
725.443582	3961.822643
725.775542	3953.056077
726.107453	4002.784539
726.439315	4003.417203
726.771129	4015.468082
727.102895	4053.944688
727.434612	4101.424796
727.766281	4109.601548
728.097901	4113.929378
728.429473	4119.709061
728.760996	4124.909011
729.092471	4121.168475
729.423897	4106.007205
729.755276	4111.214717
730.086606	4110.123307
730.417887	4150.656704
730.749120	4213.600551
731.080305	4277.517341
731.411442	4301.414931
731.742530	4275.274028
732.073570	4277.421559
732.404562	4331.107327
732.735506	4323.921162
733.066401	4284.895070
733.397249	4219.879308
733.728048	4143.430210
734.058798	4060.299063
734.389501	3989.052436
734.720156	3924.596242
735.050762	3885.106364
735.381320	3877.771485
735.711831	3828.000173
736.042293	3794.620173
736.372707	3819.692352
736.703073	3793.327117
737.033391	3778.508645
737.363661	3797.924649
737.693883	3825.338444
738.024056	3831.236594
738.354182	3827.382632
738.684260	3890.644071
739.014290	3912.666352
739.344272	3909.329108
739.674207	3949.224800
740.004093	3957.552786
740.333931	3947.815797
740.663722	3950.989203
740.993464	3948.617341
741.323159	3923.366201
741.652806	3898.034403
741.982405	3867.671533
742.311956	3841.593644
742.641460	3825.527487
742.970915	3799.348775
743.300323	3763.188579
743.629683	3727.091397
743.958996	3717.346846
744.288260	3690.709389
744.617477	3660.588495
744.946647	3648.227586
745.275768	3621.779172
745.604842	3615.704582
745.933869	3571.397881
746.262847	3563.576530
746.591778	3601.730503
746.920662	3569.315884
747.249498	3537.236502
747.578286	3585.860951
747.907027	3604.324177
748.235720	3602.239660
748.564365	3625.512147
748.892963	3627.793269
749.221514	3610.474385
749.550017	3585.913883
749.878473	3584.225097
750.206881	3554.386507
750.535242	3552.450704
750.863555	3557.171744
751.191821	3544.170609
751.520039	3528.669061
751.848210	3504.519413
752.176334	3542.917882
752.504411	3546.933161
752.832440	3507.198786
753.160421	3485.194150
753.488356	3497.635718
753.816243	3511.219107
754.144082	3463.731437
754.471875	3450.936989
754.799620	3474.085967
755.127318	3461.440233
755.454969	3465.720173
755.782572	3468.104638
756.110129	3443.065227
756.437638	3435.836213
756.765100	3450.110240
757.092515	3460.673978
757.419882	3467.608085
757.747203	3441.212603
758.074477	3439.667489
758.401703	3456.802371
758.728882	3476.074703
759.056014	3488.778410
759.383099	3489.529542
759.710138	3487.460148
760.037129	3500.070595
760.364073	3533.659803
760.690970	3519.839480
761.017820	3492.443329
761.344623	3515.027698
761.671379	3558.805078
761.998088	3607.958849
762.324751	3738.386102
762.651366	3979.474243
762.977935	4456.831183
763.304456	4898.635386
763.630931	4992.647864
763.957359	4628.744612
764.283740	4292.860093
764.610074	4098.808437
764.936362	3900.582706
765.262602	3746.121752
765.588796	3633.474649
765.914943	3542.607851
766.241044	3453.699541
766.567097	3427.057043
766.893104	3377.772203
767.219064	3349.529138
767.544978	3319.806495
767.870845	3264.908330
768.196665	3245.278077
768.522438	3255.854417
768.848165	3250.815784
769.173846	3215.240361
769.499479	3197.311498
769.825066	3179.964887
770.150607	3166.184893
770.476101	3178.812984
770.801548	3175.339629
771.126949	3133.097280
771.452303	3113.295628
771.777611	3118.808129
772.102872	3125.623769
772.428087	3101.741303
772.753256	3093.670416
773.078378	3082.587439
773.403453	3051.344888
773.728482	3035.538350
774.053465	3059.098183
774.378401	3045.668549
774.703291	3012.301152
775.028135	3018.272398
775.352932	3010.239320
775.677683	2998.352279
776.002388	2997.039058
776.327046	2995.536794
776.651658	2986.429950
776.976224	2974.731953
777.300743	2975.546099
777.625216	2966.005715
777.949643	2961.735858
778.274024	2963.822896
778.598359	2951.058694
778.922647	2956.288891
779.246889	2954.642954
779.571086	2941.709874
779.895236	2933.142433
780.219339	2944.679114
780.543397	2958.300312
780.867409	2960.727627
781.191374	2954.108592
781.515294	2950.163889
781.839167	2950.852007
782.162995	2942.035029
782.486776	2951.832511
782.810511	2951.066256
783.134201	2934.652259
783.457844	2940.804987
783.781441	2934.168308
784.104993	2912.798857
784.428498	2912.856830
784.751958	2927.224119
785.075372	2923.405445
785.398739	2905.955491
785.722061	2922.427461
786.045337	2936.409101
786.368568	2919.286822
786.691752	2911.762900
787.014891	2958.282668
787.337983	2987.370125
787.661030	3015.446832
787.984031	3082.358067
788.306987	3129.046713
788.629897	3121.099334
788.952760	3106.137189
789.275579	3090.035744
789.598351	3031.346631
789.921078	2985.565392
790.243759	2977.403764
790.566395	2965.441106
790.888984	2937.656787
791.211529	2921.449477
791.534027	2911.170564
791.856480	2902.588000
792.178888	2883.746687
792.501249	2877.203270
792.823566	2874.907024
793.145836	2871.045500
793.468062	2867.365458
793.790241	2866.543750
794.112375	2873.714791
794.434464	2885.468241
794.756507	2889.460835
795.078505	2897.582134
795.400457	2906.900707
795.722364	2943.433949
796.044226	2969.436220
796.366042	2971.949236
796.687812	2959.605970
797.009538	2981.270329
797.331218	2968.153247
797.652852	2951.935855
797.974442	2937.185439
798.295986	2930.601692
798.617484	2928.842329
798.938938	2912.206521
799.260346	2897.514078
799.581709	2891.121895
799.903026	2881.185781
800.224299	2877.195708
800.545526	2870.369986
800.866708	2855.067563
801.187845	2845.839731
801.508936	2847.152952
801.829983	2852.209229
802.150984	2839.931499
802.471940	2824.903819
802.792851	2825.165959
803.113717	2827.222750
803.434538	2831.699294
803.755314	2823.414158
804.076045	2818.829229
804.396731	2818.630103
804.717372	2818.516677
805.037967	2811.350677
805.358518	2819.184630
805.679024	2830.517144
805.999485	2827.779797
806.319901	2831.795076
806.640272	2823.462049
806.960598	2828.417503
807.280879	2836.700119
807.601115	2846.167406
807.921306	2833.899758
808.241453	2826.559838
808.561554	2836.019563
808.881611	2837.267249
809.201623	2829.513954
809.521590	2832.677278
809.841513	2825.362564
810.161390	2831.212823
810.481223	2823.812409
810.801011	2814.675318
811.120755	2811.426294
811.440453	2813.480564
811.760107	2811.590132
812.079716	2811.948054
812.399281	2800.834830
812.718801	2796.411217
813.038276	2790.742440
813.357707	2796.597740
813.677093	2803.761220
813.996434	2797.858029
814.315731	2793.081535
814.634983	2786.613735
814.954191	2788.738581
815.273354	2804.371199
815.592473	2812.873105
815.911547	2814.597180
816.230577	2823.020948
816.549562	2833.602330
816.868502	2829.904644
817.187399	2839.656756
817.506250	2855.533870
817.825058	2849.063549
818.143821	2861.237935
818.462539	2879.433980
818.781213	2903.755027
819.099843	2938.612085
819.418429	2996.020745
819.736970	3058.145405
820.055466	3131.113586
820.373919	3237.441603
820.692327	3381.500136
821.010691	3545.874519
821.329011	3988.064369
821.647286	4885.001585
821.965517	6267.964005
822.283704	7009.631162
822.601847	6986.338510
822.919945	6351.669844
823.237999	5850.211148
823.556010	5264.729019
823.873976	4715.820462
824.191897	4304.358965
824.509775	4014.162423
824.827609	3742.106473
825.145398	3621.741363
825.463144	3606.537243
825.780845	3696.133671
826.098502	3801.219043
826.416116	4085.819904
826.733685	4399.147780
827.051210	4466.739571
827.368692	4349.487374
827.686129	4084.453752
828.003522	3760.186572
828.320872	3504.494207
828.638177	3304.982982
828.955439	3168.523989
829.272656	3085.367635
829.589830	3018.942872
829.906960	2968.808597
830.224046	2924.867379
830.541088	2888.994528
830.858086	2877.777961
831.175041	2857.096627
831.491952	2861.553008
831.808819	2868.179604
832.125642	2891.061402
832.442421	2938.627209
832.759157	3020.989580
833.075849	3199.239739
833.392497	3481.183912
833.709101	3683.319058
834.025662	3636.499341
834.342179	3472.089670
834.658653	3298.694143
834.975083	3147.504898
835.291469	3053.074004
835.607811	2969.589976
835.924110	2908.213928
836.240366	2858.102338
836.556578	2815.681028
836.872746	2790.152625
837.188871	2769.534306
837.504952	2751.842376
837.820990	2745.878691
838.136984	2731.103069
838.452935	2725.618294
838.768842	2723.402707
839.084706	2740.101529
839.400526	2820.707058
839.716303	2955.787296
840.032037	3032.765716
840.347727	3017.601925
840.663373	2956.639251
840.978977	2882.889691
841.294537	2808.240285
841.610054	2760.283788
841.925527	2739.209245
842.240957	2717.580174
842.556344	2696.157791
842.871687	2677.727332
843.186987	2671.201559
843.502244	2667.110662
843.817458	2661.918274
844.132629	2646.192395
844.447756	2640.301806
844.762840	2634.217134
845.077881	2638.849954
845.392879	2637.400622
845.707833	2632.372071
846.022745	2623.910495
846.337613	2626.393263
846.652438	2625.571555
846.967221	2625.851339
847.281960	2623.857562
847.596656	2622.488889
847.911309	2618.730709
848.225919	2620.359002
848.540485	2616.411778
848.855009	2616.104268
849.169490	2615.668208
849.483928	2615.368259
849.798323	2612.966150
850.112675	2612.794750
850.426984	2611.055552
850.741251	2611.418515
851.055474	2613.167796
851.369654	2615.511932
851.683792	2617.735081
851.997887	2611.632764
852.311938	2611.708382
852.625947	2613.157713
852.939914	2615.504371
853.253837	2615.317848
853.567718	2613.898763
853.881555	2611.690738
854.195350	2614.841459
854.509103	2614.924638
854.822812	2608.981117
855.136479	2610.964812
855.450103	2614.067642
855.763685	2616.404217
856.077224	2612.661160
856.390720	2609.230655
856.704173	2613.245934
857.017584	2616.530245
857.330953	2620.898405
857.644278	2619.398662
857.957561	2616.479834
858.270802	2616.399175
858.584000	2617.956892
858.897155	2619.416306
859.210268	2620.248096
859.523339	2614.423043
859.836367	2612.885491
860.149352	2611.927672
860.462295	2614.972529
860.775195	2610.710233
861.088054	2609.328957
861.400869	2607.700664
861.713642	2607.952722
862.026373	2606.659666
862.339062	2608.928185
862.651708	2615.484206
862.964312	2618.266923
863.276873	2618.105606
863.589392	2616.240379
863.901869	2620.167438
864.214303	2627.099024
864.526696	2628.465177
864.839045	2630.675723
865.151353	2633.203862
865.463619	2632.828296
865.775842	2633.002216
866.088023	2633.934829
866.400162	2631.910806
866.712258	2633.188738
867.024313	2633.052627
867.336325	2627.383850
867.648296	2630.214457
867.960224	2635.351393
868.272110	2634.312916
868.583954	2627.066257
868.895755	2630.930301
869.207515	2634.348204
869.519233	2639.785088
869.830909	2638.880201
870.142542	2633.481125
870.454134	2634.345683
870.765684	2639.659059
871.077191	2639.280973
871.388657	2645.078300
871.700081	2641.123514
872.011463	2643.379431
872.322803	2642.666107
872.634101	2649.204484
872.945357	2653.174393
873.256571	2661.058757
873.567744	2658.235711
873.878874	2654.994249
874.189963	2656.587254
874.501010	2660.186638
874.812015	2667.077895
875.122979	2665.542864
875.433900	2655.974754
875.744780	2655.432830
876.055618	2662.364416
876.366415	2665.348779
876.677169	2665.288285
876.987882	2661.255362
877.298554	2658.790238
877.609183	2672.706343
877.919771	2679.476613
878.230317	2686.355267
878.540822	2696.626618
878.851285	2708.279245
879.161707	2732.534757
879.472087	2771.122269
879.782425	2818.720844
880.092722	2933.031528
880.402977	3120.300311
880.713191	3378.818242
881.023363	3673.725742
881.333494	3861.544011
881.643583	4036.325856
881.953631	4034.332079
882.263637	3856.011344
882.573602	3638.568735
882.883526	3502.490349
883.193408	3393.450191
883.503248	3292.715334
883.813048	3174.979186
884.122806	3060.161866
884.432522	2975.730101
884.742197	2912.055287
885.051831	2874.244112
885.361424	2841.441324
885.670975	2803.655356
885.980485	2771.644029
886.289954	2756.545773
886.599382	2742.634709
886.908768	2729.855384
887.218113	2707.621375
887.527417	2696.926567
887.836680	2686.761080
888.145901	2684.845442
888.455082	2673.757424
888.764221	2665.971362
889.073319	2657.729075
889.382376	2655.820998
889.691392	2657.958448
890.000366	2656.451143
890.309300	2655.468118
890.618193	2659.725372
890.927044	2662.366937
891.235855	2661.656134
891.544625	2659.599343
891.853353	2660.524395
892.162041	2669.101918
892.470687	2688.129753
892.779293	2698.542257
893.087858	2707.686910
893.396381	2730.765312
893.704864	2775.591252
894.013306	2841.290090
894.321707	2938.241560
894.630068	2987.460866
894.938387	3008.328722
895.246665	3001.397136
895.554903	2956.500620
895.863100	2913.615524
896.171256	2854.684435
896.479371	2793.699077
896.787446	2754.216760
897.095480	2735.158678
897.403473	2728.305229
897.711425	2714.825184
898.019336	2695.129396
898.327207	2682.145904
898.635038	2680.933506
898.942827	2677.654236
899.250576	2668.612926
899.558284	2656.549445
899.865952	2652.972747
900.173579	2650.943682
900.481165	2645.925213
900.788711	2637.685447
901.096216	2635.351393
901.403681	2632.798049
901.711105	2631.840230
902.018489	2627.313273
902.325832	2631.847791
902.633135	2636.089922
902.940397	2651.067190
903.247619	2687.981039
903.554800	2756.661719
903.861941	2887.764487
904.169041	3007.859895
904.476101	3068.464647
904.783121	3066.783422
905.090100	3008.976511
905.397039	2934.616971
905.703938	2858.679550
906.010796	2796.058337
906.317614	2744.474730
906.624391	2709.085830
906.931129	2682.468538
907.237826	2659.004487
907.544483	2643.452527
907.851099	2625.594240
908.157675	2618.657612
908.464211	2612.973711
908.770707	2601.006012
909.077163	2596.741196
909.383578	2595.992585
909.689954	2592.468818
909.996289	2590.089393
910.302584	2588.161152
910.608839	2588.824064
910.915054	2585.161666
911.221229	2589.209712
911.527363	2592.511668
911.833458	2587.667119
912.139513	2592.428489
912.445527	2591.405135
912.751502	2600.322936
913.057436	2601.699171
913.363331	2609.162599
913.669186	2618.594598
913.975000	2632.780405
914.280775	2650.127015
914.586510	2667.133348
914.892205	2705.478884
915.197859	2773.915068
915.503475	2855.085207
915.809050	2923.009714
916.114585	2936.388936
916.420081	2945.568878
916.725536	2960.495734
917.030952	2932.784511
917.336328	2888.419837
917.641665	2836.437979
917.946961	2785.918056
918.252218	2755.421596
918.557435	2726.729868
918.862612	2705.614996
919.167750	2688.086904
919.472848	2673.633916
919.777906	2656.451143
920.082925	2646.346150
920.387904	2631.787297
920.692843	2628.273613
920.997743	2625.251442
921.302603	2619.189454
921.607423	2610.652260
921.912204	2604.973400
922.216946	2603.198914
922.521647	2600.574993
922.826310	2597.633480
923.130932	2591.092583
923.435516	2584.816347
923.740059	2583.354412
924.044564	2581.804257
924.349028	2581.645461
924.653454	2574.938206
924.957840	2568.535940
925.262186	2568.697257
925.566493	2569.075344
925.870761	2565.281875
926.174989	2566.993347
926.479178	2568.293965
926.783328	2562.090825
927.087438	2563.456978
927.391509	2561.533778
927.695541	2563.005794
927.999533	2560.003787
928.303486	2553.745195
928.607400	2560.081925
928.911275	2558.224260
929.215110	2554.897098
929.518906	2555.592778
929.822663	2556.638817
930.126381	2554.377860
930.430060	2553.488096
930.733699	2556.921122
931.037299	2557.609239
931.340861	2557.102603
931.644383	2559.040927
931.947866	2557.435319
932.251309	2557.296688
932.554714	2554.551779
932.858080	2556.999260
933.161407	2558.335165
933.464694	2559.590413
933.767943	2554.425751
934.071153	2554.952551
934.374323	2555.469269
934.677455	2554.075390
934.980548	2553.929197
935.283602	2553.772921
935.586617	2554.392983
935.889593	2553.230997
936.192530	2553.427602
936.495428	2551.426264
936.798287	2555.950700
937.101108	2553.745195
937.403890	2558.219219
937.706632	2559.479507
938.009336	2567.026115
938.312002	2569.392936
938.614628	2570.658266
938.917216	2573.193966
939.219765	2576.138000
939.522275	2576.556416
939.824747	2575.938875
940.127179	2570.658266
940.429573	2568.863615
940.731929	2570.691033
941.034246	2564.684499
941.336524	2564.402194
941.638763	2564.450085
941.940964	2567.875549
942.243126	2564.414797
942.545250	2563.005794
942.847335	2562.400856
943.149381	2560.223077
943.451389	2561.266596
943.753359	2558.007490
944.055290	2558.004970
944.357182	2556.868190
944.659036	2557.606719
944.960851	2556.311142
945.262628	2556.472459
945.564367	2557.974723
945.866067	2556.464897
946.167729	2556.938766
946.469352	2557.127809
946.770937	2557.331976
947.072484	2557.221070
947.373992	2555.270144
947.675462	2556.545556
947.976893	2552.411810
948.278286	2554.629917
948.579641	2555.224773
948.880958	2556.870710
949.182236	2553.493137
949.483476	2555.885165
949.784678	2551.058260
950.085841	2552.603373
950.386967	2555.514640
950.688054	2553.414999
950.989103	2554.637479
951.290114	2556.190154
951.591087	2557.387428
951.892021	2555.872562
952.192917	2557.866338
952.493776	2560.021431
952.794596	2558.236863
953.095378	2561.400187
953.396122	2562.438665
953.696828	2560.109652
953.997496	2558.493962
954.298126	2556.238045
954.598718	2555.214691
954.899272	2556.278375
955.199788	2556.510268
955.500266	2552.953734
955.800706	2548.794782
956.101108	2547.214380
956.401472	2544.088865
956.701798	2544.348484
957.002087	2544.035932
957.302337	2547.600028
957.602550	2542.412681
957.902724	2545.999462
958.202861	2543.993083
958.502960	2542.566436
958.803022	2543.567105
959.103045	2544.257743
959.403031	2540.827238
959.702979	2542.389996
960.002889	2541.631302
960.302762	2539.488812
960.602596	2541.006199
960.902393	2539.042670
961.202153	2538.881353
961.501875	2540.053421
961.801559	2540.076106
962.101205	2536.580066
962.400814	2537.870601
962.700385	2537.913451
962.999918	2538.888914
963.299414	2541.028884
963.598873	2537.714326
963.898293	2540.008051
964.197677	2539.632485
964.497022	2539.372865
964.796331	2540.975952
965.095601	2539.146013
965.394835	2540.073586
965.694030	2538.641898
965.993189	2539.783719
966.292309	2538.157947
966.591393	2537.852957
966.890439	2539.992927
967.189447	2536.902700
967.488419	2537.426980
967.787353	2537.810107
968.086249	2539.274563
968.385108	2536.980838
968.683930	2538.843544
968.982714	2534.697195
969.281462	2536.743903
969.580172	2534.787936
969.878844	2537.613503
970.177480	2538.485622
970.476078	2538.997299
970.774639	2541.936292
971.073162	2538.241126
971.371649	2536.743903
971.670098	2535.521424
971.968510	2534.419932
972.266885	2537.273225
972.565223	2541.651467
972.863524	2535.866743
973.161788	2540.371014
973.460014	2540.113915
973.758204	2536.007895
974.056356	2538.783050
974.354471	2540.252547
974.652550	2540.829759
974.950591	2540.754141
975.248595	2537.863040
975.546563	2541.280942
975.844493	2540.368493
976.142386	2536.534696
976.440243	2538.989737
976.738062	2538.480581
977.035845	2537.399253
977.333590	2537.069058
977.631299	2537.648791
977.928971	2536.622916
978.226606	2539.055273
978.524204	2540.272711
978.821765	2537.177443
979.119290	2535.100487
979.416777	2535.705426
979.714228	2538.178112
980.011642	2537.419418
980.309020	2540.857485
980.606360	2537.585776
980.903664	2539.589635
981.200931	2537.568132
981.498162	2539.677855
981.795356	2541.265818
982.092513	2544.202291
982.389633	2543.355377
982.686717	2549.656819
982.983764	2548.124308
983.280775	2555.091183
983.577749	2553.926676
983.874686	2551.917777
984.171587	2545.263453
984.468451	2545.717157
984.765279	2547.073228
985.062070	2543.335212
985.358824	2541.109543
985.655543	2540.562577
985.952224	2540.635674
986.248869	2538.294058
986.545478	2532.418593
986.842050	2533.472195
987.138586	2534.180477
987.435086	2532.174098
987.731549	2530.737369
988.027975	2534.364479
988.324366	2533.157123
988.620719	2534.172915
988.917037	2534.598893
989.213318	2534.639222
989.509563	2533.895652
989.805772	2535.977648
990.101944	2534.515713
990.398080	2535.350024
990.694180	2535.571835
990.990244	2533.595703
991.286271	2532.317770
991.582262	2533.288193
991.878217	2535.039993
992.174136	2534.361958
992.470019	2535.203831
992.765865	2532.511855
993.061676	2535.471012
993.357450	2535.816331
993.653188	2530.281144
993.948890	2536.393543
994.244556	2535.279448
994.540186	2538.687268
994.835780	2534.798018
995.131337	2536.519572
995.426859	2536.136444
995.722345	2536.774150
996.017795	2536.708615
996.313208	2535.954963
996.608586	2538.102494
996.903928	2540.441590
997.199234	2537.517721
997.494504	2537.316074
997.789738	2536.151568
998.084936	2536.506969
998.380099	2534.291382
998.675225	2532.869777
998.970316	2535.246681
999.265371	2536.564942
999.560390	2533.567977
999.855373	2536.282638
1000.150320	2530.863397
1000.445232	2533.003367
1000.740108	2535.193749
1001.034948	2535.501259
1001.329752	2534.165353
1001.624521	2532.579910
1001.919254	2530.190403
1002.213951	2530.714683
1002.508613	2530.127389
1002.803239	2532.398429
1003.097829	2530.273582
1003.392384	2533.338604
1003.686903	2533.184849
1003.981386	2534.677030
1004.275834	2531.233922
1004.570246	2534.926568
1004.864623	2532.882380
1005.158964	2531.244005
1005.453270	2531.677544
1005.747540	2530.336597
1006.041775	2530.132430
1006.335974	2534.306506
1006.630138	2534.177956
1006.924266	2532.111083
1007.218359	2534.127545
1007.512416	2533.124355
1007.806438	2532.426155
1008.100425	2531.120496
1008.394376	2532.002698
1008.688292	2535.425642
1008.982172	2531.241484
1009.276017	2534.082174
1009.569827	2534.024201
1009.863602	2535.352545
1010.157341	2531.586803
1010.451045	2531.448171
1010.744714	2530.374406
1011.038347	2531.034797
1011.331945	2531.541433
1011.625508	2532.101001
1011.919036	2532.184180
1012.212528	2534.263656
1012.505986	2533.373892
1012.799408	2532.658048
1013.092795	2531.299457
1013.386147	2533.434386
1013.679464	2529.401463
1013.972745	2533.351207
1014.265992	2530.908768
1014.559204	2530.167718
1014.852380	2534.780374
1015.145521	2533.411701
1015.438628	2532.932791
1015.731699	2532.037986
1016.024736	2531.460774
1016.317737	2531.463295
1016.610703	2533.295754
1016.903635	2529.827440
1017.196531	2527.395084
1017.489393	2528.191586
1017.782219	2526.265865
1018.075011	2533.167205
1018.367768	2532.045548
1018.660490	2534.490508
1018.953177	2534.490508
1019.245829	2534.490508
