Dividing Wavelength (nm)	Counts (n)	Blue Motor Position (mm): 15.500000	Red Motor Position (mm): 0.000000	
326.493990	2137.492081
326.888308	2137.492081
327.282561	2137.492081
327.676750	2104.898500
328.070874	2101.818355
328.464933	2103.355907
328.858929	2113.218925
329.252859	2120.805861
329.646726	2134.495115
330.040528	2145.948616
330.434265	2160.751964
330.827938	2179.618483
331.221547	2198.273273
331.615091	2215.292208
332.008571	2236.497822
332.401986	2257.151429
332.795338	2273.290683
333.188625	2294.700463
333.581847	2312.876343
333.975006	2330.238077
334.368100	2348.219873
334.761129	2366.925074
335.154095	2382.111550
335.546996	2403.730539
335.939833	2420.928435
336.332606	2436.861002
336.725315	2448.269133
337.117960	2458.737089
337.510540	2466.376958
337.903056	2481.722230
338.295508	2482.707775
338.687896	2495.056082
339.080220	2500.770230
339.472480	2508.195849
339.864676	2513.728516
340.256807	2518.752025
340.648875	2518.903260
341.040879	2522.520288
341.432818	2524.307377
341.824694	2528.443644
342.216506	2526.918695
342.608253	2528.010104
342.999937	2526.608664
343.391557	2528.620084
343.783113	2525.184538
344.174605	2522.984074
344.566033	2523.321831
344.957397	2519.782941
345.348697	2518.953672
345.739934	2516.685152
346.131106	2515.873527
346.522215	2513.978053
346.913260	2510.928155
347.304241	2512.954698
347.695159	2508.626868
348.086012	2507.994203
348.476802	2505.897083
348.867528	2506.713750
349.258191	2501.869201
349.648789	2503.951198
350.039324	2497.881648
350.429796	2499.270486
350.820203	2497.924498
351.210548	2498.605054
351.600828	2496.631442
351.991045	2495.151864
352.381198	2495.928201
352.771288	2492.522902
353.161314	2496.001298
353.551276	2492.772439
353.941175	2492.611122
354.331010	2491.224805
354.720782	2493.150526
355.110490	2492.941318
355.500135	2494.796462
355.889717	2494.448623
356.279235	2494.007522
356.668689	2497.382574
357.058080	2493.531133
357.447408	2490.715648
357.836672	2491.872593
358.225873	2494.151195
358.615010	2491.302943
359.004084	2494.340238
359.393095	2496.507934
359.782043	2499.174704
360.170927	2496.155053
360.559748	2500.210662
360.948505	2498.763850
361.337199	2500.926505
361.725830	2500.248470
362.114398	2498.385764
362.502903	2499.255363
362.891344	2500.903820
363.279722	2500.926505
363.668037	2499.935919
364.056289	2504.140241
364.444478	2502.864829
364.832603	2501.458347
365.220665	2502.867350
365.608665	2500.649242
365.996601	2504.621671
366.384474	2504.626712
366.772284	2505.660149
367.160031	2506.575118
367.547715	2505.375324
367.935336	2507.598473
368.322893	2509.120901
368.710388	2509.370438
369.097820	2509.947650
369.485189	2507.855571
369.872495	2508.369769
370.259738	2507.306086
370.646918	2509.894718
371.034035	2507.003616
371.421090	2512.329595
371.808081	2505.629902
372.195010	2509.209121
372.581875	2508.831035
372.968678	2510.870181
373.355418	2507.711898
373.742096	2509.937568
374.128710	2509.619975
374.515262	2509.730881
374.901751	2511.008813
375.288177	2508.795747
375.674540	2511.187774
376.060841	2510.456807
376.447079	2513.789009
376.833254	2509.889677
377.219367	2509.151148
377.605417	2512.067455
377.991404	2509.607372
378.377329	2509.151148
378.763191	2508.558812
379.148991	2510.713906
379.534727	2511.901097
379.920402	2513.849503
380.306013	2513.030316
380.691563	2513.294976
381.077049	2512.884122
381.462474	2517.075842
381.847835	2511.764986
382.233134	2514.076355
382.618371	2512.264060
383.003545	2514.681294
383.388657	2514.605676
383.773706	2515.482837
384.158693	2513.161386
384.543618	2515.669360
384.928480	2511.480161
385.313280	2516.218846
385.698017	2513.791530
386.082692	2515.951664
386.467305	2515.918897
386.851856	2518.570544
387.236344	2517.053157
387.620770	2518.230266
388.005133	2517.267406
388.389435	2517.645492
388.773674	2520.171110
389.157851	2519.248579
389.541965	2520.554238
389.926018	2519.914011
390.310008	2519.238497
390.693936	2518.729340
391.077802	2518.406706
391.461606	2518.920904
391.845348	2519.039371
392.229027	2519.213291
392.612645	2520.534073
392.996200	2518.837725
393.379694	2522.578261
393.763125	2521.955679
394.146494	2521.985926
394.529801	2521.675895
394.913047	2524.148581
395.296230	2523.152953
395.679351	2523.170597
396.062410	2524.128416
396.445408	2521.698580
396.828343	2522.227901
397.211217	2518.535256
397.594028	2520.082890
397.976778	2519.241017
398.359466	2520.249248
398.742092	2518.731861
399.124656	2522.805113
399.507158	2523.641945
399.889598	2524.715710
400.271977	2523.039527
400.654294	2524.745957
401.036549	2523.833508
401.418742	2526.238139
401.800874	2523.427696
402.182944	2524.685463
402.564952	2525.605474
402.946898	2525.900382
403.328783	2522.593385
403.710606	2525.565145
404.092367	2527.016997
404.474067	2526.122192
404.855705	2524.440968
405.237282	2525.260155
405.618797	2525.106400
406.000250	2525.887779
406.381642	2527.440454
406.762972	2526.591020
407.144240	2527.463139
407.525447	2529.393901
407.906593	2526.696884
408.287677	2526.701925
408.668700	2527.223684
409.049661	2528.249559
409.430560	2529.333407
409.811399	2528.161339
410.192176	2528.811648
410.572891	2527.367357
410.953545	2524.990453
411.334138	2527.984899
411.714669	2527.730320
412.095139	2530.976823
412.475547	2528.060516
412.855894	2528.698222
413.236180	2528.940197
413.616405	2529.451874
413.996568	2529.890455
414.376670	2528.380629
414.756711	2531.266690
415.136691	2530.540764
415.516609	2529.245187
415.896466	2532.975641
416.276262	2529.071267
416.655997	2526.081863
417.035670	2526.659075
417.415283	2527.493386
417.794834	2529.454395
418.174324	2530.659231
418.553753	2528.403314
418.933121	2532.937832
419.312428	2529.908099
419.691674	2531.117976
420.070859	2530.099663
420.449983	2531.054961
420.829045	2535.271887
421.208047	2533.396577
421.586988	2530.180321
421.965867	2530.528161
422.344686	2532.824406
422.723444	2534.576207
423.102141	2530.714683
423.480777	2534.107380
423.859352	2532.784077
424.237866	2533.835158
424.616319	2533.338604
424.994712	2534.064530
425.373044	2532.403470
425.751314	2534.873635
426.129524	2531.017153
426.507673	2534.654345
426.885762	2533.353728
427.263789	2536.123842
427.641756	2532.504293
428.019662	2535.571835
428.397508	2533.789787
428.775292	2535.476053
429.153016	2534.702236
429.530679	2535.322298
429.908282	2536.454037
430.285824	2536.038142
430.663305	2533.620909
431.040726	2535.095446
431.418086	2533.436907
431.795385	2535.128214
432.172624	2533.797349
432.549802	2537.091743
432.926920	2536.771630
433.303977	2535.856660
433.680974	2536.224665
434.057910	2537.719367
434.434786	2536.796836
434.811601	2534.402288
435.188355	2538.934285
435.565050	2536.748945
435.941683	2537.487474
436.318257	2535.518903
436.694770	2535.342463
437.071222	2530.167718
437.447614	2534.906403
437.823946	2534.626619
438.200218	2536.441434
438.576429	2536.138965
438.952580	2535.355066
439.328670	2535.344983
439.704700	2537.066537
440.080670	2536.567463
440.456580	2535.859181
440.832429	2536.315405
441.208218	2537.545447
441.583947	2538.052083
441.959616	2538.634336
442.335224	2538.770447
442.710773	2538.556198
443.086261	2537.366486
443.461689	2538.846065
443.837057	2541.333874
444.212365	2541.129707
444.587612	2538.888914
444.962800	2537.782381
445.337927	2541.311189
445.712995	2538.283976
446.088002	2540.418905
446.462949	2538.137782
446.837837	2540.103832
447.212664	2538.672145
447.587431	2539.987886
447.962139	2540.247505
448.336786	2539.196425
448.711374	2539.259439
449.085901	2539.884542
449.460369	2540.973432
449.834776	2539.445962
450.209124	2541.860675
450.583412	2540.933102
450.957640	2539.410674
451.331808	2540.139121
451.705917	2540.711292
452.079965	2542.798329
452.453954	2539.861857
452.827883	2540.663401
453.201752	2540.401261
453.575562	2541.371683
453.949311	2541.175078
454.323001	2540.106353
454.696632	2542.543751
455.070202	2543.100798
455.443713	2541.318751
455.817164	2538.810777
456.190556	2537.099305
456.563888	2539.839172
456.937160	2535.586959
457.310373	2539.345139
457.683526	2539.882022
458.056619	2543.085675
458.429653	2541.951415
458.802628	2540.005530
459.175542	2543.206663
459.548398	2544.353525
459.921194	2542.490819
460.293930	2545.369318
460.666607	2541.880839
461.039224	2544.746735
461.411782	2543.637681
461.784280	2543.466282
462.156719	2544.741694
462.529099	2543.647764
462.901419	2544.151879
463.273680	2544.739173
463.645882	2542.563916
464.018024	2544.973587
464.390106	2544.958464
464.762130	2542.689944
465.134094	2542.589121
465.505999	2545.492826
465.877845	2544.535007
466.249631	2544.046015
466.621358	2545.248330
466.993026	2546.178423
467.364634	2550.385266
467.736184	2546.611962
468.107674	2542.536189
468.479105	2545.848227
468.850477	2542.745397
469.221790	2547.287477
469.593043	2545.200439
469.964238	2548.104144
470.335373	2546.493495
470.706449	2545.334030
471.077467	2546.185985
471.448425	2543.879657
471.819324	2547.385779
472.190164	2545.490305
472.560945	2546.042312
472.931667	2544.895449
473.302330	2547.169010
473.672934	2547.310162
474.043479	2550.097920
474.413965	2546.352343
474.784393	2540.542413
475.154761	2544.986190
475.525070	2542.311858
475.895321	2544.353525
476.265513	2540.975952
476.635645	2548.192364
477.005719	2548.893084
477.375734	2548.391489
477.745691	2547.882333
478.115588	2550.838970
478.485427	2548.633465
478.855207	2546.138094
479.224928	2547.776469
479.594591	2551.043136
479.964194	2546.841335
480.333739	2548.983825
480.703226	2549.876109
481.072653	2550.118085
481.442022	2549.739998
481.811333	2550.226469
482.180584	2547.642878
482.549777	2550.849052
482.918912	2549.288815
483.287988	2548.676315
483.657005	2547.968033
484.025964	2549.190512
484.394864	2551.627910
484.763706	2551.441388
485.132489	2552.031202
485.501213	2550.118085
485.869879	2550.412992
486.238487	2547.274874
486.607036	2549.871068
486.975527	2550.677653
487.343959	2549.051881
487.712333	2548.000800
488.080648	2548.537683
488.448905	2551.385935
488.817104	2549.475337
489.185244	2550.319731
489.553326	2551.852242
489.921350	2551.471634
490.289315	2552.300904
490.657222	2552.537838
491.025070	2552.512633
491.392861	2552.058929
491.760593	2554.274516
492.128267	2553.180586
492.495883	2550.654967
492.863440	2552.789896
493.230939	2549.641696
493.598380	2552.091696
493.965763	2547.663043
494.333088	2549.954247
494.700354	2547.315203
495.067563	2550.801161
495.434713	2545.971736
495.801805	2553.057077
496.168839	2551.809392
496.535815	2551.988353
496.902733	2553.387273
497.269593	2549.329144
497.636395	2551.769063
498.003139	2553.576316
498.369825	2555.300391
498.736453	2552.658826
499.103023	2554.919784
499.469535	2553.097407
499.835989	2550.770914
500.202385	2550.478527
500.568723	2553.518343
500.935003	2554.385421
501.301226	2552.578168
501.667390	2552.406768
502.033497	2556.308622
502.399546	2552.210163
502.765537	2553.956923
503.131470	2557.551266
503.497345	2555.260062
503.863163	2557.886503
504.228923	2553.314176
504.594625	2557.500854
504.960269	2556.124619
505.325856	2552.195040
505.691385	2553.467931
506.056856	2554.274516
506.422270	2557.672254
506.787625	2555.993549
507.152924	2558.867007
507.518164	2559.736606
507.883347	2557.405073
508.248472	2558.531770
508.613540	2558.488921
508.978550	2557.347099
509.343503	2554.587067
509.708398	2558.352809
510.073236	2559.522357
510.438016	2558.335165
510.802738	2558.010011
511.167403	2562.103428
511.532010	2560.558314
511.896561	2559.618139
512.261053	2560.480176
512.625488	2556.911039
512.989866	2556.205278
513.354186	2561.188458
513.718449	2557.422717
514.082655	2558.229301
514.446803	2559.960937
514.810894	2561.198541
515.174927	2562.534447
515.538904	2564.376988
515.902822	2563.804817
516.266684	2559.895403
516.630488	2564.109807
516.994235	2565.954869
517.357925	2565.546536
517.721558	2565.670044
518.085133	2565.017215
518.448651	2567.618450
518.812112	2565.342369
519.175516	2566.905127
519.538863	2566.849674
519.902152	2567.303378
520.265385	2568.649366
520.628560	2567.951166
520.991678	2568.876218
521.354739	2571.384192
521.717743	2566.988306
522.080690	2569.740776
522.443580	2569.518965
522.806413	2571.507700
523.169189	2570.449058
523.531908	2572.203380
523.894569	2573.050293
524.257174	2574.610531
524.619722	2575.459965
524.982213	2574.832341
525.344647	2573.700602
525.707025	2574.807136
526.069345	2574.774368
526.431608	2575.596076
526.793815	2576.432908
527.155964	2577.080696
527.518057	2581.088413
527.880093	2578.086406
528.242072	2579.674370
528.603995	2581.910121
528.965860	2583.122519
529.327669	2586.064032
529.689421	2582.694021
530.051117	2586.210226
530.412755	2586.116964
530.774337	2587.026892
531.135862	2590.233066
531.497331	2587.919177
531.858743	2583.813157
532.220098	2588.483786
532.581396	2589.827253
532.942638	2592.587285
533.303824	2596.000146
533.664953	2598.041814
534.026025	2600.355703
534.387040	2599.082812
534.747999	2601.121959
535.108902	2605.331322
535.469748	2604.560026
535.830537	2607.178905
536.191270	2609.021447
536.551947	2613.021602
536.912567	2614.639813
537.273131	2615.751387
537.633638	2620.323714
537.994089	2621.336986
538.354483	2625.077522
538.714821	2628.409724
539.075103	2630.665641
539.435328	2632.387195
539.795497	2635.089253
540.155609	2641.609986
540.515665	2642.837507
540.875665	2644.687610
541.235609	2649.711120
541.595496	2654.759836
541.955328	2658.971720
542.315102	2663.143274
542.674821	2666.951866
543.034483	2667.309788
543.394090	2671.718277
543.753640	2678.690193
544.113134	2685.906605
544.472571	2687.991122
544.831953	2695.943542
545.191278	2694.542101
545.550548	2702.529809
545.909761	2709.113556
546.268918	2716.929865
546.628019	2725.096535
546.987064	2725.194837
547.346053	2732.920405
547.704986	2743.910121
548.063863	2745.119998
548.422684	2754.935124
548.781449	2761.508789
549.140158	2768.082453
549.498811	2773.965480
549.857408	2776.362549
550.215949	2791.944755
550.574434	2793.966258
550.932864	2810.508804
551.291237	2814.516522
551.649555	2828.931701
552.007817	2833.612412
552.366022	2845.212107
552.724173	2855.160824
553.082267	2860.053264
553.440305	2883.827346
553.798288	2883.492109
554.156215	2901.733524
554.514086	2910.936151
554.871902	2915.047212
555.229661	2931.279727
555.587365	2941.225923
555.945014	2945.533589
556.302606	2969.960500
556.660143	2971.528299
557.017625	3001.311436
557.375050	3008.258146
557.732421	3030.638349
558.089735	3041.542364
558.446994	3054.654406
558.804197	3074.204000
559.161345	3087.558017
559.518437	3091.865683
559.875474	3116.511884
560.232455	3134.871766
560.589381	3146.834424
560.946251	3176.819207
561.303065	3188.267668
561.659825	3204.021273
562.016528	3215.736915
562.373177	3216.616596
562.729770	3256.114037
563.086307	3262.604522
563.442789	3289.032771
563.799216	3305.446768
564.155587	3322.140549
564.511904	3343.469671
564.868164	3360.158411
565.224370	3378.505690
565.580520	3405.019639
565.936615	3409.425608
566.292654	3431.999894
566.648638	3458.675160
567.004567	3481.385558
567.360441	3503.352386
567.716260	3518.737988
568.072023	3547.210424
568.427732	3571.128179
568.783385	3572.368303
569.138982	3614.885394
569.494525	3636.128817
569.850013	3643.982934
570.205445	3690.399358
570.560823	3694.039071
570.916145	3711.070610
571.271412	3747.770210
571.626625	3764.784104
571.981782	3781.858492
572.336884	3814.704130
572.691931	3827.279288
573.046923	3861.317159
573.401860	3876.075137
573.756743	3895.279412
574.111570	3926.945420
574.466342	3948.682876
574.821059	3989.677539
575.175722	3993.566789
575.530330	4024.466541
575.884882	4048.291034
576.239380	4064.563879
576.593823	4074.807504
576.948211	4118.519349
577.302544	4107.975775
577.656823	4156.587622
578.011047	4175.197041
578.365216	4206.805076
578.719330	4217.913258
579.073389	4256.848610
579.427394	4257.110750
579.781344	4282.319040
580.135239	4305.833502
580.489080	4337.065971
580.842866	4348.126262
581.196597	4380.172877
581.550273	4415.768465
581.903895	4445.584369
582.257463	4486.188343
582.610975	4491.670598
582.964434	4519.669166
583.317837	4533.736506
583.671186	4552.424063
584.024481	4584.614351
584.377721	4587.202983
584.730906	4605.956076
585.084037	4650.542561
585.437113	4649.766223
585.790135	4694.680383
586.143103	4689.732491
586.496016	4706.985840
586.848874	4758.733284
587.201679	4780.924443
587.554428	4779.326398
587.907124	4823.411288
588.259765	4839.742106
588.612352	4886.556781
588.964884	4859.881516
589.317362	4904.563783
589.669786	4928.547072
590.022155	4971.107013
590.374470	5013.833313
590.726731	5007.816696
591.078937	4989.280373
591.431090	5066.770469
591.783188	5038.169483
592.135232	5073.129885
592.487222	5089.296865
592.839157	5148.621164
593.191038	5150.136031
593.542866	5152.744828
593.894639	5137.611284
594.246358	5181.633160
594.598022	5221.480960
594.949633	5209.031831
595.301190	5219.928285
595.652692	5263.030150
596.004141	5346.191545
596.355535	5264.229945
596.706876	5287.794819
597.058162	5287.265498
597.409395	5346.231874
597.760573	5407.063477
598.111698	5383.410384
598.462768	5413.984982
598.813785	5413.463222
599.164748	5435.684628
599.515657	5442.424651
599.866511	5438.895843
600.217312	5512.842009
600.568060	5470.887006
600.918753	5553.388009
601.269392	5562.015944
601.619978	5548.596392
601.970510	5608.873469
602.320988	5626.643536
602.671412	5692.624678
603.021783	5677.733110
603.372100	5687.132341
603.722363	5725.152723
604.072572	5723.695830
604.422728	5763.513384
604.772830	5744.334314
605.122878	5772.002687
605.472872	5785.848216
605.822813	5831.344629
606.172701	5820.541437
606.522534	5894.406943
606.872314	5911.914871
607.222041	5925.858702
607.571714	5979.378112
607.921333	5975.151104
608.270899	6008.435323
608.620411	6083.374595
608.969870	6049.235901
609.319276	6065.375155
609.668627	6104.895281
610.017926	6148.765922
610.367171	6203.147369
610.716362	6213.234718
611.065500	6231.914714
611.414585	6274.963647
611.763616	6276.818792
612.112594	6294.987110
612.461518	6328.699827
612.810389	6390.819445
613.159207	6370.191043
613.507971	6351.334607
613.856682	6461.829138
614.205340	6446.574606
614.553945	6522.081009
614.902496	6475.399924
615.250994	6530.106526
615.599439	6536.410488
615.947830	6572.674029
616.296169	6567.844603
616.644454	6594.620692
616.992686	6614.387056
617.340864	6669.406209
617.688990	6624.184539
618.037063	6705.019441
618.385082	6684.897675
618.733048	6766.574450
619.080961	6735.722588
619.428821	6771.111488
619.776628	6797.312885
620.124382	6772.182733
620.472083	6782.368385
620.819731	6822.047307
621.167326	6763.922803
621.514868	6786.441637
621.862357	6716.082253
622.209793	6751.503920
622.557176	6724.405198
622.904506	6719.747172
623.251783	6681.179824
623.599007	6674.175141
623.946179	6691.229364
624.293297	6672.909811
624.640363	6623.110773
624.987376	6629.124869
625.334336	6602.658812
625.681243	6583.109217
626.028097	6587.084167
626.374899	6577.286684
626.721647	6595.520538
627.068343	6545.943310
627.414987	6541.484410
627.761577	6511.106417
628.108115	6552.229629
628.454600	6481.449309
628.801032	6537.446446
629.147412	6509.238669
629.493739	6521.251739
629.840014	6475.480582
630.186236	6532.564088
630.532405	6447.061078
630.878521	6497.598645
631.224585	6475.896478
631.570597	6417.061171
631.916556	6454.922757
632.262462	6461.279652
632.608316	6439.854748
632.954117	6430.291679
633.299866	6431.907369
633.645562	6432.923162
633.991206	6375.935438
634.336797	6336.196022
634.682336	6310.960006
635.027823	6291.884280
635.373257	6290.981913
635.718639	6242.264203
636.063968	6262.842193
636.409245	6175.332803
636.754470	6187.900400
637.099642	6157.368651
637.444762	6120.328773
637.789829	6136.193285
638.134845	6091.347180
638.479808	6084.186221
638.824719	6096.302634
639.169577	6037.169900
639.514383	6070.297842
639.859137	6007.444736
640.203839	6020.168608
640.548489	6014.807341
640.893086	5997.342264
641.237632	5980.396425
641.582125	6003.754611
641.926566	5984.656200
642.270955	6000.326627
642.615292	6004.795610
642.959576	6020.186252
643.303809	6014.479666
643.647990	6027.006933
643.992118	6024.940060
644.336195	5981.409697
644.680219	6013.448750
645.024192	6005.148490
645.368112	6097.532676
645.711981	6121.853722
646.055797	6197.213931
646.399562	6164.993397
646.743274	6284.811541
647.086935	6328.951884
647.430544	6332.614282
647.774101	6355.042376
648.117606	6365.603593
648.461059	6364.028233
648.804460	6327.442059
649.147810	6247.766622
649.491108	6226.689558
649.834354	6205.199119
650.177548	6133.952492
650.520690	6055.504576
650.863781	6037.868099
651.206820	6069.357667
651.549807	5991.260112
651.892742	5943.757319
652.235626	5950.424245
652.578458	5940.934273
652.921238	5862.443507
653.263967	5900.166462
653.606644	5839.286967
653.949269	5854.019739
654.291843	5799.169465
654.634365	5846.228636
654.976836	5806.877389
655.319255	5804.024096
655.661622	5788.845182
656.003938	5787.524399
656.346203	5754.915696
656.688416	5789.603875
657.030577	5748.158029
657.372687	5717.601075
657.714746	5708.829467
658.056753	5750.703812
658.398708	5698.303538
658.740612	5689.781467
659.082465	5737.226287
659.424266	5732.056584
659.766016	5731.350822
660.107715	5712.665785
660.449362	5724.189863
660.790958	5722.906889
661.132503	5714.896496
661.473996	5750.081229
661.815438	5738.670577
662.156829	5739.348613
662.498168	5730.362756
662.839456	5711.224015
663.180693	5745.186269
663.521879	5749.521661
663.863013	5738.650413
664.204097	5760.554226
664.545129	5801.566533
664.886110	5801.823632
665.227040	5828.874464
665.567918	5799.040915
665.908746	5826.540410
666.249522	5833.610628
666.590248	5825.312889
666.930922	5848.492114
667.271545	5858.234144
667.612118	5864.379310
667.952639	5843.758471
668.293109	5864.172623
668.633528	5823.755172
668.973896	5831.591646
669.314213	5817.632691
669.654480	5801.614424
669.994695	5801.201050
670.334859	5792.585718
670.674973	5785.293689
671.015035	5787.826869
671.355047	5789.505573
671.695008	5776.126351
672.034918	5750.499645
672.374777	5761.012971
672.714585	5743.736937
673.054342	5748.367237
673.394049	5742.998408
673.733705	5782.251353
674.073310	5763.261326
674.412864	5723.758844
674.752368	5719.448658
675.091820	5723.345470
675.431223	5661.301469
675.770574	5664.351367
676.109875	5614.204489
676.449125	5620.243791
676.788324	5591.768834
677.127473	5537.168097
677.466571	5525.273494
677.805619	5519.839130
678.144616	5507.836143
678.483562	5486.761599
678.822458	5452.345642
679.161303	5452.620385
679.500098	5442.996822
679.838842	5431.359318
680.177535	5431.646664
680.516179	5445.232574
680.854771	5460.882836
681.193314	5539.976019
681.531805	5649.568183
681.870247	5790.912055
682.208638	5894.787550
682.546978	5902.712244
682.885268	5884.148195
683.223508	5798.670391
683.561697	5747.076702
683.899836	5715.662751
684.237925	5673.758160
684.575963	5639.541328
684.913951	5597.878712
685.251889	5664.253064
685.589776	5630.426922
685.927614	5604.041523
686.265401	5674.073232
686.603137	5656.981200
686.940824	5734.748560
687.278460	5751.533082
687.616046	5767.127891
687.953582	5832.662891
688.291068	5817.302495
688.628504	5874.446495
688.965889	5839.261761
689.303224	5787.410973
689.640510	5737.231328
689.977745	5660.820039
690.314930	5567.777983
690.652065	5512.317729
690.989150	5420.067134
691.326185	5347.983675
691.663170	5293.052742
692.000105	5220.964242
692.336990	5142.095390
692.673825	5119.334581
693.010610	5050.510228
693.347345	4982.522706
693.684030	4973.168845
694.020665	4930.906332
694.357251	4841.312425
694.693786	4851.966904
695.030272	4814.622036
695.366707	4783.823107
695.703093	4750.402778
696.039429	4774.438999
696.375716	4758.319910
696.711952	4730.323862
697.048139	4720.228951
697.384276	4703.956107
697.720363	4712.642015
698.056400	4724.128284
698.392388	4672.385881
698.728326	4650.207324
699.064214	4627.713696
699.400053	4622.675062
699.735842	4593.174230
700.071581	4568.359150
700.407270	4541.159605
700.742910	4525.398437
701.078501	4470.951455
701.414042	4467.624294
701.749533	4440.770067
702.084974	4376.036611
702.420366	4432.731947
702.755709	4374.244480
703.091002	4319.714319
703.426246	4367.630487
703.761440	4321.191377
704.096584	4287.546717
704.431679	4309.402639
704.766725	4292.839928
705.101721	4285.240389
705.436668	4313.193587
705.771565	4257.312396
706.106413	4284.370790
706.441212	4318.108712
706.775961	4325.657840
707.110661	4309.377433
707.445311	4335.805682
707.779913	4359.589846
708.114465	4370.062843
708.448967	4392.657295
708.783421	4451.469916
709.117825	4494.513808
709.452180	4499.194520
709.786485	4543.211354
710.120742	4629.324344
710.454949	4607.531436
710.789107	4677.434596
711.123216	4750.591821
711.457275	4742.914143
711.791286	4815.685720
712.125247	4832.717258
712.459159	4732.693204
712.793023	4808.237415
713.126837	4769.811220
713.460602	4759.527266
713.794318	4679.592210
714.127985	4691.597718
714.461602	4607.975058
714.795171	4577.778546
715.128691	4513.864277
715.462162	4456.112819
715.795584	4405.355961
716.128957	4390.436667
716.462281	4341.083770
716.795556	4314.559739
717.128782	4279.311992
717.461960	4210.709450
717.795088	4217.588104
718.128167	4175.297864
718.461198	4119.648567
718.794180	4114.657825
719.127113	4097.744754
719.459997	4071.855908
719.792833	4033.374260
720.125619	4023.221376
720.458357	3987.731653
720.791046	3992.911439
721.123686	3964.680977
721.456278	3926.625307
721.788821	3944.067699
722.121315	3916.837907
722.453761	3890.089544
722.786158	3902.344589
723.118506	3928.258641
723.450805	3879.913975
723.783056	3900.275196
724.115259	3915.801950
724.447412	3919.943257
724.779518	3914.123245
725.111574	3920.379317
725.443582	3948.443421
725.775542	3935.253242
726.107453	3980.207731
726.439315	3982.728308
726.771129	3996.069722
727.102895	4034.017007
727.434612	4081.247578
727.766281	4095.481276
728.097901	4092.859876
728.429473	4096.741564
728.760996	4107.937967
729.092471	4096.557562
729.423897	4084.496601
729.755276	4090.596398
730.086606	4092.078497
730.417887	4126.736429
730.749120	4192.190771
731.080305	4254.862396
731.411442	4281.552785
731.742530	4248.329060
732.073570	4258.676028
732.404562	4310.725942
732.735506	4300.257986
733.066401	4261.940176
733.397249	4198.242676
733.728048	4118.804174
734.058798	4039.768964
734.389501	3968.124085
734.720156	3911.476640
735.050762	3867.568190
735.381320	3860.482848
735.711831	3807.147440
736.042293	3781.324130
736.372707	3803.114517
736.703073	3776.802215
737.033391	3763.932149
737.363661	3783.781692
737.693883	3807.795228
738.024056	3815.402330
738.354182	3811.944098
738.684260	3875.127400
739.014290	3891.392683
739.344272	3888.239441
739.674207	3931.520267
740.004093	3937.761216
740.333931	3932.455401
740.663722	3936.319446
740.993464	3930.615380
741.323159	3907.511772
741.652806	3873.395763
741.982405	3850.186291
742.311956	3821.577743
742.641460	3807.848161
742.970915	3785.677166
743.300323	3747.175353
743.629683	3710.556412
743.958996	3702.120041
744.288260	3675.076771
744.617477	3643.428407
744.946647	3628.249493
745.275768	3607.268211
745.604842	3604.422479
745.933869	3554.943554
746.262847	3546.744118
746.591778	3586.778441
746.920662	3555.034295
747.249498	3525.646889
747.578286	3573.452151
747.907027	3590.062753
748.235720	3585.336671
748.564365	3613.368007
748.892963	3612.344653
749.221514	3594.420830
749.550017	3570.792942
749.878473	3568.690781
750.206881	3538.559804
750.535242	3536.243394
750.863555	3538.045607
751.191821	3531.978578
751.520039	3514.677338
751.848210	3492.839060
752.176334	3525.241076
752.504411	3530.309956
752.832440	3492.806292
753.160421	3473.443220
753.488356	3483.205415
753.816243	3497.451715
754.144082	3452.565282
754.471875	3441.358797
754.799620	3459.277578
755.127318	3448.076134
755.454969	3448.776854
755.782572	3452.918162
756.110129	3434.331428
756.437638	3422.177206
756.765100	3436.879731
757.092515	3445.782409
757.419882	3450.614355
757.747203	3422.547731
758.074477	3426.542845
758.401703	3441.638581
758.728882	3464.538022
759.056014	3472.545895
759.383099	3476.583859
759.710138	3468.974237
760.037129	3490.562979
760.364073	3517.510467
760.690970	3503.354907
761.017820	3481.982935
761.344623	3501.018332
761.671379	3544.223541
761.998088	3597.057354
762.324751	3723.444122
762.651366	3963.367757
762.977935	4433.465435
763.304456	4864.408472
763.630931	4951.927944
763.957359	4595.583902
764.283740	4265.393366
764.610074	4071.951690
764.936362	3879.616547
765.262602	3726.020151
765.588796	3610.970938
765.914943	3527.101262
766.241044	3441.174794
766.567097	3413.582039
766.893104	3367.349617
767.219064	3332.832837
767.544978	3309.005823
767.870845	3257.049171
768.196665	3237.983527
768.522438	3243.697675
768.848165	3241.245153
769.173846	3204.117055
769.499479	3187.662729
769.825066	3170.056499
770.150607	3154.038233
770.476101	3170.734535
770.801548	3165.048113
771.126949	3117.489868
771.452303	3105.007971
771.777611	3110.248250
772.102872	3113.605659
772.428087	3090.247472
772.753256	3082.189188
773.078378	3074.193918
773.403453	3041.948177
773.728482	3028.954603
774.053465	3052.532080
774.378401	3040.292158
774.703291	3007.640605
775.028135	3008.505163
775.352932	3006.029956
775.677683	2989.147132
776.002388	2989.101762
776.327046	2989.641165
776.651658	2981.592963
776.976224	2968.299440
777.300743	2967.107207
777.625216	2959.490024
777.949643	2952.878551
778.274024	2956.495578
778.598359	2946.272118
778.922647	2950.836883
779.246889	2949.294290
779.571086	2935.826848
779.895236	2927.781166
780.219339	2938.080243
780.543397	2951.908128
780.867409	2955.764611
781.191374	2946.942592
781.515294	2947.177006
781.839167	2948.959053
782.162995	2938.228958
782.486776	2945.140379
782.810511	2942.690379
783.134201	2928.058430
783.457844	2937.223247
783.781441	2930.147988
784.104993	2907.982034
784.428498	2906.225192
784.751958	2921.704055
785.075372	2915.168199
785.398739	2900.740417
785.722061	2919.342275
786.045337	2928.643203
786.368568	2911.067221
786.691752	2905.070768
787.014891	2954.285033
787.337983	2981.098930
787.661030	3009.563805
787.984031	3075.502097
788.306987	3118.820732
788.629897	3111.291769
788.952760	3095.843153
789.275579	3084.750094
789.598351	3018.834487
789.921078	2976.108188
790.243759	2972.826396
790.566395	2954.098510
790.888984	2928.370981
791.211529	2913.925555
791.534027	2902.595562
791.856480	2894.353275
792.178888	2881.672253
792.501249	2867.700695
792.823566	2868.706405
793.145836	2865.825385
793.468062	2863.957638
793.790241	2863.022504
794.112375	2867.809079
794.434464	2876.371479
794.756507	2882.677963
795.078505	2885.720299
795.400457	2901.922568
795.722364	2938.102929
796.044226	2962.802062
796.366042	2962.426496
796.687812	2953.624641
797.009538	2973.955615
797.331218	2960.689818
797.652852	2948.255813
797.974442	2927.960127
798.295986	2928.184458
798.617484	2922.687080
798.938938	2907.223341
799.260346	2888.505537
799.581709	2885.390103
799.903026	2878.597149
800.224299	2872.290665
800.545526	2862.646938
800.866708	2850.084382
801.187845	2836.352279
801.508936	2839.376972
801.829983	2848.579598
802.150984	2834.061075
802.471940	2819.792089
802.792851	2821.344764
803.113717	2821.485917
803.434538	2827.739468
803.755314	2821.160762
804.076045	2813.415029
804.396731	2811.837148
804.717372	2815.968374
805.037967	2807.892445
805.358518	2816.245637
805.679024	2825.793583
805.999485	2822.715958
806.319901	2827.436999
806.640272	2817.886533
806.960598	2822.000114
807.280879	2833.720797
807.601115	2839.795387
807.921306	2827.033707
808.241453	2823.666216
808.561554	2828.999757
808.881611	2831.835406
809.201623	2826.285095
809.521590	2821.105310
809.841513	2819.459373
810.161390	2826.017914
810.481223	2819.207315
810.801011	2806.065027
811.120755	2804.832465
811.440453	2807.360604
811.760107	2806.778350
812.079716	2806.438072
812.399281	2794.268727
812.718801	2791.135650
813.038276	2784.534259
813.357707	2789.346040
813.677093	2798.735189
813.996434	2791.962399
814.315731	2786.459980
814.634983	2784.214146
814.954191	2786.475103
815.273354	2800.509676
815.592473	2808.368834
815.911547	2809.820687
816.230577	2815.663384
816.549562	2824.992039
816.868502	2823.938438
817.187399	2832.155519
817.506250	2850.089424
817.825058	2842.590707
818.143821	2855.639734
818.462539	2869.107177
818.781213	2895.187586
819.099843	2933.969183
819.418429	2986.485403
819.736970	3048.804147
820.055466	3121.114457
820.373919	3221.803944
820.692327	3360.849049
821.010691	3523.673277
821.329011	3958.956747
821.647286	4836.273792
821.965517	6184.071643
822.283704	6898.693010
822.601847	6867.037084
822.919945	6253.319453
823.237999	5760.430718
823.556010	5189.961146
823.873976	4655.407274
824.191897	4258.265174
824.509775	3970.863952
824.827609	3709.462482
825.145398	3586.632247
825.463144	3578.334508
825.780845	3670.063344
826.098502	3774.059827
826.416116	4050.350346
826.733685	4355.987942
827.051210	4411.959873
827.368692	4303.363337
827.686129	4043.406156
828.003522	3727.300604
828.320872	3475.346256
828.638177	3286.181999
828.955439	3151.215187
829.272656	3069.288875
829.589830	3004.013495
829.906960	2956.029272
830.224046	2914.165010
830.541088	2879.814587
830.858086	2866.437886
831.175041	2847.382324
831.491952	2851.105216
831.808819	2865.233050
832.125642	2887.850187
832.442421	2928.915426
832.759157	3007.897704
833.075849	3182.780372
833.392497	3460.099286
833.709101	3654.347547
834.025662	3601.619598
834.342179	3447.698048
834.658653	3277.365021
834.975083	3131.171559
835.291469	3036.470964
835.607811	2955.207564
835.924110	2898.857546
836.240366	2847.830987
836.556578	2810.251705
836.872746	2785.088786
837.188871	2761.319746
837.504952	2748.749628
837.820990	2738.813514
838.136984	2726.006463
838.452935	2721.361040
838.768842	2717.423898
839.084706	2736.335787
839.400526	2813.256233
839.716303	2939.643001
840.032037	3017.914476
840.347727	3001.066940
840.663373	2943.355811
840.978977	2870.911910
841.294537	2802.579069
841.610054	2755.293046
841.925527	2733.527864
842.240957	2714.641182
842.556344	2692.790300
842.871687	2676.285562
843.186987	2668.494459
843.502244	2666.389777
843.817458	2658.376863
844.132629	2647.820687
844.447756	2640.445479
844.762840	2630.945425
845.077881	2635.520272
845.392879	2635.353914
845.707833	2627.277985
846.022745	2622.493930
846.337613	2624.848149
846.652438	2624.399487
846.967221	2623.562655
847.281960	2621.669702
847.596656	2621.432767
847.911309	2621.064763
848.225919	2618.690380
848.540485	2614.012189
848.855009	2616.905811
849.169490	2613.974380
849.483928	2614.899432
849.798323	2613.374483
850.112675	2611.242075
850.426984	2613.132508
850.741251	2612.162086
851.055474	2613.858434
851.369654	2616.336161
851.683792	2612.817436
851.997887	2614.977570
852.311938	2611.514297
852.625947	2613.830707
852.939914	2615.965636
853.253837	2614.987652
853.567718	2609.452465
853.881555	2609.759976
854.195350	2616.341202
854.509103	2612.247785
854.822812	2609.228134
855.136479	2608.101436
855.450103	2612.275512
855.763685	2615.532097
856.077224	2613.634102
856.390720	2608.832403
856.704173	2611.884822
857.017584	2614.302055
857.330953	2618.206429
857.644278	2619.572582
857.957561	2618.869341
858.270802	2613.523197
858.584000	2614.796088
858.897155	2621.047119
859.210268	2620.782459
859.523339	2613.843310
859.836367	2608.010695
860.149352	2608.953391
860.462295	2611.375666
860.775195	2609.558330
861.088054	2608.477002
861.400869	2607.761158
861.713642	2603.657659
862.026373	2605.381734
862.339062	2608.729060
862.651708	2613.160234
862.964312	2617.147787
863.276873	2615.007817
863.589392	2614.022271
863.901869	2619.375977
864.214303	2624.790176
864.526696	2629.506175
864.839045	2628.160187
865.151353	2629.733027
865.463619	2629.478449
865.775842	2629.420476
866.088023	2631.205044
866.400162	2632.540950
866.712258	2631.583131
867.024313	2629.564149
867.336325	2622.440998
867.648296	2627.777060
867.960224	2632.568676
868.272110	2633.397946
868.583954	2621.967130
868.895755	2625.901750
869.207515	2634.844757
869.519233	2636.568832
869.830909	2632.404839
870.142542	2629.019704
870.454134	2631.477267
870.765684	2638.383647
871.077191	2641.738535
871.388657	2643.069400
871.700081	2638.945736
872.011463	2638.728966
872.322803	2640.952115
872.634101	2641.433545
872.945357	2652.433343
873.256571	2657.083807
873.567744	2653.290339
873.878874	2653.136584
874.189963	2655.112716
874.501010	2659.148160
874.812015	2664.133861
875.122979	2663.380209
875.433900	2655.198416
875.744780	2656.317552
876.055618	2658.704538
876.366415	2665.058913
876.677169	2662.288799
876.987882	2654.482572
877.298554	2658.255876
877.609183	2668.549912
877.919771	2672.834893
878.230317	2681.573733
878.540822	2688.923735
878.851285	2702.895293
879.161707	2723.876575
879.472087	2763.527771
879.782425	2806.488484
880.092722	2916.241965
880.402977	3099.724842
880.713191	3349.743387
881.023363	3630.860811
881.333494	3813.143893
881.643583	3977.170436
881.953631	3979.859892
882.263637	3802.459167
882.573602	3585.780292
882.883526	3464.969041
883.193408	3357.237062
883.503248	3260.525046
883.813048	3148.999600
884.122806	3036.929709
884.432522	2957.498768
884.742197	2894.673388
885.051831	2857.363809
885.361424	2828.392297
885.670975	2790.571041
885.980485	2763.396701
886.289954	2749.863723
886.599382	2735.095663
886.908768	2723.538818
887.218113	2703.628781
887.527417	2693.155784
887.836680	2683.073476
888.145901	2680.038702
888.455082	2672.058555
888.764221	2661.386432
889.073319	2651.649444
889.382376	2651.924187
889.691392	2654.442243
890.000366	2655.218581
890.309300	2652.982829
890.618193	2653.512150
890.927044	2656.604898
891.235855	2656.766215
891.544625	2653.991060
891.853353	2658.240752
892.162041	2664.519509
892.470687	2684.588343
892.779293	2694.295085
893.087858	2703.099460
893.396381	2724.080742
893.704864	2763.008532
894.013306	2831.865652
894.321707	2919.475865
894.630068	2966.139306
894.938387	2984.547079
895.246665	2977.330667
895.554903	2935.857095
895.863100	2898.091291
896.171256	2839.248422
896.479371	2784.110802
896.787446	2744.938516
897.095480	2726.608881
897.403473	2719.195864
897.711425	2706.787064
898.019336	2687.693694
898.327207	2674.483350
898.635038	2677.046777
898.942827	2674.926972
899.250576	2662.845846
899.558284	2652.715648
899.865952	2648.067704
900.173579	2647.805564
900.481165	2644.349853
900.788711	2636.377268
901.096216	2631.477267
901.403681	2627.073819
901.711105	2631.336114
902.018489	2625.359826
902.325832	2629.818727
902.633135	2629.687657
902.940397	2644.891777
903.247619	2681.276305
903.554800	2747.098651
903.861941	2867.816641
904.169041	2985.275526
904.476101	3042.623692
904.783121	3036.501211
905.090100	2984.385762
905.397039	2913.144176
905.703938	2840.944771
906.010796	2782.865637
906.317614	2733.013667
906.624391	2700.707432
906.931129	2672.832372
907.237826	2652.788744
907.544483	2636.780560
907.851099	2624.757408
908.157675	2613.762652
908.464211	2607.148658
908.770707	2597.971238
909.077163	2594.946545
909.383578	2589.943200
909.689954	2589.829774
909.996289	2589.285329
910.302584	2588.403128
910.608839	2586.369022
910.915054	2585.615369
911.221229	2588.665267
911.527363	2588.216605
911.833458	2587.163004
912.139513	2589.718869
912.445527	2589.499578
912.751502	2594.036617
913.057436	2602.082298
913.363331	2607.756117
913.669186	2615.466562
913.975000	2628.054323
914.280775	2646.716675
914.586510	2663.339879
914.892205	2695.376412
915.197859	2760.122472
915.503475	2838.585511
915.809050	2904.301992
916.114585	2915.490833
916.420081	2924.867379
916.725536	2933.573452
917.030952	2913.537386
917.336328	2867.496528
917.641665	2820.218067
917.946961	2774.908176
918.252218	2742.037332
918.557435	2717.570092
918.862612	2695.903213
919.167750	2679.012827
919.472848	2665.255518
919.777906	2650.726912
920.082925	2640.826086
920.387904	2628.492903
920.692843	2625.216153
920.997743	2620.661471
921.302603	2615.988321
921.607423	2606.158071
921.912204	2601.880652
922.216946	2597.091556
922.521647	2596.990733
922.826310	2594.782708
923.130932	2588.307346
923.435516	2585.312900
923.740059	2581.889957
924.044564	2582.636047
924.349028	2581.811819
924.653454	2572.710016
924.957840	2570.736404
925.262186	2571.028791
925.566493	2569.032494
925.870761	2563.028480
926.174989	2566.872359
926.479178	2565.677606
926.783328	2564.797925
927.087438	2562.814231
927.391509	2558.030176
927.695541	2561.188458
927.999533	2559.542522
928.303486	2556.134702
928.607400	2557.410114
928.911275	2556.502706
929.215110	2557.379867
929.518906	2558.889692
929.822663	2555.771739
930.126381	2554.965154
930.430060	2558.630073
930.733699	2553.924156
931.037299	2559.129147
931.340861	2556.474980
931.644383	2560.056719
931.947866	2555.471790
932.251309	2559.280382
932.554714	2556.540515
932.858080	2557.989846
933.161407	2557.939435
933.464694	2555.355843
933.767943	2556.480021
934.071153	2553.939279
934.374323	2555.350802
934.677455	2553.838456
934.980548	2554.680329
935.283602	2555.186965
935.586617	2553.803168
935.889593	2555.149156
936.192530	2553.014228
936.495428	2555.335679
936.798287	2557.599157
937.101108	2557.006821
937.403890	2558.423386
937.706632	2563.789694
938.009336	2562.688202
938.312002	2569.443348
938.614628	2571.389233
938.917216	2576.042218
939.219765	2575.543144
939.522275	2577.680593
939.824747	2573.735890
940.127179	2569.516445
940.429573	2569.629871
940.731929	2569.619788
941.034246	2563.618295
941.336524	2564.344221
941.638763	2567.081567
941.940964	2565.707853
942.243126	2562.458829
942.545250	2564.172822
942.847335	2560.790207
943.149381	2560.608726
943.451389	2559.051009
943.753359	2556.817778
944.055290	2559.663509
944.357182	2556.283416
944.659036	2556.192675
944.960851	2556.011193
945.262628	2556.790052
945.564367	2554.695452
945.866067	2557.997408
946.167729	2555.582695
946.469352	2557.833571
946.770937	2555.252500
947.072484	2556.969013
947.373992	2556.341389
947.675462	2556.681667
947.976893	2555.796944
948.278286	2554.526574
948.579641	2553.599001
948.880958	2555.285267
949.182236	2555.139074
949.483476	2554.818961
949.784678	2551.902653
950.085841	2549.866027
950.386967	2555.985988
950.688054	2552.767211
950.989103	2555.658313
951.290114	2554.196378
951.591087	2558.690567
951.892021	2559.194682
952.192917	2559.913047
952.493776	2560.497820
952.794596	2561.221226
953.095378	2564.346741
953.396122	2563.015877
953.696828	2562.826833
953.997496	2562.610064
954.298126	2558.216698
954.598718	2556.931204
954.899272	2556.626214
955.199788	2554.667726
955.500266	2553.846018
955.800706	2549.011551
956.101108	2546.695141
956.401472	2547.229503
956.701798	2546.004503
957.002087	2546.153217
957.302337	2546.516180
957.602550	2546.942158
957.902724	2543.262115
958.202861	2545.031560
958.502960	2545.341591
958.803022	2547.022816
959.103045	2542.266487
959.403031	2541.507794
959.702979	2547.166489
960.002889	2544.615665
960.302762	2539.514017
960.602596	2543.567105
960.902393	2540.318082
961.202153	2541.863195
961.501875	2540.524769
961.801559	2540.343287
962.101205	2543.292362
962.400814	2542.715150
962.700385	2540.865047
962.999918	2543.683052
963.299414	2542.982331
963.598873	2542.211035
963.898293	2541.222969
964.197677	2539.803884
964.497022	2541.081816
964.796331	2540.708771
965.095601	2542.795809
965.394835	2540.847403
965.694030	2539.740869
965.993189	2539.977804
966.292309	2540.260108
966.591393	2541.285983
966.890439	2542.453010
967.189447	2541.215407
967.488419	2539.922351
967.787353	2538.997299
968.086249	2540.406302
968.385108	2541.906045
968.683930	2540.789429
968.982714	2540.723894
969.281462	2540.935623
969.580172	2539.690458
969.878844	2540.272711
970.177480	2542.415202
970.476078	2538.936805
970.774639	2542.019471
971.073162	2541.139790
971.371649	2541.291024
971.670098	2540.003009
971.968510	2541.364121
972.266885	2537.671476
972.565223	2542.813453
972.863524	2541.596014
973.161788	2541.308668
973.460014	2543.614996
973.758204	2540.749100
974.056356	2540.300437
974.354471	2541.016281
974.652550	2542.821014
974.950591	2541.853113
975.248595	2543.879657
975.546563	2543.287321
975.844493	2543.798998
976.142386	2541.659028
976.440243	2539.428318
976.738062	2544.091385
977.035845	2540.507125
977.333590	2542.342105
977.631299	2539.723225
977.928971	2541.230530
978.226606	2540.983514
978.524204	2540.481919
978.821765	2539.098122
979.119290	2537.185004
979.416777	2540.131559
979.714228	2539.493853
980.011642	2539.970242
980.309020	2544.633309
980.606360	2537.464788
980.903664	2540.698689
981.200931	2541.906045
981.498162	2540.847403
981.795356	2540.580222
982.092513	2545.951571
982.389633	2548.777138
982.686717	2551.658157
982.983764	2552.706717
983.280775	2555.809547
983.577749	2553.115051
983.874686	2551.786707
984.171587	2547.075748
984.468451	2548.699000
984.765279	2544.550130
985.062070	2543.572146
985.358824	2545.515511
985.655543	2540.865047
985.952224	2542.795809
986.248869	2540.900335
986.545478	2536.827082
986.842050	2536.138965
987.138586	2534.775333
987.435086	2536.191897
987.731549	2533.925898
988.027975	2539.415715
988.324366	2540.915458
988.620719	2538.364634
988.917037	2539.526620
989.213318	2537.326157
989.509563	2538.210879
989.805772	2539.219110
990.101944	2536.239788
990.398080	2538.530993
990.694180	2536.675848
990.990244	2538.568801
991.286271	2537.724408
991.582262	2537.121990
991.878217	2538.898997
992.174136	2540.555016
992.470019	2537.903369
992.765865	2538.369676
993.061676	2538.775488
993.357450	2538.722556
993.653188	2538.987217
993.948890	2538.639377
994.244556	2536.960673
994.540186	2537.477391
994.835780	2537.626105
995.131337	2539.650129
995.426859	2538.634336
995.722345	2540.066024
996.017795	2542.115253
996.313208	2542.551313
996.608586	2542.110212
996.903928	2542.397557
997.199234	2539.645088
997.494504	2542.309337
997.789738	2539.793802
998.084936	2540.038298
998.380099	2538.289017
998.675225	2540.275232
998.970316	2541.548123
999.265371	2538.231044
999.560390	2536.869932
999.855373	2537.154757
1000.150320	2536.751465
1000.445232	2536.723739
1000.740108	2537.482432
1001.034948	2537.074099
1001.329752	2536.542257
1001.624521	2534.921526
1001.919254	2532.012781
1002.213951	2534.818183
1002.508613	2535.186187
1002.803239	2535.453368
1003.097829	2529.376257
1003.392384	2536.975797
1003.686903	2535.284489
1003.981386	2535.274407
1004.275834	2535.728111
1004.570246	2537.515200
1004.864623	2534.518234
1005.158964	2534.835827
1005.453270	2537.356404
1005.747540	2534.316588
1006.041775	2532.950435
1006.335974	2535.768440
1006.630138	2534.432534
1006.924266	2535.942360
1007.218359	2535.292051
1007.512416	2535.513862
1007.806438	2534.188038
1008.100425	2536.587628
1008.394376	2532.620240
1008.688292	2536.869932
1008.982172	2534.326670
1009.276017	2536.554860
1009.569827	2535.027391
1009.863602	2536.597710
1010.157341	2535.511341
1010.451045	2536.678368
1010.744714	2536.207021
1011.038347	2534.366999
1011.331945	2533.658717
1011.625508	2535.992772
1011.919036	2536.136444
1012.212528	2534.157792
1012.505986	2534.188038
1012.799408	2538.029398
1013.092795	2537.232895
1013.386147	2535.763399
1013.679464	2534.049407
1013.972745	2535.138296
1014.265992	2535.271887
1014.559204	2534.737524
1014.852380	2536.759027
1015.145521	2535.513862
1015.438628	2537.225334
1015.731699	2533.857843
1016.024736	2536.837165
1016.317737	2535.410518
1016.610703	2535.907072
1016.903635	2530.792821
1017.196531	2531.599406
1017.489393	2534.389685
1017.782219	2529.519930
1018.075011	2534.215765
1018.367768	2536.920344
1018.660490	2537.021167
1018.953177	2537.021167
1019.245829	2537.021167
