Dividing Wavelength (nm)	Counts (n)	Blue Motor Position (mm): 30.200000	Red Motor Position (mm): 0.000000	
326.493990	2132.075361
326.888308	2132.075361
327.282561	2132.075361
327.676750	2099.421287
328.070874	2098.463468
328.464933	2103.456730
328.858929	2107.431680
329.252859	2116.115068
329.646726	2127.329114
330.040528	2139.916876
330.434265	2158.818682
330.827938	2173.927020
331.221547	2192.964938
331.615091	2213.767259
332.008571	2230.279558
332.401986	2253.617580
332.795338	2271.543923
333.188625	2291.970678
333.581847	2307.273101
333.975006	2326.064002
334.368100	2345.318689
334.761129	2362.778725
335.154095	2376.137783
335.546996	2402.248439
335.939833	2422.939855
336.332606	2440.777978
336.725315	2454.283229
337.117960	2461.323201
337.510540	2470.644294
337.903056	2478.591673
338.295508	2492.399394
338.687896	2497.634632
339.080220	2506.496980
339.472480	2512.019564
339.864676	2515.228259
340.256807	2521.822088
340.648875	2523.452901
341.040879	2526.568334
341.432818	2524.539270
341.824694	2530.308871
342.216506	2529.356093
342.608253	2529.247708
342.999937	2533.948584
343.391557	2530.339118
343.783113	2528.370547
344.174605	2524.453570
344.566033	2520.813857
344.957397	2521.653209
345.348697	2520.566841
345.739934	2521.786800
346.131106	2517.847138
346.522215	2519.452746
346.913260	2513.763804
347.304241	2514.033505
347.695159	2512.337157
348.086012	2509.859430
348.476802	2508.079903
348.867528	2504.964470
349.258191	2504.440190
349.648789	2503.555467
350.039324	2503.285765
350.429796	2504.157885
350.820203	2497.755620
351.210548	2500.190497
351.600828	2496.389467
351.991045	2499.615805
352.381198	2498.168994
352.771288	2496.311329
353.161314	2496.684374
353.551276	2496.795280
353.941175	2495.290495
354.331010	2495.955928
354.720782	2495.411483
355.110490	2495.098932
355.500135	2495.897954
355.889717	2496.215547
356.279235	2495.988695
356.668689	2498.781494
357.058080	2497.513644
357.447408	2495.938284
357.836672	2492.785042
358.225873	2495.373674
358.615010	2494.231853
359.004084	2498.259735
359.393095	2500.061948
359.782043	2497.317039
360.170927	2499.817452
360.559748	2500.760147
360.948505	2501.415497
361.337199	2500.056906
361.725830	2505.319871
362.114398	2503.076558
362.502903	2501.690240
362.891344	2504.931702
363.279722	2505.380365
363.668037	2506.769203
364.056289	2507.270798
364.444478	2507.013699
364.832603	2504.578821
365.220665	2506.103770
365.608665	2505.153513
365.996601	2507.061590
366.384474	2506.741476
366.772284	2508.606703
367.160031	2505.803822
367.547715	2511.200377
367.935336	2507.878257
368.322893	2512.773217
368.710388	2510.287928
369.097820	2512.417816
369.485189	2510.918072
369.872495	2511.182733
370.259738	2511.777589
370.646918	2510.759276
371.034035	2512.566530
371.421090	2512.995028
371.808081	2511.538134
372.195010	2510.547547
372.581875	2511.583505
372.968678	2515.182888
373.355418	2511.500326
373.742096	2514.575429
374.128710	2514.492250
374.515262	2515.170286
374.901751	2512.614421
375.288177	2513.715913
375.674540	2514.943434
376.060841	2512.831190
376.447079	2512.654750
376.833254	2515.694566
377.219367	2510.257681
377.605417	2512.291787
377.991404	2512.228772
378.377329	2512.342198
378.763191	2511.245747
379.148991	2518.341171
379.534727	2514.540141
379.920402	2517.020389
380.306013	2513.915038
380.691563	2518.361336
381.077049	2517.889988
381.462474	2517.542148
381.847835	2516.175996
382.233134	2518.038702
382.618371	2515.293794
383.003545	2519.059536
383.388657	2518.762108
383.773706	2520.027437
384.158693	2518.535256
384.543618	2518.353774
384.928480	2517.791686
385.313280	2520.037520
385.698017	2521.229753
386.082692	2520.203878
386.467305	2521.658251
386.851856	2519.661954
387.236344	2520.403003
387.620770	2524.380474
388.005133	2521.262520
388.389435	2521.209588
388.773674	2524.846780
389.157851	2522.774866
389.541965	2524.057840
389.926018	2526.265865
390.310008	2522.374094
390.693936	2522.515247
391.077802	2522.593385
391.461606	2525.048427
391.845348	2524.330062
392.229027	2526.253262
392.612645	2523.682274
392.996200	2526.177645
393.379694	2523.684794
393.763125	2525.814682
394.146494	2523.145391
394.529801	2525.045906
394.913047	2526.341482
395.296230	2530.381967
395.679351	2528.015146
396.062410	2524.408200
396.445408	2523.765453
396.828343	2526.081863
397.211217	2524.284692
397.594028	2524.347706
397.976778	2522.497603
398.359466	2524.909795
398.742092	2521.854856
399.124656	2529.721576
399.507158	2528.544467
399.889598	2529.144364
400.271977	2530.029087
400.654294	2531.995137
401.036549	2531.269210
401.418742	2527.637059
401.800874	2532.768954
402.182944	2528.940197
402.564952	2531.261649
402.946898	2530.064375
403.328783	2534.462781
403.710606	2533.242822
404.092367	2532.494211
404.474067	2531.790970
404.855705	2533.474715
405.237282	2533.172246
405.618797	2532.224509
406.000250	2529.966072
406.381642	2533.139478
406.762972	2535.120652
407.144240	2534.624098
407.525447	2536.915303
407.906593	2532.388347
408.287677	2532.816845
408.668700	2533.764582
409.049661	2536.741383
409.430560	2536.020498
409.811399	2537.220292
410.192176	2535.299613
410.572891	2536.103677
410.953545	2535.851619
411.334138	2535.889428
411.714669	2537.179963
412.095139	2534.919006
412.475547	2538.291538
412.855894	2536.824562
413.236180	2536.950591
413.616405	2542.221117
413.996568	2539.632485
414.376670	2540.171888
414.756711	2539.635005
415.136691	2542.074924
415.516609	2540.212217
415.896466	2539.723225
416.276262	2542.848741
416.655997	2539.710623
417.035670	2539.582073
417.415283	2545.230686
417.794834	2536.575025
418.174324	2541.419574
418.553753	2541.175078
418.933121	2543.743546
419.312428	2545.976777
419.691674	2544.038453
420.070859	2546.329658
420.449983	2547.214380
420.829045	2547.892415
421.208047	2548.688917
421.586988	2551.942982
421.965867	2552.807540
422.344686	2552.608415
422.723444	2560.296174
423.102141	2556.898437
423.480777	2563.938408
423.859352	2563.703994
424.237866	2571.575756
424.616319	2576.576581
424.994712	2584.309711
425.373044	2587.004207
425.751314	2596.564756
426.129524	2598.014087
426.507673	2610.412805
426.885762	2621.014352
427.263789	2630.292595
427.641756	2635.358955
428.019662	2649.025523
428.397508	2661.749395
428.775292	2672.892866
429.153016	2686.282171
429.530679	2696.820703
429.908282	2712.181098
430.285824	2719.838611
430.663305	2753.274064
431.040726	2753.387490
431.418086	2767.379212
431.795385	2795.367699
432.172624	2812.953764
432.549802	2832.833554
432.926920	2857.462111
433.303977	2876.424411
433.680974	2902.809811
434.057910	2933.064295
434.434786	2959.679067
434.811601	2978.911069
435.188355	3036.604554
435.565050	3047.090154
435.941683	3075.086202
436.318257	3141.710091
436.694770	3170.986592
437.071222	3213.874209
437.447614	3232.823906
437.823946	3247.707913
438.200218	3321.417144
438.576429	3329.442661
438.952580	3392.885582
439.328670	3445.079168
439.704700	3460.386632
440.080670	3499.548835
440.456580	3620.057618
440.832429	3629.035913
441.208218	3626.724544
441.583947	3723.721385
441.959616	3771.014970
442.335224	3789.349647
442.710773	3885.600397
443.086261	3953.005665
443.461689	3914.939912
443.837057	4026.997201
444.212365	4144.226713
444.587612	4145.040859
444.962800	4265.441257
445.337927	4307.837361
445.712995	4181.148123
446.088002	4514.323022
446.462949	4480.819514
446.837837	4504.276003
447.212664	4634.773832
447.587431	4782.782109
447.962139	5140.267972
448.336786	5718.435386
448.711374	5636.821626
449.085901	5162.063401
449.460369	5178.129558
449.834776	5184.809087
450.209124	5498.749463
450.583412	5662.937323
450.957640	5796.069155
451.331808	5708.869797
451.705917	5460.824863
452.079965	5454.238595
452.453954	5657.550850
452.827883	5614.990909
453.201752	5734.410803
453.575562	5626.789730
453.949311	5835.632131
454.323001	5787.784019
454.696632	5881.478904
455.070202	6034.876175
455.443713	6197.592018
455.817164	6329.624878
456.190556	6433.928872
456.563888	6540.297218
456.937160	6616.431244
457.310373	6362.851123
457.683526	6423.428148
458.056619	6375.731271
458.429653	6395.956381
458.802628	6362.838520
459.175542	6490.324260
459.548398	6836.555747
459.921194	7002.916345
460.293930	7030.050355
460.666607	7528.610388
461.039224	7839.773089
461.411782	7984.391190
461.784280	8033.093777
462.156719	7969.555074
462.529099	7887.301087
462.901419	7524.804317
463.273680	7450.268337
463.645882	7485.395097
464.018024	7374.696400
464.390106	7553.458236
464.762130	7941.619520
465.134094	8403.190087
465.505999	9388.939831
465.877845	10574.601571
466.249631	11221.946219
466.621358	10883.997347
466.993026	10300.302308
467.364634	10066.753212
467.736184	9727.796110
468.107674	9419.443853
468.479105	9458.590933
468.850477	9231.224812
469.221790	9021.381742
469.593043	8701.717135
469.964238	8575.405985
470.335373	8593.259231
470.706449	8657.443202
471.077467	8644.555492
471.448425	9941.299057
471.819324	11001.476397
472.190164	11025.898266
472.560945	9792.343044
472.931667	9022.919294
473.302330	8890.349551
473.672934	8540.377527
474.043479	8893.984222
474.413965	8838.670162
474.784393	8725.972647
475.154761	8887.276967
475.525070	8973.715112
475.895321	8798.590468
476.265513	8976.573446
476.635645	9148.693562
477.005719	9145.855392
477.375734	9263.510882
477.745691	9499.459567
478.115588	9623.814750
478.485427	9874.145847
478.855207	10412.858671
479.224928	11225.989224
479.594591	11847.820592
479.964194	11659.384782
480.333739	11598.074269
480.703226	11512.704849
481.072653	11602.765063
481.442022	11846.822444
481.811333	12026.196780
482.180584	11841.395642
482.549777	11550.964686
482.918912	11371.819723
483.287988	11393.756304
483.657005	11409.091494
484.025964	11095.130953
484.394864	11224.328164
484.763706	11190.776765
485.132489	10945.897675
485.501213	10923.333471
485.869879	10994.713689
486.238487	10833.376601
486.607036	10951.563932
486.975527	10733.319779
487.343959	10918.564539
487.712333	10966.226128
488.080648	10897.618545
488.448905	10936.987436
488.817104	10879.500638
489.185244	11141.300360
489.553326	11300.399176
489.921350	11827.696306
490.289315	12902.346798
490.657222	13229.658835
491.025070	13147.162873
491.392861	13016.294519
491.760593	12634.235551
492.128267	12287.363837
492.495883	11961.312089
492.863440	11631.562654
493.230939	11295.184102
493.598380	11227.988042
493.965763	11098.168248
494.333088	10993.155972
494.700354	10918.922461
495.067563	10972.187293
495.434713	10808.639659
495.801805	10936.342168
496.168839	10863.638648
496.535815	10797.821343
496.902733	10801.183792
497.269593	10734.771632
497.636395	10830.419964
498.003139	10825.792185
498.369825	10688.849241
498.736453	10845.901348
499.103023	10767.420665
499.469535	10806.381222
499.835989	10793.390169
500.202385	10756.254509
500.568723	10610.333270
500.935003	10829.358801
501.301226	10633.119285
501.667390	10898.084852
502.033497	10986.554581
502.399546	10855.774447
502.765537	10753.318037
503.131470	10837.298619
503.497345	11004.864052
503.863163	10617.156471
504.228923	10927.963771
504.594625	10988.273615
504.960269	10741.534340
505.325856	10955.838831
505.691385	10753.444066
506.056856	10905.591130
506.422270	10932.838566
506.787625	10817.267594
507.152924	10938.451891
507.518164	10920.129818
507.883347	10841.442447
508.248472	10762.808009
508.613540	10996.745274
508.978550	10880.836544
509.343503	10851.038283
509.708398	10969.155039
510.073236	11083.115362
510.438016	11091.125756
510.802738	11036.290605
511.167403	11093.086765
511.532010	10985.316978
511.896561	11217.535209
512.261053	11291.942640
512.625488	11158.125211
512.989866	11139.490586
513.354186	11126.852413
513.718449	11030.430264
514.082655	11228.235058
514.446803	11120.631629
514.810894	11237.157901
515.174927	11105.175452
515.538904	11135.520677
515.902822	11289.535489
516.266684	11168.570482
516.630488	11114.191555
516.994235	11166.813640
517.357925	11226.740356
517.721558	11312.359313
518.085133	11328.422950
518.448651	11343.682523
518.812112	11224.428987
519.175516	11236.555483
519.538863	11363.320337
519.902152	11269.146542
520.265385	11439.257758
520.628560	11348.189314
520.991678	11324.354739
521.354739	11389.365459
521.717743	11318.895169
522.080690	11298.385235
522.443580	11437.823550
522.806413	11395.538352
523.169189	11421.540623
523.531908	11482.163019
523.894569	11301.999742
524.257174	11308.565845
524.619722	11421.137331
524.982213	11371.784435
525.344647	11422.705130
525.707025	11375.620753
526.069345	11465.716254
526.431608	11385.019984
526.793815	11494.725574
527.155964	11281.772112
527.518057	11334.038795
527.880093	11279.468305
528.242072	11358.145593
528.603995	11257.539286
528.965860	11176.023828
529.327669	11231.539535
529.689421	11177.286637
530.051117	11151.100363
530.412755	11253.108111
530.774337	11147.768161
531.135862	11127.802671
531.497331	11145.333283
531.858743	11000.775676
532.220098	11167.781541
532.581396	11034.836232
532.942638	11022.704695
533.303824	10990.317803
533.664953	11002.151911
534.026025	10904.136757
534.387040	11013.441575
534.747999	11013.018118
535.108902	11073.486759
535.469748	10830.964409
535.830537	10934.182034
536.191270	10915.217213
536.551947	10935.664133
536.912567	10933.481313
537.273131	10859.882988
537.633638	10835.907260
537.994089	10828.176651
538.354483	10780.802407
538.714821	10916.812738
539.075103	10925.856568
539.435328	10903.229349
539.795497	10725.500950
540.155609	10881.590196
540.515665	10967.609925
540.875665	10707.597292
541.235609	10776.348548
541.595496	10766.989646
541.955328	10923.005796
542.315102	10796.689604
542.674821	10754.084292
543.034483	10754.532955
543.394090	10763.798596
543.753640	10694.195384
544.113134	10908.449464
544.472571	10767.597105
544.831953	10903.541901
545.191278	10713.472757
545.550548	10742.998795
545.909761	10881.058355
546.268918	10855.837462
546.628019	10942.540267
546.987064	10801.113216
547.346053	10718.534075
547.704986	10820.544344
548.063863	10811.500514
548.422684	10804.629421
548.781449	10719.421318
549.140158	10824.615076
549.498811	10696.620179
549.857408	10555.495598
550.215949	10780.199990
550.574434	10636.406117
550.932864	10732.437578
551.291237	10792.875971
551.649555	10740.415203
552.007817	10748.193704
552.366022	10706.142919
552.724173	10707.322549
553.082267	10693.764366
553.440305	10827.352422
553.798288	10630.376897
554.156215	10784.961359
554.514086	10758.828018
554.871902	10615.361821
555.229661	10649.737449
555.587365	10616.634712
555.945014	10520.512511
556.302606	10643.143619
556.660143	10537.400376
557.017625	10693.298059
557.375050	10592.918604
557.732421	10720.091792
558.089735	10637.058947
558.446994	10638.672116
558.804197	10675.008753
559.161345	10670.779225
559.518437	10523.786740
559.875474	10609.277148
560.232455	10639.546756
560.589381	10593.180744
560.946251	10586.327295
561.303065	10692.867040
561.659825	10628.136104
562.016528	10563.397607
562.373177	10444.373444
562.729770	10559.152955
563.086307	10469.332197
563.442789	10558.603469
563.799216	10437.910685
564.155587	10488.559157
564.511904	10447.360327
564.868164	10434.830540
565.224370	10453.316451
565.580520	10375.304595
565.936615	10378.878773
566.292654	10244.138813
566.648638	10374.664368
567.004567	10337.707670
567.360441	10323.509260
567.716260	10226.993849
568.072023	10325.929014
568.427732	10280.472929
568.783385	10182.044401
569.138982	10257.386965
569.494525	10271.411455
569.850013	10146.867229
570.205445	10230.643644
570.560823	10124.275298
570.916145	10045.908041
571.271412	10116.307754
571.626625	10057.265761
571.981782	10028.926914
572.336884	10009.412608
572.691931	10013.385037
573.046923	9963.432243
573.401860	9918.286190
573.756743	9855.128094
574.111570	9902.272965
574.466342	9881.730263
574.821059	9910.394264
575.175722	9810.995313
575.530330	9814.703082
575.884882	9797.278333
576.239380	9727.531449
576.593823	9712.037463
576.948211	9727.322241
577.302544	9605.543088
577.656823	9621.546231
578.011047	9623.451787
578.365216	9595.952293
578.719330	9516.786013
579.073389	9535.697901
579.427394	9475.501483
579.781344	9456.718144
580.135239	9404.022963
580.489080	9416.323378
580.842866	9313.602307
581.196597	9323.545983
581.550273	9359.068473
581.903895	9331.599226
582.257463	9396.325121
582.610975	9274.160319
582.964434	9301.974886
583.317837	9223.284995
583.671186	9207.740597
584.024481	9195.344399
584.377721	9118.431515
584.730906	9097.493083
585.084037	9128.317218
585.437113	9060.649810
585.790135	9079.680166
586.143103	8979.951019
586.496016	8958.120302
586.848874	9019.569447
587.201679	9007.284155
587.554428	8891.655209
587.907124	8940.118342
588.259765	8908.056603
588.612352	8903.673320
588.964884	8786.090927
589.317362	8797.809089
589.669786	8802.409142
590.022155	8848.606276
590.374470	8867.167805
590.726731	8802.094070
591.078937	8649.427767
591.431090	8770.859081
591.783188	8640.325964
592.135232	8631.380436
592.487222	8638.579204
592.839157	8681.572685
593.191038	8623.720403
593.542866	8566.546157
593.894639	8464.384653
594.246358	8517.899022
594.598022	8535.101960
594.949633	8430.392153
595.301190	8404.462978
595.652692	8434.407432
596.004141	8548.372797
596.355535	8313.800347
596.706876	8297.804766
597.058162	8243.554389
597.409395	8313.031571
597.760573	8374.339563
598.111698	8283.460162
598.462768	8272.994727
598.813785	8229.746668
599.164748	8207.288328
599.515657	8192.719393
599.866511	8110.173020
600.217312	8231.710198
600.568060	8088.682581
600.918753	8192.522788
601.269392	8163.331987
601.619978	8077.521466
601.970510	8137.922051
602.320988	8140.160323
602.671412	8190.312242
603.021783	8131.688664
603.372100	8101.560208
603.722363	8105.230168
604.072572	8076.440139
604.422728	8095.208354
604.772830	8023.833178
605.122878	8024.697736
605.472872	8018.786983
605.822813	8051.720841
606.172701	8000.583376
606.522534	8073.657422
606.872314	8067.650887
607.222041	8041.104171
607.571714	8096.922347
607.921333	8053.618835
608.270899	8065.425217
608.620411	8146.653329
608.969870	8054.342241
609.319276	8049.124647
609.668627	8063.703663
610.017926	8097.522244
610.367171	8145.566961
610.716362	8121.427396
611.065500	8111.498843
611.414585	8144.042012
611.763616	8128.182542
612.112594	8112.002958
612.461518	8127.028117
612.810389	8182.508536
613.159207	8130.622460
613.507971	8074.390910
613.856682	8195.038324
614.205340	8146.073597
614.553945	8228.372954
614.902496	8125.790514
615.250994	8182.775717
615.599439	8162.598499
615.947830	8175.881939
616.296169	8149.342785
616.644454	8160.879466
616.992686	8155.722365
617.340864	8217.582364
617.688990	8124.321018
618.037063	8211.837969
618.385082	8158.328642
618.733048	8246.175789
619.080961	8177.051487
619.428821	8207.951240
619.776628	8205.768420
620.124382	8164.546905
620.472083	8146.280284
620.819731	8168.017739
621.167326	8063.212151
621.514868	8072.286228
621.862357	7955.833053
622.209793	7975.024726
622.557176	7905.832369
622.904506	7883.762198
623.251783	7813.332237
623.599007	7768.239116
623.946179	7771.281452
624.293297	7733.210658
624.640363	7650.444995
624.987376	7634.260370
625.334336	7579.652071
625.681243	7531.380502
626.028097	7519.324583
626.374899	7493.513875
626.721647	7484.810323
627.068343	7421.831188
627.414987	7385.681074
627.761577	7346.844025
628.108115	7381.658233
628.454600	7278.304497
628.801032	7327.601941
629.147412	7291.797145
629.493739	7280.855321
629.840014	7214.821247
630.186236	7274.979856
630.532405	7155.335631
630.878521	7204.144083
631.224585	7161.054820
631.570597	7084.527584
631.916556	7119.004036
632.262462	7115.071936
632.608316	7082.354847
632.954117	7054.414252
633.299866	7043.255658
633.645562	7028.631271
633.991206	6954.932122
634.336797	6898.405664
634.682336	6857.801690
635.027823	6820.421534
635.373257	6816.925494
635.718639	6742.094607
636.063968	6758.009529
636.409245	6655.064127
636.754470	6650.096069
637.099642	6607.737774
637.444762	6559.004940
637.789829	6562.069962
638.134845	6502.896898
638.479808	6486.835782
638.824719	6495.012533
639.169577	6423.276914
639.514383	6449.682478
639.859137	6373.099789
640.203839	6378.839143
640.548489	6369.611311
640.893086	6346.550552
641.237632	6313.848587
641.582125	6332.989848
641.926566	6306.077649
642.270955	6323.194887
642.615292	6316.593496
642.959576	6330.302913
643.303809	6319.446789
643.647990	6324.785371
643.992118	6315.376057
644.336195	6264.901504
644.680219	6286.853208
645.024192	6282.139730
645.368112	6372.358739
645.711981	6391.689044
646.055797	6473.164172
646.399562	6428.277738
646.743274	6553.973868
647.086935	6609.295491
647.430544	6605.199553
647.774101	6626.818542
648.117606	6633.067052
648.461059	6619.269414
648.804460	6583.010915
649.147810	6494.082440
649.491108	6461.526669
649.834354	6435.547082
650.177548	6355.213775
650.520690	6270.043481
650.863781	6250.776191
651.206820	6265.559375
651.549807	6192.160175
651.892742	6130.683303
652.235626	6136.629344
652.578458	6122.819103
652.921238	6033.721750
653.263967	6074.902936
653.606644	6012.372464
653.949269	6019.639287
654.291843	5955.452796
654.634365	5999.719168
654.976836	5960.516635
655.319255	5960.196522
655.661622	5933.964878
656.003938	5932.026554
656.346203	5898.029012
656.688416	5922.730666
657.030577	5877.839191
657.372687	5849.034038
657.714746	5834.817984
658.056753	5878.605447
658.398708	5821.103525
658.740612	5811.968954
659.082465	5859.809504
659.424266	5855.892528
659.766016	5844.272668
660.107715	5822.467157
660.449362	5841.956258
660.790958	5831.891594
661.132503	5818.746786
661.473996	5858.549216
661.815438	5847.672927
662.156829	5838.855948
662.498168	5832.367983
662.839456	5813.080529
663.180693	5845.427093
663.521879	5846.979768
663.863013	5832.801523
664.204097	5857.425039
664.545129	5895.024485
664.886110	5889.297734
665.227040	5924.827786
665.567918	5888.672631
665.908746	5920.086581
666.249522	5923.786788
666.590248	5906.656947
666.930922	5936.669457
667.271545	5949.095901
667.612118	5949.456343
667.952639	5927.154279
668.293109	5951.994564
668.633528	5903.433129
668.973896	5906.883799
669.314213	5896.035236
669.654480	5882.441765
669.994695	5873.743254
670.334859	5863.270257
670.674973	5857.132652
671.015035	5858.090471
671.355047	5861.989803
671.695008	5850.798442
672.034918	5821.411036
672.374777	5827.346994
672.714585	5814.166897
673.054342	5819.533206
673.394049	5810.335621
673.733705	5844.181928
674.073310	5825.055790
674.412864	5787.978103
674.752368	5782.568945
675.091820	5787.814266
675.431223	5719.806580
675.770574	5724.245316
676.109875	5675.555331
676.449125	5682.136558
676.788324	5643.055012
677.127473	5585.810190
677.466571	5579.236525
677.805619	5572.781328
678.144616	5560.178443
678.483562	5538.947624
678.822458	5508.257079
679.161303	5500.849104
679.500098	5492.679914
679.838842	5473.629393
680.177535	5480.815558
680.516179	5493.191591
680.854771	5505.678529
681.193314	5584.368420
681.531805	5693.143917
681.870247	5842.036917
682.208638	5944.639521
682.546978	5958.812725
682.885268	5938.786741
683.223508	5847.025138
683.561697	5797.531090
683.899836	5769.875320
684.237925	5722.266663
684.575963	5690.109143
684.913951	5644.932842
685.251889	5707.513726
685.589776	5674.209343
685.927614	5645.441999
686.265401	5719.100818
686.603137	5697.900246
686.940824	5777.510147
687.278460	5802.514270
687.616046	5810.403676
687.953582	5880.165684
688.291068	5861.210945
688.628504	5919.360655
688.965889	5885.698350
689.303224	5829.184495
689.640510	5781.124655
689.977745	5705.416606
690.314930	5611.918326
690.652065	5557.335232
690.989150	5463.652950
691.326185	5387.891969
691.663170	5331.206715
692.000105	5255.170992
692.336990	5178.623591
692.673825	5157.455786
693.010610	5084.462399
693.347345	5015.983365
693.684030	5001.532898
694.020665	4964.404799
694.357251	4873.742168
694.693786	4880.519999
695.030272	4850.608313
695.366707	4815.055576
695.703093	4782.267911
696.039429	4802.916477
696.375716	4783.886121
696.711952	4757.281432
697.048139	4748.829937
697.384276	4731.455601
697.720363	4741.217795
698.056400	4748.930761
698.392388	4696.364129
698.728326	4677.946273
699.064214	4656.193694
699.400053	4656.014733
699.735842	4617.661635
700.071581	4591.631637
700.407270	4568.364192
700.742910	4547.531623
701.078501	4494.138242
701.414042	4494.191174
701.749533	4465.620435
702.084974	4393.068149
702.420366	4457.274805
702.755709	4394.986308
703.091002	4340.443544
703.426246	4394.179723
703.761440	4347.647353
704.096584	4310.466323
704.431679	4326.545083
704.766725	4315.825069
705.101721	4300.716731
705.436668	4332.821319
705.771565	4275.493318
706.106413	4303.900220
706.441212	4339.828523
706.775961	4350.515769
707.110661	4328.770752
707.445311	4354.251264
707.779913	4377.062485
708.114465	4391.472624
708.448967	4415.090429
708.783421	4476.249708
709.117825	4514.617930
709.452180	4521.239485
709.786485	4565.924273
710.120742	4649.620030
710.454949	4638.174090
710.789107	4702.952917
711.123216	4776.193321
711.457275	4769.821302
711.791286	4842.217312
712.125247	4859.821022
712.459159	4757.578860
712.793023	4836.528370
713.126837	4798.444974
713.460602	4787.404847
713.794318	4711.810224
714.127985	4716.342222
714.461602	4629.833501
714.795171	4602.215540
715.128691	4538.903688
715.462162	4479.665090
715.795584	4434.529119
716.128957	4411.874173
716.462281	4360.512377
716.795556	4335.772915
717.128782	4297.833191
717.461960	4229.654106
717.795088	4242.831682
718.128167	4199.548335
718.461198	4138.636073
718.794180	4133.395794
719.127113	4116.659163
719.459997	4094.803240
719.792833	4051.139286
720.125619	4041.666958
720.458357	4005.156402
720.791046	4013.224768
721.123686	3985.853823
721.456278	3944.952422
721.788821	3955.606900
722.121315	3935.361627
722.453761	3911.325405
722.786158	3917.619286
723.118506	3943.409829
723.450805	3895.397879
723.783056	3918.463679
724.115259	3932.150412
724.447412	3936.359775
724.779518	3929.337448
725.111574	3933.554373
725.443582	3965.197696
725.775542	3950.671611
726.107453	3999.623735
726.439315	4000.354702
726.771129	4015.092516
727.102895	4051.640881
727.434612	4098.236266
727.766281	4108.197586
728.097901	4111.504583
728.429473	4116.654122
728.760996	4124.094865
729.092471	4117.858958
729.423897	4102.294395
729.755276	4110.312350
730.086606	4110.776136
730.417887	4146.674193
730.749120	4209.789439
731.080305	4274.795118
731.411442	4302.435764
731.742530	4271.568779
732.073570	4277.580355
732.404562	4330.908201
732.735506	4325.977953
733.066401	4286.266263
733.397249	4222.909042
733.728048	4141.771671
734.058798	4057.770924
734.389501	3987.615707
734.720156	3928.356943
735.050762	3882.580746
735.381320	3877.837020
735.711831	3821.761745
736.042293	3800.669558
736.372707	3818.570695
736.703073	3792.134884
737.033391	3780.683903
737.363661	3797.319711
737.693883	3826.258454
738.024056	3831.791121
738.354182	3827.556552
738.684260	3890.208012
739.014290	3915.413781
739.344272	3906.634611
739.674207	3950.747228
740.004093	3952.788895
740.333931	3950.348977
740.663722	3950.991724
740.993464	3946.837813
741.323159	3924.089607
741.652806	3895.851583
741.982405	3867.001060
742.311956	3838.228674
742.641460	3828.335410
742.970915	3805.183911
743.300323	3762.472735
743.629683	3727.038464
743.958996	3714.831310
744.288260	3690.268288
744.617477	3661.906757
744.946647	3643.393119
745.275768	3616.962350
745.604842	3620.052577
745.933869	3569.915781
746.262847	3561.297929
746.591778	3601.115482
746.920662	3572.050710
747.249498	3540.946791
747.578286	3583.481526
747.907027	3604.992130
748.235720	3603.061368
748.564365	3627.533649
748.892963	3625.628093
749.221514	3607.177470
749.550017	3587.148966
749.878473	3584.618307
750.206881	3556.183678
750.535242	3550.784602
750.863555	3551.588667
751.191821	3544.339487
751.520039	3529.352137
751.848210	3508.622912
752.176334	3538.895041
752.504411	3546.182029
752.832440	3506.109897
753.160421	3488.143225
753.488356	3494.769822
753.816243	3508.569980
754.144082	3467.449288
754.471875	3452.504788
754.799620	3471.484732
755.127318	3462.428299
755.454969	3462.448464
755.782572	3469.838795
756.110129	3447.385496
756.437638	3432.766150
756.765100	3447.105712
757.092515	3457.656847
757.419882	3466.975420
757.747203	3436.743620
758.074477	3440.703447
758.401703	3458.536528
758.728882	3477.950012
759.056014	3485.534428
759.383099	3489.441322
759.710138	3483.913697
760.037129	3504.295082
760.364073	3532.328938
760.690970	3518.223790
761.017820	3493.030623
761.344623	3511.541740
761.671379	3558.898340
761.998088	3607.094291
762.324751	3738.060947
762.651366	3982.554388
762.977935	4455.611224
763.304456	4900.883740
763.630931	4991.407740
763.957359	4634.093276
764.283740	4288.411274
764.610074	4098.049743
764.936362	3903.478849
765.262602	3742.482039
765.588796	3631.375008
765.914943	3545.448541
766.241044	3455.171558
766.567097	3425.154008
766.893104	3379.670197
767.219064	3345.100484
767.544978	3323.761280
767.870845	3264.308432
768.196665	3249.636154
768.522438	3256.870210
768.848165	3249.787389
769.173846	3214.912686
769.499479	3197.371992
769.825066	3183.844055
770.150607	3167.901406
770.476101	3176.199145
770.801548	3173.166891
771.126949	3131.090901
771.452303	3113.454424
771.777611	3120.131432
772.102872	3125.399438
772.428087	3099.117383
772.753256	3090.393666
773.078378	3081.639702
773.403453	3052.973181
773.728482	3036.198741
774.053465	3058.170610
774.378401	3046.588559
774.703291	3012.820390
775.028135	3014.035308
775.352932	3011.600431
775.677683	2996.648369
776.002388	2997.346569
776.327046	2998.059892
776.651658	2989.003459
776.976224	2973.055769
777.300743	2974.046356
777.625216	2968.100315
777.949643	2962.711321
778.274024	2963.286013
778.598359	2951.104064
778.922647	2957.208902
779.246889	2957.811320
779.571086	2943.988476
779.895236	2939.627878
780.219339	2947.973508
780.543397	2959.169911
780.867409	2962.618060
781.191374	2954.194292
781.515294	2953.211267
781.839167	2949.894188
782.162995	2942.168619
782.486776	2953.065073
782.810511	2949.493416
783.134201	2938.486056
783.457844	2942.818928
783.781441	2934.322063
784.104993	2915.085020
784.428498	2915.931934
784.751958	2928.872576
785.075372	2923.677667
785.398739	2908.511356
785.722061	2926.644386
786.045337	2935.481529
786.368568	2921.625917
786.691752	2909.912796
787.014891	2959.588326
787.337983	2988.499344
787.661030	3014.814167
787.984031	3086.484251
788.306987	3127.264665
788.629897	3122.157976
788.952760	3104.135851
789.275579	3088.878799
789.598351	3031.709594
789.921078	2984.315186
790.243759	2978.356542
790.566395	2962.754171
790.888984	2936.328443
791.211529	2922.588778
791.534027	2909.801891
791.856480	2903.976838
792.178888	2886.063098
792.501249	2878.105636
792.823566	2877.858620
793.145836	2870.556508
793.468062	2868.303113
793.790241	2868.482073
794.112375	2872.575490
794.434464	2885.740464
794.756507	2889.453273
795.078505	2891.903274
795.400457	2905.768968
795.722364	2945.321861
796.044226	2971.566108
796.366042	2972.705409
796.687812	2961.148563
797.009538	2979.717654
797.331218	2968.957311
797.652852	2952.772686
797.974442	2934.314502
798.295986	2931.897268
798.617484	2926.117585
798.938938	2912.675349
799.260346	2896.508368
799.581709	2892.011659
799.903026	2886.504198
800.224299	2879.698641
800.545526	2870.279245
800.866708	2856.589992
801.187845	2847.372242
801.508936	2847.566326
801.829983	2853.827439
802.150984	2838.124245
802.471940	2828.127637
802.792851	2827.046309
803.113717	2826.038079
803.434538	2834.519820
803.755314	2823.996411
804.076045	2817.369815
804.396731	2817.095072
804.717372	2820.608756
805.037967	2812.794967
805.358518	2819.787048
805.679024	2832.843636
805.999485	2825.165959
806.319901	2832.916733
806.640272	2820.825526
806.960598	2827.913388
807.280879	2839.054338
807.601115	2846.089268
807.921306	2833.773729
808.241453	2827.111844
808.561554	2834.058554
808.881611	2835.941425
809.201623	2832.647031
809.521590	2830.199551
809.841513	2826.562359
810.161390	2832.142916
810.481223	2824.649241
810.801011	2813.528455
811.120755	2809.750111
811.440453	2813.092396
811.760107	2814.077941
812.079716	2811.806901
812.399281	2801.475057
812.718801	2795.022380
813.038276	2789.477110
813.357707	2795.140847
813.677093	2803.012608
813.996434	2797.905920
814.315731	2794.606484
814.634983	2787.569034
814.954191	2790.351751
815.273354	2802.891621
815.592473	2810.965029
815.911547	2814.652633
816.230577	2820.812923
816.549562	2828.790549
816.868502	2829.511434
817.187399	2836.611899
817.506250	2857.169724
817.825058	2849.721419
818.143821	2863.894623
818.462539	2876.999103
818.781213	2905.872312
819.099843	2940.580656
819.418429	2997.593585
819.736970	3058.089952
820.055466	3133.936632
820.373919	3239.518558
820.692327	3377.129455
821.010691	3546.592883
821.329011	3990.244668
821.647286	4885.636771
821.965517	6266.988542
822.283704	7007.029926
822.601847	6980.420196
822.919945	6351.337128
823.237999	5846.689902
823.556010	5268.000728
823.873976	4712.805852
824.191897	4306.083039
824.509775	4008.173532
824.827609	3741.856936
825.145398	3616.942185
825.463144	3608.762913
825.780845	3701.031152
826.098502	3803.691729
826.416116	4082.245726
826.733685	4400.932349
827.051210	4464.856700
827.368692	4348.247250
827.686129	4085.764452
828.003522	3761.272940
828.320872	3499.581603
828.638177	3305.915596
828.955439	3168.740758
829.272656	3086.776638
829.589830	3020.112419
829.906960	2967.177783
830.224046	2924.703542
830.541088	2892.014180
830.858086	2876.598331
831.175041	2856.942872
831.491952	2860.242307
831.808819	2873.157744
832.125642	2896.672206
832.442421	2937.964297
832.759157	3021.050074
833.075849	3198.652445
833.392497	3479.774909
833.709101	3685.332999
834.025662	3632.904999
834.342179	3472.467757
834.658653	3298.230357
834.975083	3148.215700
835.291469	3050.581153
835.607811	2968.743062
835.924110	2908.680234
836.240366	2856.277440
836.556578	2816.356543
836.872746	2791.264199
837.188871	2770.668565
837.504952	2754.448653
837.820990	2746.768455
838.136984	2730.568707
838.452935	2722.336503
838.768842	2722.759960
839.084706	2740.925758
839.400526	2819.545072
839.716303	2950.068107
840.032037	3033.741179
840.347727	3014.799043
840.663373	2956.430043
840.978977	2879.807026
841.294537	2808.852785
841.610054	2759.555342
841.925527	2738.246384
842.240957	2717.829711
842.556344	2695.436906
842.871687	2679.786644
843.186987	2672.030829
843.502244	2666.369613
843.817458	2660.995743
844.132629	2644.634678
844.447756	2639.374234
844.762840	2634.897689
845.077881	2638.547485
845.392879	2633.549181
845.707833	2632.130096
846.022745	2624.492748
846.337613	2628.825620
846.652438	2625.032151
846.967221	2626.733541
847.281960	2625.352265
847.596656	2623.058540
847.911309	2621.946965
848.225919	2617.583847
848.540485	2616.326079
848.855009	2615.587550
849.169490	2614.060080
849.483928	2616.031171
849.798323	2614.959926
850.112675	2613.656788
850.426984	2611.731067
850.741251	2615.151490
851.055474	2610.876591
851.369654	2617.392283
851.683792	2616.227776
851.997887	2612.504884
852.311938	2611.340377
852.625947	2613.762652
852.939914	2616.353805
853.253837	2618.415637
853.567718	2610.279215
853.881555	2612.444390
854.195350	2615.673249
854.509103	2616.295832
854.822812	2611.158896
855.136479	2611.877260
855.450103	2615.902622
855.763685	2614.370111
856.077224	2611.262240
856.390720	2609.848196
856.704173	2614.753239
857.017584	2617.210801
857.330953	2620.316152
857.644278	2621.344547
857.957561	2622.642644
858.270802	2614.765842
858.584000	2613.336674
858.897155	2620.900926
859.210268	2620.611059
859.523339	2614.261726
859.836367	2611.360542
860.149352	2613.286263
860.462295	2613.233331
860.775195	2609.757455
861.088054	2609.891046
861.400869	2608.628237
861.713642	2605.837958
862.026373	2609.734770
862.339062	2609.291148
862.651708	2617.019237
862.964312	2618.728188
863.276873	2612.971191
863.589392	2618.355143
863.901869	2621.641975
864.214303	2626.635238
864.526696	2629.448202
864.839045	2629.372585
865.151353	2633.171094
865.463619	2631.197482
865.775842	2632.377113
866.088023	2632.689664
866.400162	2635.916002
866.712258	2633.213944
867.024313	2633.050107
867.336325	2627.857718
867.648296	2633.135806
867.960224	2635.023718
868.272110	2635.502628
868.583954	2627.779580
868.895755	2630.373254
869.207515	2634.040693
869.519233	2638.116466
869.830909	2635.918523
870.142542	2630.882410
870.454134	2635.540437
870.765684	2637.889614
871.077191	2641.491519
871.388657	2645.635347
871.700081	2644.168371
872.011463	2641.204173
872.322803	2643.626447
872.634101	2646.706592
872.945357	2653.494506
873.256571	2659.274189
873.567744	2658.129847
873.878874	2655.591626
874.189963	2660.390804
874.501010	2662.810558
874.812015	2665.996567
875.122979	2667.670231
875.433900	2658.273520
875.744780	2654.916111
876.055618	2662.490445
876.366415	2667.695436
876.677169	2665.797442
876.987882	2660.804179
877.298554	2659.279230
877.609183	2671.584687
877.919771	2677.480316
878.230317	2685.828467
878.540822	2695.643593
878.851285	2708.637167
879.161707	2731.839078
879.472087	2772.848864
879.782425	2816.608600
880.092722	2935.060592
880.402977	3122.243676
880.713191	3378.924106
881.023363	3671.505114
881.333494	3861.334803
881.643583	4035.463818
881.953631	4032.560114
882.263637	3855.434132
882.573602	3634.979433
882.883526	3505.051255
883.193408	3390.579254
883.503248	3289.950261
883.813048	3176.418436
884.122806	3060.991136
884.432522	2976.272025
884.742197	2912.723240
885.051831	2877.377189
885.361424	2840.370079
885.670975	2801.517906
885.980485	2774.212497
886.289954	2754.274733
886.599382	2741.203021
886.908768	2729.646176
887.218113	2711.059442
887.527417	2698.791794
887.836680	2688.928776
888.145901	2686.771162
888.455082	2677.760100
888.764221	2665.300888
889.073319	2656.357881
889.382376	2656.415855
889.691392	2657.658499
890.000366	2659.914415
890.309300	2656.211688
890.618193	2659.990033
890.927044	2663.874242
891.235855	2662.603871
891.544625	2661.409117
891.853353	2658.079435
892.162041	2667.856753
892.470687	2688.868282
892.779293	2699.278265
893.087858	2709.652960
893.396381	2733.411918
893.704864	2770.378699
894.013306	2845.698579
894.321707	2938.090326
894.630068	2987.604539
894.938387	3004.109277
895.246665	2998.785818
895.554903	2955.774693
895.863100	2911.624268
896.171256	2855.354909
896.479371	2794.568676
896.787446	2752.497726
897.095480	2736.018194
897.403473	2729.414283
897.711425	2715.803167
898.019336	2696.477904
898.327207	2680.746984
898.635038	2680.489885
898.942827	2678.848989
899.250576	2668.706188
899.558284	2658.434837
899.865952	2654.318735
900.173579	2650.512663
900.481165	2648.410502
900.788711	2638.746610
901.096216	2630.829478
901.403681	2630.622791
901.711105	2633.571866
902.018489	2630.141361
902.325832	2634.824593
902.633135	2634.128913
902.940397	2649.816984
903.247619	2686.844259
903.554800	2756.404621
903.861941	2885.402706
904.169041	3009.838548
904.476101	3072.432035
904.783121	3065.749985
905.090100	3006.680265
905.397039	2934.495983
905.703938	2857.391535
906.010796	2796.446506
906.317614	2746.516397
906.624391	2707.941488
906.931129	2682.987777
907.237826	2658.757471
907.544483	2642.401447
907.851099	2626.201699
908.157675	2618.549227
908.464211	2610.639657
908.770707	2599.539036
909.077163	2596.242122
909.383578	2592.047882
909.689954	2592.695670
909.996289	2589.081163
910.302584	2591.044692
910.608839	2583.820719
910.915054	2586.850452
911.221229	2590.757346
911.527363	2591.672316
911.833458	2591.231215
912.139513	2590.517892
912.445527	2591.125351
912.751502	2597.058789
913.057436	2604.285283
913.363331	2608.650922
913.669186	2619.275154
913.975000	2635.991620
914.280775	2651.097437
914.586510	2667.569407
914.892205	2704.085005
915.197859	2770.792074
915.503475	2857.068901
915.809050	2923.344951
916.114585	2937.535799
916.420081	2945.780606
916.725536	2960.596557
917.030952	2933.039090
917.336328	2886.199209
917.641665	2834.295489
917.946961	2787.304373
918.252218	2755.093921
918.557435	2726.089642
918.862612	2704.631971
919.167750	2688.248221
919.472848	2671.962773
919.777906	2655.039620
920.082925	2642.993782
920.387904	2633.468522
920.692843	2629.896865
920.997743	2623.113992
921.302603	2614.297014
921.607423	2612.152003
921.912204	2603.496342
922.216946	2602.740169
922.521647	2601.190014
922.826310	2595.077615
923.130932	2592.899837
923.435516	2584.808785
923.740059	2584.750812
924.044564	2581.060687
924.349028	2581.902560
924.653454	2573.887125
924.957840	2570.070972
925.262186	2568.450241
925.566493	2570.113821
925.870761	2565.775908
926.174989	2565.191135
926.479178	2563.056206
926.783328	2564.208110
927.087438	2562.423541
927.391509	2561.443037
927.695541	2561.080074
927.999533	2557.876420
928.303486	2556.359033
928.607400	2558.640155
928.911275	2557.853735
929.215110	2558.418344
929.518906	2556.580844
929.822663	2558.113355
930.126381	2556.764846
930.430060	2552.701676
930.733699	2553.457849
931.037299	2558.080587
931.340861	2557.826009
931.644383	2557.296688
931.947866	2557.606719
932.251309	2558.574620
932.554714	2554.685370
932.858080	2556.981616
933.161407	2555.794424
933.464694	2554.503888
933.767943	2558.309960
934.071153	2555.804506
934.374323	2553.397355
934.677455	2554.297201
934.980548	2552.207643
935.283602	2551.932900
935.586617	2552.711758
935.889593	2556.487582
936.192530	2555.247459
936.495428	2554.082952
936.798287	2554.539177
937.101108	2556.462377
937.403890	2556.679146
937.706632	2562.720969
938.009336	2563.015877
938.312002	2569.287072
938.614628	2569.702967
938.917216	2575.039029
939.219765	2575.999368
939.522275	2576.054821
939.824747	2574.439131
940.127179	2571.180025
940.429573	2565.954869
940.731929	2569.471074
941.034246	2564.785322
941.336524	2566.890003
941.638763	2567.356310
941.940964	2566.443861
942.243126	2564.351783
942.545250	2562.398335
942.847335	2564.155178
943.149381	2559.736606
943.451389	2558.927501
943.753359	2559.464384
944.055290	2558.879610
944.357182	2553.702345
944.659036	2557.931873
944.960851	2554.619835
945.262628	2559.615618
945.564367	2560.049158
945.866067	2554.990360
946.167729	2558.814075
946.469352	2556.298539
946.770937	2557.518498
947.072484	2555.307952
947.373992	2556.437171
947.675462	2557.289126
947.976893	2554.486244
948.278286	2555.560010
948.579641	2553.883827
948.880958	2552.242931
949.182236	2553.609084
949.483476	2552.890719
949.784678	2550.261758
950.085841	2555.524722
950.386967	2551.753939
950.688054	2553.636810
950.989103	2554.214022
951.290114	2554.564382
951.591087	2556.969013
951.892021	2558.264589
952.192917	2558.814075
952.493776	2562.330280
952.794596	2561.990002
953.095378	2561.153170
953.396122	2561.317008
953.696828	2559.325752
953.997496	2559.129147
954.298126	2556.225442
954.598718	2556.747202
954.899272	2553.490617
955.199788	2552.802499
955.500266	2550.007179
955.800706	2546.090203
956.101108	2544.461910
956.401472	2546.417878
956.701798	2545.843186
957.002087	2545.437373
957.302337	2543.103319
957.602550	2547.048022
957.902724	2542.352187
958.202861	2543.988042
958.502960	2544.237579
958.803022	2543.967877
959.103045	2541.096940
959.403031	2541.820345
959.702979	2540.857485
960.002889	2543.257074
960.302762	2539.882022
960.602596	2543.224307
960.902393	2539.975283
961.202153	2540.023174
961.501875	2541.112063
961.801559	2539.723225
962.101205	2538.977135
962.400814	2541.906045
962.700385	2538.626774
962.999918	2537.978986
963.299414	2540.625592
963.598873	2538.591486
963.898293	2539.120808
964.197677	2538.714995
964.497022	2541.044008
964.796331	2539.206507
965.095601	2538.147865
965.394835	2542.417722
965.694030	2537.013605
965.993189	2539.720705
966.292309	2539.869419
966.591393	2539.004861
966.890439	2539.529141
967.189447	2538.394881
967.488419	2536.073430
967.787353	2537.968904
968.086249	2539.763555
968.385108	2538.105015
968.683930	2539.448483
968.982714	2538.379758
969.281462	2538.808256
969.580172	2536.391023
969.878844	2539.743390
970.177480	2538.750283
970.476078	2538.677186
970.774639	2540.676003
971.073162	2540.592824
971.371649	2534.233409
971.670098	2536.680889
971.968510	2537.215251
972.266885	2535.392874
972.565223	2538.614172
972.863524	2538.778009
973.161788	2540.393699
973.460014	2539.526620
973.758204	2537.971424
974.056356	2537.810107
974.354471	2541.001158
974.652550	2538.530992
974.950591	2537.868081
975.248595	2538.440252
975.546563	2538.515869
975.844493	2538.536034
976.142386	2538.198276
976.440243	2538.530993
976.738062	2541.727084
977.035845	2538.092412
977.333590	2538.654501
977.631299	2534.936650
977.928971	2539.403112
978.226606	2537.910931
978.524204	2535.831455
978.821765	2535.367668
979.119290	2539.367824
979.416777	2539.052752
979.714228	2539.259439
980.011642	2535.493697
980.309020	2537.555529
980.606360	2536.025539
980.903664	2538.808256
981.200931	2538.014274
981.498162	2540.315561
981.795356	2540.968390
982.092513	2546.175902
982.389633	2543.662887
982.686717	2550.889381
982.983764	2548.993907
983.280775	2551.998435
983.577749	2554.266954
983.874686	2552.777293
984.171587	2547.481561
984.468451	2545.858310
984.765279	2544.746735
985.062070	2541.207845
985.358824	2538.626774
985.655543	2541.033925
985.952224	2540.872608
986.248869	2536.612833
986.545478	2533.993954
986.842050	2535.796167
987.138586	2531.725435
987.435086	2533.086546
987.731549	2533.436907
988.027975	2535.811290
988.324366	2534.422452
988.620719	2534.687113
988.917037	2536.133924
989.213318	2535.992772
989.509563	2535.075282
989.805772	2537.709284
990.101944	2535.871784
990.398080	2533.474715
990.694180	2535.266845
990.990244	2533.734335
991.286271	2534.314067
991.582262	2535.193749
991.878217	2535.274407
992.174136	2535.103008
992.470019	2536.706095
992.765865	2538.591486
993.061676	2535.324819
993.357450	2537.046373
993.653188	2535.718029
993.948890	2536.375899
994.244556	2532.761392
994.540186	2536.212062
994.835780	2537.474871
995.131337	2536.194418
995.426859	2536.653163
995.722345	2536.075951
996.017795	2538.548637
996.313208	2539.009902
996.608586	2537.550488
996.903928	2540.159285
997.199234	2539.226672
997.494504	2539.571991
997.789738	2535.344983
998.084936	2540.229861
998.380099	2536.247350
998.675225	2536.665766
998.970316	2533.290713
999.265371	2537.202648
999.560390	2534.944212
999.855373	2538.999820
1000.150320	2534.414890
1000.445232	2535.289531
1000.740108	2533.638553
1001.034948	2533.250384
1001.329752	2534.157792
1001.624521	2533.663758
1001.919254	2529.114117
1002.213951	2530.278624
1002.508613	2527.367357
1002.803239	2531.700229
1003.097829	2529.461957
1003.392384	2532.854653
1003.686903	2534.041845
1003.981386	2532.867256
1004.275834	2532.388347
1004.570246	2534.001516
1004.864623	2533.328522
1005.158964	2530.613860
1005.453270	2532.138809
1005.747540	2533.565456
1006.041775	2535.592000
1006.335974	2533.358769
1006.630138	2533.406660
1006.924266	2534.271217
1007.218359	2535.380271
1007.512416	2532.615198
1007.806438	2533.651156
1008.100425	2532.842050
1008.394376	2533.046217
1008.688292	2532.078316
1008.982172	2531.969931
1009.276017	2532.811803
1009.569827	2530.886083
1009.863602	2535.551671
1010.157341	2533.313398
1010.451045	2531.735517
1010.744714	2531.579241
1011.038347	2531.833820
1011.331945	2531.508665
1011.625508	2533.068902
1011.919036	2532.174098
1012.212528	2531.949766
1012.505986	2532.975641
1012.799408	2533.673841
1013.092795	2532.244674
1013.386147	2530.306350
1013.679464	2533.477236
1013.972745	2532.635363
1014.265992	2528.415917
1014.559204	2531.947246
1014.852380	2533.746938
1015.145521	2532.171577
1015.438628	2529.903058
1015.731699	2531.407842
1016.024736	2530.686957
1016.317737	2533.736855
1016.610703	2532.693336
1016.903635	2529.028418
1017.196531	2527.977337
1017.489393	2527.586647
1017.782219	2527.195958
1018.075011	2532.083357
1018.367768	2530.913809
1018.660490	2533.383974
1018.953177	2533.383974
1019.245829	2533.383974
