Dividing Wavelength (nm)	Counts (n)	Blue Motor Position (mm): 17.500000	Red Motor Position (mm): 0.000000	
326.493990	2135.200876
326.888308	2135.200876
327.282561	2135.200876
327.676750	2101.478078
328.070874	2103.078644
328.464933	2103.522265
328.858929	2108.633995
329.252859	2120.553804
329.646726	2130.384054
330.040528	2144.380817
330.434265	2161.563590
330.827938	2176.671928
331.221547	2198.356452
331.615091	2214.644420
332.008571	2234.403222
332.401986	2255.278640
332.795338	2274.354366
333.188625	2291.111162
333.581847	2310.978349
333.975006	2328.299754
334.368100	2346.894050
334.761129	2366.229395
335.154095	2382.860162
335.546996	2403.901938
335.939833	2422.924732
336.332606	2438.151537
336.725315	2447.165120
337.117960	2460.042748
337.510540	2467.198666
337.903056	2477.795171
338.295508	2483.592498
338.687896	2491.721358
339.080220	2503.003461
339.472480	2508.145438
339.864676	2512.027126
340.256807	2517.378311
340.648875	2519.689680
341.040879	2524.360309
341.432818	2525.736544
341.824694	2527.599250
342.216506	2524.327542
342.608253	2528.350382
342.999937	2527.057326
343.391557	2527.206040
343.783113	2524.630011
344.174605	2523.987264
344.566033	2521.562469
344.957397	2520.864269
345.348697	2519.089783
345.739934	2516.498630
346.131106	2517.769000
346.522215	2513.983094
346.913260	2511.878412
347.304241	2510.401354
347.695159	2511.031498
348.086012	2506.726353
348.476802	2506.396157
348.867528	2504.165447
349.258191	2503.613440
349.648789	2500.530775
350.039324	2498.476505
350.429796	2499.177225
350.820203	2497.264107
351.210548	2497.480877
351.600828	2495.923160
351.991045	2497.332163
352.381198	2494.922491
352.771288	2493.979795
353.161314	2493.488283
353.551276	2493.783190
353.941175	2495.398880
354.331010	2492.323776
354.720782	2491.076091
355.110490	2492.669095
355.500135	2492.530464
355.889717	2491.799496
356.279235	2493.770587
356.668689	2494.035248
357.058080	2493.372336
357.447408	2493.042141
357.836672	2491.078611
358.225873	2492.787562
358.615010	2489.465442
359.004084	2493.032058
359.393095	2495.093890
359.782043	2496.351658
360.170927	2496.502893
360.559748	2496.518016
360.948505	2497.732934
361.337199	2500.808038
361.725830	2497.158243
362.114398	2501.087822
362.502903	2499.890548
362.891344	2502.247288
363.279722	2500.790394
363.668037	2501.846516
364.056289	2503.971362
364.444478	2503.338698
364.832603	2504.941784
365.220665	2505.894563
365.608665	2503.356342
365.996601	2502.990858
366.384474	2503.066475
366.772284	2502.716115
367.160031	2503.363903
367.547715	2507.477485
367.935336	2504.669562
368.322893	2505.095540
368.710388	2504.442710
369.097820	2508.097547
369.485189	2507.258195
369.872495	2508.689882
370.259738	2507.742145
370.646918	2505.461023
371.034035	2509.234327
371.421090	2507.185098
371.808081	2510.555109
372.195010	2508.710047
372.581875	2507.182577
372.968678	2512.337157
373.355418	2507.737104
373.742096	2514.777076
374.128710	2507.628719
374.515262	2510.474451
374.901751	2512.808505
375.288177	2509.889677
375.674540	2510.005623
376.060841	2514.562827
376.447079	2511.928824
376.833254	2511.661642
377.219367	2506.749038
377.605417	2510.161899
377.991404	2507.278359
378.377329	2508.127794
378.763191	2508.016888
379.148991	2515.140039
379.534727	2510.136693
379.920402	2514.242713
380.306013	2510.960922
380.691563	2514.431757
381.077049	2513.763804
381.462474	2513.315141
381.847835	2515.404699
382.233134	2512.296828
382.618371	2514.104082
383.003545	2515.011489
383.388657	2513.562157
383.773706	2514.872858
384.158693	2514.139370
384.543618	2515.989473
384.928480	2514.368742
385.313280	2514.928310
385.698017	2518.373939
386.082692	2517.721109
386.467305	2515.538290
386.851856	2517.211953
387.236344	2518.638599
387.620770	2515.119874
388.005133	2516.854031
388.389435	2519.452746
388.773674	2516.644823
389.157851	2516.841428
389.541965	2518.620955
389.926018	2521.010462
390.310008	2515.439987
390.693936	2520.198837
391.077802	2518.981398
391.461606	2519.871162
391.845348	2522.048940
392.229027	2519.586336
392.612645	2519.432581
392.996200	2519.546007
393.379694	2519.684639
393.763125	2521.461646
394.146494	2520.299660
394.529801	2523.077335
394.913047	2521.655730
395.296230	2522.812675
395.679351	2521.277643
396.062410	2522.921060
396.445408	2522.195133
396.828343	2524.042716
397.211217	2516.864113
397.594028	2518.946110
397.976778	2517.824453
398.359466	2521.343178
398.742092	2518.273116
399.124656	2521.635565
399.507158	2523.004239
399.889598	2522.185051
400.271977	2522.280833
400.654294	2524.236801
401.036549	2524.574558
401.418742	2523.921729
401.800874	2524.304856
402.182944	2524.158663
402.564952	2526.785104
402.946898	2524.786287
403.328783	2525.701256
403.710606	2527.626977
404.092367	2529.368695
404.474067	2524.423323
404.855705	2525.297964
405.237282	2524.188910
405.618797	2525.242511
406.000250	2524.224198
406.381642	2526.860721
406.762972	2526.437264
407.144240	2524.652696
407.525447	2526.706966
407.906593	2526.507841
408.287677	2527.947090
408.668700	2524.609846
409.049661	2526.855680
409.430560	2529.005732
409.811399	2528.604961
410.192176	2530.308871
410.572891	2526.578417
410.953545	2528.799045
411.334138	2530.732328
411.714669	2529.207378
412.095139	2529.338448
412.475547	2527.871473
412.855894	2525.565145
413.236180	2531.919519
413.616405	2530.162677
413.996568	2529.361134
414.376670	2530.412214
414.756711	2525.890299
415.136691	2532.988244
415.516609	2528.945238
415.896466	2529.351051
416.276262	2530.976823
416.655997	2527.763088
417.035670	2527.629497
417.415283	2527.266534
417.794834	2525.360978
418.174324	2529.819879
418.553753	2529.121679
418.933121	2530.969262
419.312428	2532.693336
419.691674	2531.218799
420.070859	2533.298275
420.449983	2529.837523
420.829045	2532.209386
421.208047	2532.824406
421.586988	2531.299457
421.965867	2530.908768
422.344686	2532.015301
422.723444	2531.042358
423.102141	2531.397760
423.480777	2529.537574
423.859352	2533.038655
424.237866	2535.097967
424.616319	2529.923222
424.994712	2533.968748
425.373044	2533.958666
425.751314	2532.867256
426.129524	2532.330373
426.507673	2534.402287
426.885762	2534.500590
427.263789	2533.751979
427.641756	2531.400280
428.019662	2535.145858
428.397508	2533.845240
428.775292	2532.567308
429.153016	2532.017822
429.530679	2536.537216
429.908282	2534.072092
430.285824	2535.599562
430.663305	2534.709798
431.040726	2535.528985
431.418086	2534.757689
431.795385	2536.010416
432.172624	2535.181146
432.549802	2534.031763
432.926920	2537.205169
433.303977	2536.237267
433.680974	2536.315405
434.057910	2536.658204
434.434786	2536.496887
434.811601	2536.658204
435.188355	2538.694830
435.565050	2536.053265
435.941683	2535.924716
436.318257	2534.011598
436.694770	2531.291896
437.071222	2535.274407
437.447614	2534.457740
437.823946	2533.986392
438.200218	2536.494366
438.576429	2535.415559
438.952580	2536.065868
439.328670	2538.437731
439.704700	2536.204500
440.080670	2536.023018
440.456580	2538.054603
440.832429	2539.385468
441.208218	2537.379089
441.583947	2540.552495
441.959616	2540.781868
442.335224	2539.468647
442.710773	2536.025539
443.086261	2538.195756
443.461689	2536.048224
443.837057	2539.703061
444.212365	2540.078627
444.587612	2539.405633
444.962800	2539.120807
445.337927	2536.491846
445.712995	2538.092412
446.088002	2541.071734
446.462949	2537.495035
446.837837	2538.825900
447.212664	2537.058976
447.587431	2539.236754
447.962139	2542.624409
448.336786	2542.029553
448.711374	2539.924872
449.085901	2540.287835
449.460369	2540.302958
449.834776	2541.117104
450.209124	2542.137938
450.583412	2540.618030
450.957640	2539.849254
451.331808	2541.225489
451.705917	2540.209697
452.079965	2543.123484
452.453954	2541.177598
452.827883	2542.233720
453.201752	2542.644574
453.575562	2540.980993
453.949311	2540.159285
454.323001	2543.509132
454.696632	2541.104502
455.070202	2543.335212
455.443713	2541.825387
455.817164	2542.064841
456.190556	2539.241795
456.563888	2539.839172
456.937160	2538.576363
457.310373	2540.083668
457.683526	2541.606096
458.056619	2542.185829
458.429653	2543.574667
458.802628	2544.328319
459.175542	2542.634492
459.548398	2541.764893
459.921194	2542.011909
460.293930	2545.563402
460.666607	2545.467620
461.039224	2544.020809
461.411782	2543.993083
461.784280	2545.535676
462.156719	2543.405788
462.529099	2545.109698
462.901419	2544.600542
463.273680	2546.246478
463.645882	2544.466951
464.018024	2543.894780
464.390106	2543.826725
464.762130	2543.756148
465.134094	2543.055428
465.505999	2546.266643
465.877845	2544.484595
466.249631	2547.537014
466.621358	2546.561551
466.993026	2550.047508
467.364634	2552.784855
467.736184	2546.034750
468.107674	2545.281098
468.479105	2546.997610
468.850477	2546.082641
469.221790	2546.496016
469.593043	2545.049204
469.964238	2549.208156
470.335373	2547.259750
470.706449	2547.383259
471.077467	2546.163299
471.448425	2549.737477
471.819324	2546.364946
472.190164	2546.130532
472.560945	2547.627755
472.931667	2547.335368
473.302330	2547.075748
473.672934	2548.283105
474.043479	2546.833773
474.413965	2547.481561
474.784393	2542.004347
475.154761	2545.991900
475.525070	2542.909235
475.895321	2547.272353
476.265513	2544.615665
476.635645	2548.363763
477.005719	2550.206305
477.375734	2548.202446
477.745691	2547.398382
478.115588	2548.867878
478.485427	2551.879968
478.855207	2549.003990
479.224928	2552.971378
479.594591	2548.562889
479.964194	2550.682694
480.333739	2551.305276
480.703226	2552.217725
481.072653	2550.614638
481.442022	2550.518856
481.811333	2550.919628
482.180584	2554.844166
482.549777	2550.594474
482.918912	2552.469783
483.287988	2551.832077
483.657005	2550.309648
484.025964	2551.882488
484.394864	2551.781665
484.763706	2553.591440
485.132489	2548.928372
485.501213	2554.239228
485.869879	2552.646223
486.238487	2552.888199
486.607036	2552.777293
486.975527	2552.989022
487.343959	2555.426420
487.712333	2552.195040
488.080648	2554.816440
488.448905	2554.758467
488.817104	2553.077242
489.185244	2554.309804
489.553326	2553.742674
489.921350	2554.455998
490.289315	2556.732078
490.657222	2554.332489
491.025070	2555.192006
491.392861	2555.741492
491.760593	2556.638817
492.128267	2558.236863
492.495883	2558.148643
492.863440	2555.940617
493.230939	2552.608415
493.598380	2555.887685
493.965763	2553.478014
494.333088	2553.215874
494.700354	2554.256872
495.067563	2553.944320
495.434713	2552.177396
495.801805	2555.897767
496.168839	2557.263920
496.535815	2557.475649
496.902733	2556.853066
497.269593	2556.149825
497.636395	2559.033365
498.003139	2562.305074
498.369825	2557.561348
498.736453	2559.227450
499.103023	2559.610577
499.469535	2560.066802
499.835989	2558.665361
500.202385	2558.864487
500.568723	2561.821123
500.935003	2561.327090
501.301226	2559.824826
501.667390	2562.249621
502.033497	2560.964127
502.399546	2562.557132
502.765537	2562.587379
503.131470	2562.113510
503.497345	2562.524364
503.863163	2565.475960
504.228923	2564.185424
504.594625	2562.892368
504.960269	2562.698284
505.325856	2565.604509
505.691385	2564.994530
506.056856	2568.520817
506.422270	2565.811197
506.787625	2569.604665
507.152924	2570.597772
507.518164	2570.000395
507.883347	2569.302196
508.248472	2571.779923
508.613540	2573.095664
508.978550	2577.708320
509.343503	2574.050962
509.708398	2579.155131
510.073236	2578.590522
510.438016	2582.401634
510.802738	2581.403485
511.167403	2583.672005
511.532010	2584.067735
511.896561	2589.272727
512.261053	2592.136102
512.625488	2590.124682
512.989866	2591.450505
513.354186	2595.783377
513.718449	2595.110383
514.082655	2602.722525
514.446803	2604.471805
514.810894	2607.539347
515.174927	2613.359360
515.538904	2615.406068
515.902822	2621.677263
516.266684	2625.712707
516.630488	2627.353603
516.994235	2631.515075
517.357925	2637.836682
517.721558	2643.560912
518.085133	2646.308341
518.448651	2654.719506
518.812112	2658.896102
519.175516	2663.876762
519.538863	2672.252639
519.902152	2679.736232
520.265385	2687.217305
520.628560	2689.765608
520.991678	2696.321628
521.354739	2704.742876
521.717743	2712.297045
522.080690	2718.800133
522.443580	2727.443192
522.806413	2736.522310
523.169189	2743.416088
523.531908	2756.089548
523.894569	2760.119951
524.257174	2768.831065
524.619722	2785.066101
524.982213	2792.499282
525.344647	2807.922692
525.707025	2819.471976
526.069345	2829.350117
526.431608	2846.598425
526.793815	2854.084538
527.155964	2865.764892
527.518057	2875.882487
527.880093	2889.796072
528.242072	2905.247208
528.603995	2916.499064
528.965860	2928.915426
529.327669	2944.122066
529.689421	2957.859211
530.051117	2969.915130
530.412755	2996.703822
530.774337	3004.232785
531.135862	3024.898995
531.497331	3036.163453
531.858743	3047.024619
532.220098	3076.533013
532.581396	3088.856114
532.942638	3102.794904
533.303824	3118.752677
533.664953	3148.845845
534.026025	3159.739778
534.387040	3192.068698
534.747999	3210.131152
535.108902	3241.056110
535.469748	3245.051225
535.830537	3275.247736
536.191270	3301.396201
536.551947	3326.526353
536.912567	3351.359077
537.273131	3366.333824
537.633638	3391.554717
537.994089	3420.387597
538.354483	3441.608334
538.714821	3480.558809
539.075103	3508.275073
539.435328	3538.090977
539.795497	3542.184394
540.155609	3596.770008
540.515665	3634.099752
540.875665	3636.305257
541.235609	3675.404446
541.595496	3707.501473
541.955328	3761.093979
542.315102	3773.941360
542.674821	3797.778456
543.034483	3828.466480
543.394090	3867.205227
543.753640	3888.756159
544.113134	3961.719299
544.472571	3969.218016
544.831953	4033.275958
545.191278	4037.679406
545.550548	4074.958738
545.909761	4135.445023
546.268918	4175.592772
546.628019	4226.626893
546.987064	4246.773864
547.346053	4258.585288
547.704986	4327.883509
548.063863	4358.957181
548.422684	4391.213004
548.781449	4421.119649
549.140158	4480.882528
549.498811	4497.402389
549.857408	4495.821988
550.215949	4601.018266
550.574434	4599.765539
550.932864	4675.138351
551.291237	4716.853899
551.649555	4761.833594
552.007817	4798.709634
552.366022	4824.812729
552.724173	4875.088156
553.082267	4903.142177
553.440305	5001.764791
553.798288	4970.083659
554.156215	5074.191048
554.514086	5112.455926
554.871902	5105.337817
555.229661	5162.459131
555.587365	5194.939285
555.945014	5202.105286
556.302606	5301.126150
556.660143	5296.034585
557.017625	5409.833592
557.375050	5415.179735
557.732421	5503.021841
558.089735	5522.906672
558.446994	5562.744391
558.804197	5626.227641
559.161345	5671.096431
559.518437	5644.458974
559.875474	5746.035703
560.232455	5798.796419
560.589381	5815.863246
560.946251	5882.789604
561.303065	5946.754285
561.659825	5983.083360
562.016528	6000.997100
562.373177	5983.438761
562.729770	6094.507983
563.086307	6092.589824
563.442789	6173.669222
563.799216	6186.350245
564.155587	6242.223873
564.511904	6274.361229
564.868164	6315.600388
565.224370	6358.107397
565.580520	6386.635287
565.936615	6408.183699
566.292654	6417.434217
566.648638	6509.692373
567.004567	6542.409462
567.360441	6570.607156
567.716260	6580.031593
568.072023	6659.926319
568.427732	6692.252718
568.783385	6664.266753
569.138982	6762.566732
569.494525	6810.014072
569.850013	6791.414735
570.205445	6886.216154
570.560823	6852.006884
570.916145	6858.731783
571.271412	6941.782272
571.626625	6952.328366
571.981782	6979.616132
572.336884	7007.455904
572.691931	7035.630913
573.046923	7061.555046
573.401860	7068.174081
573.756743	7072.857313
574.111570	7136.416181
574.466342	7154.372771
574.821059	7217.223357
575.175722	7185.577513
575.530330	7236.848568
575.884882	7261.709019
576.239380	7255.916733
576.593823	7274.442973
576.948211	7323.720252
577.302544	7270.997345
577.656823	7327.060017
578.011047	7351.902823
578.365216	7373.347891
578.719330	7354.511620
579.073389	7402.246306
579.427394	7394.054431
579.781344	7410.397851
580.135239	7409.480361
580.489080	7440.579239
580.842866	7413.288953
581.196597	7445.025537
581.550273	7503.271029
581.903895	7514.167483
582.257463	7589.638597
582.610975	7528.305399
582.964434	7573.078407
583.317837	7552.578554
583.671186	7557.448309
584.024481	7587.516271
584.377721	7549.281640
584.730906	7567.064310
585.084037	7621.677650
585.437113	7590.513237
585.790135	7640.037533
586.143103	7583.080056
586.496016	7587.438133
586.848874	7662.122828
587.201679	7673.536000
587.554428	7609.092410
587.907124	7674.748397
588.259765	7669.999630
588.612352	7696.821089
588.964884	7608.300948
589.317362	7655.370202
589.669786	7668.381420
590.022155	7727.284782
590.374470	7769.950588
590.726731	7736.235351
591.078937	7635.818087
591.431090	7755.537929
591.783188	7659.856829
592.135232	7681.558996
592.487222	7691.548043
592.839157	7761.554546
593.191038	7725.144812
593.542866	7693.342693
593.894639	7626.507076
594.246358	7686.953031
594.598022	7722.568783
594.949633	7649.348544
595.301190	7648.310066
595.652692	7688.941766
596.004141	7808.472565
596.355535	7626.043289
596.706876	7623.197558
597.058162	7582.560817
597.409395	7661.412025
597.760573	7733.061944
598.111698	7660.996130
598.462768	7662.921850
598.813785	7643.513408
599.164748	7630.774412
599.515657	7638.074003
599.866511	7572.687717
600.217312	7701.337963
600.568060	7578.974036
600.918753	7692.468053
601.269392	7668.840165
601.619978	7601.323992
601.970510	7673.362080
602.320988	7678.511619
602.671412	7744.144921
603.021783	7695.631377
603.372100	7679.146804
603.722363	7701.315278
604.072572	7681.901795
604.422728	7695.686830
604.772830	7650.054305
605.122878	7664.257756
605.472872	7664.507293
605.822813	7701.496760
606.172701	7654.702249
606.522534	7734.937254
606.872314	7740.535455
607.222041	7723.042651
607.571714	7779.985004
607.921333	7754.582630
608.270899	7765.345494
608.620411	7860.013322
608.969870	7773.466793
609.319276	7769.292717
609.668627	7794.415307
610.017926	7832.402922
610.367171	7886.481900
610.716362	7870.756021
611.065500	7874.796505
611.414585	7902.144765
611.763616	7894.318374
612.112594	7878.804223
612.461518	7902.127121
612.810389	7962.638611
613.159207	7910.134994
613.507971	7864.852829
613.856682	7984.071077
614.205340	7947.489944
614.553945	8028.360134
614.902496	7938.710774
615.250994	7983.362795
615.599439	7975.405333
615.947830	7993.835792
616.296169	7969.277811
616.644454	7986.493351
616.992686	7988.514854
617.340864	8047.786220
617.688990	7954.658465
618.037063	8052.378711
618.385082	8002.864498
618.733048	8085.932631
619.080961	8030.986575
619.428821	8057.397180
619.776628	8060.457160
620.124382	8012.094851
620.472083	8004.961618
620.819731	8033.265177
621.167326	7932.043848
621.514868	7945.203781
621.862357	7836.110691
622.209793	7860.547684
622.557176	7801.800598
622.904506	7776.055425
623.251783	7712.831794
623.599007	7669.429980
623.946179	7670.382758
624.293297	7634.809856
624.640363	7552.407155
624.987376	7546.917339
625.334336	7493.408011
625.681243	7447.878830
626.028097	7432.667148
626.374899	7417.289109
626.721647	7409.208139
627.068343	7348.169848
627.414987	7315.225908
627.761577	7269.890811
628.108115	7308.309445
628.454600	7208.875206
628.801032	7264.189266
629.147412	7217.535908
629.493739	7216.734365
629.840014	7152.709190
630.186236	7206.886471
630.532405	7091.839778
630.878521	7146.904302
631.224585	7100.087106
631.570597	7027.570108
631.916556	7057.010446
632.262462	7051.860907
632.608316	7020.288161
632.954117	7000.138669
633.299866	6986.802297
633.645562	6978.809547
633.991206	6904.452528
634.336797	6848.856163
634.682336	6807.722868
635.027823	6771.580315
635.373257	6768.948833
635.718639	6699.910231
636.063968	6712.475307
636.409245	6609.779442
636.754470	6608.249451
637.099642	6567.005251
637.444762	6510.498958
637.789829	6521.007243
638.134845	6467.311393
638.479808	6452.800431
638.824719	6454.015349
639.169577	6380.447271
639.514383	6407.714872
639.859137	6335.880950
640.203839	6345.388566
640.548489	6332.301731
640.893086	6309.218288
641.237632	6280.899606
641.582125	6300.676052
641.926566	6274.784686
642.270955	6286.959073
642.615292	6282.192662
642.959576	6299.138500
643.303809	6285.938239
643.647990	6292.809332
643.992118	6282.719462
644.336195	6228.186781
644.680219	6254.063023
645.024192	6243.121199
645.368112	6342.865469
645.711981	6362.798191
646.055797	6438.014727
646.399562	6400.843779
646.743274	6522.380957
647.086935	6570.934831
647.430544	6567.998358
647.774101	6590.766730
648.117606	6596.518686
648.461059	6592.226144
648.804460	6551.959928
649.147810	6458.542306
649.491108	6429.601041
649.834354	6405.915180
650.177548	6325.279404
650.520690	6240.908132
650.863781	6220.675461
651.206820	6235.393110
651.549807	6162.669425
651.892742	6105.089365
652.235626	6109.712103
652.578458	6099.150886
652.921238	6004.893912
653.263967	6040.791969
653.606644	5980.908102
653.949269	5989.939329
654.291843	5929.304331
654.634365	5982.009594
654.976836	5931.300628
655.319255	5929.528662
655.661622	5913.076857
656.003938	5903.932203
656.346203	5863.648343
656.688416	5903.604528
657.030577	5851.763823
657.372687	5822.535213
657.714746	5811.754705
658.056753	5855.801787
658.398708	5793.926665
658.740612	5784.812259
659.082465	5830.044012
659.424266	5824.022353
659.766016	5824.060162
660.107715	5796.243075
660.449362	5811.923584
660.790958	5807.784797
661.132503	5797.999917
661.473996	5831.347150
661.815438	5821.426159
662.156829	5820.049924
662.498168	5803.114168
662.839456	5783.899810
663.180693	5821.403474
663.521879	5819.321477
663.863013	5804.961751
664.204097	5827.599052
664.545129	5870.511874
664.886110	5868.883581
665.227040	5899.687552
665.567918	5862.549372
665.908746	5892.423249
666.249522	5894.220421
666.590248	5883.996961
666.930922	5911.781280
667.271545	5924.936171
667.612118	5921.989617
667.952639	5897.615638
668.293109	5918.165901
668.633528	5875.825250
668.973896	5884.186004
669.314213	5870.605135
669.654480	5855.310275
669.994695	5846.899109
670.334859	5838.195557
670.674973	5827.752807
671.015035	5835.770762
671.355047	5832.040308
671.695008	5821.630326
672.034918	5795.302900
672.374777	5805.095341
672.714585	5791.650584
673.054342	5792.862981
673.394049	5788.426766
673.733705	5820.664945
674.073310	5804.699611
674.412864	5765.234938
674.752368	5753.821765
675.091820	5760.448362
675.431223	5697.900246
675.770574	5693.549730
676.109875	5648.454088
676.449125	5654.324512
676.788324	5614.779181
677.127473	5565.380914
677.466571	5553.897166
677.805619	5547.033635
678.144616	5533.394793
678.483562	5512.277399
678.822458	5483.257997
679.161303	5472.926152
679.500098	5466.796109
679.838842	5447.758192
680.177535	5457.084327
680.516179	5472.318693
680.854771	5478.592409
681.193314	5562.930913
681.531805	5668.091903
681.870247	5816.858874
682.208638	5919.229585
682.546978	5926.894659
682.885268	5907.340023
683.223508	5822.078988
683.561697	5771.793479
683.899836	5740.155197
684.237925	5697.948137
684.575963	5659.879863
684.913951	5620.576507
685.251889	5679.245456
685.589776	5649.757227
685.927614	5622.393843
686.265401	5693.610224
686.603137	5673.465773
686.940824	5751.850674
687.278460	5774.188027
687.616046	5785.921313
687.953582	5849.833061
688.291068	5832.259599
688.628504	5894.593466
688.965889	5858.082909
689.303224	5805.286905
689.640510	5755.918885
689.977745	5678.199417
690.314930	5580.040589
690.652065	5525.349111
690.989150	5436.329896
691.326185	5355.731928
691.663170	5310.535464
692.000105	5230.434050
692.336990	5153.322040
692.673825	5129.283298
693.010610	5060.874840
693.347345	4996.955530
693.684030	4984.004806
694.020665	4939.640131
694.357251	4853.572512
694.693786	4861.073748
695.030272	4827.860106
695.366707	4795.264006
695.703093	4759.073562
696.039429	4782.220020
696.375716	4767.446919
696.711952	4739.287033
697.048139	4725.348243
697.384276	4706.285120
697.720363	4721.718612
698.056400	4726.931165
698.392388	4680.227395
698.728326	4661.083614
699.064214	4638.738699
699.400053	4630.662771
699.735842	4598.316207
700.071581	4572.979368
700.407270	4548.376017
700.742910	4533.338255
701.078501	4473.396415
701.414042	4473.353565
701.749533	4443.003298
702.084974	4376.691961
702.420366	4435.355868
702.755709	4377.574163
703.091002	4324.384948
703.426246	4375.824882
703.761440	4327.512984
704.096584	4291.105771
704.431679	4310.799039
704.766725	4297.132471
705.101721	4289.371614
705.436668	4314.637877
705.771565	4264.049898
706.106413	4291.025113
706.441212	4319.263136
706.775961	4335.452802
707.110661	4312.162671
707.445311	4340.672916
707.779913	4360.406513
708.114465	4373.964696
708.448967	4395.124940
708.783421	4459.061894
709.117825	4495.431298
709.452180	4500.747195
709.786485	4549.462385
710.120742	4633.596722
710.454949	4615.136017
710.789107	4681.270914
711.123216	4754.914610
711.457275	4747.221809
711.791286	4818.138241
712.125247	4832.815561
712.459159	4738.301488
712.793023	4812.761851
713.126837	4772.351961
713.460602	4763.280405
713.794318	4685.508004
714.127985	4698.763718
714.461602	4608.310295
714.795171	4583.250719
715.128691	4514.060882
715.462162	4459.976863
715.795584	4409.504831
716.128957	4397.443870
716.462281	4341.819779
716.795556	4315.152075
717.128782	4279.044811
717.461960	4212.219275
717.795088	4224.638158
718.128167	4181.130479
718.461198	4122.159062
718.794180	4116.371817
719.127113	4095.831636
719.459997	4078.706836
719.792833	4034.810989
720.125619	4024.491747
720.458357	3989.090244
720.791046	3995.971419
721.123686	3967.478818
721.456278	3928.024227
721.788821	3941.990744
722.121315	3917.039553
722.453761	3889.734143
722.786158	3900.741502
723.118506	3928.145215
723.450805	3880.528996
723.783056	3901.417017
724.115259	3921.687497
724.447412	3922.604987
724.779518	3917.256322
725.111574	3918.509049
725.443582	3949.411322
725.775542	3934.091256
726.107453	3981.500787
726.439315	3984.641426
726.771129	3996.730113
727.102895	4030.760422
727.434612	4082.051642
727.766281	4092.529680
728.097901	4092.123867
728.429473	4100.401442
728.760996	4106.546608
729.092471	4099.572172
729.423897	4083.392589
729.755276	4088.887446
730.086606	4090.687138
730.417887	4126.527222
730.749120	4190.907797
731.080305	4256.967077
731.411442	4280.746200
731.742530	4252.709823
732.073570	4256.785596
732.404562	4306.705622
732.735506	4303.973316
733.066401	4260.382459
733.397249	4202.167214
733.728048	4120.712251
734.058798	4042.166032
734.389501	3973.364365
734.720156	3910.342380
735.050762	3864.293960
735.381320	3858.738609
735.711831	3809.882266
736.042293	3783.569964
736.372707	3802.741472
736.703073	3775.642749
737.033391	3761.340996
737.363661	3782.743214
737.693883	3806.870177
738.024056	3817.219666
738.354182	3812.294458
738.684260	3872.911813
739.014290	3893.754463
739.344272	3889.456880
739.674207	3931.028755
740.004093	3937.302471
740.333931	3932.188220
740.663722	3934.973458
740.993464	3930.834670
741.323159	3907.453799
741.652806	3876.506155
741.982405	3851.101261
742.311956	3819.586487
742.641460	3809.357986
742.970915	3785.624234
743.300323	3745.708378
743.629683	3711.695713
743.958996	3704.280175
744.288260	3677.735980
744.617477	3645.954025
744.946647	3631.750574
745.275768	3606.640587
745.604842	3604.500617
745.933869	3557.610325
746.262847	3548.054818
746.591778	3587.252309
746.920662	3555.472876
747.249498	3526.188813
747.578286	3571.105494
747.907027	3586.223914
748.235720	3582.707709
748.564365	3611.202831
748.892963	3611.391875
749.221514	3594.728341
749.550017	3572.459043
749.878473	3567.322108
750.206881	3540.934188
750.535242	3536.631563
750.863555	3539.983930
751.191821	3532.603681
751.520039	3515.042822
751.848210	3493.443998
752.176334	3524.011034
752.504411	3533.223743
752.832440	3492.541632
753.160421	3472.866008
753.488356	3485.052997
753.816243	3498.497755
754.144082	3453.724747
754.471875	3439.410391
754.799620	3459.980819
755.127318	3446.218469
755.454969	3449.265846
755.782572	3455.095941
756.110129	3429.938063
756.437638	3421.554624
756.765100	3435.276644
757.092515	3448.668470
757.419882	3451.148717
757.747203	3423.593770
758.074477	3426.628545
758.401703	3442.798046
758.728882	3462.508958
759.056014	3469.559011
759.383099	3473.780978
759.710138	3467.736634
760.037129	3488.145745
760.364073	3513.641381
760.690970	3500.665451
761.017820	3481.004951
761.344623	3499.332066
761.671379	3541.551729
761.998088	3594.738423
762.324751	3720.225345
762.651366	3964.247438
762.977935	4432.258079
763.304456	4865.512484
763.630931	4950.297130
763.957359	4598.099437
764.283740	4261.783900
764.610074	4075.296496
764.936362	3878.958677
765.262602	3723.844893
765.588796	3615.336577
765.914943	3529.591592
766.241044	3444.741411
766.567097	3414.907862
766.893104	3366.482538
767.219064	3337.793332
767.544978	3310.591266
767.870845	3252.980960
768.196665	3236.403125
768.522438	3243.727922
768.848165	3240.199114
769.173846	3207.025801
769.499479	3189.648944
769.825066	3170.835358
770.150607	3156.984787
770.476101	3170.288392
770.801548	3167.523320
771.126949	3120.058336
771.452303	3103.193155
771.777611	3111.392592
772.102872	3113.058693
772.428087	3091.560693
772.753256	3080.669280
773.078378	3073.510842
773.403453	3042.190153
773.728482	3028.132895
774.053465	3049.507388
774.378401	3036.433155
774.703291	3005.737569
775.028135	3008.263187
775.352932	2999.751199
775.677683	2991.120744
776.002388	2988.010352
776.327046	2991.892040
776.651658	2979.400061
776.976224	2968.284317
777.300743	2967.442444
777.625216	2960.531022
777.949643	2953.637244
778.274024	2955.194961
778.598359	2944.898404
778.922647	2951.093982
779.246889	2947.413940
779.571086	2933.787701
779.895236	2928.418872
780.219339	2938.826334
780.543397	2952.813016
780.867409	2952.384518
781.191374	2949.027109
781.515294	2944.981583
781.839167	2940.956222
782.162995	2936.232661
782.486776	2944.515276
782.810511	2943.149124
783.134201	2930.712597
783.457844	2937.692075
783.781441	2927.352668
784.104993	2906.169740
784.428498	2910.797519
784.751958	2921.590629
785.075372	2917.429157
785.398739	2901.776374
785.722061	2917.426636
786.045337	2929.321239
786.368568	2910.537899
786.691752	2905.796694
787.014891	2954.322841
787.337983	2981.814774
787.661030	3010.521624
787.984031	3074.766089
788.306987	3122.473048
788.629897	3111.463168
788.952760	3095.994388
789.275579	3082.413519
789.598351	3024.533511
789.921078	2976.720688
790.243759	2968.579224
790.566395	2951.799744
790.888984	2930.828544
791.211529	2913.537386
791.534027	2905.887435
791.856480	2892.331772
792.178888	2878.919783
792.501249	2870.843854
792.823566	2869.339070
793.145836	2867.060468
793.468062	2860.869931
793.790241	2861.308512
794.112375	2867.385622
794.434464	2877.591438
794.756507	2882.219218
795.078505	2886.035371
795.400457	2900.589182
795.722364	2939.605193
796.044226	2961.168728
796.366042	2961.453553
796.687812	2954.388376
797.009538	2972.753300
797.331218	2960.427678
797.652852	2947.169444
797.974442	2929.154881
798.295986	2923.639858
798.617484	2918.311359
798.938938	2906.081519
799.260346	2887.966133
799.581709	2886.526884
799.903026	2882.042777
800.224299	2873.142620
800.545526	2863.755992
800.866708	2846.114474
801.187845	2840.223886
801.508936	2840.680110
801.829983	2845.086078
802.150984	2833.604851
802.471940	2822.229487
802.792851	2820.598674
803.113717	2819.270330
803.434538	2826.668223
803.755314	2820.578509
804.076045	2813.825883
804.396731	2813.672128
804.717372	2812.958805
805.037967	2807.511838
805.358518	2813.510811
805.679024	2826.673264
805.999485	2819.290494
806.319901	2826.290136
806.640272	2817.571461
806.960598	2825.488593
807.280879	2831.734582
807.601115	2839.480315
807.921306	2826.529591
808.241453	2820.006338
808.561554	2829.818944
808.881611	2828.304077
809.201623	2823.822492
809.521590	2825.012204
809.841513	2821.768221
810.161390	2824.893737
810.481223	2816.500216
810.801011	2807.297589
811.120755	2805.109728
811.440453	2809.036787
811.760107	2808.782209
812.079716	2807.103505
812.399281	2794.911474
812.718801	2790.684467
813.038276	2783.389917
813.357707	2787.208591
813.677093	2798.836012
813.996434	2792.272430
814.315731	2787.395114
814.634983	2781.381017
814.954191	2786.530556
815.273354	2798.488173
815.592473	2807.063176
815.911547	2808.830100
816.230577	2818.322593
816.549562	2824.470280
816.868502	2822.655464
817.187399	2832.818431
817.506250	2850.497757
817.825058	2841.877384
818.143821	2858.372039
818.462539	2869.840664
818.781213	2898.166908
819.099843	2933.661672
819.418429	2990.069663
819.736970	3045.759290
820.055466	3115.770834
820.373919	3221.796382
820.692327	3361.103627
821.010691	3522.284439
821.329011	3955.395172
821.647286	4837.483669
821.965517	6186.060378
822.283704	6908.248517
822.601847	6878.571244
822.919945	6257.017139
823.237999	5762.394247
823.556010	5198.815933
823.873976	4657.373324
824.191897	4261.521760
824.509775	3971.915033
824.827609	3707.834189
825.145398	3592.855552
825.463144	3580.787030
825.780845	3672.062161
826.098502	3775.410856
826.416116	4052.419739
826.733685	4359.768807
827.051210	4413.910799
827.368692	4303.900220
827.686129	4042.551681
828.003522	3727.328331
828.320872	3477.428252
828.638177	3287.747277
828.955439	3150.267450
829.272656	3073.770461
829.589830	3003.181704
829.906960	2958.852318
830.224046	2914.134763
830.541088	2880.754763
830.858086	2868.759337
831.175041	2849.849969
831.491952	2849.668487
831.808819	2863.876979
832.125642	2886.380690
832.442421	2929.338883
832.759157	3009.528517
833.075849	3181.467151
833.392497	3456.328503
833.709101	3660.187723
834.025662	3604.336780
834.342179	3449.825414
834.658653	3277.826286
834.975083	3134.314719
835.291469	3034.401570
835.607811	2956.568675
835.924110	2899.162536
836.240366	2851.727799
836.556578	2809.734987
836.872746	2784.776234
837.188871	2763.104314
837.504952	2746.534041
837.820990	2740.454410
838.136984	2726.129971
838.452935	2719.331975
838.768842	2718.716954
839.084706	2738.407701
839.400526	2815.469300
839.716303	2943.733898
840.032037	3018.746267
840.347727	2999.947804
840.663373	2946.622479
840.978977	2872.744369
841.294537	2801.102011
841.610054	2755.701380
841.925527	2735.894686
842.240957	2714.230327
842.556344	2692.954138
842.871687	2677.172806
843.186987	2669.182577
843.502244	2662.056906
843.817458	2661.520023
844.132629	2650.230359
844.447756	2641.680562
844.762840	2631.472225
845.077881	2636.238636
845.392879	2635.490025
845.707833	2629.617081
846.022745	2622.370422
846.337613	2626.610032
846.652438	2622.735906
846.967221	2624.827985
847.281960	2619.733899
847.596656	2620.709362
847.911309	2619.494444
848.225919	2617.697273
848.540485	2612.973711
848.855009	2616.542848
849.169490	2612.096551
849.483928	2615.416150
849.798323	2613.855913
850.112675	2613.394648
850.426984	2612.003289
850.741251	2612.038577
851.055474	2612.792230
851.369654	2615.834566
851.683792	2613.876078
851.997887	2612.257867
852.311938	2612.502363
852.625947	2612.613269
852.939914	2615.607714
853.253837	2616.689042
853.567718	2610.354832
853.881555	2613.482868
854.195350	2614.085286
854.509103	2613.107302
854.822812	2611.700820
855.136479	2609.870881
855.450103	2611.042949
855.763685	2615.332971
856.077224	2612.215018
856.390720	2609.444904
856.704173	2609.170161
857.017584	2614.889350
857.330953	2617.972015
857.644278	2619.184413
857.957561	2620.041409
858.270802	2615.522015
858.584000	2614.637292
858.897155	2618.390431
859.210268	2617.447735
859.523339	2614.158382
859.836367	2609.202928
860.149352	2611.259719
860.462295	2612.245265
860.775195	2609.888525
861.088054	2607.902311
861.400869	2606.997423
861.713642	2605.855602
862.026373	2606.689913
862.339062	2610.064966
862.651708	2614.793568
862.964312	2614.372632
863.276873	2613.142590
863.589392	2615.317848
863.901869	2619.224742
864.214303	2624.643982
864.526696	2629.533902
864.839045	2626.184055
865.151353	2632.062040
865.463619	2632.430045
865.775842	2633.904582
866.088023	2631.290744
866.400162	2631.941053
866.712258	2629.614560
867.024313	2630.027935
867.336325	2625.884106
867.648296	2626.214302
867.960224	2632.591362
868.272110	2633.720580
868.583954	2624.580968
868.895755	2627.784621
869.207515	2629.886782
869.519233	2637.919861
869.830909	2635.797535
870.142542	2629.211268
870.454134	2632.414921
870.765684	2636.873822
871.077191	2637.277114
871.388657	2641.539410
871.700081	2639.102012
872.011463	2637.917341
872.322803	2640.538741
872.634101	2643.094606
872.945357	2649.761532
873.256571	2658.840650
873.567744	2653.461738
873.878874	2653.217242
874.189963	2653.227325
874.501010	2659.937101
874.812015	2661.721669
875.122979	2660.446257
875.433900	2653.129022
875.744780	2653.252531
876.055618	2659.251504
876.366415	2665.999088
876.677169	2662.649241
876.987882	2659.576658
877.298554	2656.940135
877.609183	2666.102432
877.919771	2671.226765
878.230317	2680.956192
878.540822	2690.917512
878.851285	2703.696837
879.161707	2725.502347
879.472087	2764.452823
879.782425	2807.305151
880.092722	2916.345309
880.402977	3102.550408
880.713191	3351.412009
881.023363	3635.556646
881.333494	3813.166578
881.643583	3980.479953
881.953631	3982.350222
882.263637	3804.470588
882.573602	3592.260696
882.883526	3468.540698
883.193408	3360.125643
883.503248	3263.930346
883.813048	3152.180568
884.122806	3043.228630
884.432522	2958.391052
884.742197	2896.268913
885.051831	2860.123840
885.361424	2831.598471
885.670975	2797.240487
885.980485	2764.203286
886.289954	2746.813825
886.599382	2734.798235
886.908768	2722.626369
887.218113	2706.340922
887.527417	2691.043540
887.836680	2684.056501
888.145901	2682.403003
888.455082	2672.524862
888.764221	2661.399035
889.073319	2657.146822
889.382376	2651.314207
889.691392	2651.525935
890.000366	2656.267141
890.309300	2652.826553
890.618193	2651.518374
890.927044	2658.442398
891.235855	2657.585402
891.544625	2656.735968
891.853353	2656.093221
892.162041	2662.145126
892.470687	2685.578930
892.779293	2695.613346
893.087858	2704.485777
893.396381	2725.648541
893.704864	2762.726227
894.013306	2831.346414
894.321707	2918.220618
894.630068	2968.251549
894.938387	2990.213336
895.246665	2980.030205
895.554903	2937.850871
895.863100	2895.462329
896.171256	2841.569874
896.479371	2780.052673
896.787446	2745.006572
897.095480	2726.800445
897.403473	2721.287943
897.711425	2708.649770
898.019336	2691.729137
898.327207	2674.952177
898.635038	2677.079544
898.942827	2674.294307
899.250576	2663.284427
899.558284	2656.196564
899.865952	2648.390338
900.173579	2647.979484
900.481165	2644.720378
900.788711	2636.311733
901.096216	2631.381485
901.403681	2625.324538
901.711105	2627.953500
902.018489	2626.148767
902.325832	2630.905096
902.633135	2630.849643
902.940397	2644.362456
903.247619	2683.481810
903.554800	2745.722416
903.861941	2867.985520
904.169041	2987.498675
904.476101	3044.050338
904.783121	3040.077909
905.090100	2984.693273
905.397039	2912.514032
905.703938	2845.869978
906.010796	2782.149793
906.317614	2735.151116
906.624391	2698.391022
906.931129	2678.259174
907.237826	2656.332676
907.544483	2638.469347
907.851099	2622.682974
908.157675	2614.728033
908.464211	2608.383741
908.770707	2596.950404
909.077163	2592.962851
909.383578	2590.580906
909.689954	2592.514188
909.996289	2587.606625
910.302584	2586.863055
910.608839	2586.663929
910.915054	2587.760380
911.221229	2588.609815
911.527363	2590.843046
911.833458	2588.947572
912.139513	2586.915987
912.445527	2593.782039
912.751502	2598.896289
913.057436	2599.687750
913.363331	2608.560181
913.669186	2617.455297
913.975000	2630.196813
914.280775	2644.697692
914.586510	2661.882986
914.892205	2697.516382
915.197859	2761.962493
915.503475	2842.008454
915.809050	2904.785943
916.114585	2914.036460
916.420081	2923.965013
916.725536	2934.296858
917.030952	2911.379772
917.336328	2868.020808
917.641665	2822.116061
917.946961	2773.237033
918.252218	2740.945922
918.557435	2718.656461
918.862612	2695.298274
919.167750	2681.203208
919.472848	2665.593275
919.777906	2649.511994
920.082925	2637.085550
920.387904	2629.533902
920.692843	2624.918725
920.997743	2620.989146
921.302603	2615.532097
921.607423	2606.710078
921.912204	2603.259408
922.216946	2599.274376
922.521647	2599.332349
922.826310	2593.388829
923.130932	2589.592840
923.435516	2585.885071
923.740059	2583.329206
924.044564	2581.244689
924.349028	2580.339802
924.653454	2571.079202
924.957840	2573.869481
925.262186	2570.358317
925.566493	2571.273287
925.870761	2563.799776
926.174989	2567.575600
926.479178	2564.775239
926.783328	2564.472770
927.087438	2563.441854
927.391509	2564.492935
927.695541	2558.768705
927.999533	2560.374312
928.303486	2559.736606
928.607400	2558.239383
928.911275	2557.034548
929.215110	2560.001267
929.518906	2555.234856
929.822663	2557.077397
930.126381	2557.329455
930.430060	2553.810730
930.733699	2557.407593
931.037299	2555.683518
931.340861	2561.445557
931.644383	2559.197203
931.947866	2557.831050
932.251309	2558.665361
932.554714	2556.961451
932.858080	2560.049158
933.161407	2555.496996
933.464694	2557.581513
933.767943	2553.994732
934.071153	2554.493806
934.374323	2552.676470
934.677455	2554.748384
934.980548	2553.725030
935.283602	2550.561706
935.586617	2552.802499
935.889593	2555.010524
936.192530	2553.823333
936.495428	2554.788714
936.798287	2554.831563
937.101108	2557.788200
937.403890	2559.981102
937.706632	2563.701474
938.009336	2563.640980
938.312002	2568.931671
938.614628	2570.277659
938.917216	2572.800756
939.219765	2571.414439
939.522275	2575.374265
939.824747	2577.731005
940.127179	2569.667679
940.429573	2565.266752
940.731929	2570.106260
941.034246	2563.270455
941.336524	2565.712894
941.638763	2565.531412
941.940964	2565.959911
942.243126	2563.961093
942.545250	2563.562842
942.847335	2564.747513
943.149381	2562.211813
943.451389	2560.066802
943.753359	2558.791390
944.055290	2558.743499
944.357182	2559.366081
944.659036	2556.606050
944.960851	2556.164949
945.262628	2554.526574
945.564367	2557.483210
945.866067	2559.174517
946.167729	2557.281564
946.469352	2556.011193
946.770937	2559.144271
947.072484	2554.942469
947.373992	2558.872048
947.675462	2553.939279
947.976893	2554.703014
948.278286	2555.050854
948.579641	2554.511450
948.880958	2554.143446
949.182236	2554.481203
949.483476	2552.913404
949.784678	2552.099258
950.085841	2552.510112
950.386967	2556.921122
950.688054	2552.991542
950.989103	2555.804506
951.290114	2555.862479
951.591087	2556.628735
951.892021	2559.020762
952.192917	2561.299364
952.493776	2559.146791
952.794596	2560.313818
953.095378	2563.880435
953.396122	2561.722821
953.696828	2562.247101
953.997496	2555.837274
954.298126	2557.274003
954.598718	2555.756615
954.899272	2555.623025
955.199788	2553.452808
955.500266	2555.229815
955.800706	2547.456355
956.101108	2546.589277
956.401472	2546.939637
956.701798	2546.231355
957.002087	2545.374359
957.302337	2546.685059
957.602550	2545.321427
957.902724	2543.241951
958.202861	2545.392003
958.502960	2546.700182
958.803022	2545.230686
959.103045	2544.066179
959.403031	2544.761859
959.702979	2542.717671
960.002889	2543.504091
960.302762	2546.496016
960.602596	2542.352187
960.902393	2543.879657
961.202153	2542.967208
961.501875	2540.754141
961.801559	2542.052238
962.101205	2541.772454
962.400814	2541.028884
962.700385	2539.957639
962.999918	2542.649615
963.299414	2539.072917
963.598873	2543.403268
963.898293	2540.809594
964.197677	2542.407640
964.497022	2541.170037
964.796331	2540.854964
965.095601	2542.805891
965.394835	2540.774306
965.694030	2541.311189
965.993189	2541.036446
966.292309	2541.086857
966.591393	2541.490150
966.890439	2539.410674
967.189447	2542.246323
967.488419	2538.460416
967.787353	2540.302958
968.086249	2540.771785
968.385108	2539.428318
968.683930	2537.530323
968.982714	2542.528628
969.281462	2538.248688
969.580172	2539.834131
969.878844	2541.205325
970.177480	2542.710109
970.476078	2541.472506
970.774639	2541.923689
971.073162	2542.712630
971.371649	2539.531662
971.670098	2538.851106
971.968510	2539.761034
972.266885	2535.385312
972.565223	2544.219935
972.863524	2539.662732
973.161788	2542.342105
973.460014	2541.318751
973.758204	2541.462423
974.056356	2541.250695
974.354471	2542.939482
974.652550	2540.300437
974.950591	2540.877650
975.248595	2542.173226
975.546563	2539.231713
975.844493	2544.063659
976.142386	2541.139790
976.440243	2538.455375
976.738062	2540.791950
977.035845	2540.181970
977.333590	2540.542413
977.631299	2540.466796
977.928971	2539.819007
978.226606	2539.105684
978.524204	2540.950746
978.821765	2535.783564
979.119290	2540.323123
979.416777	2539.700540
979.714228	2539.708102
980.011642	2538.621733
980.309020	2542.541230
980.606360	2540.804553
980.903664	2540.698689
981.200931	2541.464944
981.498162	2539.703061
981.795356	2545.439894
982.092513	2546.876623
982.389633	2546.886705
982.686717	2551.514484
982.983764	2553.853580
983.280775	2556.384239
983.577749	2553.551110
983.874686	2551.857283
984.171587	2550.594474
984.468451	2546.281767
984.765279	2546.755635
985.062070	2543.272198
985.358824	2540.723894
985.655543	2544.121632
985.952224	2540.418905
986.248869	2538.243647
986.545478	2536.514531
986.842050	2536.454037
987.138586	2535.344983
987.435086	2535.750796
987.731549	2531.967410
988.027975	2539.322454
988.324366	2536.055786
988.620719	2536.721218
988.917037	2539.375386
989.213318	2538.110056
989.509563	2536.653163
989.805772	2535.317257
990.101944	2537.842875
990.398080	2539.768596
990.694180	2539.771116
990.990244	2535.287010
991.286271	2534.414890
991.582262	2535.879346
991.878217	2540.340767
992.174136	2535.733152
992.470019	2538.538554
992.765865	2538.296579
993.061676	2538.573842
993.357450	2538.006712
993.653188	2536.990920
993.948890	2537.457227
994.244556	2539.047711
994.540186	2540.363452
994.835780	2538.964532
995.131337	2539.587114
995.426859	2541.656508
995.722345	2539.236754
996.017795	2543.486447
996.313208	2540.287835
996.608586	2540.902855
996.903928	2542.581560
997.199234	2538.858668
997.494504	2538.220962
997.789738	2541.432177
998.084936	2534.974458
998.380099	2540.446631
998.675225	2540.749100
998.970316	2539.645087
999.265371	2536.010416
999.560390	2535.536547
999.855373	2538.294058
1000.150320	2535.050076
1000.445232	2536.363296
1000.740108	2535.813811
1001.034948	2536.375899
1001.329752	2538.049562
1001.624521	2535.513862
1001.919254	2531.916999
1002.213951	2533.462112
1002.508613	2534.261135
1002.803239	2532.572349
1003.097829	2533.338604
1003.392384	2537.084181
1003.686903	2534.336752
1003.981386	2541.044008
1004.275834	2535.377751
1004.570246	2534.810621
1004.864623	2535.687782
1005.158964	2535.909592
1005.453270	2535.677699
1005.747540	2536.698533
1006.041775	2534.944212
1006.335974	2536.930426
1006.630138	2534.699716
1006.924266	2536.033101
1007.218359	2535.987730
1007.512416	2533.583100
1007.806438	2535.823893
1008.100425	2533.545291
1008.394376	2536.590148
1008.688292	2535.468492
1008.982172	2537.366486
1009.276017	2533.351207
1009.569827	2535.738193
1009.863602	2537.500077
1010.157341	2536.844727
1010.451045	2535.511341
1010.744714	2535.763399
1011.038347	2536.406146
1011.331945	2534.402288
1011.625508	2535.334901
1011.919036	2536.632998
1012.212528	2534.840868
1012.505986	2534.291382
1012.799408	2533.399098
1013.092795	2533.278110
1013.386147	2535.080323
1013.679464	2535.549150
1013.972745	2534.971938
1014.265992	2534.518234
1014.559204	2534.740045
1014.852380	2533.232740
1015.145521	2531.841381
1015.438628	2533.462112
1015.731699	2536.358255
1016.024736	2535.702905
1016.317737	2533.923378
1016.610703	2537.091743
1016.903635	2531.541433
1017.196531	2534.321629
1017.489393	2531.254087
1017.782219	2531.596885
1018.075011	2532.378264
1018.367768	2532.872297
1018.660490	2537.303472
1018.953177	2537.303472
1019.245829	2537.303472
