Dividing Wavelength (nm)	Counts (n)	Blue Motor Position (mm): 6.500000	Red Motor Position (mm): 0.000000	
326.493990	2142.878553
326.888308	2142.878553
327.282561	2142.878553
327.676750	2109.599376
328.070874	2106.057966
328.464933	2112.707248
328.858929	2115.437033
329.252859	2128.738117
329.646726	2138.948974
330.040528	2151.821560
330.434265	2166.919816
330.827938	2185.352795
331.221547	2204.849458
331.615091	2223.836964
332.008571	2242.746332
332.401986	2261.607809
332.795338	2282.097579
333.188625	2300.833027
333.581847	2318.035964
333.975006	2338.954232
334.368100	2357.470390
334.761129	2370.405991
335.154095	2390.283261
335.546996	2407.418143
335.939833	2422.503796
336.332606	2437.183636
336.725315	2449.922631
337.117960	2459.473097
337.510540	2468.930302
337.903056	2477.359111
338.295508	2487.070894
338.687896	2492.656493
339.080220	2503.487412
339.472480	2509.345232
339.864676	2509.274656
340.256807	2517.544669
340.648875	2521.988446
341.040879	2522.290915
341.432818	2523.112623
341.824694	2525.171935
342.216506	2526.049096
342.608253	2526.664116
342.999937	2529.101514
343.391557	2525.807120
343.783113	2529.383819
344.174605	2522.663961
344.566033	2523.321831
344.957397	2521.184382
345.348697	2520.342509
345.739934	2519.833353
346.131106	2517.015348
346.522215	2515.044257
346.913260	2511.671725
347.304241	2513.471417
347.695159	2509.289780
348.086012	2509.811539
348.476802	2506.010509
348.867528	2506.837258
349.258191	2502.706033
349.648789	2503.638646
350.039324	2499.623367
350.429796	2500.011536
350.820203	2499.910713
351.210548	2499.381392
351.600828	2493.195896
351.991045	2498.214365
352.381198	2493.715135
352.771288	2493.505927
353.161314	2493.037100
353.551276	2491.754126
353.941175	2495.081288
354.331010	2494.645228
354.720782	2492.139774
355.110490	2494.589775
355.500135	2494.060454
355.889717	2494.640187
356.279235	2496.437358
356.668689	2493.616832
357.058080	2494.509117
357.447408	2491.728920
357.836672	2490.841677
358.225873	2496.023983
358.615010	2493.107676
359.004084	2494.224291
359.393095	2495.711432
359.782043	2500.734942
360.170927	2497.251504
360.559748	2496.250835
360.948505	2498.063130
361.337199	2500.137565
361.725830	2496.293685
362.114398	2498.582369
362.502903	2497.344766
362.891344	2502.146465
363.279722	2500.782833
363.668037	2503.242916
364.056289	2502.010353
364.444478	2502.297699
364.832603	2501.276866
365.220665	2506.733915
365.608665	2504.566218
365.996601	2504.324243
366.384474	2504.725015
366.772284	2506.368431
367.160031	2502.280055
367.547715	2507.086795
367.935336	2506.809532
368.322893	2506.950684
368.710388	2507.890859
369.097820	2510.343381
369.485189	2507.727022
369.872495	2505.939933
370.259738	2507.689213
370.646918	2507.096878
371.034035	2508.836076
371.421090	2510.071158
371.808081	2509.372959
372.195010	2510.328257
372.581875	2509.819101
372.968678	2508.868843
373.355418	2509.783813
373.742096	2510.413957
374.128710	2511.931344
374.515262	2508.591580
374.901751	2509.806498
375.288177	2510.940758
375.674540	2512.543844
376.060841	2511.767507
376.447079	2509.025119
376.833254	2513.431087
377.219367	2509.161230
377.605417	2512.339678
377.991404	2505.992865
378.377329	2511.129801
378.763191	2507.790036
379.148991	2513.035357
379.534727	2513.693228
379.920402	2515.382014
380.306013	2513.920079
380.691563	2515.364370
381.077049	2513.569719
381.462474	2513.463855
381.847835	2514.890502
382.233134	2511.916221
382.618371	2516.359998
383.003545	2516.269257
383.388657	2514.232631
383.773706	2513.607528
384.158693	2516.770852
384.543618	2514.204905
384.928480	2516.206243
385.313280	2515.510563
385.698017	2518.842766
386.082692	2517.000224
386.467305	2515.689524
386.851856	2516.894360
387.236344	2516.299504
387.620770	2519.503157
388.005133	2516.581809
388.389435	2518.933507
388.773674	2518.759587
389.157851	2517.020389
389.541965	2518.169772
389.926018	2518.668846
390.310008	2516.438136
390.693936	2518.031140
391.077802	2520.095493
391.461606	2520.997859
391.845348	2517.237159
392.229027	2521.983405
392.612645	2518.789834
392.996200	2522.737058
393.379694	2519.722448
393.763125	2519.987108
394.146494	2521.544825
394.529801	2520.332427
394.913047	2521.380987
395.296230	2522.202695
395.679351	2521.499454
396.062410	2523.699918
396.445408	2521.237314
396.828343	2521.668333
397.211217	2518.623476
397.594028	2518.867972
397.976778	2520.518950
398.359466	2519.351923
398.742092	2519.747653
399.124656	2524.088087
399.507158	2522.643796
399.889598	2522.742099
400.271977	2524.244363
400.654294	2522.762263
401.036549	2521.922911
401.418742	2524.801410
401.800874	2524.738396
402.182944	2522.328724
402.564952	2524.501461
402.946898	2524.045237
403.328783	2526.044054
403.710606	2525.519774
404.092367	2529.280475
404.474067	2522.018693
404.855705	2527.274096
405.237282	2523.165556
405.618797	2525.885258
406.000250	2526.364168
406.381642	2528.380629
406.762972	2525.918026
407.144240	2528.055475
407.525447	2528.678057
407.906593	2528.027748
408.287677	2528.612522
408.668700	2526.016328
409.049661	2525.751668
409.430560	2528.236956
409.811399	2527.546318
410.192176	2527.100176
410.572891	2530.455064
410.953545	2526.245701
411.334138	2530.036648
411.714669	2528.531864
412.095139	2530.886083
412.475547	2529.910619
412.855894	2528.584796
413.236180	2526.530526
413.616405	2529.398942
413.996568	2530.553367
414.376670	2528.569673
414.756711	2529.915661
415.136691	2528.776360
415.516609	2529.502286
415.896466	2528.572193
416.276262	2532.955476
416.655997	2527.455577
417.035670	2527.377440
417.415283	2529.038500
417.794834	2524.113292
418.174324	2529.925743
418.553753	2531.468336
418.933121	2530.739889
419.312428	2532.620240
419.691674	2531.009591
420.070859	2532.814324
420.449983	2531.528830
420.829045	2530.412214
421.208047	2534.765251
421.586988	2531.259128
421.965867	2534.624098
422.344686	2534.997144
422.723444	2533.162164
423.102141	2530.379447
423.480777	2535.067720
423.859352	2531.556556
424.237866	2530.989426
424.616319	2532.453882
424.994712	2534.198121
425.373044	2535.781043
425.751314	2533.860363
426.129524	2533.825075
426.507673	2537.195087
426.885762	2534.056968
427.263789	2531.851464
427.641756	2535.400436
428.019662	2535.186187
428.397508	2535.334901
428.775292	2536.907741
429.153016	2534.810621
429.530679	2535.992772
429.908282	2533.888090
430.285824	2534.079654
430.663305	2533.467153
431.040726	2536.262473
431.418086	2535.034952
431.795385	2534.727442
432.172624	2536.978317
432.549802	2534.712318
432.926920	2536.741383
433.303977	2536.320447
433.680974	2536.575025
434.057910	2536.834644
434.434786	2532.615198
434.811601	2537.351363
435.188355	2535.896990
435.565050	2536.857329
435.941683	2535.977648
436.318257	2535.463450
436.694770	2533.502442
437.071222	2535.287010
437.447614	2533.116793
437.823946	2535.017308
438.200218	2536.028060
438.576429	2536.396064
438.952580	2537.691640
439.328670	2539.098122
439.704700	2535.597041
440.080670	2535.972607
440.456580	2536.517052
440.832429	2536.365817
441.208218	2537.487474
441.583947	2540.219779
441.959616	2537.739531
442.335224	2537.507638
442.710773	2538.810777
443.086261	2538.578883
443.461689	2539.380427
443.837057	2541.182639
444.212365	2538.248688
444.587612	2538.528472
444.962800	2541.550644
445.337927	2539.627443
445.712995	2538.515869
446.088002	2540.134079
446.462949	2540.676003
446.837837	2536.927906
447.212664	2538.334388
447.587431	2541.931251
447.962139	2542.896632
448.336786	2544.114070
448.711374	2541.129707
449.085901	2538.646939
449.460369	2540.804553
449.834776	2541.207845
450.209124	2541.021322
450.583412	2541.316230
450.957640	2536.912782
451.331808	2541.228010
451.705917	2537.946219
452.079965	2538.379758
452.453954	2540.809594
452.827883	2540.010571
453.201752	2539.813966
453.575562	2541.762372
453.949311	2540.209697
454.323001	2543.877136
454.696632	2540.686086
455.070202	2541.734646
455.443713	2540.187012
455.817164	2538.105015
456.190556	2537.051414
456.563888	2536.262473
456.937160	2538.246167
457.310373	2543.045346
457.683526	2541.923689
458.056619	2542.579039
458.429653	2541.563247
458.802628	2542.730274
459.175542	2541.507794
459.548398	2541.094419
459.921194	2540.950746
460.293930	2544.345963
460.666607	2543.236910
461.039224	2542.216076
461.411782	2543.138607
461.784280	2540.469316
462.156719	2542.387475
462.529099	2544.351005
462.901419	2545.447456
463.273680	2543.320089
463.645882	2542.692465
464.018024	2541.129707
464.390106	2542.984852
464.762130	2540.552495
465.134094	2543.126004
465.505999	2544.391334
465.877845	2544.194729
466.249631	2540.905376
466.621358	2542.027033
466.993026	2545.339071
467.364634	2546.743032
467.736184	2543.559543
468.107674	2542.989893
468.479105	2544.224976
468.850477	2541.860675
469.221790	2540.902855
469.593043	2541.404450
469.964238	2544.008206
470.335373	2543.751107
470.706449	2544.771941
471.077467	2543.037784
471.448425	2543.136087
471.819324	2542.435366
472.190164	2544.091385
472.560945	2546.380069
472.931667	2544.514842
473.302330	2544.950902
473.672934	2544.623227
474.043479	2544.126673
474.413965	2545.694472
474.784393	2538.735159
475.154761	2542.732794
475.525070	2541.144831
475.895321	2542.294214
476.265513	2540.625592
476.635645	2543.274718
477.005719	2549.119936
477.375734	2543.735984
477.745691	2548.391489
478.115588	2545.066848
478.485427	2545.616334
478.855207	2547.219421
479.224928	2545.810419
479.594591	2545.984338
479.964194	2543.647764
480.333739	2546.029709
480.703226	2544.509801
481.072653	2544.877805
481.442022	2545.402085
481.811333	2546.319575
482.180584	2545.949050
482.549777	2546.979966
482.918912	2544.698844
483.287988	2547.247148
483.657005	2546.763197
484.025964	2544.895449
484.394864	2545.606252
484.763706	2546.223793
485.132489	2546.700182
485.501213	2548.121788
485.869879	2547.108516
486.238487	2544.613145
486.607036	2546.372507
486.975527	2547.640357
487.343959	2545.044163
487.712333	2546.140614
488.080648	2545.714637
488.448905	2545.734801
488.817104	2546.929555
489.185244	2546.891746
489.553326	2545.911242
489.921350	2547.229503
490.289315	2547.176571
490.657222	2548.424257
491.025070	2548.759494
491.392861	2547.302600
491.760593	2546.150697
492.128267	2547.597508
492.495883	2547.887374
492.863440	2549.210677
493.230939	2548.620862
493.598380	2547.466438
493.965763	2545.301262
494.333088	2544.426622
494.700354	2543.942671
495.067563	2545.966694
495.434713	2543.098278
495.801805	2548.726726
496.168839	2545.782692
496.535815	2546.357384
496.902733	2547.847045
497.269593	2547.116078
497.636395	2548.373845
498.003139	2548.774617
498.369825	2548.668753
498.736453	2549.359391
499.103023	2546.264122
499.469535	2546.543907
499.835989	2546.604400
500.202385	2548.915769
500.568723	2544.915614
500.935003	2548.787220
501.301226	2546.785882
501.667390	2548.406613
502.033497	2547.781510
502.399546	2549.835780
502.765537	2548.383928
503.131470	2551.186809
503.497345	2548.018444
503.863163	2549.256047
504.228923	2546.445604
504.594625	2548.018444
504.960269	2546.480892
505.325856	2548.900646
505.691385	2548.963660
506.056856	2550.521377
506.422270	2546.780841
506.787625	2549.878630
507.152924	2546.725388
507.518164	2548.754452
507.883347	2545.775131
508.248472	2550.944834
508.613540	2548.182282
508.978550	2546.856458
509.343503	2552.016079
509.708398	2548.557847
510.073236	2547.726057
510.438016	2552.260575
510.802738	2546.798485
511.167403	2547.781510
511.532010	2548.472148
511.896561	2549.467776
512.261053	2550.130687
512.625488	2545.545758
512.989866	2546.753114
513.354186	2543.327650
513.718449	2543.279759
514.082655	2548.527601
514.446803	2550.468445
514.810894	2553.130174
515.174927	2549.356870
515.538904	2549.228321
515.902822	2547.642878
516.266684	2546.498536
516.630488	2547.932744
516.994235	2548.411654
517.357925	2551.607746
517.721558	2548.809905
518.085133	2550.322251
518.448651	2548.951057
518.812112	2552.608415
519.175516	2548.651109
519.538863	2549.041798
519.902152	2550.024823
520.265385	2549.926521
520.628560	2550.841490
520.991678	2550.675132
521.354739	2548.169679
521.717743	2549.651778
522.080690	2551.670760
522.443580	2550.009700
522.806413	2550.274360
523.169189	2551.421223
523.531908	2551.176727
523.894569	2551.113713
524.257174	2552.290822
524.619722	2547.743701
524.982213	2551.738816
525.344647	2553.306614
525.707025	2550.365101
526.069345	2545.102137
526.431608	2547.390820
526.793815	2545.507949
527.155964	2549.606407
527.518057	2548.429298
527.880093	2552.812581
528.242072	2549.296377
528.603995	2550.818805
528.965860	2549.472817
529.327669	2550.312169
529.689421	2549.492982
530.051117	2553.906512
530.412755	2552.633620
530.774337	2550.297046
531.135862	2550.786037
531.497331	2546.375028
531.858743	2547.242106
532.220098	2548.840152
532.581396	2547.335368
532.942638	2546.639688
533.303824	2549.873589
533.664953	2552.411810
534.026025	2549.046839
534.387040	2549.944165
534.747999	2550.654968
535.108902	2553.150339
535.469748	2550.914587
535.830537	2550.975081
536.191270	2551.895091
536.551947	2551.701007
536.912567	2549.918959
537.273131	2550.115564
537.633638	2548.409133
537.994089	2551.632951
538.354483	2551.320400
538.714821	2553.714948
539.075103	2551.645554
539.435328	2552.888199
539.795497	2548.731767
540.155609	2551.564896
540.515665	2548.487271
540.875665	2550.256716
541.235609	2550.440718
541.595496	2550.748229
541.955328	2552.762170
542.315102	2552.845349
542.674821	2552.716799
543.034483	2554.710576
543.394090	2552.565565
543.753640	2550.932231
544.113134	2553.021789
544.472571	2549.331665
544.831953	2550.831408
545.191278	2549.538352
545.550548	2551.348126
545.909761	2550.904505
546.268918	2548.726726
546.628019	2552.439536
546.987064	2551.637992
547.346053	2550.476007
547.704986	2551.658157
548.063863	2551.302756
548.422684	2551.010369
548.781449	2551.703527
549.140158	2550.536500
549.498811	2551.930379
549.857408	2551.348126
550.215949	2546.876623
550.574434	2546.914431
550.932864	2549.949206
551.291237	2547.111036
551.649555	2552.038764
552.007817	2551.842159
552.366022	2551.179247
552.724173	2549.871068
553.082267	2552.996583
553.440305	2551.625390
553.798288	2550.554144
554.156215	2549.346788
554.514086	2552.338713
554.871902	2552.353836
555.229661	2552.820143
555.587365	2552.678991
555.945014	2553.225956
556.302606	2551.459032
556.660143	2552.583209
557.017625	2552.386604
557.375050	2552.232849
557.732421	2551.406099
558.089735	2552.013558
558.446994	2551.564896
558.804197	2554.108158
559.161345	2552.883158
559.518437	2553.699824
559.875474	2554.148487
560.232455	2551.665719
560.589381	2550.400389
560.946251	2552.331151
561.303065	2554.758467
561.659825	2553.493137
562.016528	2552.149670
562.373177	2550.181099
562.729770	2555.290308
563.086307	2554.085473
563.442789	2550.080276
563.799216	2553.873744
564.155587	2552.764690
564.511904	2552.280740
564.868164	2551.738816
565.224370	2555.479352
565.580520	2552.106820
565.936615	2554.171172
566.292654	2552.469783
566.648638	2551.620348
567.004567	2551.022972
567.360441	2552.747046
567.716260	2550.899463
568.072023	2550.317210
568.427732	2549.298897
568.783385	2551.214536
569.138982	2548.779658
569.494525	2550.160934
569.850013	2546.004503
570.205445	2550.627241
570.560823	2551.471634
570.916145	2551.721172
571.271412	2551.156562
571.626625	2551.832077
571.981782	2552.063970
572.336884	2554.158569
572.691931	2553.412479
573.046923	2553.145297
573.401860	2551.370811
573.756743	2554.118240
574.111570	2551.171686
574.466342	2554.309804
574.821059	2553.311656
575.175722	2553.435164
575.530330	2550.511295
575.884882	2552.668908
576.239380	2552.678991
576.593823	2554.123281
576.948211	2552.159752
577.302544	2549.992056
577.656823	2552.253013
578.011047	2553.150339
578.365216	2552.583209
578.719330	2552.270657
579.073389	2552.885678
579.427394	2550.433157
579.781344	2553.052036
580.135239	2555.217212
580.489080	2550.055070
580.842866	2553.659495
581.196597	2555.335679
581.550273	2555.688560
581.903895	2552.666388
582.257463	2551.897612
582.610975	2553.344423
582.964434	2552.613456
583.317837	2551.653116
583.671186	2552.600853
584.024481	2551.988353
584.377721	2553.906512
584.730906	2551.912735
585.084037	2553.767880
585.437113	2553.470452
585.790135	2557.586554
586.143103	2553.430123
586.496016	2550.801161
586.848874	2548.462066
587.201679	2552.636141
587.554428	2548.076417
587.907124	2551.421223
588.259765	2544.345963
588.612352	2552.247972
588.964884	2550.508774
589.317362	2549.510626
589.669786	2553.304094
590.022155	2552.200081
590.374470	2553.646892
590.726731	2551.128836
591.078937	2551.275029
591.431090	2552.868034
591.783188	2552.437015
592.135232	2552.189999
592.487222	2553.926676
592.839157	2551.892571
593.191038	2553.543549
593.542866	2549.671943
593.894639	2551.423743
594.246358	2551.622869
594.598022	2551.227138
594.949633	2553.029351
595.301190	2553.528425
595.652692	2551.736295
596.004141	2549.833259
596.355535	2552.686553
596.706876	2551.045657
597.058162	2551.617828
597.409395	2552.353836
597.760573	2555.116389
598.111698	2551.582540
598.462768	2554.360216
598.813785	2554.118240
599.164748	2553.049516
599.515657	2551.738816
599.866511	2549.732436
600.217312	2551.459032
600.568060	2553.591440
600.918753	2551.159083
601.269392	2550.339895
601.619978	2551.786707
601.970510	2552.522715
602.320988	2553.649413
602.671412	2551.869886
603.021783	2549.513146
603.372100	2553.616645
603.722363	2553.893909
604.072572	2552.492468
604.422728	2554.508930
604.772830	2550.420554
605.122878	2551.796789
605.472872	2552.394166
605.822813	2545.938968
606.172701	2552.346275
606.522534	2552.699155
606.872314	2553.309135
607.222041	2552.880637
607.571714	2551.348126
607.921333	2554.455997
608.270899	2553.755277
608.620411	2552.739485
608.969870	2553.535987
609.319276	2556.742161
609.668627	2557.848694
610.017926	2556.356513
610.367171	2558.614949
610.716362	2556.051523
611.065500	2556.401883
611.414585	2555.146636
611.763616	2557.039589
612.112594	2556.152346
612.461518	2553.097407
612.810389	2554.231666
613.159207	2556.810216
613.507971	2551.156562
613.856682	2552.966337
614.205340	2554.103117
614.553945	2555.688560
614.902496	2551.776624
615.250994	2551.801830
615.599439	2552.701676
615.947830	2552.857952
616.296169	2551.580019
616.644454	2551.824515
616.992686	2551.905174
617.340864	2551.980791
617.688990	2552.071532
618.037063	2552.096738
618.385082	2551.597663
618.733048	2554.176213
619.080961	2553.097407
619.428821	2553.515822
619.776628	2555.035730
620.124382	2551.925338
620.472083	2553.878785
620.819731	2551.975750
621.167326	2553.097407
621.514868	2551.333003
621.862357	2551.796789
622.209793	2549.830739
622.557176	2552.295863
622.904506	2550.478527
623.251783	2546.642209
623.599007	2549.747560
623.946179	2548.827549
624.293297	2547.360573
624.640363	2550.672612
624.987376	2552.953734
625.334336	2549.311500
625.681243	2551.121274
626.028097	2554.423230
626.374899	2553.498178
626.721647	2552.005997
627.068343	2552.041285
627.414987	2553.230997
627.761577	2551.259906
628.108115	2552.200081
628.454600	2551.595143
628.801032	2552.908363
629.147412	2551.438867
629.493739	2553.341903
629.840014	2553.939279
630.186236	2551.413661
630.532405	2554.198899
630.878521	2554.143446
631.224585	2554.728220
631.570597	2553.659495
631.916556	2554.400545
632.262462	2554.818961
632.608316	2551.572457
632.954117	2547.869730
633.299866	2554.554300
633.645562	2549.379556
633.991206	2553.619166
634.336797	2551.411141
634.682336	2552.691594
635.027823	2550.355019
635.373257	2554.503888
635.718639	2549.868547
636.063968	2550.780996
636.409245	2553.082283
636.754470	2553.067160
637.099642	2551.285112
637.444762	2554.314845
637.789829	2550.929710
638.134845	2553.767880
638.479808	2553.069680
638.824719	2554.143446
639.169577	2549.029195
639.514383	2553.077242
639.859137	2550.884340
640.203839	2553.999773
640.548489	2555.151677
640.893086	2549.203115
641.237632	2548.273022
641.582125	2549.051881
641.926566	2547.226983
642.270955	2552.522715
642.615292	2551.532128
642.959576	2554.501368
643.303809	2552.452139
643.647990	2551.385935
643.992118	2550.208825
644.336195	2550.211346
644.680219	2549.891233
645.024192	2550.468445
645.368112	2552.406768
645.711981	2551.673281
646.055797	2553.888868
646.399562	2550.196223
646.743274	2551.504402
647.086935	2552.041285
647.430544	2548.336037
647.774101	2552.724361
648.117606	2553.155380
648.461059	2553.004145
648.804460	2556.711914
649.147810	2552.603373
649.491108	2553.374670
649.834354	2551.479196
650.177548	2550.919628
650.520690	2554.035061
650.863781	2549.543393
651.206820	2553.903991
651.549807	2547.796633
651.892742	2553.044474
652.235626	2550.589432
652.578458	2552.137067
652.921238	2548.300749
653.263967	2553.740154
653.606644	2550.851573
653.949269	2549.409802
654.291843	2553.251162
654.634365	2552.242931
654.976836	2552.094217
655.319255	2551.494320
655.661622	2552.653785
656.003938	2553.440205
656.346203	2552.346275
656.688416	2550.604556
657.030577	2553.039433
657.372687	2551.121274
657.714746	2551.136398
658.056753	2551.060780
658.398708	2547.748742
658.740612	2551.811912
659.082465	2551.809392
659.424266	2547.549617
659.766016	2545.427291
660.107715	2551.186809
660.449362	2554.030020
660.790958	2550.672612
661.132503	2552.915925
661.473996	2551.091027
661.815438	2550.662529
662.156829	2548.822508
662.498168	2552.152190
662.839456	2549.092210
663.180693	2552.948692
663.521879	2550.586912
663.863013	2551.438867
664.204097	2551.920297
664.545129	2551.431305
664.886110	2553.238559
665.227040	2553.115051
665.567918	2550.851572
665.908746	2549.608928
666.249522	2553.520863
666.590248	2552.933569
666.930922	2550.327293
667.271545	2553.170503
667.612118	2550.579350
667.952639	2549.752601
668.293109	2555.262582
668.633528	2550.213867
668.973896	2548.963660
669.314213	2551.302756
669.654480	2551.580019
669.994695	2552.520194
670.334859	2551.179247
670.674973	2550.498692
671.015035	2551.990873
671.355047	2553.246121
671.695008	2551.832077
672.034918	2553.916594
672.374777	2551.085986
672.714585	2555.416337
673.054342	2551.212015
673.394049	2551.398538
673.733705	2554.087993
674.073310	2553.601522
674.412864	2553.523384
674.752368	2552.550441
675.091820	2551.580019
675.431223	2553.485575
675.770574	2552.764690
676.109875	2549.213197
676.449125	2550.428116
676.788324	2550.246634
677.127473	2551.963147
677.466571	2548.119267
677.805619	2553.089845
678.144616	2549.692107
678.483562	2554.080432
678.822458	2551.821995
679.161303	2553.538507
679.500098	2554.080432
679.838842	2554.672767
680.177535	2553.450287
680.516179	2551.960626
680.854771	2549.311500
681.193314	2553.583878
681.531805	2552.310987
681.870247	2553.563713
682.208638	2553.455328
682.546978	2551.937941
682.885268	2554.410627
683.223508	2553.377191
683.561697	2552.500030
683.899836	2556.260731
684.237925	2552.908363
684.575963	2555.005483
684.913951	2552.668908
685.251889	2554.776111
685.589776	2551.269988
685.927614	2554.188816
686.265401	2552.263096
686.603137	2553.465411
686.940824	2553.757798
687.278460	2555.565051
687.616046	2553.765359
687.953582	2553.619166
688.291068	2555.242418
688.628504	2556.855587
688.965889	2555.141594
689.303224	2553.483055
689.640510	2557.329455
689.977745	2553.344423
690.314930	2555.214691
690.652065	2556.633776
690.989150	2553.281409
691.326185	2554.881975
691.663170	2554.650082
692.000105	2553.203271
692.336990	2551.406099
692.673825	2555.433981
693.010610	2555.376008
693.347345	2550.730585
693.684030	2550.473486
694.020665	2552.520194
694.357251	2548.512477
694.693786	2555.174362
695.030272	2552.303425
695.366707	2556.437171
695.703093	2553.893909
696.039429	2554.887016
696.375716	2553.667057
696.711952	2553.414999
697.048139	2557.962120
697.384276	2553.805689
697.720363	2555.827191
698.056400	2555.365926
698.392388	2555.287788
698.728326	2554.503888
699.064214	2555.575134
699.400053	2553.115051
699.735842	2554.017417
700.071581	2554.955072
700.407270	2555.123950
700.742910	2556.485062
701.078501	2554.599670
701.414042	2555.907850
701.749533	2555.910370
702.084974	2553.856100
702.420366	2554.892057
702.755709	2554.624876
703.091002	2555.547407
703.426246	2554.153528
703.761440	2552.646223
704.096584	2555.819630
704.431679	2554.675288
704.766725	2556.628735
705.101721	2552.091696
705.436668	2558.995557
705.771565	2553.510781
706.106413	2556.129661
706.441212	2555.691080
706.775961	2556.399362
707.110661	2554.420709
707.445311	2555.582695
707.779913	2558.695608
708.114465	2554.496327
708.448967	2556.144784
708.783421	2556.956410
709.117825	2559.101421
709.452180	2558.594785
709.786485	2556.946328
710.120742	2560.659137
710.454949	2562.451268
710.789107	2559.174518
711.123216	2557.072356
711.457275	2559.424055
711.791286	2557.561348
712.125247	2559.938252
712.459159	2561.241391
712.793023	2563.527554
713.126837	2564.336659
713.460602	2561.339693
713.794318	2561.846329
714.127985	2563.028480
714.461602	2561.763150
714.795171	2562.204251
715.128691	2561.342214
715.462162	2563.698953
715.795584	2559.618139
716.128957	2561.470763
716.462281	2561.281720
716.795556	2560.744837
717.128782	2559.973540
717.461960	2559.051009
717.795088	2558.955227
718.128167	2560.250804
718.461198	2559.325752
718.794180	2561.352296
719.127113	2558.824157
719.459997	2558.695608
719.792833	2557.909188
720.125619	2558.917419
720.458357	2558.262069
720.791046	2560.868345
721.123686	2560.762481
721.456278	2560.253324
721.788821	2559.287943
722.121315	2561.642162
722.453761	2560.404559
722.786158	2560.028993
723.118506	2559.756771
723.450805	2559.093859
723.783056	2559.340876
724.115259	2560.737275
724.447412	2558.562017
724.779518	2560.041596
725.111574	2562.070660
725.443582	2560.654096
725.775542	2561.720300
726.107453	2563.666186
726.439315	2562.393294
726.771129	2564.727348
727.102895	2561.561504
727.434612	2563.938408
727.766281	2567.439489
728.097901	2562.095866
728.429473	2561.415310
728.760996	2562.494117
729.092471	2562.496638
729.423897	2566.932853
729.755276	2564.581155
730.086606	2566.511917
730.417887	2564.555949
730.749120	2566.925292
731.080305	2566.020404
731.411442	2569.156002
731.742530	2568.737586
732.073570	2568.039387
732.404562	2570.275138
732.735506	2571.855540
733.066401	2568.457802
733.397249	2568.117524
733.728048	2565.574262
734.058798	2566.191804
734.389501	2565.390260
734.720156	2566.257339
735.050762	2564.349262
735.381320	2565.014694
735.711831	2564.931515
736.042293	2565.584345
736.372707	2565.531412
736.703073	2565.788511
737.033391	2566.562328
737.363661	2565.954869
737.693883	2566.085939
738.024056	2566.935374
738.354182	2563.525033
738.684260	2567.920919
739.014290	2567.729356
739.344272	2568.873697
739.674207	2568.513255
740.004093	2569.050138
740.333931	2569.728173
740.663722	2568.301527
740.993464	2569.153482
741.323159	2565.904458
741.652806	2570.454099
741.982405	2570.229768
742.311956	2568.193142
742.641460	2570.310426
742.970915	2567.298337
743.300323	2565.927143
743.629683	2564.750034
743.958996	2564.192986
744.288260	2566.285065
744.617477	2566.380847
744.946647	2560.729713
745.275768	2564.550908
745.604842	2562.973027
745.933869	2565.483522
746.262847	2556.785011
746.591778	2566.809345
746.920662	2564.709704
747.249498	2564.747513
747.578286	2567.794891
747.907027	2569.027453
748.235720	2566.771536
748.564365	2568.399829
748.892963	2567.318502
749.221514	2567.799932
749.550017	2568.246074
749.878473	2568.712381
750.206881	2565.748182
750.535242	2567.976372
750.863555	2565.710373
751.191821	2567.303378
751.520039	2568.291444
751.848210	2566.101063
752.176334	2568.094839
752.504411	2570.070972
752.832440	2567.278172
753.160421	2566.118707
753.488356	2568.853533
753.816243	2571.285890
754.144082	2565.869170
754.471875	2566.791701
754.799620	2565.874211
755.127318	2566.973182
755.454969	2565.733059
755.782572	2569.904613
756.110129	2567.419325
756.437638	2565.987637
756.765100	2569.392936
757.092515	2570.708678
757.419882	2568.598955
757.747203	2569.357648
758.074477	2567.522668
758.401703	2572.634398
758.728882	2571.691703
759.056014	2571.157340
759.383099	2570.479305
759.710138	2568.714901
760.037129	2571.137176
760.364073	2573.120870
760.690970	2569.801270
761.017820	2569.823955
761.344623	2571.636250
761.671379	2573.408215
761.998088	2571.147258
762.324751	2574.875191
762.651366	2578.857703
762.977935	2588.070411
763.304456	2601.399222
763.630931	2610.800974
763.957359	2601.152206
764.283740	2593.267841
764.610074	2594.076946
764.936362	2585.522108
765.262602	2579.835687
765.588796	2579.530697
765.914943	2577.804102
766.241044	2573.458627
766.567097	2572.715057
766.893104	2572.881415
767.219064	2568.215827
767.544978	2568.336815
767.870845	2566.892524
768.196665	2565.798594
768.522438	2568.762792
768.848165	2568.636763
769.173846	2567.709191
769.499479	2563.625856
769.825066	2564.737431
770.150607	2567.852864
770.476101	2566.882442
770.801548	2567.189952
771.126949	2564.707184
771.452303	2564.077040
771.777611	2567.341187
772.102872	2564.629046
772.428087	2565.097873
772.753256	2563.640980
773.078378	2564.903789
773.403453	2565.594427
773.728482	2563.774570
774.053465	2562.894889
774.378401	2564.122410
774.703291	2562.219374
775.028135	2563.386402
775.352932	2563.192317
775.677683	2562.340362
776.002388	2561.974878
776.327046	2562.393294
776.651658	2564.873542
776.976224	2562.738613
777.300743	2563.514951
777.625216	2562.110990
777.949643	2561.806000
778.274024	2563.835064
778.598359	2558.393139
778.922647	2557.468087
779.246889	2559.688715
779.571086	2556.653941
779.895236	2559.202244
780.219339	2561.226267
780.543397	2561.422872
780.867409	2563.560321
781.191374	2560.117213
781.515294	2562.322718
781.839167	2559.446740
782.162995	2560.621329
782.486776	2563.736762
782.810511	2562.962945
783.134201	2563.527554
783.457844	2562.516802
783.781441	2561.584189
784.104993	2559.960937
784.428498	2562.189127
784.751958	2562.020249
785.075372	2560.316339
785.398739	2559.683674
785.722061	2563.177194
786.045337	2563.963614
786.368568	2561.448078
786.691752	2560.875907
787.014891	2564.278686
787.337983	2564.606361
787.661030	2564.182904
787.984031	2565.496124
788.306987	2567.752041
788.629897	2566.060734
788.952760	2568.548543
789.275579	2569.183728
789.598351	2569.110632
789.921078	2563.343552
790.243759	2567.689026
790.566395	2564.031669
790.888984	2563.242729
791.211529	2561.926987
791.534027	2563.532595
791.856480	2561.649724
792.178888	2562.189127
792.501249	2561.506051
792.823566	2561.236349
793.145836	2560.510423
793.468062	2561.138047
793.790241	2558.942624
794.112375	2564.992009
794.434464	2561.553942
794.756507	2560.684343
795.078505	2559.920608
795.400457	2559.998746
795.722364	2558.640155
796.044226	2563.202399
796.366042	2562.201730
796.687812	2560.391956
797.009538	2565.657441
797.331218	2570.718760
797.652852	2564.916392
797.974442	2564.576114
798.295986	2565.846485
798.617484	2563.996381
798.938938	2561.521175
799.260346	2562.509241
799.581709	2562.705846
799.903026	2564.656772
800.224299	2562.151319
800.545526	2565.065106
800.866708	2559.827347
801.187845	2561.400187
801.508936	2559.305588
801.829983	2560.984292
802.150984	2561.596792
802.471940	2563.590568
802.792851	2561.135526
803.113717	2559.479507
803.434538	2558.738458
803.755314	2560.722152
804.076045	2559.832388
804.396731	2559.149312
804.717372	2561.725341
805.037967	2558.811554
805.358518	2557.173179
805.679024	2563.005794
805.999485	2561.143088
806.319901	2562.720969
806.640272	2559.847512
806.960598	2561.289282
807.280879	2559.166956
807.601115	2559.202244
807.921306	2562.438665
808.241453	2561.037224
808.561554	2561.720300
808.881611	2562.118551
809.201623	2562.952862
809.521590	2561.410269
809.841513	2559.812223
810.161390	2560.447409
810.481223	2559.003118
810.801011	2560.719631
811.120755	2558.375495
811.440453	2562.854560
811.760107	2562.287430
812.079716	2560.187789
812.399281	2556.202757
812.718801	2556.792572
813.038276	2555.756615
813.357707	2560.298695
813.677093	2560.333983
813.996434	2562.181566
814.315731	2560.276010
814.634983	2562.559652
814.954191	2561.359858
815.273354	2563.814900
815.592473	2563.610733
815.911547	2560.701987
816.230577	2565.105435
816.549562	2563.232646
816.868502	2560.248283
817.187399	2562.393294
817.506250	2563.822461
817.825058	2562.806669
818.143821	2564.056875
818.462539	2568.644325
818.781213	2568.059551
819.099843	2568.319171
819.418429	2570.567525
819.736970	2573.191446
820.055466	2577.768813
820.373919	2583.674525
820.692327	2594.346648
821.010691	2601.106835
821.329011	2616.210132
821.647286	2649.073414
821.965517	2692.636545
822.283704	2708.138093
822.601847	2720.108313
822.919945	2719.473127
823.237999	2718.185113
823.556010	2687.262675
823.873976	2663.634787
824.191897	2651.112561
824.509775	2636.876342
824.827609	2620.842952
825.145398	2614.140738
825.463144	2614.062601
825.780845	2615.688373
826.098502	2620.500154
826.416116	2633.939870
826.733685	2644.972435
827.051210	2652.798827
827.368692	2651.173055
827.686129	2641.839358
828.003522	2625.334621
828.320872	2609.265943
828.638177	2596.718511
828.955439	2584.581933
829.272656	2580.301993
829.589830	2575.833010
829.906960	2576.828638
830.224046	2572.747824
830.541088	2570.673389
830.858086	2573.899728
831.175041	2568.064592
831.491952	2567.767164
831.808819	2570.396126
832.125642	2569.002247
832.442421	2571.469892
832.759157	2580.866602
833.075849	2588.040164
833.392497	2602.364603
833.709101	2612.083948
834.025662	2617.644340
834.342179	2609.485233
834.658653	2598.641711
834.975083	2589.141657
835.291469	2589.071080
835.607811	2577.166396
835.924110	2572.536096
836.240366	2570.204562
836.556578	2568.029304
836.872746	2564.863460
837.188871	2563.146947
837.504952	2563.832544
837.820990	2560.437327
838.136984	2557.558828
838.452935	2558.181410
838.768842	2560.855742
839.084706	2560.286092
839.400526	2563.217523
839.716303	2568.901424
840.032037	2575.638926
840.347727	2576.274111
840.663373	2573.778740
840.978977	2570.880077
841.294537	2565.743141
841.610054	2561.342214
841.925527	2562.307595
842.240957	2559.391287
842.556344	2559.494631
842.871687	2556.671585
843.186987	2557.420196
843.502244	2554.314845
843.817458	2553.929197
844.132629	2554.241748
844.447756	2555.237376
844.762840	2549.084648
845.077881	2553.437684
845.392879	2553.011707
845.707833	2552.492468
846.022745	2548.978784
846.337613	2555.663354
846.652438	2553.248641
846.967221	2555.817109
847.281960	2551.887530
847.596656	2551.310318
847.911309	2550.899463
848.225919	2552.361398
848.540485	2553.334341
848.855009	2550.821326
849.169490	2548.252858
849.483928	2551.033054
849.798323	2548.918290
850.112675	2549.966850
850.426984	2552.157231
850.741251	2551.196892
851.055474	2551.905174
851.369654	2551.953065
851.683792	2552.653785
851.997887	2552.807540
852.311938	2549.016593
852.625947	2552.119423
852.939914	2550.453321
853.253837	2553.248641
853.567718	2552.089176
853.881555	2548.779658
854.195350	2552.633620
854.509103	2550.720502
854.822812	2551.517005
855.136479	2551.887530
855.450103	2550.745708
855.763685	2553.951882
856.077224	2549.674463
856.390720	2554.768549
856.704173	2551.048178
857.017584	2550.173537
857.330953	2551.272509
857.644278	2551.680842
857.957561	2551.355688
858.270802	2553.261244
858.584000	2553.425082
858.897155	2552.401727
859.210268	2554.082952
859.523339	2552.260575
859.836367	2552.784855
860.149352	2553.150339
860.462295	2553.571275
860.775195	2548.550286
861.088054	2548.000800
861.400869	2548.946016
861.713642	2549.689587
862.026373	2547.935265
862.339062	2551.151521
862.651708	2552.063970
862.964312	2550.244113
863.276873	2551.176727
863.589392	2551.554813
863.901869	2553.662016
864.214303	2552.515153
864.526696	2553.790565
864.839045	2550.579350
865.151353	2557.117727
865.463619	2555.249979
865.775842	2555.746533
866.088023	2554.876934
866.400162	2554.584547
866.712258	2555.759136
867.024313	2555.713765
867.336325	2553.682180
867.648296	2554.725699
867.960224	2553.961964
868.272110	2555.000442
868.583954	2553.299053
868.895755	2554.493806
869.207515	2556.558159
869.519233	2555.406255
869.830909	2554.488765
870.142542	2553.903991
870.454134	2553.737633
870.765684	2555.260062
871.077191	2552.429454
871.388657	2555.161759
871.700081	2554.052705
872.011463	2555.280226
872.322803	2554.713096
872.634101	2557.221070
872.945357	2558.372974
873.256571	2558.153684
873.567744	2558.166287
873.878874	2556.545556
874.189963	2557.684857
874.501010	2560.245763
874.812015	2558.297357
875.122979	2558.625032
875.433900	2555.602860
875.744780	2558.599826
876.055618	2556.071687
876.366415	2559.035886
876.677169	2557.619322
876.987882	2556.669064
877.298554	2554.624876
877.609183	2558.864487
877.919771	2557.284085
878.230317	2562.531926
878.540822	2564.482852
878.851285	2569.488718
879.161707	2570.781774
879.472087	2574.630695
879.782425	2580.049936
880.092722	2588.937490
880.402977	2601.469798
880.713191	2616.487396
881.023363	2628.840743
881.333494	2637.992958
881.643583	2646.809936
881.953631	2650.278250
882.263637	2651.843528
882.573602	2642.774492
882.883526	2634.474232
883.193408	2626.194137
883.503248	2619.507047
883.813048	2611.516818
884.122806	2602.737648
884.432522	2593.391349
884.742197	2586.994125
885.051831	2584.440781
885.361424	2580.105388
885.670975	2580.012127
885.980485	2573.088102
886.289954	2571.734552
886.599382	2570.953173
886.908768	2567.462174
887.218113	2565.720456
887.527417	2564.525702
887.836680	2561.463201
888.145901	2562.176525
888.455082	2561.143088
888.764221	2558.272151
889.073319	2558.277192
889.382376	2558.004970
889.691392	2558.133519
890.000366	2561.344734
890.309300	2558.912378
890.618193	2559.892882
890.927044	2559.625701
891.235855	2558.564538
891.544625	2560.011349
891.853353	2557.692418
892.162041	2558.746019
892.470687	2563.356155
892.779293	2561.793397
893.087858	2562.259704
893.396381	2564.268603
893.704864	2567.994016
894.013306	2571.900910
894.321707	2583.626634
894.630068	2588.924887
894.938387	2592.998139
895.246665	2594.379415
895.554903	2593.285485
895.863100	2590.132243
896.171256	2583.634196
896.479371	2574.252609
896.787446	2569.851681
897.095480	2568.407391
897.403473	2570.131465
897.711425	2570.217165
898.019336	2563.835064
898.327207	2564.462688
898.635038	2562.874724
898.942827	2562.862122
899.250576	2562.315156
899.558284	2558.735937
899.865952	2559.045968
900.173579	2557.291647
900.481165	2558.229301
900.788711	2557.032027
901.096216	2553.808209
901.403681	2557.493293
901.711105	2557.422717
902.018489	2557.962120
902.325832	2558.365412
902.633135	2556.361554
902.940397	2560.293654
903.247619	2563.126782
903.554800	2567.867987
903.861941	2578.693865
904.169041	2591.135433
904.476101	2597.764550
904.783121	2596.768922
905.090100	2593.973602
905.397039	2592.219281
905.703938	2583.334247
906.010796	2581.403485
906.317614	2571.563153
906.624391	2568.730025
906.931129	2564.432441
907.237826	2560.807851
907.544483	2559.235011
907.851099	2554.846687
908.157675	2555.315514
908.464211	2553.785524
908.770707	2552.215205
909.077163	2551.277550
909.383578	2549.893753
909.689954	2547.428629
909.996289	2549.918959
910.302584	2554.395504
910.608839	2550.496171
910.915054	2550.193702
911.221229	2550.412992
911.527363	2551.189330
911.833458	2551.368291
912.139513	2551.882488
912.445527	2551.514484
912.751502	2552.540359
913.057436	2553.538507
913.363331	2551.716130
913.669186	2554.062787
913.975000	2557.616801
914.280775	2557.299208
914.586510	2560.828016
914.892205	2564.432441
915.197859	2573.362845
915.503475	2578.656057
915.809050	2583.772828
916.114585	2585.738878
916.420081	2588.448498
916.725536	2589.991091
917.030952	2591.148036
917.336328	2585.504464
917.641665	2580.412899
917.946961	2573.196487
918.252218	2572.664645
918.557435	2569.153482
918.862612	2564.316494
919.167750	2564.250959
919.472848	2562.637790
919.777906	2560.560835
920.082925	2556.429609
920.387904	2555.547407
920.692843	2555.870041
920.997743	2554.093034
921.302603	2554.297201
921.607423	2553.893909
921.912204	2553.362067
922.216946	2554.929866
922.521647	2552.459701
922.826310	2550.591953
923.130932	2553.185627
923.435516	2548.925852
923.740059	2548.711603
924.044564	2549.235883
924.349028	2553.515822
924.653454	2543.176416
924.957840	2547.370656
925.262186	2544.650953
925.566493	2545.644061
925.870761	2542.415202
926.174989	2544.918134
926.479178	2547.078269
926.783328	2545.901159
927.087438	2547.600028
927.391509	2547.600028
927.695541	2545.840666
927.999533	2545.268495
928.303486	2547.511808
928.607400	2546.483413
928.911275	2543.461241
929.215110	2545.835624
929.518906	2543.955274
929.822663	2545.974256
930.126381	2545.823022
930.430060	2547.587425
930.733699	2547.842004
931.037299	2546.601880
931.340861	2542.899152
931.644383	2544.981149
931.947866	2545.790254
932.251309	2546.637168
932.554714	2546.216232
932.858080	2547.375697
933.161407	2545.301262
933.464694	2543.728422
933.767943	2544.330840
934.071153	2547.312683
934.374323	2546.801005
934.677455	2543.945192
934.980548	2547.892415
935.283602	2544.237579
935.586617	2546.596839
935.889593	2546.707744
936.192530	2544.968546
936.495428	2544.424101
936.798287	2545.729760
937.101108	2545.754966
937.403890	2545.497867
937.706632	2548.557848
938.009336	2546.236396
938.312002	2546.763197
938.614628	2545.323947
938.917216	2548.759494
939.219765	2549.790410
939.522275	2549.329144
939.824747	2547.748742
940.127179	2545.921324
940.429573	2548.026006
940.731929	2544.250182
941.034246	2544.797147
941.336524	2547.302600
941.638763	2547.753783
941.940964	2546.551468
942.243126	2548.192364
942.545250	2548.610780
942.847335	2545.807898
943.149381	2545.389482
943.451389	2547.179092
943.753359	2543.534338
944.055290	2545.752445
944.357182	2547.335368
944.659036	2542.478216
944.960851	2544.794626
945.262628	2545.437373
945.564367	2546.369987
945.866067	2545.563402
946.167729	2546.606921
946.469352	2544.968546
946.770937	2546.223793
947.072484	2545.427291
947.373992	2546.392672
947.675462	2545.959133
947.976893	2544.978628
948.278286	2544.552651
948.579641	2546.271684
948.880958	2547.448794
949.182236	2546.982487
949.483476	2542.851261
949.784678	2544.668597
950.085841	2542.999975
950.386967	2544.189688
950.688054	2543.700696
950.989103	2545.702034
951.290114	2545.477703
951.591087	2547.068187
951.892021	2545.487785
952.192917	2545.107178
952.493776	2545.099616
952.794596	2548.635985
953.095378	2546.836293
953.396122	2543.957795
953.696828	2544.441745
953.997496	2545.815460
954.298126	2545.835624
954.598718	2547.410985
954.899272	2548.202446
955.199788	2543.584749
955.500266	2545.001313
955.800706	2543.831766
956.101108	2539.156096
956.401472	2540.280273
956.701798	2539.133410
957.002087	2541.601055
957.302337	2542.379913
957.602550	2544.729091
957.902724	2545.059287
958.202861	2543.322609
958.502960	2546.213711
958.803022	2545.039122
959.103045	2540.703730
959.403031	2546.178423
959.702979	2544.779503
960.002889	2542.992414
960.302762	2543.367980
960.602596	2544.797147
960.902393	2545.800336
961.202153	2542.601724
961.501875	2543.652805
961.801559	2543.849410
962.101205	2541.538041
962.400814	2544.562733
962.700385	2545.271015
962.999918	2545.029040
963.299414	2545.364277
963.598873	2542.203473
963.898293	2539.947557
964.197677	2542.838658
964.497022	2541.361600
964.796331	2544.179605
965.095601	2541.293545
965.394835	2541.245654
965.694030	2545.074410
965.993189	2543.645243
966.292309	2542.800850
966.591393	2542.127856
966.890439	2539.403112
967.189447	2543.521735
967.488419	2541.492670
967.787353	2541.522917
968.086249	2542.344625
968.385108	2543.912424
968.683930	2541.134748
968.982714	2543.688093
969.281462	2543.156251
969.580172	2546.168341
969.878844	2542.006868
970.177480	2543.249512
970.476078	2542.233720
970.774639	2544.451828
971.073162	2539.733308
971.371649	2539.922351
971.670098	2541.207845
971.968510	2540.302958
972.266885	2538.974614
972.565223	2541.711961
972.863524	2542.553833
973.161788	2542.291693
973.460014	2541.792619
973.758204	2543.090716
974.056356	2542.526107
974.354471	2542.785726
974.652550	2543.491488
974.950591	2541.764893
975.248595	2542.788247
975.546563	2541.767413
975.844493	2542.304296
976.142386	2542.326981
976.440243	2541.132228
976.738062	2541.717002
977.035845	2540.396219
977.333590	2540.388658
977.631299	2542.604245
977.928971	2543.017619
978.226606	2544.303114
978.524204	2544.920655
978.821765	2541.734646
979.119290	2543.292362
979.416777	2541.091899
979.714228	2544.532486
980.011642	2540.852444
980.309020	2543.864533
980.606360	2541.117104
980.903664	2543.095757
981.200931	2542.100129
981.498162	2543.569626
981.795356	2542.629451
982.092513	2542.551313
982.389633	2541.764893
982.686717	2544.449307
982.983764	2543.075593
983.280775	2544.091385
983.577749	2544.129194
983.874686	2543.385624
984.171587	2542.803370
984.468451	2543.967877
984.765279	2542.750438
985.062070	2546.702703
985.358824	2541.454862
985.655543	2541.596014
985.952224	2545.114739
986.248869	2541.780016
986.545478	2536.880015
986.842050	2540.086188
987.138586	2539.166178
987.435086	2540.388658
987.731549	2538.387320
988.027975	2542.059800
988.324366	2542.100129
988.620719	2544.706406
988.917037	2541.200283
989.213318	2542.692465
989.509563	2541.996786
989.805772	2539.917310
990.101944	2540.129038
990.398080	2539.650129
990.694180	2541.041487
990.990244	2541.563247
991.286271	2540.938143
991.582262	2539.236754
991.878217	2539.519059
992.174136	2541.664070
992.470019	2543.937630
992.765865	2543.138607
993.061676	2538.974614
993.357450	2540.164326
993.653188	2542.417722
993.948890	2541.941333
994.244556	2542.087527
994.540186	2543.463762
994.835780	2543.244471
995.131337	2543.143648
995.426859	2541.585932
995.722345	2542.967208
996.017795	2543.688093
996.313208	2542.372352
996.608586	2542.074924
996.903928	2541.394368
997.199234	2544.330840
997.494504	2543.572146
997.789738	2543.098278
998.084936	2543.614996
998.380099	2541.737166
998.675225	2541.795140
998.970316	2543.849410
999.265371	2541.497712
999.560390	2538.107536
999.855373	2540.975952
1000.150320	2540.812115
1000.445232	2544.736653
1000.740108	2540.658359
1001.034948	2539.030067
1001.329752	2540.123997
1001.624521	2541.217927
1001.919254	2536.247350
1002.213951	2540.973432
1002.508613	2537.903369
1002.803239	2536.355735
1003.097829	2536.552340
1003.392384	2540.081147
1003.686903	2541.575849
1003.981386	2543.872095
1004.275834	2539.899666
1004.570246	2541.916127
1004.864623	2540.156765
1005.158964	2541.172557
1005.453270	2543.022661
1005.747540	2538.178112
1006.041775	2538.727597
1006.335974	2541.366642
1006.630138	2541.059131
1006.924266	2537.837834
1007.218359	2540.025695
1007.512416	2540.169367
1007.806438	2543.075593
1008.100425	2542.742877
1008.394376	2538.649460
1008.688292	2542.090047
1008.982172	2540.799512
1009.276017	2539.267001
1009.569827	2539.098122
1009.863602	2542.445448
1010.157341	2537.915972
1010.451045	2538.609130
1010.744714	2540.696168
1011.038347	2541.348998
1011.331945	2540.257588
1011.625508	2540.975952
1011.919036	2539.030067
1012.212528	2542.881508
1012.505986	2537.399253
1012.799408	2541.480068
1013.092795	2542.654656
1013.386147	2543.703216
1013.679464	2543.483926
1013.972745	2539.635005
1014.265992	2540.050900
1014.559204	2540.686086
1014.852380	2543.476364
1015.145521	2540.673483
1015.438628	2540.794471
1015.731699	2542.004348
1016.024736	2541.389327
1016.317737	2540.557536
1016.610703	2542.884029
1016.903635	2539.496373
1017.196531	2538.296579
1017.489393	2538.165509
1017.782219	2537.560570
1018.075011	2537.079140
1018.367768	2540.610468
1018.660490	2541.132228
1018.953177	2541.132228
1019.245829	2541.132228
