Dividing Wavelength (nm)	Counts (n)	Blue Motor Position (mm): 39.200000	Red Motor Position (mm): 0.000000	
326.493990	2130.726852
326.888308	2130.726852
327.282561	2130.726852
327.676750	2097.132603
328.070874	2097.906420
328.464933	2099.048241
328.858929	2107.479571
329.252859	2115.772269
329.646726	2126.255349
330.040528	2139.526186
330.434265	2158.380102
330.827938	2172.336536
331.221547	2191.192972
331.615091	2212.317927
332.008571	2231.890207
332.401986	2250.313104
332.795338	2269.887904
333.188625	2286.957251
333.581847	2306.398461
333.975006	2325.196923
334.368100	2342.404902
334.761129	2364.308716
335.154095	2377.660212
335.546996	2402.455127
335.939833	2423.723755
336.332606	2441.264450
336.725315	2455.041923
337.117960	2464.698253
337.510540	2470.616568
337.903056	2481.785244
338.295508	2490.133395
338.687896	2497.432986
339.080220	2509.582167
339.472480	2513.146262
339.864676	2516.382683
340.256807	2519.813188
340.648875	2523.311749
341.040879	2527.682429
341.432818	2527.165711
341.824694	2529.124199
342.216506	2530.853315
342.608253	2527.899199
342.999937	2532.458923
343.391557	2531.906916
343.783113	2528.461288
344.174605	2529.434230
344.566033	2526.081863
344.957397	2525.310567
345.348697	2523.644465
345.739934	2519.109947
346.131106	2519.278826
346.522215	2517.521984
346.913260	2515.981911
347.304241	2512.231293
347.695159	2512.092661
348.086012	2512.117867
348.476802	2508.387413
348.867528	2510.850017
349.258191	2503.963801
349.648789	2505.561846
350.039324	2501.171001
350.429796	2504.183091
350.820203	2504.914058
351.210548	2500.112359
351.600828	2502.562360
351.991045	2498.476505
352.381198	2498.660507
352.771288	2498.894920
353.161314	2500.712256
353.551276	2496.752430
353.941175	2498.373161
354.331010	2496.888541
354.720782	2496.654127
355.110490	2495.610609
355.500135	2494.335197
355.889717	2497.175887
356.279235	2497.185969
356.668689	2499.633449
357.058080	2498.988182
357.447408	2495.766884
357.836672	2494.027686
358.225873	2496.875938
358.615010	2493.838643
359.004084	2499.658655
359.393095	2502.844664
359.782043	2503.275683
360.170927	2498.756289
360.559748	2501.284427
360.948505	2502.232164
361.337199	2503.409274
361.725830	2503.404233
362.114398	2503.721825
362.502903	2506.645694
362.891344	2502.799294
363.279722	2506.141579
363.668037	2508.488236
364.056289	2505.788698
364.444478	2508.989831
364.832603	2507.885818
365.220665	2507.338853
365.608665	2507.215345
365.996601	2510.935716
366.384474	2510.761797
366.772284	2510.504698
367.160031	2510.824811
367.547715	2512.616941
367.935336	2509.874553
368.322893	2510.655932
368.710388	2510.847496
369.097820	2512.775737
369.485189	2513.438649
369.872495	2511.780110
370.259738	2512.589215
370.646918	2510.260202
371.034035	2513.337826
371.421090	2515.021572
371.808081	2513.821777
372.195010	2516.082734
372.581875	2514.678773
372.968678	2515.122395
373.355418	2515.215656
373.742096	2518.200019
374.128710	2516.659947
374.515262	2515.228259
374.901751	2517.189268
375.288177	2516.244051
375.674540	2519.956861
376.060841	2517.295132
376.447079	2514.179699
376.833254	2517.544669
377.219367	2514.018382
377.605417	2517.045595
377.991404	2517.542148
378.377329	2518.696573
378.763191	2518.016017
379.148991	2521.073477
379.534727	2520.813857
379.920402	2523.382325
380.306013	2523.301667
380.691563	2522.011131
381.077049	2523.188241
381.462474	2524.413241
381.847835	2523.778056
382.233134	2526.094466
382.618371	2524.503982
383.003545	2524.788807
383.388657	2527.223684
383.773706	2524.778725
384.158693	2528.501617
384.543618	2525.597912
384.928480	2527.233767
385.313280	2525.912984
385.698017	2527.831143
386.082692	2530.485311
386.467305	2531.619571
386.851856	2529.560259
387.236344	2531.468336
387.620770	2529.083870
388.005133	2530.845753
388.389435	2531.448171
388.773674	2532.342976
389.157851	2534.140148
389.541965	2540.164326
389.926018	2539.277083
390.310008	2539.085519
390.693936	2548.280584
391.077802	2549.326623
391.461606	2557.798282
391.845348	2563.351113
392.229027	2573.420818
392.612645	2584.763414
392.996200	2598.419900
393.379694	2611.801643
393.763125	2627.784621
394.146494	2641.720891
394.529801	2661.245280
394.913047	2682.478620
395.296230	2699.411856
395.679351	2721.295505
396.062410	2748.411871
396.445408	2764.034407
396.828343	2792.123716
397.211217	2816.777479
397.594028	2829.077894
397.976778	2867.156250
398.359466	2898.887793
398.742092	2935.705860
399.124656	2947.557613
399.507158	2992.920436
399.889598	3032.178421
400.271977	3082.340423
400.654294	3108.998044
401.036549	3147.504898
401.418742	3169.885100
401.800874	3242.734814
402.182944	3286.580250
402.564952	3355.056763
402.946898	3385.608676
403.328783	3423.666867
403.710606	3420.039757
404.092367	3557.527146
404.474067	3575.100608
404.855705	3617.053090
405.237282	3614.169550
405.618797	3712.252760
406.000250	3774.868932
406.381642	3862.033003
406.762972	3875.921382
407.144240	3922.156324
407.525447	3956.539514
407.906593	4034.011966
408.287677	4100.862707
408.668700	4087.289401
409.049661	4154.203156
409.430560	4220.640523
409.811399	4193.065411
410.192176	4352.491902
410.572891	4334.121937
410.953545	4451.177529
411.334138	4384.041963
411.714669	4463.258654
412.095139	4399.946803
412.475547	4545.583217
412.855894	4549.538003
413.236180	4581.980348
413.616405	4563.454108
413.996568	4659.919107
414.376670	4627.433912
414.756711	4599.805868
415.136691	4642.945542
415.516609	4731.823605
415.896466	4782.260349
416.276262	4817.886183
416.655997	4815.862160
417.035670	5003.801417
417.415283	5099.212815
417.794834	5056.297472
418.174324	5019.575187
418.553753	4936.449081
418.933121	5126.067042
419.312428	5197.318710
419.691674	5144.384074
420.070859	5274.743271
420.449983	5189.497360
420.829045	5307.692253
421.208047	5221.818718
421.586988	5299.011386
421.965867	5310.860618
422.344686	5444.521771
422.723444	5299.006345
423.102141	5117.562615
423.480777	5419.941105
423.859352	5191.544068
424.237866	5446.124858
424.616319	5442.845587
424.994712	5553.614861
425.373044	5429.773876
425.751314	5573.318211
426.129524	5377.270258
426.507673	5574.548252
426.885762	5654.238812
427.263789	5588.305561
427.641756	5473.783149
428.019662	5592.416622
428.397508	5603.270226
428.775292	5547.530188
429.153016	5647.080374
429.530679	5573.965999
429.908282	5657.228217
430.285824	5527.174009
430.663305	5804.939065
431.040726	5539.315628
431.418086	5539.129105
431.795385	5647.095497
432.172624	5660.474720
432.549802	5649.530375
432.926920	5660.255429
433.303977	5672.669271
433.680974	5713.242998
434.057910	5728.653805
434.434786	5732.361573
434.811601	5702.560793
435.188355	5938.403613
435.565050	5811.268234
435.941683	5795.509587
436.318257	6008.362226
436.694770	5991.217262
437.071222	6023.155492
437.447614	5954.936077
437.823946	5870.010279
438.200218	6023.243712
438.576429	5892.042642
438.952580	5989.533516
439.328670	6035.682759
439.704700	5943.099448
440.080670	5926.456079
440.456580	6197.135793
440.832429	6078.275468
441.208218	5929.563950
441.583947	6082.338638
441.959616	6090.754844
442.335224	6017.690881
442.710773	6149.955635
443.086261	6178.241549
443.461689	5969.590712
443.837057	6122.761130
444.212365	6276.659995
444.587612	6168.292832
444.962800	6319.615667
445.337927	6306.117978
445.712995	5913.979223
446.088002	6490.805690
446.462949	6324.356872
446.837837	6253.001860
447.212664	6426.762872
447.587431	6568.580612
447.962139	7109.393076
448.336786	8032.501442
448.711374	7774.417050
449.085901	6847.668971
449.460369	6772.681808
449.834776	6705.324430
450.209124	7096.802794
450.583412	7248.425578
450.957640	7390.971765
451.331808	7157.664644
451.705917	6709.793413
452.079965	6631.247195
452.453954	6846.401121
452.827883	6717.720628
453.201752	6811.705379
453.575562	6615.251614
453.949311	6822.069992
454.323001	6709.682508
454.696632	6782.282685
455.070202	6919.886020
455.443713	7075.718168
455.817164	7171.490009
456.190556	7256.498986
456.563888	7333.613517
456.937160	7374.565330
457.310373	7031.575304
457.683526	7058.074130
458.056619	6949.356606
458.429653	6933.134173
458.802628	6871.974894
459.175542	6982.986143
459.548398	7333.845410
459.921194	7494.607806
460.293930	7498.799525
460.666607	8034.548150
461.039224	8335.005961
461.411782	8461.117986
461.784280	8480.599525
462.156719	8372.466775
462.529099	8245.457424
462.901419	7830.981317
463.273680	7728.449289
463.645882	7739.131494
464.018024	7605.422450
464.390106	7773.529807
464.762130	8160.095566
465.134094	8628.512020
465.505999	9649.643102
465.877845	10872.437982
466.249631	11520.148113
466.621358	11135.155194
466.993026	10510.755358
467.364634	10250.334391
467.736184	9885.057425
468.107674	9553.314213
468.479105	9589.340819
468.850477	9356.646199
469.221790	9124.420406
469.593043	8796.589130
469.964238	8659.240373
470.335373	8665.229264
470.706449	8725.264365
471.077467	8712.071665
471.448425	10019.993990
471.819324	11089.442011
472.190164	11106.405493
472.560945	9858.553558
472.931667	9069.804545
473.302330	8943.115308
473.672934	8585.581554
474.043479	8944.312582
474.413965	8891.234273
474.784393	8773.089792
475.154761	8927.792721
475.525070	9012.305144
475.895321	8837.482970
476.265513	9019.219087
476.635645	9182.378552
477.005719	9186.829891
477.375734	9299.807189
477.745691	9533.033652
478.115588	9669.676647
478.485427	9914.490201
478.855207	10457.513211
479.224928	11264.392734
479.594591	11894.249619
479.964194	11705.425640
480.333739	11641.271916
480.703226	11557.412322
481.072653	11647.102011
481.442022	11886.934905
481.811333	12071.501630
482.180584	11880.076415
482.549777	11593.234761
482.918912	11411.475959
483.287988	11440.944024
483.657005	11446.370826
484.025964	11129.383072
484.394864	11262.603125
484.763706	11225.883360
485.132489	10994.680921
485.501213	10958.588780
485.869879	11026.301559
486.238487	10871.308763
486.607036	10990.093471
486.975527	10764.428740
487.343959	10955.201125
487.712333	11001.579740
488.080648	10932.039543
488.448905	10975.844650
488.817104	10917.659652
489.185244	11184.266114
489.553326	11339.689929
489.921350	11877.838143
490.289315	12941.924897
490.657222	13273.547120
491.025070	13183.134026
491.392861	13052.769788
491.760593	12673.682580
492.128267	12324.955722
492.495883	12002.241217
492.863440	11667.803509
493.230939	11326.053607
493.598380	11262.963567
493.965763	11129.488937
494.333088	11031.839266
494.700354	10951.909251
495.067563	11005.085863
495.434713	10838.463125
495.801805	10965.036416
496.168839	10890.336598
496.535815	10825.479633
496.902733	10829.467186
497.269593	10762.331620
497.636395	10859.643533
498.003139	10855.217400
498.369825	10714.039887
498.736453	10878.830165
499.103023	10803.132198
499.469535	10831.024903
499.835989	10817.859929
500.202385	10783.383478
500.568723	10632.305139
500.935003	10857.216218
501.301226	10664.775211
501.667390	10929.057701
502.033497	11016.902327
502.399546	10876.821265
502.765537	10787.066041
503.131470	10856.581032
503.497345	11030.521004
503.863163	10644.446758
504.228923	10955.201125
504.594625	11020.398368
504.960269	10760.340364
505.325856	10988.187915
505.691385	10778.329722
506.056856	10934.842425
506.422270	10961.124481
506.787625	10847.025525
507.152924	10960.305293
507.518164	10941.466501
507.883347	10865.846673
508.248472	10788.399426
508.613540	11021.083964
508.978550	10905.427292
509.343503	10879.223375
509.708398	10992.488019
510.073236	11111.970927
510.438016	11117.372523
510.802738	11067.729761
511.167403	11122.224634
511.532010	11011.316729
511.896561	11241.238715
512.261053	11313.967441
512.625488	11188.160406
512.989866	11172.152222
513.354186	11161.863227
513.718449	11060.435211
514.082655	11250.960580
514.446803	11147.596761
514.810894	11267.755184
515.174927	11135.465225
515.538904	11159.599749
515.902822	11309.649693
516.266684	11189.231651
516.630488	11137.040585
516.994235	11195.301200
517.357925	11255.910993
517.721558	11348.728718
518.085133	11358.261539
518.448651	11373.896678
518.812112	11252.649366
519.175516	11268.581933
519.538863	11387.729604
519.902152	11303.882613
520.265385	11471.158180
520.628560	11375.590506
520.991678	11359.839421
521.354739	11420.040880
521.717743	11350.936743
522.080690	11337.575165
522.443580	11466.790020
522.806413	11422.092629
523.169189	11449.566918
523.531908	11513.395487
523.894569	11328.826242
524.257174	11336.634989
524.619722	11455.165119
524.982213	11398.658826
525.344647	11445.803697
525.707025	11409.225084
526.069345	11490.095274
526.431608	11421.578432
526.793815	11527.591377
527.155964	11307.940742
527.518057	11369.909125
527.880093	11312.137502
528.242072	11384.208358
528.603995	11291.821652
528.965860	11211.087573
529.327669	11261.509194
529.689421	11212.370547
530.051117	11183.015908
530.412755	11283.334870
530.774337	11166.987560
531.135862	11151.498614
531.497331	11177.377378
531.858743	11033.361695
532.220098	11197.269771
532.581396	11070.232694
532.942638	11046.612367
533.303824	11013.668427
533.664953	11027.403051
534.026025	10940.236460
534.387040	11039.620287
534.747999	11043.151615
535.108902	11099.357960
535.469748	10858.239572
535.830537	10962.861158
536.191270	10943.422469
536.551947	10966.989863
536.912567	10963.304780
537.273131	10884.912317
537.633638	10868.185768
537.994089	10851.877636
538.354483	10813.544702
538.714821	10946.358941
539.075103	10958.646753
539.435328	10924.001424
539.795497	10753.098747
540.155609	10907.501727
540.515665	10995.346353
540.875665	10733.823895
541.235609	10801.309821
541.595496	10798.000304
541.955328	10952.347832
542.315102	10829.875520
542.674821	10787.121494
543.034483	10787.991093
543.394090	10791.724067
543.753640	10716.691533
544.113134	10941.549680
544.472571	10790.985538
544.831953	10937.620101
545.191278	10739.908567
545.550548	10767.080387
545.909761	10906.211192
546.268918	10883.432738
546.628019	10968.623197
546.987064	10828.164048
547.346053	10744.291851
547.704986	10848.338746
548.063863	10837.777528
548.422684	10829.444501
548.781449	10744.380071
549.140158	10854.657832
549.498811	10730.655530
549.857408	10581.588610
550.215949	10805.156222
550.574434	10667.000880
550.932864	10768.912846
551.291237	10819.178191
551.649555	10775.794021
552.007817	10777.810483
552.366022	10747.334187
552.724173	10744.075081
553.082267	10724.959026
553.440305	10861.599501
553.798288	10663.464511
554.156215	10813.524537
554.514086	10790.380600
554.871902	10639.511468
555.229661	10668.951807
555.587365	10651.849692
555.945014	10548.246419
556.302606	10676.213589
556.660143	10566.439943
557.017625	10725.919366
557.375050	10618.880546
557.732421	10750.817624
558.089735	10668.863586
558.446994	10658.723305
558.804197	10705.570748
559.161345	10707.554442
559.518437	10549.098374
559.875474	10640.403752
560.232455	10668.455253
560.589381	10624.267019
560.946251	10611.407035
561.303065	10723.943233
561.659825	10663.454428
562.016528	10592.031361
562.373177	10469.117947
562.729770	10591.587739
563.086307	10499.475776
563.442789	10591.282749
563.799216	10476.016767
564.155587	10522.675166
564.511904	10478.847374
564.868164	10460.064035
565.224370	10484.092695
565.580520	10406.970603
565.936615	10414.398743
566.292654	10280.745152
566.648638	10407.232743
567.004567	10371.886693
567.360441	10352.624444
567.716260	10263.950548
568.072023	10354.403971
568.427732	10306.916302
568.783385	10218.721315
569.138982	10288.742942
569.494525	10300.798862
569.850013	10179.362507
570.205445	10260.094065
570.560823	10160.763170
570.916145	10075.880221
571.271412	10138.075457
571.626625	10089.856820
571.981782	10068.540301
572.336884	10040.564418
572.691931	10046.679338
573.046923	9988.655657
573.401860	9945.768040
573.756743	9881.077434
574.111570	9925.691645
574.466342	9909.537268
574.821059	9939.522051
575.175722	9830.948200
575.530330	9839.603861
575.884882	9828.939300
576.239380	9762.073435
576.593823	9739.741124
576.948211	9755.822405
577.302544	9634.580134
577.656823	9650.762238
578.011047	9657.151900
578.365216	9623.534966
578.719330	9542.175784
579.073389	9558.499040
579.427394	9506.378551
579.781344	9487.335592
580.135239	9433.238970
580.489080	9440.619219
580.842866	9342.193211
581.196597	9347.758645
581.550273	9392.990398
581.903895	9358.881951
582.257463	9420.318493
582.610975	9302.630236
582.964434	9324.476076
583.317837	9248.089992
583.671186	9235.136747
584.024481	9227.854801
584.377721	9148.870002
584.730906	9116.931772
585.084037	9153.734716
585.437113	9091.597453
585.790135	9107.514897
586.143103	9008.189042
586.496016	8986.870003
586.848874	9039.844968
587.201679	9032.835243
587.554428	8918.171679
587.907124	8967.610274
588.259765	8931.772712
588.612352	8930.502341
588.964884	8808.456006
589.317362	8827.514088
589.669786	8827.098193
590.022155	8876.713229
590.374470	8886.316627
590.726731	8824.469232
591.078937	8680.380452
591.431090	8793.100652
591.783188	8668.206065
592.135232	8653.962285
592.487222	8653.690063
592.839157	8712.807674
593.191038	8646.093044
593.542866	8587.545083
593.894639	8487.284095
594.246358	8541.758803
594.598022	8551.891523
594.949633	8450.818908
595.301190	8431.165970
595.652692	8456.127243
596.004141	8570.634533
596.355535	8343.739760
596.706876	8325.319383
597.058162	8261.687419
597.409395	8334.222061
597.760573	8400.583810
598.111698	8306.316754
598.462768	8294.565824
598.813785	8259.910412
599.164748	8227.616781
599.515657	8221.872386
599.866511	8127.864949
600.217312	8257.609126
600.568060	8117.333979
600.918753	8222.893220
601.269392	8185.689504
601.619978	8101.993747
601.970510	8160.995412
602.320988	8154.935945
602.671412	8215.444915
603.021783	8152.765728
603.372100	8116.003114
603.722363	8126.982747
604.072572	8096.564425
604.422728	8110.384748
604.772830	8040.358080
605.122878	8050.838639
605.472872	8046.367135
605.822813	8072.692041
606.172701	8017.791355
606.522534	8091.737520
606.872314	8092.506296
607.222041	8061.667037
607.571714	8113.477496
607.921333	8074.484171
608.270899	8079.694203
608.620411	8174.888832
608.969870	8079.288391
609.319276	8070.347904
609.668627	8091.447654
610.017926	8120.212477
610.367171	8165.096391
610.716362	8143.487485
611.065500	8136.477760
611.414585	8164.768716
611.763616	8149.415882
612.112594	8130.738407
612.461518	8145.382959
612.810389	8211.341416
613.159207	8146.489492
613.507971	8096.219106
613.856682	8214.713947
614.205340	8172.693410
614.553945	8245.601097
614.902496	8147.248186
615.250994	8202.645425
615.599439	8185.714710
615.947830	8198.554529
616.296169	8168.514293
616.644454	8179.640120
616.992686	8179.186416
617.340864	8236.146413
617.688990	8144.397413
618.037063	8234.205569
618.385082	8178.596601
618.733048	8269.733101
619.080961	8199.361113
619.428821	8223.115030
619.776628	8226.248108
620.124382	8175.629882
620.472083	8160.075402
620.819731	8189.387191
621.167326	8076.934172
621.514868	8090.149557
621.862357	7976.950447
622.209793	7997.384764
622.557176	7935.088705
622.904506	7898.961276
623.251783	7833.315371
623.599007	7780.872248
623.946179	7792.451778
624.293297	7746.438646
624.640363	7666.511152
624.987376	7653.540263
625.334336	7594.715039
625.681243	7545.604118
626.028097	7532.234978
626.374899	7511.215887
626.721647	7503.182808
627.068343	7435.550688
627.414987	7404.562716
627.761577	7368.974690
628.108115	7396.658187
628.454600	7294.166488
628.801032	7347.854776
629.147412	7304.299207
629.493739	7293.891745
629.840014	7229.649801
630.186236	7290.864532
630.532405	7169.828949
630.878521	7220.908440
631.224585	7177.612490
631.570597	7101.538958
631.916556	7141.356512
632.262462	7129.298072
632.608316	7095.174501
632.954117	7072.486788
633.299866	7058.583286
633.645562	7050.320835
633.991206	6972.109854
634.336797	6912.430154
634.682336	6869.787033
635.027823	6838.055491
635.373257	6824.827503
635.718639	6758.412822
636.063968	6774.322703
636.409245	6670.023751
636.754470	6662.580487
637.099642	6623.902234
637.444762	6570.846610
637.789829	6576.114616
638.134845	6521.715525
638.479808	6503.592577
638.824719	6510.919894
639.169577	6431.728408
639.514383	6452.649197
639.859137	6382.282251
640.203839	6393.617285
640.548489	6380.041458
640.893086	6354.508014
641.237632	6327.426935
641.582125	6349.582806
641.926566	6316.701880
642.270955	6333.831721
642.615292	6324.762685
642.959576	6344.370253
643.303809	6330.524724
643.647990	6340.049984
643.992118	6327.721843
644.336195	6280.082939
644.680219	6300.255116
645.024192	6291.967459
645.368112	6387.146964
645.711981	6409.386014
646.055797	6480.206664
646.399562	6444.905984
646.743274	6566.765796
647.086935	6617.701615
647.430544	6613.527539
647.774101	6638.277084
648.117606	6646.529453
648.461059	6635.612834
648.804460	6600.458348
649.147810	6508.376632
649.491108	6475.278936
649.834354	6454.494259
650.177548	6364.968408
650.520690	6280.145953
650.863781	6262.862357
651.206820	6278.401714
651.549807	6200.399941
651.892742	6141.859542
652.235626	6152.219113
652.578458	6138.040868
652.921238	6043.330190
653.263967	6085.217137
653.606644	6022.341346
653.949269	6027.251429
654.291843	5967.077697
654.634365	6014.179718
654.976836	5970.641792
655.319255	5972.186906
655.661622	5947.137413
656.003938	5944.589109
656.346203	5904.244755
656.688416	5938.726247
657.030577	5887.165326
657.372687	5857.082240
657.714746	5849.969172
658.056753	5887.412342
658.398708	5827.319268
658.740612	5818.600592
659.082465	5867.434250
659.424266	5859.781778
659.766016	5860.117015
660.107715	5830.759855
660.449362	5851.741138
660.790958	5840.085990
661.132503	5832.045350
661.473996	5867.819898
661.815438	5853.077043
662.156829	5852.411611
662.498168	5842.034396
662.839456	5820.095294
663.180693	5854.186097
663.521879	5856.731880
663.863013	5844.373491
664.204097	5862.647674
664.545129	5905.525208
664.886110	5900.849538
665.227040	5936.571154
665.567918	5897.928189
665.908746	5929.102685
666.249522	5927.587818
666.590248	5921.520789
666.930922	5949.572290
667.271545	5957.300379
667.612118	5964.436132
667.952639	5931.396410
668.293109	5953.302744
668.633528	5914.891672
668.973896	5915.852012
669.314213	5907.975209
669.654480	5883.470160
669.994695	5882.083843
670.334859	5873.642431
670.674973	5864.217993
671.015035	5867.935844
671.355047	5868.104723
671.695008	5858.226582
672.034918	5829.227345
672.374777	5840.010373
672.714585	5823.959339
673.054342	5827.921686
673.394049	5822.091591
673.733705	5852.134348
674.073310	5835.760680
674.412864	5794.576974
674.752368	5788.656138
675.091820	5791.993382
675.431223	5731.552468
675.770574	5731.781841
676.109875	5683.543040
676.449125	5693.012847
676.788324	5652.678575
677.127473	5599.935503
677.466571	5584.804480
677.805619	5584.239871
678.144616	5565.186830
678.483562	5545.332245
678.822458	5513.890569
679.161303	5506.918653
679.500098	5496.876674
679.838842	5479.356144
680.177535	5487.888297
680.516179	5500.987735
680.854771	5507.498386
681.193314	5595.771510
681.531805	5699.352098
681.870247	5854.327250
682.208638	5957.701150
682.546978	5967.980063
682.885268	5944.926867
683.223508	5855.572415
683.561697	5805.654909
683.899836	5777.762205
684.237925	5731.244958
684.575963	5697.204567
684.913951	5655.015150
685.251889	5717.031425
685.589776	5681.637483
685.927614	5655.932640
686.265401	5728.958795
686.603137	5708.695877
686.940824	5783.972907
687.278460	5813.128420
687.616046	5823.888763
687.953582	5886.865377
688.291068	5869.911977
688.628504	5936.581236
688.965889	5894.913579
689.303224	5841.439540
689.640510	5790.995234
689.977745	5716.910437
690.314930	5619.217917
690.652065	5561.965532
690.989150	5468.189988
691.326185	5394.503443
691.663170	5344.159960
692.000105	5264.683649
692.336990	5186.838151
692.673825	5161.120705
693.010610	5093.849027
693.347345	5023.247668
693.684030	5008.114124
694.020665	4967.590809
694.357251	4878.818610
694.693786	4891.600456
695.030272	4856.181309
695.366707	4819.350639
695.703093	4784.710350
696.039429	4811.945184
696.375716	4789.819559
696.711952	4763.628245
697.048139	4753.916462
697.384276	4731.682453
697.720363	4741.616046
698.056400	4752.789764
698.392388	4704.969378
698.728326	4681.785112
699.064214	4660.750898
699.400053	4655.908869
699.735842	4623.771513
700.071581	4596.730764
700.407270	4575.084050
700.742910	4554.223755
701.078501	4500.880786
701.414042	4497.150332
701.749533	4468.987926
702.084974	4401.065939
702.420366	4458.784630
702.755709	4398.187441
703.091002	4345.643494
703.426246	4395.618973
703.761440	4350.067107
704.096584	4314.300120
704.431679	4333.375846
704.766725	4318.895132
705.101721	4308.913647
705.436668	4335.394828
705.771565	4282.445069
706.106413	4310.289882
706.441212	4345.280531
706.775961	4350.571222
707.110661	4334.036237
707.445311	4361.099672
707.779913	4384.684710
708.114465	4395.835742
708.448967	4417.858023
708.783421	4479.612157
709.117825	4519.984238
709.452180	4526.462121
709.786485	4571.154470
710.120742	4660.337523
710.454949	4639.242815
710.789107	4707.041293
711.123216	4785.070792
711.457275	4771.555459
711.791286	4847.215617
712.125247	4863.909397
712.459159	4763.464407
712.793023	4842.141695
713.126837	4799.785921
713.460602	4794.142349
713.794318	4715.822983
714.127985	4720.843972
714.461602	4633.760560
714.795171	4607.276858
715.128691	4540.733627
715.462162	4484.146675
715.795584	4434.118265
716.128957	4413.598248
716.462281	4369.410014
716.795556	4343.748020
717.128782	4300.986433
717.461960	4233.891196
717.795088	4244.001230
718.128167	4204.471022
718.461198	4141.640601
718.794180	4135.039210
719.127113	4119.212507
719.459997	4098.221143
719.792833	4056.974422
720.125619	4045.049572
720.458357	4008.816279
720.791046	4015.397506
721.123686	3988.765090
721.456278	3946.666414
721.788821	3963.745843
722.121315	3935.684260
722.453761	3908.618305
722.786158	3923.154472
723.118506	3946.532823
723.450805	3897.056419
723.783056	3920.712033
724.115259	3932.818364
724.447412	3940.097791
724.779518	3932.460442
725.111574	3938.252728
725.443582	3966.452943
725.775542	3953.557671
726.107453	4005.758819
726.439315	4002.250176
726.771129	4019.816077
727.102895	4057.118095
727.434612	4101.717183
727.766281	4119.565388
728.097901	4117.259060
728.429473	4118.340388
728.760996	4129.488899
729.092471	4123.003455
729.423897	4109.984675
729.755276	4115.000623
730.086606	4111.711270
730.417887	4151.259122
730.749120	4213.585428
731.080305	4282.750059
731.411442	4306.630004
731.742530	4273.623050
732.073570	4281.933392
732.404562	4337.958255
732.735506	4326.565247
733.066401	4288.746511
733.397249	4225.817788
733.728048	4147.901714
734.058798	4063.520360
734.389501	3994.302797
734.720156	3929.861728
735.050762	3890.974267
735.381320	3878.275600
735.711831	3828.219463
736.042293	3798.839619
736.372707	3823.894153
736.703073	3796.349289
737.033391	3786.687917
737.363661	3803.409425
737.693883	3826.298784
738.024056	3837.094415
738.354182	3830.246007
738.684260	3893.618352
739.014290	3914.876898
739.344272	3912.807504
739.674207	3954.192857
740.004093	3959.745688
740.333931	3953.638330
740.663722	3953.751756
740.993464	3954.588587
741.323159	3928.311573
741.652806	3898.742685
741.982405	3870.572717
742.311956	3841.649097
742.641460	3829.452025
742.970915	3806.174498
743.300323	3763.924587
743.629683	3734.020463
743.958996	3721.500757
744.288260	3698.157694
744.617477	3661.483300
744.946647	3649.432422
745.275768	3618.585601
745.604842	3621.083493
745.933869	3573.845361
746.262847	3563.649627
746.591778	3600.893672
746.920662	3575.075402
747.249498	3540.848488
747.578286	3588.825149
747.907027	3604.205710
748.235720	3604.238477
748.564365	3627.619349
748.892963	3629.953403
749.221514	3613.635188
749.550017	3587.012855
749.878473	3590.471086
750.206881	3556.435736
750.535242	3554.678894
750.863555	3557.721230
751.191821	3549.297462
751.520039	3530.032693
751.848210	3508.738859
752.176334	3540.089795
752.504411	3546.005589
752.832440	3506.762727
753.160421	3489.194305
753.488356	3501.058661
753.816243	3514.994931
754.144082	3466.105821
754.471875	3455.867237
754.799620	3474.217037
755.127318	3468.437354
755.454969	3469.354844
755.782572	3474.663179
756.110129	3445.716874
756.437638	3433.842436
756.765100	3452.474541
757.092515	3460.893268
757.419882	3469.460709
757.747203	3441.651183
758.074477	3444.880043
758.401703	3458.896971
758.728882	3481.572081
759.056014	3490.729337
759.383099	3492.443329
759.710138	3487.457628
760.037129	3506.762727
760.364073	3535.214999
760.690970	3521.961805
761.017820	3499.538753
761.344623	3516.643388
761.671379	3561.436561
761.998088	3611.815332
762.324751	3738.693612
762.651366	3984.429697
762.977935	4462.169765
763.304456	4906.333228
763.630931	5001.603474
763.957359	4643.142147
764.283740	4296.270433
764.610074	4104.036114
764.936362	3906.163263
765.262602	3748.624685
765.588796	3638.329280
765.914943	3548.372410
766.241044	3457.188020
766.567097	3430.301026
766.893104	3383.604818
767.219064	3352.939479
767.544978	3326.120540
767.870845	3271.247581
768.196665	3250.031885
768.522438	3259.015221
768.848165	3250.649426
769.173846	3218.111298
769.499479	3201.674616
769.825066	3185.878161
770.150607	3169.673372
770.476101	3183.934796
770.801548	3177.030936
771.126949	3132.930922
771.452303	3116.700927
771.777611	3118.941720
772.102872	3125.553193
772.428087	3102.114348
772.753256	3094.482042
773.078378	3084.414857
773.403453	3049.653581
773.728482	3038.762168
774.053465	3058.349571
774.378401	3048.060576
774.703291	3014.347860
775.028135	3015.623272
775.352932	3012.943899
775.677683	2999.610047
776.002388	2998.362361
776.327046	2998.972341
776.651658	2985.585557
776.976224	2975.689772
777.300743	2978.200266
777.625216	2967.389512
777.949643	2960.447843
778.274024	2964.992443
778.598359	2956.107410
778.922647	2958.265023
779.246889	2956.780404
779.571086	2943.204576
779.895236	2936.215017
780.219339	2948.638940
780.543397	2960.999849
780.867409	2963.296095
781.191374	2957.208902
781.515294	2953.163376
781.839167	2955.265537
782.162995	2945.649536
782.486776	2953.390228
782.810511	2948.775051
783.134201	2938.060079
783.457844	2945.931841
783.781441	2935.605037
784.104993	2915.478230
784.428498	2914.903539
784.751958	2928.439037
785.075372	2922.067018
785.398739	2909.295255
785.722061	2923.516350
786.045337	2935.282403
786.368568	2921.323448
786.691752	2913.653333
787.014891	2963.704428
787.337983	2988.275012
787.661030	3017.165865
787.984031	3085.523911
788.306987	3131.398411
788.629897	3123.556896
788.952760	3109.015688
789.275579	3089.874427
789.598351	3034.729245
789.921078	2989.890702
790.243759	2982.061790
790.566395	2962.426496
790.888984	2942.463527
791.211529	2923.599529
791.534027	2912.395565
791.856480	2905.118659
792.178888	2887.512429
792.501249	2879.519680
792.823566	2878.405585
793.145836	2872.618340
793.468062	2868.325798
793.790241	2867.194059
794.112375	2873.094729
794.434464	2885.289280
794.756507	2890.700959
795.078505	2894.076012
795.400457	2910.651325
795.722364	2945.054680
796.044226	2969.693319
796.366042	2973.181798
796.687812	2963.389356
797.009538	2981.345946
797.331218	2970.325984
797.652852	2957.420630
797.974442	2938.881787
798.295986	2933.371806
798.617484	2930.147988
798.938938	2913.877664
799.260346	2898.645818
799.581709	2892.339334
799.903026	2887.356153
800.224299	2880.648898
800.545526	2871.529451
800.866708	2855.400279
801.187845	2845.123887
801.508936	2847.157993
801.829983	2854.603777
802.150984	2839.036694
802.471940	2826.695949
802.792851	2826.040599
803.113717	2827.563028
803.434538	2832.422700
803.755314	2825.571772
804.076045	2818.486430
804.396731	2820.210505
804.717372	2820.429795
805.037967	2813.803198
805.358518	2821.904332
805.679024	2832.558811
805.999485	2829.992864
806.319901	2835.177691
806.640272	2824.891216
806.960598	2832.246260
807.280879	2837.463854
807.601115	2847.702437
807.921306	2834.413956
808.241453	2829.750888
808.561554	2835.969152
808.881611	2836.264059
809.201623	2834.033349
809.521590	2835.386898
809.841513	2826.504385
810.161390	2831.298523
810.481223	2822.269816
810.801011	2815.257571
811.120755	2811.222127
811.440453	2816.459886
811.760107	2818.725885
812.079716	2810.907055
812.399281	2803.567135
812.718801	2797.467339
813.038276	2790.281174
813.357707	2797.492545
813.677093	2802.982362
813.996434	2798.233595
814.315731	2795.145888
814.634983	2788.912501
814.954191	2791.251597
815.273354	2803.415901
815.592473	2817.180771
815.911547	2815.751604
816.230577	2822.710917
816.549562	2835.767506
816.868502	2831.732062
817.187399	2840.975017
817.506250	2859.811289
817.825058	2852.980525
818.143821	2864.355889
818.462539	2881.384907
818.781213	2906.230233
819.099843	2940.694082
819.418429	3004.298320
819.736970	3063.967937
820.055466	3136.517703
820.373919	3248.413674
820.692327	3383.390568
821.010691	3556.632341
821.329011	4000.647089
821.647286	4912.251542
821.965517	6306.579243
822.283704	7057.678399
822.601847	7036.742487
822.919945	6399.981742
823.237999	5882.661055
823.556010	5294.471827
823.873976	4739.017332
824.191897	4322.461748
824.509775	4025.131974
824.827609	3753.759100
825.145398	3627.090028
825.463144	3618.225159
825.780845	3708.469374
826.098502	3815.724963
826.416116	4097.333900
826.733685	4420.381120
827.051210	4487.499043
827.368692	4369.039489
827.686129	4101.245835
828.003522	3772.381123
828.320872	3512.043335
828.638177	3314.276349
828.955439	3175.107736
829.272656	3092.536156
829.589830	3023.399252
829.906960	2973.645584
830.224046	2927.755960
830.541088	2892.898902
830.858086	2882.057901
831.175041	2861.129551
831.491952	2862.173069
831.808819	2874.390306
832.125642	2895.341341
832.442421	2945.531069
832.759157	3026.567617
833.075849	3207.166953
833.392497	3489.584995
833.709101	3696.390770
834.025662	3644.764313
834.342179	3485.436125
834.658653	3307.501038
834.975083	3155.545538
835.291469	3055.060218
835.607811	2972.823876
835.924110	2914.071748
836.240366	2859.788604
836.556578	2817.049701
836.872746	2794.702266
837.188871	2772.649739
837.504952	2755.857655
837.820990	2748.326172
838.136984	2733.406877
838.452935	2725.227605
838.768842	2725.767008
839.084706	2740.489698
839.400526	2823.255362
839.716303	2955.845270
840.032037	3036.352497
840.347727	3021.503778
840.663373	2959.066567
840.978977	2882.960267
841.294537	2810.947385
841.610054	2763.646238
841.925527	2741.515573
842.240957	2716.196377
842.556344	2696.457740
842.871687	2680.837724
843.186987	2672.000582
843.502244	2668.799449
843.817458	2662.112358
844.132629	2652.289670
844.447756	2640.826086
844.762840	2634.564973
845.077881	2638.658390
845.392879	2635.757206
845.707833	2633.680251
846.022745	2623.986112
846.337613	2628.843264
846.652438	2626.158849
846.967221	2624.517954
847.281960	2622.181379
847.596656	2623.386215
847.911309	2624.349075
848.225919	2619.244907
848.540485	2616.686521
848.855009	2614.680142
849.169490	2614.097889
849.483928	2617.634258
849.798323	2613.906325
850.112675	2612.945985
850.426984	2615.882457
850.741251	2612.131839
851.055474	2611.332816
851.369654	2618.042592
851.683792	2616.673918
851.997887	2616.943620
852.311938	2611.668052
852.625947	2612.338526
852.939914	2617.546038
853.253837	2617.409927
853.567718	2614.165944
853.881555	2612.232662
854.195350	2616.159721
854.509103	2614.428084
854.822812	2612.459514
855.136479	2613.618979
855.450103	2616.252982
855.763685	2616.469752
856.077224	2611.539503
856.390720	2609.633947
856.704173	2614.919597
857.017584	2617.258692
857.330953	2619.955709
857.644278	2621.067284
857.957561	2619.701131
858.270802	2614.370111
858.584000	2614.861623
858.897155	2620.613580
859.210268	2620.253137
859.523339	2617.432612
859.836367	2612.479678
860.149352	2611.186622
860.462295	2614.284411
860.775195	2610.289297
861.088054	2608.731580
861.400869	2610.405243
861.713642	2608.590428
862.026373	2606.750407
862.339062	2609.427260
862.651708	2617.626696
862.964312	2616.300873
863.276873	2615.905142
863.589392	2619.063425
863.901869	2624.154991
864.214303	2628.686988
864.526696	2629.871659
864.839045	2630.002729
865.151353	2637.188894
865.463619	2633.660086
865.775842	2634.537247
866.088023	2631.447020
866.400162	2634.501959
866.712258	2634.252422
867.024313	2632.714870
867.336325	2627.703963
867.648296	2632.654376
867.960224	2636.049593
868.272110	2634.393574
868.583954	2630.201855
868.895755	2631.341155
869.207515	2636.432721
869.519233	2640.790798
869.830909	2637.806435
870.142542	2635.051445
870.454134	2636.029428
870.765684	2639.064203
871.077191	2643.492857
871.388657	2646.757004
871.700081	2645.148876
872.011463	2640.997486
872.322803	2645.237096
872.634101	2650.268167
872.945357	2656.990546
873.256571	2663.453305
873.567744	2657.149342
873.878874	2658.782676
874.189963	2658.036586
874.501010	2664.275013
874.812015	2669.313647
875.122979	2666.714932
875.433900	2661.499858
875.744780	2660.000115
876.055618	2664.857267
876.366415	2670.014367
876.677169	2666.273831
876.987882	2664.133861
877.298554	2662.896258
877.609183	2675.388237
877.919771	2679.012827
878.230317	2684.142201
878.540822	2695.832637
878.851285	2712.901983
879.161707	2737.399471
879.472087	2773.171498
879.782425	2825.962461
880.092722	2939.585028
880.402977	3132.159625
880.713191	3399.464288
881.023363	3697.088969
881.333494	3895.750760
881.643583	4071.069488
881.953631	4067.165114
882.263637	3888.279770
882.573602	3662.612518
882.883526	3531.935728
883.193408	3413.647574
883.503248	3307.382571
883.813048	3189.545600
884.122806	3075.280287
884.432522	2986.792913
884.742197	2921.436874
885.051831	2883.910525
885.361424	2846.384176
885.670975	2808.832621
885.980485	2778.489916
886.289954	2761.002153
886.599382	2746.150914
886.908768	2733.031311
887.218113	2715.596480
887.527417	2700.445292
887.836680	2690.100845
888.145901	2686.574557
888.455082	2681.422498
888.764221	2669.835406
889.073319	2660.655465
889.382376	2660.199241
889.691392	2660.902482
890.000366	2660.703356
890.309300	2659.894251
890.618193	2659.369971
890.927044	2665.318532
891.235855	2662.084632
891.544625	2662.157729
891.853353	2664.292657
892.162041	2669.822803
892.470687	2691.204857
892.779293	2702.013091
893.087858	2713.728733
893.396381	2736.393760
893.704864	2777.244751
894.013306	2852.042871
894.321707	2944.359001
894.630068	2995.267093
894.938387	3019.671318
895.246665	3009.309227
895.554903	2967.288689
895.863100	2919.107861
896.171256	2862.664582
896.479371	2798.944397
896.787446	2761.077770
897.095480	2742.531365
897.403473	2734.352093
897.711425	2718.575802
898.019336	2700.009232
898.327207	2686.032633
898.635038	2687.250072
898.942827	2682.342509
899.250576	2673.606189
899.558284	2659.009528
899.865952	2657.235042
900.173579	2655.009373
900.481165	2652.551810
900.788711	2642.225007
901.096216	2638.164357
901.403681	2637.206538
901.711105	2633.317288
902.018489	2630.882410
902.325832	2634.144037
902.633135	2635.744603
902.940397	2653.832263
903.247619	2691.930783
903.554800	2762.390991
903.861941	2892.546021
904.169041	3020.886237
904.476101	3086.758994
904.783121	3079.454362
905.090100	3021.763397
905.397039	2943.237344
905.703938	2867.753627
906.010796	2801.893472
906.317614	2751.996132
906.624391	2712.370142
906.931129	2687.615556
907.237826	2662.833243
907.544483	2643.593680
907.851099	2628.994498
908.157675	2621.526029
908.464211	2613.354318
908.770707	2601.111876
909.077163	2596.136257
909.383578	2594.150043
909.689954	2591.765577
909.996289	2589.625607
910.302584	2590.883375
910.608839	2587.155442
910.915054	2586.419433
911.221229	2591.521081
911.527363	2594.558376
911.833458	2589.267685
912.139513	2591.158118
912.445527	2594.074426
912.751502	2599.768409
913.057436	2605.913575
913.363331	2612.819956
913.669186	2623.981071
913.975000	2636.190745
914.280775	2654.248158
914.586510	2673.291117
914.892205	2710.406612
915.197859	2778.444545
915.503475	2866.586600
915.809050	2933.802824
916.114585	2951.114147
916.420081	2964.198462
916.725536	2974.565594
917.030952	2945.692386
917.336328	2898.040879
917.641665	2849.149248
917.946961	2794.505661
918.252218	2761.183634
918.557435	2734.130282
918.862612	2710.915769
919.167750	2695.283151
919.472848	2675.365552
919.777906	2659.697646
920.082925	2646.724236
920.387904	2638.943215
920.692843	2632.949283
920.997743	2626.390742
921.302603	2621.221039
921.607423	2611.857096
921.912204	2609.097064
922.216946	2604.585231
922.521647	2602.488111
922.826310	2599.148347
923.130932	2594.581062
923.435516	2587.009248
923.740059	2585.055801
924.044564	2585.685946
924.349028	2582.207549
924.653454	2575.422156
924.957840	2571.931157
925.262186	2570.307906
925.566493	2567.653738
925.870761	2564.986968
926.174989	2566.673234
926.479178	2564.646690
926.783328	2563.600651
927.087438	2560.270968
927.391509	2564.707184
927.695541	2560.555794
927.999533	2558.166287
928.303486	2557.548745
928.607400	2557.142932
928.911275	2555.401214
929.215110	2557.132850
929.518906	2557.258879
929.822663	2553.926676
930.126381	2557.077398
930.430060	2557.037068
930.733699	2556.946328
931.037299	2557.238714
931.340861	2558.355330
931.644383	2559.507234
931.947866	2557.475649
932.251309	2556.883313
932.554714	2555.751574
932.858080	2557.291647
933.161407	2557.606719
933.464694	2556.021276
933.767943	2557.130330
934.071153	2555.441543
934.374323	2553.838456
934.677455	2555.413817
934.980548	2556.520350
935.283602	2554.942469
935.586617	2554.062787
935.889593	2553.941800
936.192530	2552.815102
936.495428	2557.163097
936.798287	2553.591440
937.101108	2556.429609
937.403890	2560.548232
937.706632	2561.410269
938.009336	2565.717935
938.312002	2568.225909
938.614628	2572.591548
938.917216	2577.925089
939.219765	2577.118505
939.522275	2579.197981
939.824747	2576.062383
940.127179	2573.617423
940.429573	2568.598955
940.731929	2568.505693
941.034246	2568.588872
941.336524	2566.070816
941.638763	2567.005950
941.940964	2566.869839
942.243126	2564.092163
942.545250	2565.233984
942.847335	2566.133830
943.149381	2561.349775
943.451389	2559.542522
943.753359	2560.144940
944.055290	2561.241391
944.357182	2556.182593
944.659036	2555.892726
944.960851	2556.016235
945.262628	2558.204095
945.564367	2558.740978
945.866067	2560.240722
946.167729	2559.870197
946.469352	2557.218550
946.770937	2557.097562
947.072484	2557.889023
947.373992	2556.046482
947.675462	2556.593447
947.976893	2554.652603
948.278286	2555.096224
948.579641	2554.065308
948.880958	2553.750236
949.182236	2552.116902
949.483476	2552.754608
949.784678	2554.811399
950.085841	2554.866852
950.386967	2555.033210
950.688054	2556.154866
950.989103	2552.999104
951.290114	2556.628735
951.591087	2559.088818
951.892021	2558.889692
952.192917	2563.567883
952.493776	2558.738458
952.794596	2564.094684
953.095378	2561.410269
953.396122	2563.217523
953.696828	2560.790207
953.997496	2559.063612
954.298126	2556.268292
954.598718	2556.096893
954.899272	2556.089331
955.199788	2554.234187
955.500266	2553.092365
955.800706	2549.009031
956.101108	2546.916952
956.401472	2546.329658
956.701798	2545.427291
957.002087	2544.401416
957.302337	2544.444266
957.602550	2545.023999
957.902724	2545.114739
958.202861	2541.885880
958.502960	2540.870088
958.803022	2544.212373
959.103045	2541.202804
959.403031	2543.204142
959.702979	2540.590304
960.002889	2541.464944
960.302762	2539.292207
960.602596	2544.343443
960.902393	2538.374717
961.202153	2541.946374
961.501875	2539.834131
961.801559	2540.340767
962.101205	2538.004192
962.400814	2537.976466
962.700385	2540.633154
962.999918	2538.667104
963.299414	2536.993441
963.598873	2540.111394
963.898293	2536.537216
964.197677	2540.328164
964.497022	2536.529654
964.796331	2540.199614
965.095601	2537.676517
965.394835	2538.714995
965.694030	2537.840354
965.993189	2541.134748
966.292309	2536.575025
966.591393	2539.214069
966.890439	2540.252547
967.189447	2537.885725
967.488419	2536.910262
967.787353	2536.136444
968.086249	2533.605785
968.385108	2537.978986
968.683930	2536.320447
968.982714	2542.755479
969.281462	2538.079809
969.580172	2536.131403
969.878844	2539.294727
970.177480	2539.418236
970.476078	2536.801877
970.774639	2540.865047
971.073162	2540.406302
971.371649	2534.498069
971.670098	2533.537730
971.968510	2537.179963
972.266885	2532.741227
972.565223	2540.902855
972.863524	2539.146013
973.161788	2540.244985
973.460014	2541.608617
973.758204	2540.323123
974.056356	2537.389171
974.354471	2537.416898
974.652550	2539.214069
974.950591	2539.753472
975.248595	2534.820703
975.546563	2539.466127
975.844493	2538.760365
976.142386	2542.019471
976.440243	2539.544264
976.738062	2539.569470
977.035845	2537.142155
977.333590	2536.817000
977.631299	2536.159130
977.928971	2538.190715
978.226606	2538.752803
978.524204	2538.467978
978.821765	2537.981507
979.119290	2535.337422
979.416777	2536.461599
979.714228	2536.882535
980.011642	2535.670138
980.309020	2540.214738
980.606360	2537.376568
980.903664	2539.705581
981.200931	2536.219623
981.498162	2538.624254
981.795356	2541.245654
982.092513	2545.006355
982.389633	2546.271684
982.686717	2550.168496
982.983764	2551.249824
983.280775	2553.110009
983.577749	2554.113199
983.874686	2551.045657
984.171587	2547.594987
984.468451	2546.160779
984.765279	2545.283618
985.062070	2542.047197
985.358824	2542.972249
985.655543	2538.258770
985.952224	2538.568801
986.248869	2539.340098
986.545478	2532.897503
986.842050	2533.671320
987.138586	2534.177956
987.435086	2532.642925
987.731549	2530.379447
988.027975	2536.116280
988.324366	2537.179963
988.620719	2536.133924
988.917037	2535.957483
989.213318	2539.158616
989.509563	2534.366999
989.805772	2536.988399
990.101944	2533.787267
990.398080	2532.819365
990.694180	2533.794828
990.990244	2533.686444
991.286271	2535.216434
991.582262	2534.891279
991.878217	2533.172246
992.174136	2533.656197
992.470019	2532.877338
992.765865	2534.054448
993.061676	2532.824406
993.357450	2535.062679
993.653188	2535.362627
993.948890	2533.530168
994.244556	2533.431865
994.540186	2536.166691
994.835780	2535.377751
995.131337	2534.669469
995.426859	2535.113090
995.722345	2536.459078
996.017795	2536.726259
996.313208	2540.350849
996.608586	2538.430169
996.903928	2536.204500
997.199234	2538.016795
997.494504	2536.693492
997.789738	2539.922351
998.084936	2537.356404
998.380099	2538.604089
998.675225	2535.173584
998.970316	2535.218954
999.265371	2537.031249
999.560390	2535.413039
999.855373	2535.042514
1000.150320	2533.585621
1000.445232	2532.408511
1000.740108	2532.269879
1001.034948	2536.655683
1001.329752	2532.315250
1001.624521	2532.063192
1001.919254	2530.356762
1002.213951	2530.777698
1002.508613	2526.061698
1002.803239	2531.632173
1003.097829	2529.560259
1003.392384	2532.532019
1003.686903	2534.813142
1003.981386	2534.145189
1004.275834	2532.219468
1004.570246	2535.660055
1004.864623	2531.743079
1005.158964	2536.098636
1005.453270	2532.010260
1005.747540	2533.910775
1006.041775	2532.350538
1006.335974	2532.216947
1006.630138	2532.426155
1006.924266	2532.388347
1007.218359	2534.016639
1007.512416	2531.954807
1007.806438	2532.164015
1008.100425	2532.574869
1008.394376	2533.026053
1008.688292	2532.630322
1008.982172	2531.790970
1009.276017	2532.600075
1009.569827	2530.676875
1009.863602	2533.782226
1010.157341	2531.319622
1010.451045	2532.214427
1010.744714	2531.712832
1011.038347	2529.419107
1011.331945	2531.473377
1011.625508	2533.363810
1011.919036	2529.787111
1012.212528	2531.672503
1012.505986	2529.714014
1012.799408	2532.237112
1013.092795	2529.073788
1013.386147	2529.673685
1013.679464	2531.667462
1013.972745	2528.917512
1014.265992	2531.221319
1014.559204	2533.638553
1014.852380	2531.922040
1015.145521	2532.713501
1015.438628	2530.691998
1015.731699	2532.547143
1016.024736	2531.564118
1016.317737	2531.238963
1016.610703	2530.603778
1016.903635	2527.100176
1017.196531	2525.534898
1017.489393	2531.445651
1017.782219	2526.207892
1018.075011	2529.441792
1018.367768	2530.628984
1018.660490	2530.833151
1018.953177	2530.833151
1019.245829	2530.833151
