Dividing Wavelength (nm)	Counts (n)	Blue Motor Position (mm): 2.700000	Red Motor Position (mm): 0.000000	
326.493990	2142.971815
326.888308	2142.971815
327.282561	2142.971815
327.676750	2109.435539
328.070874	2110.605087
328.464933	2113.942330
328.858929	2120.752929
329.252859	2128.271810
329.646726	2141.391413
330.040528	2152.499596
330.434265	2171.386278
330.827938	2187.802796
331.221547	2207.808615
331.615091	2224.313353
332.008571	2244.460324
332.401986	2263.828437
332.795338	2281.258227
333.188625	2302.163892
333.581847	2324.115596
333.975006	2341.744511
334.368100	2358.408045
334.761129	2375.250540
335.154095	2394.001112
335.546996	2411.408216
335.939833	2425.606626
336.332606	2438.998451
336.725315	2451.936572
337.117960	2459.026955
337.510540	2469.434417
337.903056	2479.695686
338.295508	2486.992756
338.687896	2496.719662
339.080220	2504.447751
339.472480	2509.267094
339.864676	2514.338495
340.256807	2520.148425
340.648875	2521.363343
341.040879	2527.314425
341.432818	2526.843077
341.824694	2528.070598
342.216506	2524.882068
342.608253	2531.614529
342.999937	2527.488345
343.391557	2526.704446
343.783113	2526.288550
344.174605	2525.509692
344.566033	2523.732685
344.957397	2525.073632
345.348697	2521.577592
345.739934	2520.034999
346.131106	2516.859072
346.522215	2517.499299
346.913260	2513.592404
347.304241	2512.750532
347.695159	2513.927641
348.086012	2508.450428
348.476802	2507.172495
348.867528	2506.948164
349.258191	2504.488081
349.648789	2504.092350
350.039324	2500.729900
350.429796	2500.137565
350.820203	2500.485404
351.210548	2499.472132
351.600828	2498.670589
351.991045	2497.803511
352.381198	2497.470794
352.771288	2496.578510
353.161314	2496.286123
353.551276	2497.014570
353.941175	2494.095742
354.331010	2496.815444
354.720782	2493.195896
355.110490	2494.751092
355.500135	2491.555000
355.889717	2495.366113
356.279235	2496.875938
356.668689	2497.120434
357.058080	2497.082626
357.447408	2494.909888
357.836672	2494.463746
358.225873	2494.488952
358.615010	2493.508447
359.004084	2497.160763
359.393095	2499.104128
359.782043	2498.403408
360.170927	2497.579179
360.559748	2501.702843
360.948505	2500.432472
361.337199	2503.018584
361.725830	2500.941629
362.114398	2502.804335
362.502903	2500.939108
362.891344	2504.979593
363.279722	2503.847854
363.668037	2504.248626
364.056289	2504.150323
364.444478	2506.565036
364.832603	2503.172339
365.220665	2507.026302
365.608665	2504.800632
365.996601	2506.854902
366.384474	2506.244923
366.772284	2508.526045
367.160031	2506.229799
367.547715	2507.394306
367.935336	2508.596621
368.322893	2508.321878
368.710388	2509.385562
369.097820	2512.085099
369.485189	2512.382527
369.872495	2511.069307
370.259738	2511.371776
370.646918	2508.717609
371.034035	2509.277177
371.421090	2510.252640
371.808081	2510.706344
372.195010	2510.708864
372.581875	2512.241375
372.968678	2510.338340
373.355418	2509.161230
373.742096	2513.864627
374.128710	2509.869512
374.515262	2512.508556
374.901751	2512.349760
375.288177	2511.991838
375.674540	2511.860768
376.060841	2514.895543
376.447079	2512.652229
376.833254	2512.667353
377.219367	2507.853051
377.605417	2512.798423
377.991404	2510.749194
378.377329	2511.291118
378.763191	2509.640140
379.148991	2517.068280
379.534727	2512.861437
379.920402	2516.392765
380.306013	2516.102899
380.691563	2516.397807
381.077049	2513.244565
381.462474	2514.330933
381.847835	2516.574247
382.233134	2515.268588
382.618371	2517.844618
383.003545	2517.869823
383.388657	2517.685821
383.773706	2517.794206
384.158693	2515.714730
384.543618	2516.609535
384.928480	2517.905112
385.313280	2520.178672
385.698017	2518.636079
386.082692	2516.614576
386.467305	2517.544669
386.851856	2518.923425
387.236344	2519.727489
387.620770	2520.942407
388.005133	2519.767818
388.389435	2519.046933
388.773674	2520.831501
389.157851	2517.242200
389.541965	2521.204547
389.926018	2519.445184
390.310008	2519.104906
390.693936	2520.816378
391.077802	2521.307890
391.461606	2522.805113
391.845348	2520.100534
392.229027	2522.815195
392.612645	2520.962571
392.996200	2523.488189
393.379694	2521.756553
393.763125	2521.023065
394.146494	2527.558921
394.529801	2522.784948
394.913047	2522.056502
395.296230	2523.178158
395.679351	2522.258148
396.062410	2524.655217
396.445408	2523.447860
396.828343	2525.129085
397.211217	2520.087931
397.594028	2525.214785
397.976778	2519.881244
398.359466	2520.390400
398.742092	2520.639938
399.124656	2523.268899
399.507158	2527.027079
399.889598	2524.871986
400.271977	2527.014477
400.654294	2525.754188
401.036549	2523.790659
401.418742	2529.202337
401.800874	2524.357788
402.182944	2527.705115
402.564952	2526.306194
402.946898	2528.007584
403.328783	2527.251411
403.710606	2528.693181
404.092367	2529.502286
404.474067	2527.516071
404.855705	2526.850639
405.237282	2528.746113
405.618797	2528.839374
406.000250	2529.446833
406.381642	2530.573531
406.762972	2529.666123
407.144240	2528.967924
407.525447	2528.819210
407.906593	2528.741072
408.287677	2529.305681
408.668700	2530.255938
409.049661	2528.988088
409.430560	2530.167718
409.811399	2528.178983
410.192176	2531.934643
410.572891	2530.495393
410.953545	2529.406504
411.334138	2531.400280
411.714669	2529.555218
412.095139	2528.862059
412.475547	2533.389016
412.855894	2530.601258
413.236180	2530.409694
413.616405	2532.292565
413.996568	2531.241484
414.376670	2531.869108
414.756711	2529.431710
415.136691	2530.744930
415.516609	2530.966741
415.896466	2532.025383
416.276262	2530.394570
416.655997	2526.475073
417.035670	2526.601102
417.415283	2530.074457
417.794834	2527.074970
418.174324	2533.255425
418.553753	2531.548994
418.933121	2532.574869
419.312428	2532.562266
419.691674	2534.707277
420.070859	2532.360620
420.449983	2531.954807
420.829045	2533.958666
421.208047	2533.510003
421.586988	2532.665610
421.965867	2534.336753
422.344686	2533.739376
422.723444	2534.770292
423.102141	2534.049407
423.480777	2534.971938
423.859352	2533.119314
424.237866	2535.733152
424.616319	2536.423790
424.994712	2533.618388
425.373044	2534.369520
425.751314	2535.178625
426.129524	2536.723739
426.507673	2535.866743
426.885762	2535.430683
427.263789	2536.985879
427.641756	2534.366999
428.019662	2536.015457
428.397508	2536.696013
428.775292	2537.946219
429.153016	2534.644263
429.530679	2539.627443
429.908282	2538.588966
430.285824	2536.683410
430.663305	2536.312885
431.040726	2536.176774
431.418086	2537.868081
431.795385	2537.174922
432.172624	2536.398584
432.549802	2537.137113
432.926920	2535.977648
433.303977	2536.990920
433.680974	2538.450334
434.057910	2538.281455
434.434786	2538.099974
434.811601	2538.296579
435.188355	2539.264480
435.565050	2536.980838
435.941683	2541.021322
436.318257	2534.823224
436.694770	2535.637370
437.071222	2539.672814
437.447614	2533.840199
437.823946	2536.091074
438.200218	2537.512679
438.576429	2540.224820
438.952580	2539.821528
439.328670	2541.837989
439.704700	2538.447813
440.080670	2539.309851
440.456580	2539.108205
440.832429	2539.577032
441.208218	2538.989737
441.583947	2538.455375
441.959616	2540.018133
442.335224	2537.963863
442.710773	2537.958822
443.086261	2538.561239
443.461689	2540.192053
443.837057	2540.313040
444.212365	2542.115253
444.587612	2539.153575
444.962800	2540.774306
445.337927	2540.008051
445.712995	2540.595345
446.088002	2543.841848
446.462949	2541.091899
446.837837	2543.199101
447.212664	2540.343287
447.587431	2541.522917
447.962139	2540.008051
448.336786	2544.081303
448.711374	2542.432846
449.085901	2541.452341
449.460369	2540.592824
449.834776	2546.415357
450.209124	2539.821528
450.583412	2542.553833
450.957640	2542.463093
451.331808	2543.867054
451.705917	2540.514687
452.079965	2542.208514
452.453954	2542.198432
452.827883	2541.926210
453.201752	2543.017619
453.575562	2541.250695
453.949311	2542.122815
454.323001	2544.051056
454.696632	2543.599873
455.070202	2545.593649
455.443713	2540.877650
455.817164	2540.733977
456.190556	2539.017464
456.563888	2540.189532
456.937160	2537.074099
457.310373	2542.130376
457.683526	2541.225489
458.056619	2545.177754
458.429653	2542.720191
458.802628	2543.801519
459.175542	2541.714481
459.548398	2544.338402
459.921194	2544.419060
460.293930	2545.286139
460.666607	2545.339071
461.039224	2546.599359
461.411782	2543.073072
461.784280	2544.214893
462.156719	2540.958308
462.529099	2546.407795
462.901419	2544.557692
463.273680	2545.084492
463.645882	2544.161961
464.018024	2547.393341
464.390106	2546.163299
464.762130	2544.595501
465.134094	2545.656663
465.505999	2542.901673
465.877845	2544.731612
466.249631	2546.606921
466.621358	2541.911086
466.993026	2547.471479
467.364634	2548.590615
467.736184	2545.823022
468.107674	2545.361756
468.479105	2543.869574
468.850477	2546.591797
469.221790	2547.181612
469.593043	2545.717157
469.964238	2545.641540
470.335373	2547.189174
470.706449	2547.579864
471.077467	2544.260264
471.448425	2547.347971
471.819324	2545.573484
472.190164	2547.287477
472.560945	2542.989893
472.931667	2542.763041
473.302330	2545.956612
473.672934	2545.696993
474.043479	2546.932075
474.413965	2546.324616
474.784393	2544.046015
475.154761	2543.708257
475.525070	2543.763710
475.895321	2540.857485
476.265513	2542.992414
476.635645	2544.272867
477.005719	2546.546427
477.375734	2547.839483
477.745691	2545.397044
478.115588	2548.174720
478.485427	2546.778320
478.855207	2548.598177
479.224928	2545.273536
479.594591	2548.951058
479.964194	2546.604400
480.333739	2546.788403
480.703226	2547.055584
481.072653	2548.623383
481.442022	2548.298228
481.811333	2548.782179
482.180584	2546.821170
482.549777	2546.700182
482.918912	2547.594987
483.287988	2549.515667
483.657005	2546.150697
484.025964	2548.618341
484.394864	2548.883002
484.763706	2547.587425
485.132489	2547.524411
485.501213	2548.472148
485.869879	2548.671273
486.238487	2545.661705
486.607036	2546.823691
486.975527	2549.608928
487.343959	2546.995090
487.712333	2548.888043
488.080648	2548.411654
488.448905	2545.689431
488.817104	2550.536500
489.185244	2549.863506
489.553326	2547.468958
489.921350	2551.501881
490.289315	2549.278733
490.657222	2545.202960
491.025070	2551.229659
491.392861	2548.719164
491.760593	2546.538865
492.128267	2550.405430
492.495883	2550.594474
492.863440	2548.595656
493.230939	2549.578681
493.598380	2551.416182
493.965763	2545.873433
494.333088	2547.897456
494.700354	2545.127342
495.067563	2549.069525
495.434713	2544.666077
495.801805	2552.232849
496.168839	2548.814946
496.535815	2551.998435
496.902733	2547.733619
497.269593	2548.252858
497.636395	2545.344112
498.003139	2549.878630
498.369825	2548.918290
498.736453	2550.246634
499.103023	2550.027344
499.469535	2549.588763
499.835989	2551.655637
500.202385	2548.346119
500.568723	2550.314690
500.935003	2549.029195
501.301226	2551.348126
501.667390	2547.874771
502.033497	2550.380225
502.399546	2551.602704
502.765537	2551.804351
503.131470	2551.156562
503.497345	2549.503064
503.863163	2552.137067
504.228923	2550.110523
504.594625	2548.860317
504.960269	2548.799823
505.325856	2549.021634
505.691385	2550.420554
506.056856	2549.772766
506.422270	2551.358208
506.787625	2549.989535
507.152924	2549.208156
507.518164	2549.956768
507.883347	2548.905687
508.248472	2551.466593
508.613540	2553.420040
508.978550	2549.992056
509.343503	2551.527087
509.708398	2550.758311
510.073236	2549.291335
510.438016	2550.508774
510.802738	2548.008362
511.167403	2550.677653
511.532010	2549.243444
511.896561	2549.704710
512.261053	2551.204453
512.625488	2548.230173
512.989866	2545.873433
513.354186	2548.610780
513.718449	2546.450645
514.082655	2549.815615
514.446803	2552.726882
514.810894	2550.039947
515.174927	2550.758311
515.538904	2551.212015
515.902822	2551.978270
516.266684	2550.743188
516.630488	2552.290822
516.994235	2548.910728
517.357925	2550.838970
517.721558	2552.295863
518.085133	2550.627241
518.448651	2550.813764
518.812112	2549.359391
519.175516	2552.754608
519.538863	2551.736295
519.902152	2554.400545
520.265385	2552.308466
520.628560	2550.798640
520.991678	2551.559855
521.354739	2551.325441
521.717743	2550.717982
522.080690	2552.028682
522.443580	2552.958775
522.806413	2548.308310
523.169189	2553.752757
523.531908	2552.752088
523.894569	2554.874413
524.257174	2553.979608
524.619722	2550.833928
524.982213	2552.464742
525.344647	2551.559855
525.707025	2549.815615
526.069345	2552.242931
526.431608	2551.917777
526.793815	2551.269988
527.155964	2550.667570
527.518057	2546.921993
527.880093	2552.744526
528.242072	2548.840152
528.603995	2553.924156
528.965860	2551.527087
529.327669	2553.843497
529.689421	2550.869217
530.051117	2552.709238
530.412755	2551.917777
530.774337	2549.024154
531.135862	2551.438867
531.497331	2549.790410
531.858743	2547.847045
532.220098	2549.089689
532.581396	2547.721016
532.942638	2546.674977
533.303824	2553.142777
533.664953	2551.781665
534.026025	2553.470452
534.387040	2551.448949
534.747999	2549.888712
535.108902	2554.576985
535.469748	2550.748229
535.830537	2552.777293
536.191270	2551.829556
536.551947	2552.285781
536.912567	2552.575647
537.273131	2553.488096
537.633638	2551.151521
537.994089	2553.140256
538.354483	2552.114382
538.714821	2553.934238
539.075103	2552.033723
539.435328	2552.008517
539.795497	2551.517005
540.155609	2552.517674
540.515665	2551.829556
540.875665	2555.933056
541.235609	2551.403579
541.595496	2554.874413
541.955328	2551.761501
542.315102	2551.580019
542.674821	2551.673281
543.034483	2552.510112
543.394090	2551.857283
543.753640	2553.752757
544.113134	2550.975081
544.472571	2552.200081
544.831953	2555.683518
545.191278	2550.813764
545.550548	2552.986501
545.909761	2550.753270
546.268918	2551.940462
546.628019	2551.852242
546.987064	2553.210832
547.346053	2553.757798
547.704986	2551.753939
548.063863	2553.294012
548.422684	2553.800647
548.781449	2551.998435
549.140158	2552.225287
549.498811	2554.962633
549.857408	2555.766698
550.215949	2551.146480
550.574434	2549.089689
550.932864	2549.646737
551.291237	2546.402754
551.649555	2550.352498
552.007817	2551.254865
552.366022	2556.369115
552.724173	2550.566747
553.082267	2554.519012
553.440305	2550.208825
553.798288	2555.265103
554.156215	2554.576985
554.514086	2552.734443
554.871902	2551.446429
555.229661	2553.402396
555.587365	2552.172355
555.945014	2554.677808
556.302606	2550.604556
556.660143	2551.380894
557.017625	2553.364588
557.375050	2552.983981
557.732421	2552.747046
558.089735	2554.947510
558.446994	2553.041954
558.804197	2550.995245
559.161345	2553.092365
559.518437	2552.555483
559.875474	2552.840308
560.232455	2551.867365
560.589381	2554.692932
560.946251	2553.488096
561.303065	2552.038764
561.659825	2552.915925
562.016528	2553.130174
562.373177	2551.504402
562.729770	2552.152190
563.086307	2552.079093
563.442789	2552.989022
563.799216	2554.156049
564.155587	2553.450287
564.511904	2554.922304
564.868164	2555.766697
565.224370	2551.968188
565.580520	2555.391132
565.936615	2551.983312
566.292654	2553.452808
566.648638	2551.572458
567.004567	2552.321069
567.360441	2551.874927
567.716260	2554.019938
568.072023	2552.563044
568.427732	2546.569112
568.783385	2550.034906
569.138982	2548.696479
569.494525	2551.118754
569.850013	2550.440718
570.205445	2553.954403
570.560823	2552.091696
570.916145	2552.353836
571.271412	2550.735626
571.626625	2554.980277
571.981782	2554.377860
572.336884	2553.064639
572.691931	2554.556821
573.046923	2553.551110
573.401860	2553.460370
573.756743	2553.422561
574.111570	2552.575647
574.466342	2554.410627
574.821059	2553.062118
575.175722	2552.552962
575.530330	2553.276368
575.884882	2554.332489
576.239380	2550.297046
576.593823	2554.198899
576.948211	2552.915925
577.302544	2553.568754
577.656823	2551.743857
578.011047	2551.902653
578.365216	2555.491955
578.719330	2554.476162
579.073389	2552.812581
579.427394	2553.818292
579.781344	2552.938610
580.135239	2554.019938
580.489080	2552.704197
580.842866	2552.366439
581.196597	2555.706204
581.550273	2553.208312
581.903895	2552.464742
582.257463	2552.011038
582.610975	2554.440874
582.964434	2556.013714
583.317837	2552.467262
583.671186	2553.934238
584.024481	2555.509599
584.377721	2554.907181
584.730906	2555.164280
585.084037	2552.759649
585.437113	2553.409958
585.790135	2554.519012
586.143103	2551.905174
586.496016	2554.665205
586.848874	2548.356201
587.201679	2552.870555
587.554428	2551.963147
587.907124	2554.697973
588.259765	2549.916438
588.612352	2553.916594
588.964884	2554.254351
589.317362	2554.443395
589.669786	2554.728220
590.022155	2557.337017
590.374470	2553.503219
590.726731	2552.497509
591.078937	2552.510112
591.431090	2555.449105
591.783188	2552.704197
592.135232	2553.707386
592.487222	2553.898950
592.839157	2555.353323
593.191038	2553.898950
593.542866	2554.216543
593.894639	2552.711758
594.246358	2551.766542
594.598022	2553.190668
594.949633	2554.274516
595.301190	2555.265103
595.652692	2554.967675
596.004141	2553.067160
596.355535	2553.709907
596.706876	2555.824671
597.058162	2553.006666
597.409395	2553.102448
597.760573	2553.508261
598.111698	2555.217212
598.462768	2553.462890
598.813785	2553.341903
599.164748	2553.072201
599.515657	2552.951213
599.866511	2550.725544
600.217312	2552.469783
600.568060	2553.679660
600.918753	2555.945658
601.269392	2553.772921
601.619978	2556.076728
601.970510	2555.617983
602.320988	2555.272664
602.671412	2555.844835
603.021783	2552.295863
603.372100	2555.610422
603.722363	2554.067829
604.072572	2554.788714
604.422728	2554.115720
604.772830	2551.136398
605.122878	2549.611449
605.472872	2550.181099
605.822813	2548.215049
606.172701	2550.050029
606.522534	2551.519525
606.872314	2555.479352
607.222041	2554.400545
607.571714	2552.512633
607.921333	2553.563713
608.270899	2552.338713
608.620411	2555.963302
608.969870	2553.004145
609.319276	2557.047151
609.668627	2557.906667
610.017926	2560.475135
610.367171	2560.543191
610.716362	2560.558314
611.065500	2558.935063
611.414585	2562.945301
611.763616	2554.400545
612.112594	2554.249310
612.461518	2556.038920
612.810389	2554.408107
613.159207	2557.062274
613.507971	2553.967006
613.856682	2554.448436
614.205340	2552.807540
614.553945	2554.811399
614.902496	2552.568085
615.250994	2554.392983
615.599439	2554.140925
615.947830	2552.956254
616.296169	2553.115051
616.644454	2555.174362
616.992686	2555.113868
617.340864	2555.862479
617.688990	2556.051523
618.037063	2551.829556
618.385082	2553.409958
618.733048	2554.894578
619.080961	2552.126984
619.428821	2555.595298
619.776628	2553.583878
620.124382	2554.357695
620.472083	2553.815771
620.819731	2557.402552
621.167326	2552.996583
621.514868	2555.718807
621.862357	2555.023127
622.209793	2554.813919
622.557176	2553.359547
622.904506	2552.394166
623.251783	2550.410472
623.599007	2552.522715
623.946179	2547.221942
624.293297	2552.442057
624.640363	2552.215205
624.987376	2554.085473
625.334336	2550.324772
625.681243	2555.943138
626.028097	2553.346944
626.374899	2553.089845
626.721647	2556.001111
627.068343	2553.130174
627.414987	2550.380225
627.761577	2555.040771
628.108115	2552.230328
628.454600	2556.200237
628.801032	2555.406255
629.147412	2556.759805
629.493739	2554.322407
629.840014	2554.531615
630.186236	2550.854093
630.532405	2553.145298
630.878521	2553.266285
631.224585	2552.956254
631.570597	2552.114382
631.916556	2552.754608
632.262462	2553.183106
632.608316	2552.338713
632.954117	2551.837118
633.299866	2556.391801
633.645562	2553.719989
633.991206	2552.767211
634.336797	2552.116902
634.682336	2551.494320
635.027823	2551.990873
635.373257	2553.936759
635.718639	2552.328631
636.063968	2554.314845
636.409245	2554.208981
636.754470	2553.241079
637.099642	2553.901471
637.444762	2552.807540
637.789829	2549.137580
638.134845	2552.787376
638.479808	2554.796275
638.824719	2553.379711
639.169577	2553.276367
639.514383	2551.748898
639.859137	2553.480534
640.203839	2553.684701
640.548489	2555.809547
640.893086	2551.128836
641.237632	2549.639175
641.582125	2551.401058
641.926566	2546.548948
642.270955	2555.096224
642.615292	2552.300904
642.959576	2554.887016
643.303809	2552.827705
643.647990	2554.231666
643.992118	2552.648744
644.336195	2552.966337
644.680219	2552.936090
645.024192	2552.089176
645.368112	2552.563044
645.711981	2554.745864
646.055797	2551.829556
646.399562	2554.284598
646.743274	2552.275698
647.086935	2553.291491
647.430544	2554.392983
647.774101	2551.867365
648.117606	2554.294681
648.461059	2553.755277
648.804460	2556.230484
649.147810	2553.372149
649.491108	2554.335010
649.834354	2551.829556
650.177548	2554.592109
650.520690	2554.398024
650.863781	2552.961295
651.206820	2555.471790
651.549807	2550.234031
651.892742	2552.520194
652.235626	2554.125802
652.578458	2551.388455
652.921238	2555.063457
653.263967	2553.480534
653.606644	2552.111861
653.949269	2554.582026
654.291843	2552.457180
654.634365	2552.245452
654.976836	2551.375853
655.319255	2555.048333
655.661622	2549.094730
656.003938	2552.384083
656.346203	2552.071532
656.688416	2555.985988
657.030577	2551.887530
657.372687	2551.852242
657.714746	2551.378373
658.056753	2552.661347
658.398708	2547.756304
658.740612	2551.390976
659.082465	2546.962322
659.424266	2550.493651
659.766016	2550.057591
660.107715	2552.603373
660.449362	2549.671943
660.790958	2555.491955
661.132503	2553.089845
661.473996	2552.903322
661.815438	2554.271995
662.156829	2552.681511
662.498168	2553.762839
662.839456	2553.737633
663.180693	2553.097407
663.521879	2553.606563
663.863013	2552.424413
664.204097	2554.140925
664.545129	2553.840977
664.886110	2553.684701
665.227040	2550.627241
665.567918	2553.170503
665.908746	2549.682025
666.249522	2553.689742
666.590248	2554.778631
666.930922	2554.413148
667.271545	2554.128322
667.612118	2552.860472
667.952639	2550.632282
668.293109	2552.477345
668.633528	2553.251162
668.973896	2550.178578
669.314213	2551.741336
669.654480	2553.152859
669.994695	2551.058260
670.334859	2553.183106
670.674973	2551.078424
671.015035	2548.772097
671.355047	2551.113713
671.695008	2553.369629
672.034918	2555.585216
672.374777	2551.322920
672.714585	2553.107489
673.054342	2552.391645
673.394049	2551.600184
673.733705	2552.005997
674.073310	2553.445246
674.412864	2554.002294
674.752368	2555.799465
675.091820	2552.489948
675.431223	2552.749567
675.770574	2553.679660
676.109875	2547.489123
676.449125	2549.281253
676.788324	2549.452652
677.127473	2548.618341
677.466571	2545.956612
677.805619	2553.798127
678.144616	2549.082127
678.483562	2554.511450
678.822458	2554.390462
679.161303	2556.008673
679.500098	2552.873075
679.838842	2554.788714
680.177535	2553.319217
680.516179	2551.809392
680.854771	2551.358208
681.193314	2550.171017
681.531805	2551.796789
681.870247	2553.407438
682.208638	2553.034392
682.546978	2554.032541
682.885268	2551.426264
683.223508	2554.037582
683.561697	2553.288970
683.899836	2550.511295
684.237925	2553.538507
684.575963	2548.953578
684.913951	2555.973385
685.251889	2554.423230
685.589776	2551.847200
685.927614	2552.381563
686.265401	2552.832746
686.603137	2554.297201
686.940824	2552.411810
687.278460	2553.606563
687.616046	2552.757129
687.953582	2552.230328
688.291068	2553.241079
688.628504	2551.698486
688.965889	2551.199412
689.303224	2552.484906
689.640510	2553.036913
689.977745	2551.078424
690.314930	2551.806871
690.652065	2552.890719
690.989150	2551.224618
691.326185	2551.380894
691.663170	2551.312838
692.000105	2551.806871
692.336990	2554.521532
692.673825	2553.306614
693.010610	2550.082797
693.347345	2549.238403
693.684030	2550.942313
694.020665	2549.503064
694.357251	2547.426108
694.693786	2550.675132
695.030272	2552.066491
695.366707	2552.754608
695.703093	2553.488096
696.039429	2553.369629
696.375716	2551.441387
696.711952	2552.860472
697.048139	2552.505071
697.384276	2552.981460
697.720363	2551.829556
698.056400	2552.447098
698.392388	2551.655637
698.728326	2552.000956
699.064214	2553.193188
699.400053	2552.777293
699.735842	2552.351316
700.071581	2551.254865
700.407270	2552.835267
700.742910	2551.615307
701.078501	2547.365615
701.414042	2551.388455
701.749533	2554.219063
702.084974	2553.495658
702.420366	2551.365770
702.755709	2550.294525
703.091002	2550.082797
703.426246	2552.177396
703.761440	2552.817622
704.096584	2553.861141
704.431679	2551.648075
704.766725	2551.602704
705.101721	2551.038095
705.436668	2553.568754
705.771565	2552.830225
706.106413	2551.151521
706.441212	2551.106151
706.775961	2551.698486
707.110661	2549.989535
707.445311	2551.325441
707.779913	2550.836449
708.114465	2553.102448
708.448967	2553.412479
708.783421	2553.294012
709.117825	2550.055070
709.452180	2554.206460
709.786485	2552.167314
710.120742	2552.878116
710.454949	2551.983312
710.789107	2548.555327
711.123216	2548.709082
711.457275	2548.643547
711.791286	2548.898125
712.125247	2549.407282
712.459159	2551.993394
712.793023	2551.196892
713.126837	2552.449618
713.460602	2552.666388
713.794318	2549.520708
714.127985	2547.998279
714.461602	2551.824515
714.795171	2548.557848
715.128691	2551.645554
715.462162	2551.426264
715.795584	2552.361398
716.128957	2554.758467
716.462281	2552.066491
716.795556	2551.637993
717.128782	2552.696635
717.461960	2551.428785
717.795088	2550.410472
718.128167	2554.087993
718.461198	2547.834442
718.794180	2550.367622
719.127113	2550.904505
719.459997	2552.318548
719.792833	2549.021634
720.125619	2551.580019
720.458357	2551.900132
720.791046	2552.333672
721.123686	2550.105482
721.456278	2553.445246
721.788821	2551.267468
722.121315	2551.383414
722.453761	2548.905687
722.786158	2549.598846
723.118506	2553.225956
723.450805	2552.515153
723.783056	2553.515822
724.115259	2550.362581
724.447412	2549.462735
724.779518	2552.192519
725.111574	2552.802499
725.443582	2551.837118
725.775542	2551.403579
726.107453	2549.742519
726.439315	2549.989535
726.771129	2553.946841
727.102895	2548.605738
727.434612	2548.721685
727.766281	2553.334341
728.097901	2547.153886
728.429473	2543.657846
728.760996	2547.317724
729.092471	2546.596839
729.423897	2549.868547
729.755276	2550.196222
730.086606	2550.934752
730.417887	2549.692107
730.749120	2549.624052
731.080305	2550.602035
731.411442	2551.464073
731.742530	2552.071532
732.073570	2549.636654
732.404562	2550.944834
732.735506	2550.062632
733.066401	2552.802499
733.397249	2550.249155
733.728048	2554.385421
734.058798	2550.453321
734.389501	2554.294681
734.720156	2551.522046
735.050762	2552.384083
735.381320	2552.426933
735.711831	2550.317210
736.042293	2551.789227
736.372707	2547.897456
736.703073	2552.154711
737.033391	2551.363250
737.363661	2550.544062
737.693883	2550.153373
738.024056	2553.765359
738.354182	2554.614794
738.684260	2550.997766
739.014290	2546.874102
739.344272	2550.967519
739.674207	2550.284443
740.004093	2551.859803
740.333931	2550.143290
740.663722	2549.135060
740.993464	2551.380894
741.323159	2550.385266
741.652806	2549.540872
741.982405	2552.941131
742.311956	2550.778476
742.641460	2550.337375
742.970915	2550.223949
743.300323	2550.435677
743.629683	2551.128836
743.958996	2550.276881
744.288260	2551.234700
744.617477	2550.964998
744.946647	2547.723537
745.275768	2549.561037
745.604842	2545.891077
745.933869	2548.804864
746.262847	2546.276725
746.591778	2551.668239
746.920662	2549.878630
747.249498	2548.575492
747.578286	2548.149514
747.907027	2552.694114
748.235720	2550.355019
748.564365	2551.968188
748.892963	2548.376366
749.221514	2548.436860
749.550017	2550.198743
749.878473	2549.472817
750.206881	2551.791748
750.535242	2552.431974
750.863555	2547.970553
751.191821	2547.806716
751.520039	2551.128836
751.848210	2549.581202
752.176334	2548.290666
752.504411	2553.359547
752.832440	2551.128836
753.160421	2551.083466
753.488356	2551.658157
753.816243	2550.309648
754.144082	2548.787220
754.471875	2549.341747
754.799620	2549.866027
755.127318	2549.435008
755.454969	2550.823846
755.782572	2551.945503
756.110129	2548.890564
756.437638	2550.912066
756.765100	2551.363250
757.092515	2548.734288
757.419882	2549.540872
757.747203	2551.756460
758.074477	2547.436191
758.401703	2549.369473
758.728882	2550.775955
759.056014	2553.135215
759.383099	2550.607077
759.710138	2550.337375
760.037129	2550.012220
760.364073	2552.305945
760.690970	2550.801161
761.017820	2550.498692
761.344623	2549.308979
761.671379	2549.636654
761.998088	2546.034750
762.324751	2546.344781
762.651366	2547.002652
762.977935	2547.534493
763.304456	2546.548948
763.630931	2552.197561
763.957359	2550.407951
764.283740	2550.627241
764.610074	2548.867878
764.936362	2548.877961
765.262602	2550.619679
765.588796	2550.148332
765.914943	2551.411141
766.241044	2549.495502
766.567097	2548.250337
766.893104	2549.805533
767.219064	2548.653629
767.544978	2550.037426
767.870845	2550.178578
768.196665	2550.483568
768.522438	2546.924514
768.848165	2550.203784
769.173846	2550.760832
769.499479	2550.788558
769.825066	2546.818649
770.150607	2548.522559
770.476101	2551.093548
770.801548	2552.434495
771.126949	2549.886192
771.452303	2550.108002
771.777611	2550.009700
772.102872	2550.765873
772.428087	2547.665563
772.753256	2549.876109
773.078378	2552.701676
773.403453	2548.514998
773.728482	2547.927703
774.053465	2548.063814
774.378401	2549.261088
774.703291	2550.735626
775.028135	2550.123126
775.352932	2549.533311
775.677683	2547.932744
776.002388	2551.620348
776.327046	2547.410985
776.651658	2550.191181
776.976224	2548.603218
777.300743	2550.234031
777.625216	2550.594474
777.949643	2550.264278
778.274024	2548.719164
778.598359	2545.598690
778.922647	2546.201108
779.246889	2548.129349
779.571086	2544.913093
779.895236	2548.754453
780.219339	2548.575492
780.543397	2547.957950
780.867409	2548.189843
781.191374	2549.931562
781.515294	2549.790410
781.839167	2548.217570
782.162995	2550.236552
782.486776	2550.526418
782.810511	2550.385266
783.134201	2547.753783
783.457844	2548.696479
783.781441	2548.283105
784.104993	2545.563402
784.428498	2548.540203
784.751958	2546.992569
785.075372	2548.956099
785.398739	2549.218239
785.722061	2548.560368
786.045337	2549.523228
786.368568	2549.266130
786.691752	2550.667570
787.014891	2550.140770
787.337983	2549.399720
787.661030	2551.232180
787.984031	2550.385266
788.306987	2549.276212
788.629897	2549.450132
788.952760	2552.031203
789.275579	2547.988197
789.598351	2549.891233
789.921078	2547.597508
790.243759	2546.188505
790.566395	2547.693290
790.888984	2547.577343
791.211529	2547.257230
791.534027	2549.770245
791.856480	2547.239586
792.178888	2549.629093
792.501249	2550.453321
792.823566	2550.274360
793.145836	2547.322765
793.468062	2546.682538
793.790241	2551.605225
794.112375	2548.603218
794.434464	2548.270502
794.756507	2548.288146
795.078505	2548.966181
795.400457	2543.042825
795.722364	2545.361756
796.044226	2548.678835
796.366042	2544.908052
796.687812	2545.326468
797.009538	2550.362581
797.331218	2548.827549
797.652852	2548.101623
797.974442	2545.702034
798.295986	2546.816129
798.617484	2549.326623
798.938938	2549.613969
799.260346	2549.399720
799.581709	2548.008362
799.903026	2551.892571
800.224299	2549.324103
800.545526	2548.313352
800.866708	2545.389482
801.187845	2549.936603
801.508936	2549.195553
801.829983	2548.499874
802.150984	2547.577343
802.471940	2550.813764
802.792851	2550.705379
803.113717	2549.745039
803.434538	2547.148845
803.755314	2548.913249
804.076045	2548.131870
804.396731	2548.421736
804.717372	2548.220090
805.037967	2548.986346
805.358518	2548.877961
805.679024	2547.773948
805.999485	2548.973743
806.319901	2548.608259
806.640272	2547.962991
806.960598	2547.022816
807.280879	2548.963660
807.601115	2546.435522
807.921306	2548.721685
808.241453	2548.981304
808.561554	2547.315203
808.881611	2548.459545
809.201623	2548.968702
809.521590	2548.797302
809.841513	2549.172868
810.161390	2547.915100
810.481223	2548.298228
810.801011	2549.041798
811.120755	2548.061294
811.440453	2550.569268
811.760107	2548.487271
812.079716	2545.220604
812.399281	2543.279759
812.718801	2546.077600
813.038276	2544.398896
813.357707	2547.131201
813.677093	2547.882333
813.996434	2549.402241
814.315731	2547.438711
814.634983	2550.289484
814.954191	2548.157076
815.273354	2549.036757
815.592473	2547.105995
815.911547	2549.180430
816.230577	2545.139945
816.549562	2549.543393
816.868502	2549.092210
817.187399	2547.305121
817.506250	2545.949050
817.825058	2546.735470
818.143821	2546.801005
818.462539	2548.572971
818.781213	2549.729916
819.099843	2550.564227
819.418429	2547.345450
819.736970	2551.776624
820.055466	2546.967363
820.373919	2548.217570
820.692327	2549.785368
821.010691	2547.479041
821.329011	2548.051212
821.647286	2547.660522
821.965517	2546.201108
822.283704	2546.831252
822.601847	2543.743546
822.919945	2550.082797
823.237999	2546.392672
823.556010	2546.380069
823.873976	2546.707744
824.191897	2548.653629
824.509775	2548.167158
824.827609	2548.018444
825.145398	2547.501726
825.463144	2550.725544
825.780845	2545.767569
826.098502	2548.391489
826.416116	2548.124308
826.733685	2549.392158
827.051210	2545.467620
827.368692	2545.354194
827.686129	2549.805533
828.003522	2548.346119
828.320872	2542.959646
828.638177	2545.961653
828.955439	2544.298072
829.272656	2545.097095
829.589830	2543.660367
829.906960	2547.975594
830.224046	2547.451314
830.541088	2549.341747
830.858086	2546.783361
831.175041	2550.907025
831.491952	2547.393341
831.808819	2549.578681
832.125642	2546.506098
832.442421	2547.534493
832.759157	2547.690769
833.075849	2546.128011
833.392497	2550.985163
833.709101	2548.192364
834.025662	2547.078269
834.342179	2547.473999
834.658653	2547.133722
834.975083	2547.436191
835.291469	2551.317879
835.607811	2548.749411
835.924110	2548.141952
836.240366	2548.237734
836.556578	2546.435522
836.872746	2549.485420
837.188871	2547.637837
837.504952	2549.946685
837.820990	2548.588094
838.136984	2547.393341
838.452935	2546.168341
838.768842	2547.932744
839.084706	2547.476520
839.400526	2548.923331
839.716303	2544.797147
840.032037	2547.582384
840.347727	2547.635316
840.663373	2547.262271
840.978977	2546.889226
841.294537	2546.828732
841.610054	2545.873433
841.925527	2550.541542
842.240957	2544.933258
842.556344	2547.237065
842.871687	2547.375697
843.186987	2547.370656
843.502244	2546.730429
843.817458	2548.724206
844.132629	2547.658002
844.447756	2545.568443
844.762840	2544.209852
845.077881	2541.585932
845.392879	2543.345294
845.707833	2546.785882
846.022745	2541.958977
846.337613	2548.431819
846.652438	2547.098433
846.967221	2546.059956
847.281960	2548.139432
847.596656	2548.615821
847.911309	2549.067004
848.225919	2547.441232
848.540485	2549.823177
848.855009	2545.603731
849.169490	2547.970553
849.483928	2547.932744
849.798323	2544.119112
850.112675	2548.376366
850.426984	2545.054246
850.741251	2547.353012
851.055474	2546.559030
851.369654	2547.484082
851.683792	2546.667415
851.997887	2547.332847
852.311938	2547.174051
852.625947	2547.899977
852.939914	2546.155738
853.253837	2548.686397
853.567718	2547.284956
853.881555	2544.469472
854.195350	2546.085162
854.509103	2547.577343
854.822812	2547.373176
855.136479	2547.100954
855.450103	2545.321427
855.763685	2546.291849
856.077224	2546.624565
856.390720	2547.506767
856.704173	2547.337888
857.017584	2550.775955
857.330953	2549.371994
857.644278	2546.521221
857.957561	2549.172868
858.270802	2545.323947
858.584000	2548.615821
858.897155	2544.640871
859.210268	2545.724719
859.523339	2547.816798
859.836367	2545.810419
860.149352	2547.748742
860.462295	2547.602549
860.775195	2544.469472
861.088054	2543.549461
861.400869	2546.503577
861.713642	2541.764893
862.026373	2545.543237
862.339062	2544.782023
862.651708	2546.642209
862.964312	2546.102806
863.276873	2546.823691
863.589392	2547.363094
863.901869	2544.792106
864.214303	2548.086500
864.526696	2548.096582
864.839045	2547.466438
865.151353	2544.517363
865.463619	2546.082641
865.775842	2546.700182
866.088023	2547.080789
866.400162	2547.489123
866.712258	2547.416026
867.024313	2545.245809
867.336325	2545.941489
867.648296	2545.908721
867.960224	2547.592467
868.272110	2548.822508
868.583954	2547.005172
868.895755	2544.247661
869.207515	2547.600028
869.519233	2546.087682
869.830909	2546.296890
870.142542	2547.295038
870.454134	2547.910059
870.765684	2546.125491
871.077191	2544.272867
871.388657	2545.432332
871.700081	2548.845193
872.011463	2547.658002
872.322803	2543.330171
872.634101	2544.603062
872.945357	2545.880995
873.256571	2547.920142
873.567744	2545.626417
873.878874	2543.826725
874.189963	2544.749256
874.501010	2546.997610
874.812015	2547.398382
875.122979	2545.240768
875.433900	2547.645399
875.744780	2545.341591
876.055618	2544.161961
876.366415	2547.945347
876.677169	2547.615152
876.987882	2547.393341
877.298554	2541.238092
877.609183	2542.747918
877.919771	2539.408153
878.230317	2544.459389
878.540822	2548.512477
878.851285	2543.546941
879.161707	2545.586087
879.472087	2547.766386
879.782425	2545.321427
880.092722	2547.065666
880.402977	2543.685572
880.713191	2547.766386
881.023363	2547.698331
881.333494	2547.204298
881.643583	2545.981818
881.953631	2548.119267
882.263637	2547.499205
882.573602	2544.764379
882.883526	2548.802343
883.193408	2545.321427
883.503248	2545.081972
883.813048	2546.629606
884.122806	2547.020296
884.432522	2546.037271
884.742197	2542.097609
885.051831	2544.209852
885.361424	2544.872764
885.670975	2545.772610
885.980485	2542.821014
886.289954	2545.364277
886.599382	2548.353681
886.908768	2546.329657
887.218113	2546.606921
887.527417	2544.976108
887.836680	2548.336037
888.145901	2547.557178
888.455082	2546.211190
888.764221	2545.573484
889.073319	2546.813608
889.382376	2546.188505
889.691392	2545.049204
890.000366	2547.718495
890.309300	2548.167158
890.618193	2547.214380
890.927044	2545.576005
891.235855	2547.413506
891.544625	2548.424257
891.853353	2545.487785
892.162041	2546.760676
892.470687	2546.710265
892.779293	2547.842004
893.087858	2542.453010
893.396381	2541.906045
893.704864	2543.252033
894.013306	2539.917310
894.321707	2544.345963
894.630068	2544.219935
894.938387	2545.341591
895.246665	2543.378062
895.554903	2545.545758
895.863100	2547.680687
896.171256	2547.413506
896.479371	2543.685572
896.787446	2546.107847
897.095480	2545.628937
897.403473	2544.202291
897.711425	2542.974770
898.019336	2546.823691
898.327207	2545.974256
898.635038	2545.190357
898.942827	2544.862682
899.250576	2545.661705
899.558284	2544.769420
899.865952	2546.576674
900.173579	2544.966025
900.481165	2546.168341
900.788711	2544.895449
901.096216	2545.081972
901.403681	2545.913762
901.711105	2548.590615
902.018489	2543.458720
902.325832	2548.202446
902.633135	2544.940820
902.940397	2546.299411
903.247619	2544.870243
903.554800	2549.533311
903.861941	2546.548948
904.169041	2546.697662
904.476101	2545.215562
904.783121	2547.531973
905.090100	2544.414019
905.397039	2547.136242
905.703938	2544.824873
906.010796	2546.322096
906.317614	2547.836962
906.624391	2544.053577
906.931129	2548.056253
907.237826	2544.338402
907.544483	2543.002496
907.851099	2544.638350
908.157675	2545.865871
908.464211	2545.470141
908.770707	2539.057793
909.077163	2543.055428
909.383578	2541.507794
909.689954	2542.110212
909.996289	2539.571991
910.302584	2546.211190
910.608839	2546.163299
910.915054	2544.600542
911.221229	2544.751776
911.527363	2547.360573
911.833458	2546.473330
912.139513	2546.080120
912.445527	2544.330840
912.751502	2545.074410
913.057436	2544.421581
913.363331	2549.513146
913.669186	2545.686910
913.975000	2546.488454
914.280775	2543.788916
914.586510	2545.444935
914.892205	2544.734132
915.197859	2544.711447
915.503475	2545.238248
915.809050	2544.318237
916.114585	2546.155738
916.420081	2544.398896
916.725536	2548.177240
917.030952	2545.621375
917.336328	2547.370656
917.641665	2546.082641
917.946961	2545.770089
918.252218	2544.328319
918.557435	2543.652805
918.862612	2548.441901
919.167750	2545.192877
919.472848	2545.644061
919.777906	2545.359235
920.082925	2546.518701
920.387904	2546.969884
920.692843	2544.416540
920.997743	2547.373176
921.302603	2544.209852
921.607423	2546.039791
921.912204	2543.131045
922.216946	2544.608103
922.521647	2548.754452
922.826310	2545.518032
923.130932	2546.274205
923.435516	2546.092723
923.740059	2545.671787
924.044564	2542.105171
924.349028	2547.191695
924.653454	2544.650953
924.957840	2543.264636
925.262186	2541.124666
925.566493	2545.218083
925.870761	2540.406302
926.174989	2545.576005
926.479178	2546.163299
926.783328	2542.047197
927.087438	2544.446787
927.391509	2542.127856
927.695541	2546.334699
927.999533	2544.787064
928.303486	2542.102650
928.607400	2544.812270
928.911275	2544.356046
929.215110	2544.343443
929.518906	2544.403937
929.822663	2545.427291
930.126381	2544.950902
930.430060	2544.444266
930.733699	2540.731456
931.037299	2544.381252
931.340861	2546.218752
931.644383	2544.345963
931.947866	2545.190357
932.251309	2545.407126
932.554714	2546.417878
932.858080	2544.305634
933.161407	2544.151879
933.464694	2545.603731
933.767943	2543.473844
934.071153	2544.872764
934.374323	2544.918134
934.677455	2544.318237
934.980548	2544.482075
935.283602	2546.130532
935.586617	2542.805891
935.889593	2545.835624
936.192530	2544.653474
936.495428	2545.765048
936.798287	2543.945192
937.101108	2545.480223
937.403890	2545.356715
937.706632	2548.141952
938.009336	2542.158103
938.312002	2546.775800
938.614628	2543.108360
938.917216	2547.239586
939.219765	2543.176416
939.522275	2545.276056
939.824747	2545.308824
940.127179	2540.204656
940.429573	2541.911086
940.731929	2543.826725
941.034246	2539.239275
941.336524	2542.750438
941.638763	2543.551982
941.940964	2545.971736
942.243126	2543.695655
942.545250	2547.504246
942.847335	2544.194729
943.149381	2543.625078
943.451389	2546.049873
943.753359	2544.557692
944.055290	2544.431663
944.357182	2544.535007
944.659036	2544.179605
944.960851	2545.442414
945.262628	2545.598690
945.564367	2544.351005
945.866067	2544.582898
946.167729	2545.298742
946.469352	2542.934440
946.770937	2544.933258
947.072484	2544.782023
947.373992	2544.315717
947.675462	2543.809081
947.976893	2544.151879
948.278286	2542.720191
948.579641	2545.593649
948.880958	2544.565254
949.182236	2546.634647
949.483476	2545.165151
949.784678	2544.804708
950.085841	2545.054246
950.386967	2544.678680
950.688054	2542.707588
950.989103	2544.761859
951.290114	2541.104502
951.591087	2543.330171
951.892021	2543.791437
952.192917	2546.175902
952.493776	2544.787064
952.794596	2544.872764
953.095378	2547.582384
953.396122	2544.368649
953.696828	2544.136756
953.997496	2546.080120
954.298126	2544.683721
954.598718	2543.892260
954.899272	2545.029040
955.199788	2543.065510
955.500266	2545.339071
955.800706	2544.272867
956.101108	2540.222300
956.401472	2542.155582
956.701798	2541.787578
957.002087	2541.101981
957.302337	2542.999975
957.602550	2545.727240
957.902724	2545.066848
958.202861	2544.207332
958.502960	2544.877805
958.803022	2545.752445
959.103045	2543.594832
959.403031	2543.718340
959.702979	2542.571477
960.002889	2545.081972
960.302762	2544.013247
960.602596	2543.282280
960.902393	2543.567105
961.202153	2543.607434
961.501875	2546.133052
961.801559	2543.594832
962.101205	2545.132383
962.400814	2544.608103
962.700385	2542.823535
962.999918	2543.380583
963.299414	2542.526107
963.598873	2545.119781
963.898293	2541.817825
964.197677	2541.308668
964.497022	2543.178936
964.796331	2542.019471
965.095601	2544.046015
965.394835	2546.770758
965.694030	2546.395193
965.993189	2543.862013
966.292309	2542.692465
966.591393	2544.572815
966.890439	2540.053421
967.189447	2545.666746
967.488419	2542.694986
967.787353	2540.663401
968.086249	2542.256405
968.385108	2543.143648
968.683930	2541.510314
968.982714	2543.244471
969.281462	2543.050387
969.580172	2540.703730
969.878844	2544.996272
970.177480	2544.046015
970.476078	2542.027033
970.774639	2545.684390
971.073162	2544.270346
971.371649	2540.615510
971.670098	2541.543082
971.968510	2541.394368
972.266885	2542.142979
972.565223	2543.698175
972.863524	2542.984852
973.161788	2543.678011
973.460014	2544.958464
973.758204	2543.362938
974.056356	2544.398896
974.354471	2540.877650
974.652550	2544.282949
974.950591	2543.241951
975.248595	2543.831766
975.546563	2545.313865
975.844493	2545.200439
976.142386	2546.322096
976.440243	2543.491488
976.738062	2542.342105
977.035845	2544.101468
977.333590	2543.819163
977.631299	2544.187167
977.928971	2545.248330
978.226606	2543.234389
978.524204	2544.242620
978.821765	2545.293700
979.119290	2542.674821
979.416777	2542.891591
979.714228	2543.985521
980.011642	2545.107178
980.309020	2545.903680
980.606360	2543.277239
980.903664	2542.488298
981.200931	2545.845707
981.498162	2544.913093
981.795356	2542.485778
982.092513	2544.287990
982.389633	2542.594162
982.686717	2543.347815
982.983764	2541.117104
983.280775	2545.419729
983.577749	2541.086857
983.874686	2545.142466
984.171587	2543.241951
984.468451	2542.957126
984.765279	2543.579708
985.062070	2543.801519
985.358824	2542.702547
985.655543	2541.139790
985.952224	2542.334543
986.248869	2543.062990
986.545478	2538.541075
986.842050	2539.952598
987.138586	2540.224820
987.435086	2540.794471
987.731549	2539.544264
988.027975	2542.498381
988.324366	2544.030891
988.620719	2543.468803
988.917037	2544.703885
989.213318	2542.828576
989.509563	2540.439069
989.805772	2545.008875
990.101944	2543.995603
990.398080	2544.277908
990.694180	2543.141128
990.990244	2543.957795
991.286271	2542.566436
991.582262	2545.641540
991.878217	2544.776982
992.174136	2543.791437
992.470019	2542.263967
992.765865	2543.340253
993.061676	2544.605583
993.357450	2542.115253
993.653188	2544.245140
993.948890	2544.497198
994.244556	2545.555840
994.540186	2541.951415
994.835780	2543.403268
995.131337	2541.570808
995.426859	2541.348997
995.722345	2542.054759
996.017795	2545.737322
996.313208	2541.888401
996.608586	2545.124822
996.903928	2544.040974
997.199234	2543.476364
997.494504	2545.795295
997.789738	2542.296734
998.084936	2541.593493
998.380099	2542.947043
998.675225	2542.072403
998.970316	2543.554502
999.265371	2545.994421
999.560390	2541.530479
999.855373	2542.004348
1000.150320	2540.466796
1000.445232	2542.705068
1000.740108	2541.011240
1001.034948	2543.781354
1001.329752	2544.487116
1001.624521	2541.444779
1001.919254	2540.285314
1002.213951	2540.461754
1002.508613	2535.188707
1002.803239	2542.158103
1003.097829	2537.142155
1003.392384	2543.562064
1003.686903	2543.599873
1003.981386	2545.197918
1004.275834	2541.230530
1004.570246	2541.338915
1004.864623	2541.805222
1005.158964	2542.246323
1005.453270	2542.531148
1005.747540	2542.745397
1006.041775	2542.755479
1006.335974	2544.373690
1006.630138	2539.836651
1006.924266	2544.507280
1007.218359	2545.424770
1007.512416	2543.420912
1007.806438	2544.071221
1008.100425	2541.850592
1008.394376	2541.797660
1008.688292	2545.518032
1008.982172	2540.035777
1009.276017	2541.101981
1009.569827	2541.893442
1009.863602	2542.692465
1010.157341	2540.746580
1010.451045	2542.047197
1010.744714	2540.970911
1011.038347	2543.446117
1011.331945	2544.547610
1011.625508	2544.030891
1011.919036	2544.691282
1012.212528	2543.567105
1012.505986	2543.367980
1012.799408	2542.619368
1013.092795	2541.417053
1013.386147	2541.767413
1013.679464	2542.372352
1013.972745	2543.912424
1014.265992	2540.834800
1014.559204	2542.652136
1014.852380	2543.574667
1015.145521	2543.342774
1015.438628	2541.507794
1015.731699	2542.440407
1016.024736	2543.438556
1016.317737	2541.336395
1016.610703	2543.370500
1016.903635	2538.712474
1017.196531	2539.866898
1017.489393	2539.942516
1017.782219	2537.384130
1018.075011	2540.555016
1018.367768	2542.188350
1018.660490	2541.979142
1018.953177	2541.979142
1019.245829	2541.979142
