Dividing Wavelength (nm)	Counts (n)	Blue Motor Position (mm): 41.400000	Red Motor Position (mm): 0.000000	
326.493990	2130.636111
326.888308	2130.636111
327.282561	2130.636111
327.676750	2097.092274
328.070874	2095.869794
328.464933	2099.222161
328.858929	2104.971597
329.252859	2115.469800
329.646726	2126.746861
330.040528	2140.378141
330.434265	2155.458753
330.827938	2174.748728
331.221547	2193.416121
331.615091	2211.917155
332.008571	2230.849209
332.401986	2252.616911
332.795338	2267.163160
333.188625	2287.799124
333.581847	2307.023564
333.975006	2326.041317
334.368100	2342.435149
334.761129	2363.532378
335.154095	2381.614997
335.546996	2400.163922
335.939833	2427.461770
336.332606	2439.852927
336.725315	2453.249793
337.117960	2464.925105
337.510540	2472.484315
337.903056	2480.716520
338.295508	2490.380412
338.687896	2496.119765
339.080220	2506.393637
339.472480	2513.378155
339.864676	2515.329082
340.256807	2521.638086
340.648875	2524.350227
341.040879	2526.669158
341.432818	2529.030938
341.824694	2526.122192
342.216506	2530.974303
342.608253	2531.170908
342.999937	2530.896165
343.391557	2527.475742
343.783113	2527.896678
344.174605	2529.194776
344.566033	2524.067922
344.957397	2525.847449
345.348697	2525.227388
345.739934	2520.811337
346.131106	2518.162210
346.522215	2519.127591
346.913260	2515.200533
347.304241	2516.007117
347.695159	2512.589215
348.086012	2511.618793
348.476802	2506.877588
348.867528	2505.004799
349.258191	2505.173677
349.648789	2505.098060
350.039324	2502.804335
350.429796	2503.520179
350.820203	2500.835765
351.210548	2498.902482
351.600828	2501.284427
351.991045	2498.582369
352.381198	2495.202275
352.771288	2496.754951
353.161314	2497.987513
353.551276	2497.324601
353.941175	2496.505413
354.331010	2499.202431
354.720782	2496.381905
355.110490	2497.599344
355.500135	2498.289982
355.889717	2495.277893
356.279235	2497.463233
356.668689	2500.918944
357.058080	2496.611278
357.447408	2493.896616
357.836672	2494.320073
358.225873	2497.432986
358.615010	2493.347131
359.004084	2502.227123
359.393095	2499.804849
359.782043	2501.133193
360.170927	2501.765858
360.559748	2504.949346
360.948505	2504.178050
361.337199	2503.444562
361.725830	2505.448420
362.114398	2508.337002
362.502903	2503.923471
362.891344	2506.764162
363.279722	2504.213338
363.668037	2505.650067
364.056289	2504.450272
364.444478	2510.408916
364.832603	2507.837927
365.220665	2510.678617
365.608665	2506.796929
365.996601	2508.989831
366.384474	2510.802126
366.772284	2511.901097
367.160031	2508.876405
367.547715	2511.737260
367.935336	2510.103926
368.322893	2514.025944
368.710388	2514.651047
369.097820	2516.813702
369.485189	2516.090296
369.872495	2514.532580
370.259738	2516.912004
370.646918	2515.092148
371.034035	2512.899246
371.421090	2516.700276
371.808081	2514.401510
372.195010	2519.339320
372.581875	2517.864782
372.968678	2520.400483
373.355418	2517.990811
373.742096	2517.983249
374.128710	2518.331089
374.515262	2518.472241
374.901751	2521.970802
375.288177	2522.646317
375.674540	2521.985926
376.060841	2522.101872
376.447079	2519.470390
376.833254	2521.249917
377.219367	2519.114988
377.605417	2516.256654
377.991404	2517.458969
378.377329	2520.423168
378.763191	2518.028620
379.148991	2523.818385
379.534727	2523.662109
379.920402	2522.900895
380.306013	2525.169414
380.691563	2525.741585
381.077049	2527.695032
381.462474	2528.405835
381.847835	2523.856194
382.233134	2529.613191
382.618371	2529.840043
383.003545	2530.823068
383.388657	2530.936494
383.773706	2536.683410
384.158693	2538.982176
384.543618	2544.436704
384.928480	2552.633620
385.313280	2557.296688
385.698017	2563.711556
386.082692	2574.923082
386.467305	2585.270050
386.851856	2599.004674
387.236344	2608.744183
387.620770	2626.484004
388.005133	2642.570326
388.389435	2658.843170
388.773674	2670.803308
389.157851	2695.789787
389.541965	2714.419371
389.926018	2724.859600
390.310008	2756.402100
390.693936	2783.833539
391.077802	2811.539720
391.461606	2831.227947
391.845348	2875.048176
392.229027	2897.975344
392.612645	2926.946855
392.996200	2978.812767
393.379694	3018.416071
393.763125	3072.411870
394.146494	3092.795776
394.529801	3147.366266
394.913047	3200.230326
395.296230	3218.534755
395.679351	3276.654218
396.062410	3325.097186
396.445408	3346.443952
396.828343	3398.997981
397.211217	3444.098664
397.594028	3434.608692
397.976778	3506.916482
398.359466	3558.394224
398.742092	3608.354579
399.124656	3593.145418
399.507158	3677.720856
399.889598	3722.564440
400.271977	3800.793066
400.654294	3809.095846
401.036549	3846.806197
401.418742	3849.387268
401.800874	3958.457673
402.182944	4001.494003
402.564952	4080.619954
402.946898	4098.949589
403.328783	4113.707567
403.710606	4066.691246
404.092367	4251.963732
404.474067	4245.944594
404.855705	4272.393008
405.237282	4224.738981
405.618797	4340.761137
406.000250	4386.207138
406.381642	4476.148885
406.762972	4457.113488
407.144240	4478.341787
407.525447	4492.666225
407.906593	4559.731216
408.287677	4608.650572
408.668700	4549.205286
409.049661	4608.121251
409.430560	4656.758304
409.811399	4591.283797
410.192176	4754.012244
410.572891	4704.298905
410.953545	4810.047189
411.334138	4690.471020
411.714669	4764.059263
412.095139	4662.613604
412.475547	4806.079801
412.855894	4790.490033
413.236180	4802.629131
413.616405	4756.603397
413.996568	4844.596737
414.376670	4788.183705
414.756711	4745.396912
415.136691	4775.386736
415.516609	4854.830279
415.896466	4893.863934
416.276262	4926.064304
416.655997	4911.535698
417.035670	5094.441363
417.415283	5183.773130
417.794834	5126.903873
418.174324	5080.570628
418.553753	4989.018233
418.933121	5175.119989
419.312428	5241.829578
419.691674	5180.866904
420.070859	5307.132685
420.449983	5215.345876
420.829045	5332.643444
421.208047	5240.435699
421.586988	5313.918078
421.965867	5325.613555
422.344686	5453.192556
422.723444	5309.774249
423.102141	5134.087517
423.480777	5429.236993
423.859352	5198.077404
424.237866	5454.916630
424.616319	5450.724911
424.994712	5560.299431
425.373044	5434.257982
425.751314	5576.947842
426.129524	5384.673193
426.507673	5570.185134
426.885762	5653.457433
427.263789	5590.803453
427.641756	5472.905988
428.019662	5593.223207
428.397508	5596.875523
428.775292	5545.720414
429.153016	5645.121886
429.530679	5572.781328
429.908282	5652.487011
430.285824	5529.608886
430.663305	5803.688859
431.040726	5538.932500
431.418086	5539.161873
431.795385	5640.970495
432.172624	5657.994472
432.549802	5650.034490
432.926920	5664.026212
433.303977	5668.333878
433.680974	5709.187389
434.057910	5725.699689
434.434786	5732.464917
434.811601	5699.531059
435.188355	5933.922028
435.565050	5808.868645
435.941683	5789.649246
436.318257	6003.820146
436.694770	5987.058310
437.071222	6024.824114
437.447614	5951.540860
437.823946	5865.828642
438.200218	6022.051479
438.576429	5883.510489
438.952580	5984.870449
439.328670	6029.943406
439.704700	5938.988387
440.080670	5928.049083
440.456580	6197.665115
440.832429	6074.960909
441.208218	5920.636067
441.583947	6082.373926
441.959616	6082.636066
442.335224	6011.066805
442.710773	6148.314739
443.086261	6175.027813
443.461689	5963.087623
443.837057	6114.264265
444.212365	6271.878461
444.587612	6165.212687
444.962800	6319.076264
445.337927	6291.516276
445.712995	5908.007976
446.088002	6487.637325
446.462949	6317.160625
446.837837	6245.702270
447.212664	6419.067550
447.587431	6560.459313
447.962139	7106.559947
448.336786	8031.064713
448.711374	7768.965042
449.085901	6840.223187
449.460369	6768.069152
449.834776	6699.108688
450.209124	7088.101762
450.583412	7243.742346
450.957640	7382.646299
451.331808	7149.871021
451.705917	6705.357198
452.079965	6629.523121
452.453954	6840.200502
452.827883	6717.317335
453.201752	6812.065822
453.575562	6612.110975
453.949311	6817.273334
454.323001	6703.368463
454.696632	6771.575274
455.070202	6914.867552
455.443713	7067.319606
455.817164	7173.564444
456.190556	7251.311639
456.563888	7330.893814
456.937160	7371.255812
457.310373	7028.026332
457.683526	7054.898203
458.056619	6943.511388
458.429653	6925.264932
458.802628	6869.534976
459.175542	6975.573126
459.548398	7329.953639
459.921194	7491.487332
460.293930	7488.422310
460.666607	8022.414093
461.039224	8330.852050
461.411782	8460.339127
461.784280	8474.479564
462.156719	8361.575362
462.529099	8237.895693
462.901419	7831.082140
463.273680	7722.954431
463.645882	7740.550578
464.018024	7602.259126
464.390106	7776.294880
464.762130	8157.486769
465.134094	8630.765416
465.505999	9648.357608
465.877845	10865.110664
466.249631	11514.073523
466.621358	11131.021448
466.993026	10501.217495
467.364634	10245.570501
467.736184	9882.713288
468.107674	9551.680880
468.479105	9576.818593
468.850477	9347.380558
469.221790	9120.700034
469.593043	8791.759705
469.964238	8653.427923
470.335373	8667.147423
470.706449	8723.416782
471.077467	8710.554278
471.448425	10016.432414
471.819324	11084.242060
472.190164	11105.218302
472.560945	9855.112971
472.931667	9071.377385
473.302330	8935.500645
473.672934	8585.790762
474.043479	8939.755379
474.413965	8882.276143
474.784393	8765.538143
475.154761	8918.171679
475.525070	9006.013784
475.895321	8835.209410
476.265513	9016.602728
476.635645	9182.983490
477.005719	9184.606742
477.375734	9299.696284
477.745691	9532.393425
478.115588	9665.063991
478.485427	9903.976875
478.855207	10442.125089
479.224928	11261.317630
479.594591	11893.135524
479.964194	11699.003210
480.333739	11638.642955
480.703226	11550.717670
481.072653	11639.275619
481.442022	11885.004143
481.811333	12068.416443
482.180584	11881.503062
482.549777	11578.295302
482.918912	11407.934549
483.287988	11428.762076
483.657005	11439.625762
484.025964	11115.837492
484.394864	11249.231464
484.763706	11222.344470
485.132489	10984.966618
485.501213	10941.539598
485.869879	11019.450631
486.238487	10862.456497
486.607036	10973.954217
486.975527	10752.685372
487.343959	10946.706781
487.712333	10997.004893
488.080648	10925.196177
488.448905	10969.560852
488.817104	10906.624566
489.185244	11174.332521
489.553326	11330.275574
489.921350	11861.832479
490.289315	12926.708174
490.657222	13266.532355
491.025070	13167.458558
491.392861	13053.614181
491.760593	12665.427691
492.128267	12317.330976
492.495883	11991.281748
492.863440	11652.816159
493.230939	11316.656897
493.598380	11251.048800
493.965763	11119.900662
494.333088	11022.583708
494.700354	10938.219998
495.067563	11009.680874
495.434713	10832.771663
495.801805	10959.007196
496.168839	10878.671368
496.535815	10825.895529
496.902733	10820.894704
497.269593	10754.845506
497.636395	10855.419046
498.003139	10841.359268
498.369825	10713.813035
498.736453	10869.211643
499.103023	10796.944182
499.469535	10821.703809
499.835989	10811.603858
500.202385	10778.957345
500.568723	10626.974118
500.935003	10853.019457
501.301226	10655.260033
501.667390	10915.081102
502.033497	11012.728252
502.399546	10863.613442
502.765537	10769.497620
503.131470	10848.351348
503.497345	11025.172340
503.863163	10643.380554
504.228923	10942.696543
504.594625	11012.007367
504.960269	10761.169634
505.325856	10977.364558
505.691385	10764.312793
506.056856	10929.309759
506.422270	10947.190731
506.787625	10843.229536
507.152924	10963.287136
507.518164	10933.783783
507.883347	10853.354694
508.248472	10776.575400
508.613540	11013.005515
508.978550	10896.683411
509.343503	10868.856242
509.708398	10990.133800
510.073236	11106.276944
510.438016	11105.044382
510.802738	11053.813656
511.167403	11109.286513
511.532010	11014.598520
511.896561	11236.210164
512.261053	11309.395115
512.625488	11174.123313
512.989866	11156.645632
513.354186	11148.587348
513.718449	11045.987264
514.082655	11239.814589
514.446803	11136.773404
514.810894	11264.430543
515.174927	11129.919955
515.538904	11149.880404
515.902822	11304.260699
516.266684	11183.378871
516.630488	11133.302570
516.994235	11189.345077
517.357925	11246.524364
517.721558	11335.271357
518.085133	11353.124604
518.448651	11364.071469
518.812112	11245.806000
519.175516	11258.706313
519.538863	11382.640559
519.902152	11295.196705
520.265385	11458.053700
520.628560	11369.316790
520.991678	11346.618995
521.354739	11404.572099
521.717743	11344.718480
522.080690	11323.797691
522.443580	11459.261057
522.806413	11414.966958
523.169189	11437.876482
523.531908	11501.820998
523.894569	11324.931951
524.257174	11333.247334
524.619722	11442.504261
524.982213	11382.902699
525.344647	11447.502565
525.707025	11403.881461
526.069345	11487.667959
526.431608	11401.615463
526.793815	11518.663493
527.155964	11308.419651
527.518057	11362.788496
527.880093	11302.778600
528.242072	11375.056143
528.603995	11276.355392
528.965860	11200.906963
529.327669	11249.803635
529.689421	11212.975486
530.051117	11172.270689
530.412755	11271.281471
530.774337	11164.295583
531.135862	11143.710032
531.497331	11171.300267
531.858743	11024.756445
532.220098	11186.527072
532.581396	11057.047556
532.942638	11038.380163
533.303824	11003.379432
533.664953	11020.070692
534.026025	10933.879565
534.387040	11035.173989
534.747999	11043.171780
535.108902	11086.011505
535.469748	10853.246309
535.830537	10960.368308
536.191270	10930.474265
536.551947	10959.007196
536.912567	10955.828748
537.273131	10888.196628
537.633638	10860.472803
537.994089	10849.800680
538.354483	10801.889554
538.714821	10949.000506
539.075103	10949.272728
539.435328	10913.599003
539.795497	10745.879814
540.155609	10899.108206
540.515665	10990.915179
540.875665	10723.827287
541.235609	10793.375045
541.595496	10789.954622
541.955328	10943.964393
542.315102	10826.926445
542.674821	10776.497262
543.034483	10774.513568
543.394090	10785.737697
543.753640	10709.495286
544.113134	10930.010479
544.472571	10785.757862
544.831953	10924.808008
545.191278	10731.565458
545.550548	10757.529921
545.909761	10897.489996
546.268918	10874.431758
546.628019	10959.977618
546.987064	10821.139200
547.346053	10742.408980
547.704986	10846.342449
548.063863	10829.789820
548.422684	10819.198356
548.781449	10737.095604
549.140158	10842.559063
549.498811	10717.256143
549.857408	10579.632643
550.215949	10802.423916
550.574434	10661.110292
550.932864	10752.788716
551.291237	10816.493777
551.649555	10763.917063
552.007817	10770.846129
552.366022	10728.487833
552.724173	10729.929603
553.082267	10716.953673
553.440305	10851.902841
553.798288	10651.685855
554.156215	10805.804010
554.514086	10780.245360
554.871902	10629.703903
555.229661	10676.589155
555.587365	10654.612244
555.945014	10538.466580
556.302606	10666.574902
556.660143	10552.803622
557.017625	10707.824144
557.375050	10607.101890
557.732421	10746.850236
558.089735	10655.307924
558.446994	10658.977884
558.804197	10696.811743
559.161345	10700.181755
559.518437	10547.598631
559.875474	10631.985025
560.232455	10664.220684
560.589381	10612.506007
560.946251	10616.380134
561.303065	10713.336646
561.659825	10656.802626
562.016528	10588.338715
562.373177	10460.905908
562.729770	10578.631974
563.086307	10493.312965
563.442789	10587.554816
563.799216	10463.245003
564.155587	10514.604279
564.511904	10465.180806
564.868164	10454.899373
565.224370	10476.714966
565.580520	10396.021217
565.936615	10406.456405
566.292654	10278.048134
566.648638	10403.111600
567.004567	10363.047029
567.360441	10343.691519
567.716260	10260.953582
568.072023	10355.974291
568.427732	10294.285691
568.783385	10210.168998
569.138982	10285.516604
569.494525	10294.782245
569.850013	10166.532770
570.205445	10252.376058
570.560823	10154.585236
570.916145	10061.573427
571.271412	10139.020673
571.626625	10087.313558
571.981782	10061.127284
572.336884	10034.789776
572.691931	10038.522751
573.046923	9981.489657
573.401860	9942.143451
573.756743	9870.284323
574.111570	9921.015975
574.466342	9900.702646
574.821059	9928.678529
575.175722	9824.435029
575.530330	9829.874434
575.884882	9823.656171
576.239380	9749.684800
576.593823	9734.437830
576.948211	9748.293441
577.302544	9629.145770
577.656823	9643.591197
578.011047	9644.488522
578.365216	9618.508936
578.719330	9538.052120
579.073389	9554.917300
579.427394	9501.508796
579.781344	9479.080702
580.135239	9420.036188
580.489080	9440.717522
580.842866	9336.718518
581.196597	9339.407973
581.550273	9389.794306
581.903895	9355.973205
582.257463	9414.886649
582.610975	9291.005335
582.964434	9324.776024
583.317837	9242.849713
583.671186	9227.217095
584.024481	9221.021517
584.377721	9143.415474
584.730906	9115.825239
585.084037	9150.687338
585.437113	9086.221063
585.790135	9109.039846
586.143103	9010.709619
586.496016	8977.566553
586.848874	9035.749030
587.201679	9024.890385
587.554428	8909.190863
587.907124	8953.830280
588.259765	8922.565044
588.612352	8927.717103
588.964884	8807.354514
589.317362	8820.539652
589.669786	8818.084610
590.022155	8858.358388
590.374470	8883.594404
590.726731	8821.119385
591.078937	8674.825100
591.431090	8785.917008
591.783188	8659.389087
592.135232	8650.985484
592.487222	8651.282912
592.839157	8707.948002
593.191038	8639.098443
593.542866	8579.706089
593.894639	8486.469948
594.246358	8535.598513
594.598022	8554.391935
594.949633	8446.362528
595.301190	8427.717821
595.652692	8452.492572
596.004141	8563.992812
596.355535	8339.570725
596.706876	8322.738313
597.058162	8256.217767
597.409395	8334.027977
597.760573	8392.767501
598.111698	8303.153430
598.462768	8289.587685
598.813785	8254.551666
599.164748	8221.441367
599.515657	8216.576654
599.866511	8122.211295
600.217312	8248.083865
600.568060	8105.578008
600.918753	8209.806384
601.269392	8183.761263
601.619978	8095.019311
601.970510	8162.570773
602.320988	8151.119792
602.671412	8205.642391
603.021783	8145.471179
603.372100	8116.159390
603.722363	8120.557797
604.072572	8095.475536
604.422728	8100.952749
604.772830	8038.409674
605.122878	8040.763893
605.472872	8040.915127
605.822813	8072.689520
606.172701	8013.778596
606.522534	8090.504958
606.872314	8085.441119
607.222041	8059.035555
607.571714	8117.981767
607.921333	8067.434117
608.270899	8078.633041
608.620411	8163.468098
608.969870	8073.939726
609.319276	8062.183756
609.668627	8080.037002
610.017926	8114.957075
610.367171	8163.226123
610.716362	8141.710478
611.065500	8133.286710
611.414585	8155.281264
611.763616	8145.710634
612.112594	8130.274621
612.461518	8142.292731
612.810389	8204.351856
613.159207	8144.057135
613.507971	8085.920028
613.856682	8215.381900
614.205340	8164.153695
614.553945	8243.166220
614.902496	8143.094275
615.250994	8200.729787
615.599439	8178.818412
615.947830	8192.578241
616.296169	8164.012543
616.644454	8175.614758
616.992686	8175.057711
617.340864	8233.777071
617.688990	8138.647977
618.037063	8233.966114
618.385082	8175.854213
618.733048	8261.473170
619.080961	8207.633647
619.428821	8222.578147
619.776628	8222.865493
620.124382	8176.179367
620.472083	8153.438722
620.819731	8183.788989
621.167326	8074.912669
621.514868	8088.576717
621.862357	7973.116649
622.209793	7993.225812
622.557176	7925.301305
622.904506	7897.111173
623.251783	7831.939136
623.599007	7780.375694
623.946179	7788.055892
624.293297	7744.959067
624.640363	7663.297416
624.987376	7647.773183
625.334336	7588.816889
625.681243	7543.938017
626.028097	7530.168105
626.374899	7508.856627
626.721647	7504.536358
627.068343	7437.665453
627.414987	7409.208139
627.761577	7359.648556
628.108115	7399.738332
628.454600	7290.252032
628.801032	7343.317738
629.147412	7302.179402
629.493739	7290.499048
629.840014	7223.847433
630.186236	7285.962010
630.532405	7167.910790
630.878521	7212.227573
631.224585	7176.301790
631.570597	7102.622806
631.916556	7135.702858
632.262462	7128.546940
632.608316	7087.693429
632.954117	7065.729122
633.299866	7055.578758
633.645562	7054.197482
633.991206	6967.633309
634.336797	6912.495689
634.682336	6867.243771
635.027823	6835.547517
635.373257	6825.107287
635.718639	6757.200424
636.063968	6773.037209
636.409245	6661.983110
636.754470	6663.490415
637.099642	6620.592717
637.444762	6565.150107
637.789829	6577.465645
638.134845	6519.131934
638.479808	6502.417988
638.824719	6512.596078
639.169577	6435.143790
639.514383	6456.815710
639.859137	6379.802003
640.203839	6395.230454
640.548489	6375.665736
640.893086	6358.162850
641.237632	6324.130021
641.582125	6341.761456
641.926566	6314.902188
642.270955	6333.849365
642.615292	6322.128682
642.959576	6340.435633
643.303809	6331.825342
643.647990	6332.359704
643.992118	6328.626730
644.336195	6276.423061
644.680219	6299.607328
645.024192	6289.487211
645.368112	6384.810389
645.711981	6403.568523
646.055797	6480.302446
646.399562	6438.667557
646.743274	6562.808491
647.086935	6618.440144
647.430544	6613.313290
647.774101	6639.025696
648.117606	6639.302959
648.461059	6639.353371
648.804460	6593.980465
649.147810	6503.403534
649.491108	6475.430171
649.834354	6449.798424
650.177548	6368.003182
650.520690	6285.986130
650.863781	6261.034939
651.206820	6278.870541
651.549807	6201.695517
651.892742	6143.094624
652.235626	6149.764071
652.578458	6137.120857
652.921238	6047.163987
653.263967	6083.843423
653.606644	6020.748341
653.949269	6025.542478
654.291843	5964.879753
654.634365	6016.995202
654.976836	5966.608869
655.319255	5967.284384
655.661622	5943.890909
656.003938	5943.956444
656.346203	5899.281739
656.688416	5935.696514
657.030577	5884.654831
657.372687	5859.161716
657.714746	5844.950703
658.056753	5889.461571
658.398708	5827.989741
658.740612	5816.891641
659.082465	5866.509198
659.424266	5859.229772
659.766016	5857.515779
660.107715	5828.307334
660.449362	5852.469584
660.790958	5840.930383
661.132503	5831.805895
661.473996	5866.042891
661.815438	5853.089646
662.156829	5849.293658
662.498168	5840.506926
662.839456	5817.385674
663.180693	5853.956725
663.521879	5855.035532
663.863013	5846.727710
664.204097	5860.812694
664.545129	5903.012193
664.886110	5896.453652
665.227040	5933.317089
665.567918	5900.622686
665.908746	5923.867446
666.249522	5928.865750
666.590248	5918.682620
666.930922	5942.880158
667.271545	5955.949349
667.612118	5959.001768
667.952639	5933.080155
668.293109	5955.588907
668.633528	5913.465025
668.973896	5915.166415
669.314213	5909.059057
669.654480	5889.544750
669.994695	5885.569801
670.334859	5872.467842
670.674973	5867.958530
671.015035	5867.378797
671.355047	5866.872161
671.695008	5854.029822
672.034918	5830.180123
672.374777	5841.295867
672.714585	5824.687786
673.054342	5823.646787
673.394049	5819.805428
673.733705	5855.905131
674.073310	5838.233366
674.412864	5799.159383
674.752368	5788.668741
675.091820	5794.745852
675.431223	5729.533486
675.770574	5733.795782
676.109875	5685.529254
676.449125	5685.148647
676.788324	5653.175129
677.127473	5597.097333
677.466571	5594.985090
677.805619	5582.626701
678.144616	5563.205656
678.483562	5543.971134
678.822458	5511.710270
679.161303	5503.402448
679.500098	5502.459752
679.838842	5476.218026
680.177535	5485.554243
680.516179	5498.179813
680.854771	5513.197410
681.193314	5595.088434
681.531805	5698.588363
681.870247	5854.299523
682.208638	5955.576304
682.546978	5968.395958
682.885268	5944.606753
683.223508	5859.312951
683.561697	5804.535773
683.899836	5773.343634
684.237925	5727.882508
684.575963	5696.917221
684.913951	5659.181664
685.251889	5717.447320
685.589776	5680.599006
685.927614	5658.924565
686.265401	5724.031067
686.603137	5709.383994
686.940824	5787.090860
687.278460	5805.475948
687.616046	5819.500438
687.953582	5885.078288
688.291068	5869.866606
688.628504	5932.520587
688.965889	5893.877622
689.303224	5838.324107
689.640510	5790.743176
689.977745	5717.273400
690.314930	5619.051558
690.652065	5558.948402
690.989150	5464.431808
691.326185	5389.603441
691.663170	5338.332386
692.000105	5260.514615
692.336990	5187.821176
692.673825	5158.789171
693.010610	5089.629582
693.347345	5022.763717
693.684030	5010.130585
694.020665	4963.988904
694.357251	4874.775605
694.693786	4887.514600
695.030272	4850.817521
695.366707	4821.543541
695.703093	4786.247902
696.039429	4807.584586
696.375716	4792.183861
696.711952	4766.113533
697.048139	4752.174743
697.384276	4734.029110
697.720363	4743.319956
698.056400	4752.837655
698.392388	4704.210685
698.728326	4681.240667
699.064214	4659.558665
699.400053	4655.941637
699.735842	4623.716061
700.071581	4596.607256
700.407270	4573.082712
700.742910	4550.533630
701.078501	4499.396166
701.414042	4498.271988
701.749533	4472.138647
702.084974	4400.715579
702.420366	4458.555258
702.755709	4403.137854
703.091002	4345.252805
703.426246	4391.505391
703.761440	4351.705482
704.096584	4311.860202
704.431679	4334.608408
704.766725	4320.243640
705.101721	4306.382988
705.436668	4336.322401
705.771565	4283.735604
706.106413	4310.143689
706.441212	4345.809852
706.775961	4349.593238
707.110661	4329.615145
707.445311	4357.001214
707.779913	4384.878794
708.114465	4393.506729
708.448967	4414.268721
708.783421	4481.878156
709.117825	4522.661091
709.452180	4525.655536
709.786485	4571.189758
710.120742	4657.690917
710.454949	4640.054440
710.789107	4708.344431
711.123216	4781.441162
711.457275	4772.384729
711.791286	4847.812993
712.125247	4863.992577
712.459159	4766.771404
712.793023	4839.956355
713.126837	4799.717865
713.460602	4793.340805
713.794318	4716.947160
714.127985	4720.269280
714.461602	4636.563441
714.795171	4604.600005
715.128691	4541.381416
715.462162	4483.738342
715.795584	4432.525260
716.128957	4416.844751
716.462281	4370.146022
716.795556	4339.760468
717.128782	4298.574241
717.461960	4233.981936
717.795088	4243.643308
718.128167	4199.870969
718.461198	4139.341835
718.794180	4138.721773
719.127113	4117.876602
719.459997	4094.674691
719.792833	4054.955440
720.125619	4046.425807
720.458357	4007.732431
720.791046	4012.917258
721.123686	3988.656705
721.456278	3948.428297
721.788821	3962.591419
722.121315	3936.989919
722.453761	3908.656114
722.786158	3923.335954
723.118506	3946.679017
723.450805	3899.685381
723.783056	3920.752363
724.115259	3936.074950
724.447412	3939.359262
724.779518	3935.691822
725.111574	3935.797686
725.443582	3968.237511
725.775542	3955.528762
726.107453	4003.336545
726.439315	4005.252183
726.771129	4021.703989
727.102895	4055.383938
727.434612	4103.219447
727.766281	4112.807721
728.097901	4116.979276
728.429473	4120.369452
728.760996	4126.481851
729.092471	4123.961274
729.423897	4103.342955
729.755276	4113.669759
730.086606	4109.311681
730.417887	4152.161489
730.749120	4215.490984
731.080305	4278.399543
731.411442	4305.838543
731.742530	4276.773771
732.073570	4276.917444
732.404562	4332.034899
732.735506	4324.006862
733.066401	4288.877581
733.397249	4222.765369
733.728048	4143.316784
734.058798	4062.539856
734.389501	3990.171572
734.720156	3929.163528
735.050762	3885.635685
735.381320	3877.738717
735.711831	3827.637210
736.042293	3799.676450
736.372707	3824.158814
736.703073	3794.216881
737.033391	3783.726239
737.363661	3798.786687
737.693883	3823.957168
738.024056	3836.544929
738.354182	3829.207529
738.684260	3894.702200
739.014290	3913.606527
739.344272	3910.937236
739.674207	3955.609421
740.004093	3956.627734
740.333931	3953.648412
740.663722	3954.293680
740.993464	3951.483237
741.323159	3928.495575
741.652806	3897.336203
741.982405	3872.790825
742.311956	3836.781863
742.641460	3830.062005
742.970915	3805.846823
743.300323	3764.423661
743.629683	3731.837643
743.958996	3719.088565
744.288260	3692.352805
744.617477	3661.450532
744.946647	3646.082575
745.275768	3619.273719
745.604842	3622.469810
745.933869	3574.866194
746.262847	3566.457550
746.591778	3600.041717
746.920662	3572.948035
747.249498	3539.227757
747.578286	3586.828852
747.907027	3608.921709
748.235720	3602.259824
748.564365	3628.816623
748.892963	3626.114564
749.221514	3609.985393
749.550017	3582.742997
749.878473	3586.145776
750.206881	3556.259296
750.535242	3554.631003
750.863555	3554.041188
751.191821	3550.540107
751.520039	3531.824823
751.848210	3508.670803
752.176334	3539.298333
752.504411	3545.143551
752.832440	3510.999816
753.160421	3492.430726
753.488356	3502.402128
753.816243	3511.430835
754.144082	3470.907520
754.471875	3454.034778
754.799620	3474.121255
755.127318	3464.043989
755.454969	3463.859987
755.782572	3470.552118
756.110129	3445.273253
756.437638	3437.998867
756.765100	3449.588480
757.092515	3458.324800
757.419882	3470.151347
757.747203	3440.786626
758.074477	3442.641770
758.401703	3459.378401
758.728882	3481.451093
759.056014	3487.329078
759.383099	3490.323524
759.710138	3482.766834
760.037129	3505.063858
760.364073	3536.626522
760.690970	3516.146834
761.017820	3496.587158
761.344623	3513.298583
761.671379	3560.337589
761.998088	3610.479426
762.324751	3737.776122
762.651366	3987.593022
762.977935	4462.772183
763.304456	4906.638217
763.630931	4997.734388
763.957359	4642.133916
764.283740	4293.984270
764.610074	4098.705093
764.936362	3901.958941
765.262602	3745.486567
765.588796	3634.213178
765.914943	3547.739746
766.241044	3455.214408
766.567097	3430.865635
766.893104	3380.285218
767.219064	3350.587780
767.544978	3323.562155
767.870845	3266.513937
768.196665	3249.096751
768.522438	3259.451281
768.848165	3251.564395
769.173846	3217.186247
769.499479	3197.472815
769.825066	3182.069569
770.150607	3168.667662
770.476101	3182.147707
770.801548	3176.476409
771.126949	3133.634163
771.452303	3116.005248
771.777611	3119.702934
772.102872	3125.855662
772.428087	3101.756427
772.753256	3091.885847
773.078378	3082.728591
773.403453	3049.653581
773.728482	3037.494318
774.053465	3057.391752
774.378401	3048.121070
774.703291	3016.346678
775.028135	3017.919518
775.352932	3012.313754
775.677683	2999.191631
776.002388	2995.486383
776.327046	2999.894872
776.651658	2988.867348
776.976224	2973.890080
777.300743	2977.025678
777.625216	2966.769450
777.949643	2960.525981
778.274024	2965.355406
778.598359	2954.955506
778.922647	2956.863583
779.246889	2955.573047
779.571086	2941.430090
779.895236	2935.584872
780.219339	2944.255657
780.543397	2956.876186
780.867409	2961.972792
781.191374	2955.149590
781.515294	2949.311934
781.839167	2953.445680
782.162995	2945.803291
782.486776	2954.186730
782.810511	2952.644137
783.134201	2936.209975
783.457844	2943.794391
783.781441	2935.231992
784.104993	2911.009247
784.428498	2915.417736
784.751958	2927.415683
785.075372	2923.360074
785.398739	2907.354411
785.722061	2926.301588
786.045337	2935.647887
786.368568	2920.897471
786.691752	2911.518404
787.014891	2957.181175
787.337983	2989.913387
787.661030	3020.684590
787.984031	3085.944847
788.306987	3134.327322
788.629897	3122.926752
788.952760	3106.658949
789.275579	3093.272165
789.598351	3033.161446
789.921078	2989.308449
790.243759	2978.424598
790.566395	2961.564459
790.888984	2936.986313
791.211529	2919.801020
791.534027	2911.422622
791.856480	2900.329563
792.178888	2884.109650
792.501249	2878.995400
792.823566	2877.208311
793.145836	2872.094060
793.468062	2867.562063
793.790241	2866.150540
794.112375	2871.171529
794.434464	2883.482027
794.756507	2890.033006
795.078505	2894.365878
795.400457	2911.170564
795.722364	2945.644495
796.044226	2971.538382
796.366042	2975.898980
796.687812	2962.456743
797.009538	2982.908704
797.331218	2969.758854
797.652852	2955.837708
797.974442	2936.991354
798.295986	2931.657813
798.617484	2929.961465
798.938938	2913.391193
799.260346	2898.315622
799.581709	2890.247255
799.903026	2886.698283
800.224299	2881.571429
800.545526	2871.002650
800.866708	2856.642924
801.187845	2844.329905
801.508936	2844.667663
801.829983	2851.511029
802.150984	2842.888135
802.471940	2825.241576
802.792851	2827.469766
803.113717	2828.109993
803.434538	2834.061075
803.755314	2824.840805
804.076045	2818.980463
804.396731	2819.466935
804.717372	2819.744198
805.037967	2815.028199
805.358518	2820.918787
805.679024	2832.720128
805.999485	2826.895075
806.319901	2831.076712
806.640272	2823.777121
806.960598	2831.434634
807.280879	2840.007116
807.601115	2847.170596
807.921306	2832.140395
808.241453	2830.191989
808.561554	2835.845643
808.881611	2836.198524
809.201623	2833.420848
809.521590	2830.554952
809.841513	2827.482369
810.161390	2833.836744
810.481223	2825.816268
810.801011	2815.708754
811.120755	2808.477219
811.440453	2813.871254
811.760107	2815.802016
812.079716	2812.000986
812.399281	2803.567135
812.718801	2795.536577
813.038276	2792.834519
813.357707	2795.697894
813.677093	2803.153761
813.996434	2797.379119
814.315731	2795.130764
814.634983	2786.596091
814.954191	2788.272275
815.273354	2805.946560
815.592473	2814.468631
815.911547	2814.622386
816.230577	2821.778304
816.549562	2835.328925
816.868502	2830.638132
817.187399	2840.274297
817.506250	2857.411700
817.825058	2847.523476
818.143821	2864.315560
818.462539	2880.190153
818.781213	2907.503125
819.099843	2941.861109
819.418429	3002.037362
819.736970	3064.129254
820.055466	3136.363948
820.373919	3243.145668
820.692327	3383.894684
821.010691	3553.355591
821.329011	4000.253879
821.647286	4903.018669
821.965517	6294.861081
822.283704	7044.878909
822.601847	7027.449120
822.919945	6390.272480
823.237999	5868.994487
823.556010	5287.449500
823.873976	4730.028954
824.191897	4320.243640
824.509775	4019.995038
824.827609	3747.843306
825.145398	3625.335706
825.463144	3618.139459
825.780845	3702.535936
826.098502	3812.329746
826.416116	4097.578396
826.733685	4418.967077
827.051210	4482.573835
827.368692	4367.212071
827.686129	4095.287191
828.003522	3770.765433
828.320872	3507.375227
828.638177	3311.017243
828.955439	3175.563960
829.272656	3088.760332
829.589830	3022.789272
829.906960	2972.544092
830.224046	2926.505754
830.541088	2893.365209
830.858086	2877.142776
831.175041	2861.704242
831.491952	2860.575024
831.808819	2873.727394
832.125642	2894.847308
832.442421	2946.377983
832.759157	3027.452339
833.075849	3206.211655
833.392497	3483.739777
833.709101	3691.417671
834.025662	3640.764158
834.342179	3483.666680
834.658653	3304.867036
834.975083	3153.758449
835.291469	3056.045764
835.607811	2968.652321
835.924110	2908.234092
836.240366	2860.045703
836.556578	2815.892757
836.872746	2795.584468
837.188871	2771.812907
837.504952	2754.862027
837.820990	2745.636716
838.136984	2731.985271
838.452935	2727.886813
838.768842	2721.741647
839.084706	2742.128073
839.400526	2824.324086
839.716303	2953.344857
840.032037	3036.995244
840.347727	3020.054446
840.663373	2959.868110
840.978977	2881.679814
841.294537	2811.055769
841.610054	2762.038110
841.925527	2738.228740
842.240957	2718.049002
842.556344	2696.881197
842.871687	2679.448887
843.186987	2672.174502
843.502244	2665.366423
843.817458	2662.808038
844.132629	2648.765904
844.447756	2639.671662
844.762840	2636.140334
845.077881	2638.431538
845.392879	2634.925416
845.707833	2631.633542
846.022745	2623.033334
846.337613	2630.383336
846.652438	2625.747995
846.967221	2625.805968
847.281960	2623.686163
847.596656	2622.196502
847.911309	2623.771863
848.225919	2618.987808
848.540485	2617.099896
848.855009	2616.449587
849.169490	2616.179885
849.483928	2615.471603
849.798323	2616.505040
850.112675	2614.533948
850.426984	2613.180399
850.741251	2612.678804
851.055474	2611.199225
851.369654	2617.054525
851.683792	2616.106788
851.997887	2613.011520
852.311938	2611.022785
852.625947	2613.777775
852.939914	2616.663836
853.253837	2617.397324
853.567718	2612.348608
853.881555	2613.631582
854.195350	2617.314145
854.509103	2613.845831
854.822812	2611.526900
855.136479	2612.068824
855.450103	2612.925820
855.763685	2616.981429
856.077224	2615.446397
856.390720	2610.627054
856.704173	2613.868516
857.017584	2616.890688
857.330953	2621.488220
857.644278	2620.850514
857.957561	2623.993674
858.270802	2616.799947
858.584000	2615.920266
858.897155	2619.920421
859.210268	2622.209105
859.523339	2616.590739
859.836367	2610.937085
860.149352	2612.212497
860.462295	2613.573609
860.775195	2611.622682
861.088054	2609.092023
861.400869	2609.533124
861.713642	2604.313009
862.026373	2605.578339
862.339062	2608.456837
862.651708	2617.044443
862.964312	2618.455966
863.276873	2615.300204
863.589392	2617.485544
863.901869	2621.342027
864.214303	2628.848305
864.526696	2630.690847
864.839045	2631.255456
865.151353	2635.116980
865.463619	2635.323667
865.775842	2633.075312
866.088023	2631.648666
866.400162	2637.123359
866.712258	2635.116980
867.024313	2632.359468
867.336325	2629.302009
867.648296	2630.317801
867.960224	2637.113277
868.272110	2636.868781
868.583954	2625.226236
868.895755	2630.952987
869.207515	2634.796866
869.519233	2640.533699
869.830909	2639.938843
870.142542	2634.171763
870.454134	2633.213944
870.765684	2641.098309
871.077191	2641.420942
871.388657	2646.124339
871.700081	2647.969401
872.011463	2642.978659
872.322803	2646.197436
872.634101	2649.711120
872.945357	2654.364105
873.256571	2661.371309
873.567744	2658.472645
873.878874	2655.977274
874.189963	2658.001298
874.501010	2663.796104
874.812015	2668.439007
875.122979	2667.239212
875.433900	2658.391987
875.744780	2659.853922
876.055618	2664.693429
876.366415	2666.364572
876.677169	2669.686692
876.987882	2662.828202
877.298554	2659.465753
877.609183	2672.910510
877.919771	2679.353105
878.230317	2684.822757
878.540822	2697.944880
878.851285	2710.341077
879.161707	2736.129100
879.472087	2773.635284
879.782425	2822.645382
880.092722	2940.636108
880.402977	3132.860346
880.713191	3396.800038
881.023363	3693.625697
881.333494	3889.880337
881.643583	4065.816606
881.953631	4060.041964
882.263637	3882.353894
882.573602	3661.692508
882.883526	3527.285264
883.193408	3410.771596
883.503248	3305.603044
883.813048	3187.773635
884.122806	3073.851119
884.432522	2987.113026
884.742197	2919.251534
885.051831	2882.083107
885.361424	2846.638754
885.670975	2809.374545
885.980485	2776.029832
886.289954	2760.624066
886.599382	2745.072107
886.908768	2732.156671
887.218113	2715.818291
887.527417	2699.177442
887.836680	2691.822399
888.145901	2687.146728
888.455082	2678.919565
888.764221	2668.721311
889.073319	2660.690753
889.382376	2658.160094
889.691392	2661.409117
890.000366	2660.511792
890.309300	2659.846360
890.618193	2658.265958
890.927044	2661.774601
891.235855	2662.742503
891.544625	2663.125630
891.853353	2662.714776
892.162041	2670.367248
892.470687	2690.136133
892.779293	2703.971579
893.087858	2711.326623
893.396381	2736.360993
893.704864	2778.618465
894.013306	2848.574557
894.321707	2944.159875
894.630068	2997.293637
894.938387	3018.277439
895.246665	3009.722601
895.554903	2962.567648
895.863100	2920.552152
896.171256	2859.851618
896.479371	2800.600416
896.787446	2759.973757
897.095480	2741.805439
897.403473	2733.890827
897.711425	2720.662840
898.019336	2698.627956
898.327207	2685.795699
898.635038	2685.031964
898.942827	2681.891326
899.250576	2671.569563
899.558284	2661.164622
899.865952	2655.750422
900.173579	2654.785041
900.481165	2652.541728
900.788711	2642.656025
901.096216	2637.317443
901.403681	2633.085395
901.711105	2632.009108
902.018489	2630.254787
902.325832	2636.097484
902.633135	2634.948101
902.940397	2651.815802
903.247619	2692.278623
903.554800	2759.988881
903.861941	2892.309087
904.169041	3022.196937
904.476101	3085.967533
904.783121	3079.499732
905.090100	3020.540918
905.397039	2940.626026
905.703938	2866.203472
906.010796	2803.078143
906.317614	2749.518404
906.624391	2712.097919
906.931129	2686.292253
907.237826	2663.017246
907.544483	2645.317754
907.851099	2627.963582
908.157675	2617.314145
908.464211	2612.759462
908.770707	2602.223451
909.077163	2597.593151
909.383578	2595.306988
909.689954	2594.036617
909.996289	2590.313725
910.302584	2592.504106
910.608839	2588.178796
910.915054	2587.735175
911.221229	2589.582757
911.527363	2591.402614
911.833458	2588.635021
912.139513	2592.342789
912.445527	2594.344127
912.751502	2598.122472
913.057436	2604.076075
913.363331	2612.056221
913.669186	2622.864455
913.975000	2634.708646
914.280775	2656.088180
914.586510	2673.195335
914.892205	2713.149000
915.197859	2779.629216
915.503475	2865.971579
915.809050	2934.168308
916.114585	2952.976853
916.420081	2959.868110
916.725536	2972.833958
917.030952	2947.113991
917.336328	2900.286713
917.641665	2845.053311
917.946961	2797.122020
918.252218	2761.607091
918.557435	2735.942577
918.862612	2711.170347
919.167750	2692.548325
919.472848	2677.336643
919.777906	2658.727224
920.082925	2649.814464
920.387904	2635.681589
920.692843	2630.416104
920.997743	2626.725979
921.302603	2619.070987
921.607423	2612.336005
921.912204	2609.681838
922.216946	2604.726384
922.521647	2603.539192
922.826310	2597.673809
923.130932	2591.364805
923.435516	2589.066039
923.740059	2585.920359
924.044564	2583.903898
924.349028	2584.793661
924.653454	2575.820407
924.957840	2572.483164
925.262186	2570.615416
925.566493	2572.294120
925.870761	2567.318502
926.174989	2569.448389
926.479178	2564.878583
926.783328	2564.540826
927.087438	2564.162739
927.391509	2562.973027
927.695541	2561.838767
927.999533	2561.269117
928.303486	2556.643858
928.607400	2559.681153
928.911275	2556.462377
929.215110	2556.646379
929.518906	2555.149156
929.822663	2558.473797
930.126381	2554.846687
930.430060	2557.546225
930.733699	2555.491955
931.037299	2557.788200
931.340861	2557.939435
931.644383	2557.712583
931.947866	2558.438509
932.251309	2559.335834
932.554714	2557.878941
932.858080	2559.648386
933.161407	2554.821481
933.464694	2556.595967
933.767943	2556.049002
934.071153	2558.113355
934.374323	2551.459032
934.677455	2553.742674
934.980548	2552.928528
935.283602	2553.581357
935.586617	2550.493651
935.889593	2553.684701
936.192530	2556.333827
936.495428	2552.452139
936.798287	2557.090000
937.101108	2557.536143
937.403890	2558.917419
937.706632	2561.518654
938.009336	2564.863460
938.312002	2570.597772
938.614628	2573.498956
938.917216	2577.809143
939.219765	2579.049267
939.522275	2576.316961
939.824747	2575.916189
940.127179	2574.363514
940.429573	2569.108111
940.731929	2570.650704
941.034246	2565.634756
941.336524	2569.483677
941.638763	2568.535940
941.940964	2567.363872
942.243126	2563.283058
942.545250	2567.288255
942.847335	2565.654921
943.149381	2563.071329
943.451389	2560.308777
943.753359	2560.097049
944.055290	2562.431103
944.357182	2558.811554
944.659036	2557.490772
944.960851	2557.155535
945.262628	2558.020093
945.564367	2558.733417
945.866067	2559.093859
946.167729	2558.259548
946.469352	2557.979764
946.770937	2558.146122
947.072484	2556.999260
947.373992	2558.499003
947.675462	2555.524722
947.976893	2555.499516
948.278286	2553.851059
948.579641	2553.651933
948.880958	2554.629917
949.182236	2556.704352
949.483476	2552.895760
949.784678	2552.643703
950.085841	2554.859290
950.386967	2554.713096
950.688054	2552.956254
950.989103	2553.924156
951.290114	2557.765515
951.591087	2558.282233
951.892021	2559.655948
952.192917	2560.102090
952.493776	2560.454971
952.794596	2561.291802
953.095378	2559.703839
953.396122	2564.646690
953.696828	2560.160063
953.997496	2559.116544
954.298126	2554.922304
954.598718	2555.897768
954.899272	2554.922304
955.199788	2553.886347
955.500266	2550.765873
955.800706	2548.812426
956.101108	2545.979297
956.401472	2545.006355
956.701798	2544.245140
957.002087	2541.979142
957.302337	2543.322609
957.602550	2543.703216
957.902724	2541.535520
958.202861	2543.612476
958.502960	2541.694317
958.803022	2541.601055
959.103045	2542.722712
959.403031	2542.992414
959.702979	2541.911086
960.002889	2542.145500
960.302762	2542.251364
960.602596	2541.101981
960.902393	2537.938657
961.202153	2537.326157
961.501875	2538.286497
961.801559	2542.563916
962.101205	2539.390509
962.400814	2537.242978
962.700385	2537.845396
962.999918	2539.443441
963.299414	2538.992258
963.598873	2537.941178
963.898293	2539.829090
964.197677	2539.897145
964.497022	2539.632485
964.796331	2542.700027
965.095601	2539.579553
965.394835	2539.350180
965.694030	2536.201979
965.993189	2537.033770
966.292309	2537.069058
966.591393	2538.218441
966.890439	2537.091743
967.189447	2533.555374
967.488419	2537.981507
967.787353	2536.849768
968.086249	2539.387989
968.385108	2537.653832
968.683930	2537.391692
968.982714	2539.178781
969.281462	2535.871784
969.580172	2536.983358
969.878844	2537.268183
970.177480	2538.578883
970.476078	2537.527803
970.774639	2539.251877
971.073162	2538.173071
971.371649	2534.377082
971.670098	2534.712318
971.968510	2536.753986
972.266885	2534.934129
972.565223	2539.909748
972.863524	2539.030067
973.161788	2538.861188
973.460014	2539.085519
973.758204	2538.644418
974.056356	2541.482588
974.354471	2537.711805
974.652550	2539.370345
974.950591	2538.215920
975.248595	2538.036959
975.546563	2538.601569
975.844493	2536.953111
976.142386	2537.338760
976.440243	2539.012423
976.738062	2537.399253
977.035845	2538.578883
977.333590	2537.507638
977.631299	2536.363296
977.928971	2539.128369
978.226606	2537.744573
978.524204	2537.447144
978.821765	2537.028729
979.119290	2539.637526
979.416777	2535.970086
979.714228	2537.908410
980.011642	2534.992102
980.309020	2544.167002
980.606360	2537.409336
980.903664	2538.349511
981.200931	2537.570653
981.498162	2541.250695
981.795356	2542.125335
982.092513	2543.395706
982.389633	2549.147663
982.686717	2550.271840
982.983764	2550.362581
983.280775	2555.847356
983.577749	2554.019938
983.874686	2549.989535
984.171587	2546.506098
984.468451	2543.851930
984.765279	2543.327650
985.062070	2543.085675
985.358824	2541.575849
985.655543	2537.411856
985.952224	2538.296579
986.248869	2538.757844
986.545478	2533.086546
986.842050	2535.599562
987.138586	2530.240815
987.435086	2533.215096
987.731549	2530.807945
988.027975	2536.617875
988.324366	2535.160981
988.620719	2534.109901
988.917037	2536.388502
989.213318	2534.954294
989.509563	2535.493697
989.805772	2535.337422
990.101944	2534.674510
990.398080	2535.443286
990.694180	2534.182997
990.990244	2534.293903
991.286271	2533.368851
991.582262	2532.300126
991.878217	2533.560415
992.174136	2532.763913
992.470019	2534.288862
992.765865	2535.397915
993.061676	2532.947915
993.357450	2534.848430
993.653188	2535.002185
993.948890	2535.284489
994.244556	2535.884387
994.540186	2535.856660
994.835780	2538.341949
995.131337	2536.466640
995.426859	2538.667104
995.722345	2535.483615
996.017795	2536.307844
996.313208	2540.698689
996.608586	2538.198276
996.903928	2538.513348
997.199234	2537.802546
997.494504	2539.201466
997.789738	2537.371527
998.084936	2536.514531
998.380099	2537.956301
998.675225	2535.191228
998.970316	2533.797349
999.265371	2535.904551
999.560390	2532.753830
999.855373	2534.440096
1000.150320	2535.511341
1000.445232	2533.923378
1000.740108	2535.012267
1001.034948	2534.432534
1001.329752	2532.940353
1001.624521	2533.802390
1001.919254	2526.880886
1002.213951	2531.112935
1002.508613	2528.398273
1002.803239	2531.213758
1003.097829	2524.743437
1003.392384	2532.506814
1003.686903	2532.355579
1003.981386	2533.487318
1004.275834	2531.937163
1004.570246	2534.321629
1004.864623	2531.249046
1005.158964	2532.562266
1005.453270	2533.996475
1005.747540	2532.751310
1006.041775	2531.412883
1006.335974	2534.412370
1006.630138	2530.870959
1006.924266	2529.771988
1007.218359	2531.871628
1007.512416	2531.158305
1007.806438	2530.870959
1008.100425	2533.220137
1008.394376	2531.642256
1008.688292	2531.780888
1008.982172	2531.990095
1009.276017	2531.322143
1009.569827	2531.947246
1009.863602	2533.205013
1010.157341	2529.159488
1010.451045	2532.647966
1010.744714	2532.106042
1011.038347	2531.223840
1011.331945	2532.912627
1011.625508	2534.540919
1011.919036	2532.405991
1012.212528	2529.938346
1012.505986	2530.518078
1012.799408	2533.600744
1013.092795	2531.022194
1013.386147	2531.286854
1013.679464	2531.758202
1013.972745	2531.702750
1014.265992	2530.775177
1014.559204	2530.132430
1014.852380	2531.112935
1015.145521	2531.019673
1015.438628	2532.171577
1015.731699	2532.779036
1016.024736	2532.791639
1016.317737	2529.913140
1016.610703	2532.494211
1016.903635	2528.748633
1017.196531	2526.162522
1017.489393	2531.266690
1017.782219	2526.628828
1018.075011	2528.753675
1018.367768	2533.867925
1018.660490	2529.600588
1018.953177	2529.600588
1019.245829	2529.600588
