Dividing Wavelength (nm)	Counts (n)	Blue Motor Position (mm): 22.800000	Red Motor Position (mm): 0.000000	
326.493990	2132.294651
326.888308	2132.294651
327.282561	2132.294651
327.676750	2102.851792
328.070874	2102.914806
328.464933	2102.715681
328.858929	2109.002000
329.252859	2120.120264
329.646726	2129.963117
330.040528	2144.224542
330.434265	2160.820020
330.827938	2176.687052
331.221547	2196.639939
331.615091	2212.360777
332.008571	2232.313664
332.401986	2252.352250
332.795338	2272.839500
333.188625	2292.668878
333.581847	2309.791157
333.975006	2329.234888
334.368100	2347.642661
334.761129	2364.172604
335.154095	2381.995604
335.546996	2402.727349
335.939833	2423.038158
336.332606	2438.373348
336.725315	2451.775255
337.117960	2459.241204
337.510540	2470.588842
337.903056	2482.763228
338.295508	2487.370843
338.687896	2497.357368
339.080220	2504.921620
339.472480	2511.172651
339.864676	2516.425533
340.256807	2520.143384
340.648875	2521.320493
341.040879	2527.112779
341.432818	2527.740403
341.824694	2528.993129
342.216506	2525.698735
342.608253	2529.812317
342.999937	2528.713345
343.391557	2527.969775
343.783113	2526.238139
344.174605	2526.888448
344.566033	2526.167563
344.957397	2525.005577
345.348697	2521.562469
345.739934	2520.811337
346.131106	2517.312776
346.522215	2519.760256
346.913260	2514.048629
347.304241	2512.425377
347.695159	2510.320696
348.086012	2510.315654
348.476802	2505.269459
348.867528	2507.079234
349.258191	2506.693585
349.648789	2502.106135
350.039324	2503.149654
350.429796	2502.232164
350.820203	2499.830054
351.210548	2500.266114
351.600828	2497.410301
351.991045	2498.025321
352.381198	2496.696977
352.771288	2497.916937
353.161314	2494.395691
353.551276	2495.459374
353.941175	2496.029024
354.331010	2492.374188
354.720782	2496.339055
355.110490	2495.761843
355.500135	2495.968531
355.889717	2495.076246
356.279235	2496.200424
356.668689	2497.173366
357.058080	2496.543222
357.447408	2494.781339
357.836672	2494.027686
358.225873	2496.003819
358.615010	2494.829230
359.004084	2499.474653
359.393095	2499.189828
359.782043	2498.683192
360.170927	2496.533140
360.559748	2501.738131
360.948505	2499.651093
361.337199	2501.675117
361.725830	2499.812410
362.114398	2501.004643
362.502903	2505.844151
362.891344	2505.594614
363.279722	2501.735611
363.668037	2504.117556
364.056289	2504.107473
364.444478	2506.968328
364.832603	2505.080416
365.220665	2506.013030
365.608665	2504.838441
365.996601	2507.825324
366.384474	2507.353977
366.772284	2509.461179
367.160031	2508.284069
367.547715	2508.087464
367.935336	2506.093688
368.322893	2506.998575
368.710388	2510.421519
369.097820	2508.909173
369.485189	2511.432270
369.872495	2508.841117
370.259738	2508.246261
370.646918	2507.638802
371.034035	2510.817249
371.421090	2510.313134
371.808081	2508.977228
372.195010	2509.115860
372.581875	2510.721467
372.968678	2511.124760
373.355418	2510.635768
373.742096	2514.698938
374.128710	2512.095182
374.515262	2513.133659
374.901751	2511.286077
375.288177	2512.904287
375.674540	2513.201715
376.060841	2512.301869
376.447079	2513.771365
376.833254	2513.594925
377.219367	2509.118380
377.605417	2513.390758
377.991404	2511.202897
378.377329	2514.151972
378.763191	2507.926147
379.148991	2515.014010
379.534727	2515.127436
379.920402	2514.487209
380.306013	2514.146931
380.691563	2517.332941
381.077049	2517.350585
381.462474	2515.878568
381.847835	2515.558454
382.233134	2517.017868
382.618371	2519.853517
383.003545	2515.543331
383.388657	2517.320338
383.773706	2516.985101
384.158693	2518.436953
384.543618	2520.372756
384.928480	2517.521984
385.313280	2517.053157
385.698017	2517.453928
386.082692	2517.897550
386.467305	2519.419978
386.851856	2522.066584
387.236344	2519.664474
387.620770	2517.632889
388.005133	2519.319155
388.389435	2521.481810
388.773674	2520.854187
389.157851	2521.955679
389.541965	2521.585154
389.926018	2522.732016
390.310008	2521.081038
390.693936	2521.454084
391.077802	2521.774197
391.461606	2525.083715
391.845348	2521.751512
392.229027	2523.248735
392.612645	2523.752850
392.996200	2522.898374
393.379694	2522.485000
393.763125	2523.523478
394.146494	2523.515916
394.529801	2524.052799
394.913047	2526.976668
395.296230	2525.829805
395.679351	2524.506502
396.062410	2523.321831
396.445408	2522.603467
396.828343	2526.326359
397.211217	2520.697911
397.594028	2521.358302
397.976778	2520.846625
398.359466	2521.501975
398.742092	2523.135309
399.124656	2528.118489
399.507158	2525.446678
399.889598	2528.849457
400.271977	2525.688653
400.654294	2527.460619
401.036549	2527.977337
401.418742	2527.707635
401.800874	2528.035310
402.182944	2526.366688
402.564952	2526.593540
402.946898	2530.109745
403.328783	2528.199148
403.710606	2530.634025
404.092367	2528.476411
404.474067	2526.026410
404.855705	2530.185362
405.237282	2529.686288
405.618797	2530.248377
406.000250	2529.282996
406.381642	2526.908612
406.762972	2531.236443
407.144240	2530.051772
407.525447	2530.994468
407.906593	2527.697553
408.287677	2530.323994
408.668700	2529.267872
409.049661	2530.404652
409.430560	2530.205527
409.811399	2531.579241
410.192176	2532.650487
410.572891	2531.155784
410.953545	2532.584952
411.334138	2531.730476
411.714669	2531.150743
412.095139	2534.785415
412.475547	2532.458923
412.855894	2531.415404
413.236180	2533.018491
413.616405	2532.630322
413.996568	2532.658048
414.376670	2534.288862
414.756711	2532.065713
415.136691	2536.275076
415.516609	2532.400949
415.896466	2536.000333
416.276262	2532.126207
416.655997	2528.834333
417.035670	2530.076978
417.415283	2533.855322
417.794834	2525.544980
418.174324	2532.123686
418.553753	2534.896321
418.933121	2536.010416
419.312428	2536.020498
419.691674	2534.185518
420.070859	2536.471681
420.449983	2535.289531
420.829045	2532.310209
421.208047	2534.866074
421.586988	2535.823893
421.965867	2540.529810
422.344686	2537.255581
422.723444	2536.315405
423.102141	2534.767771
423.480777	2534.624098
423.859352	2536.348173
424.237866	2538.682227
424.616319	2535.695343
424.994712	2537.275745
425.373044	2535.927237
425.751314	2538.437731
426.129524	2538.283976
426.507673	2540.953267
426.885762	2538.248688
427.263789	2539.899666
427.641756	2538.538554
428.019662	2538.210879
428.397508	2536.151568
428.775292	2539.536703
429.153016	2538.321785
429.530679	2540.663401
429.908282	2539.002340
430.285824	2538.778009
430.663305	2541.154913
431.040726	2540.229861
431.418086	2540.287835
431.795385	2539.960160
432.172624	2538.425128
432.549802	2541.308668
432.926920	2538.803215
433.303977	2541.109543
433.680974	2538.772968
434.057910	2538.276414
434.434786	2542.198432
434.811601	2543.216745
435.188355	2541.621220
435.565050	2541.091899
435.941683	2541.144831
436.318257	2540.996117
436.694770	2537.351362
437.071222	2540.590304
437.447614	2535.468492
437.823946	2539.975283
438.200218	2542.752959
438.576429	2541.500232
438.952580	2542.200952
439.328670	2546.047353
439.704700	2542.795809
440.080670	2543.983000
440.456580	2541.154913
440.832429	2544.696324
441.208218	2544.535007
441.583947	2543.728422
441.959616	2543.110881
442.335224	2543.380583
442.710773	2542.304296
443.086261	2544.837476
443.461689	2545.628937
443.837057	2544.615665
444.212365	2544.265305
444.587612	2544.184647
444.962800	2545.525593
445.337927	2546.548948
445.712995	2546.536345
446.088002	2549.429967
446.462949	2544.456869
446.837837	2545.981818
447.212664	2545.714637
447.587431	2544.061138
447.962139	2544.925696
448.336786	2547.877292
448.711374	2547.781510
449.085901	2549.361912
449.460369	2545.533155
449.834776	2545.986859
450.209124	2545.669266
450.583412	2548.298228
450.957640	2545.986859
451.331808	2548.956099
451.705917	2548.399051
452.079965	2548.467107
452.453954	2547.993238
452.827883	2551.143959
453.201752	2548.280584
453.575562	2551.267468
453.949311	2550.347457
454.323001	2549.258568
454.696632	2549.467776
455.070202	2551.131357
455.443713	2550.647406
455.817164	2552.132026
456.190556	2546.097764
456.563888	2552.971378
456.937160	2546.674977
457.310373	2550.864175
457.683526	2551.045657
458.056619	2552.850390
458.429653	2556.069167
458.802628	2552.948692
459.175542	2555.970864
459.548398	2554.282078
459.921194	2552.663867
460.293930	2555.280226
460.666607	2556.686708
461.039224	2557.742830
461.411782	2558.884651
461.784280	2559.769374
462.156719	2559.953376
462.529099	2564.066957
462.901419	2561.455640
463.273680	2562.602502
463.645882	2561.916905
464.018024	2565.486042
464.390106	2566.963100
464.762130	2571.366548
465.134094	2572.594069
465.505999	2583.054463
465.877845	2593.139292
466.249631	2596.663058
466.621358	2597.028542
466.993026	2598.898810
467.364634	2601.174891
467.736184	2604.403750
468.107674	2603.884511
468.479105	2610.773248
468.850477	2613.959257
469.221790	2615.837087
469.593043	2617.457818
469.964238	2623.202212
470.335373	2626.418469
470.706449	2635.031280
471.077467	2642.751807
471.448425	2672.923113
471.819324	2702.676003
472.190164	2708.034749
472.560945	2694.521937
472.931667	2692.296267
473.302330	2697.622246
473.672934	2700.299099
474.043479	2716.455997
474.413965	2726.369426
474.784393	2736.686147
475.154761	2752.346492
475.525070	2765.017432
475.895321	2772.019595
476.265513	2790.510547
476.635645	2814.249340
477.005719	2835.696929
477.375734	2852.985567
477.745691	2881.987325
478.115588	2905.330388
478.485427	2938.700305
478.855207	2995.130982
479.224928	3082.660536
479.594591	3145.523724
479.964194	3157.771207
480.333739	3166.167249
480.703226	3195.262269
481.072653	3235.568814
481.442022	3304.045328
481.811333	3348.092409
482.180584	3368.420862
482.549777	3383.645147
482.918912	3404.588620
483.287988	3444.577573
483.657005	3481.191474
484.025964	3491.407372
484.394864	3541.539126
484.763706	3585.929007
485.132489	3596.013835
485.501213	3635.765853
485.869879	3679.991896
486.238487	3716.701578
486.607036	3769.149743
486.975527	3798.917757
487.343959	3868.301677
487.712333	3932.770473
488.080648	3970.445537
488.448905	4039.123696
488.817104	4079.878904
489.185244	4184.135007
489.553326	4282.119914
489.921350	4459.951657
490.289315	4762.360394
490.657222	4892.444849
491.025070	4958.594870
491.392861	4996.423688
491.760593	4986.043952
492.128267	4968.631807
492.495883	4954.798881
492.863440	4945.908806
493.230939	4933.043781
493.598380	4985.169312
493.965763	5025.435528
494.333088	5057.237648
494.700354	5112.158498
495.067563	5192.635478
495.434713	5220.122369
495.801805	5326.518442
496.168839	5377.492069
496.535815	5437.895174
496.902733	5495.797867
497.269593	5559.253392
497.636395	5653.127238
498.003139	5734.120936
498.369825	5744.898923
498.736453	5891.755296
499.103023	5927.270225
499.469535	6020.632394
499.835989	6084.637404
500.202385	6155.334546
500.568723	6157.315719
500.935003	6319.905534
501.301226	6338.356157
501.667390	6507.970819
502.033497	6638.224152
502.399546	6638.035109
502.765537	6672.135994
503.131470	6787.495238
503.497345	6945.142201
503.863163	6819.365413
504.228923	7062.855664
504.594625	7160.706981
504.960269	7101.324709
505.325856	7296.911396
505.691385	7261.968638
506.056856	7418.735920
506.422270	7510.527770
506.787625	7514.227977
507.152924	7660.494535
507.518164	7714.883544
507.883347	7742.932524
508.248472	7759.044051
508.613540	7974.724777
508.978550	7982.034451
509.343503	8031.624281
509.708398	8179.365377
510.073236	8319.184299
510.438016	8396.059375
510.802738	8425.280423
511.167403	8524.966720
511.532010	8522.110906
511.896561	8733.746106
512.261053	8850.973098
512.625488	8827.095673
512.989866	8881.613231
513.354186	8930.640973
513.718449	8924.253831
514.082655	9119.880847
514.446803	9110.950443
514.810894	9261.622970
515.174927	9219.473882
515.538904	9285.107185
515.902822	9464.970513
516.266684	9426.579606
516.630488	9437.791132
516.994235	9525.870172
517.357925	9630.297674
517.721558	9758.695862
518.085133	9819.777003
518.448651	9872.691474
518.812112	9818.526797
519.175516	9879.736487
519.538863	10031.999498
519.902152	10005.689716
520.265385	10195.254744
520.628560	10149.052569
520.991678	10181.184884
521.354739	10271.721486
521.717743	10244.083360
522.080690	10278.895048
522.443580	10433.729047
522.806413	10437.951014
523.169189	10498.414613
523.531908	10584.840155
523.894569	10454.175967
524.257174	10491.170475
524.619722	10636.504420
524.982213	10610.976017
525.344647	10687.856133
525.707025	10674.265183
526.069345	10790.788933
526.431608	10747.553477
526.793815	10877.239681
527.155964	10702.324245
527.518057	10775.191603
527.880093	10750.915927
528.242072	10839.793990
528.603995	10776.966089
528.965860	10718.967614
529.327669	10792.865889
529.689421	10759.677452
530.051117	10745.408466
530.412755	10868.299194
530.774337	10776.555235
531.135862	10776.749320
531.497331	10809.375667
531.858743	10697.688904
532.220098	10863.736950
532.581396	10755.228634
532.942638	10750.074054
533.303824	10726.264685
533.664953	10748.135731
534.026025	10677.224340
534.387040	10787.489498
534.747999	10795.013420
535.108902	10861.808709
535.469748	10629.648451
535.830537	10749.088509
536.191270	10734.655685
536.551947	10761.668708
536.912567	10765.250448
537.273131	10711.443692
537.633638	10686.139621
537.994089	10685.612820
538.354483	10642.115224
538.714821	10788.366659
539.075103	10804.347117
539.435328	10770.659606
539.795497	10607.633732
540.155609	10765.603329
540.515665	10859.946002
540.875665	10601.402866
541.235609	10674.103866
541.595496	10672.636890
541.955328	10828.191774
542.315102	10718.773530
542.674821	10670.111272
543.034483	10676.279124
543.394090	10678.492190
543.753640	10607.026273
544.113134	10829.855355
544.472571	10689.018119
544.831953	10838.586633
545.191278	10642.735286
545.550548	10682.197438
545.909761	10811.039248
546.268918	10789.271546
546.628019	10870.918074
546.987064	10741.332693
547.346053	10660.835549
547.704986	10767.513926
548.063863	10751.034394
548.422684	10738.789431
548.781449	10668.810654
549.140158	10766.364543
549.498811	10640.343258
549.857408	10511.135965
550.215949	10725.841228
550.574434	10588.444580
550.932864	10677.816676
551.291237	10743.538198
551.649555	10688.173726
552.007817	10704.146622
552.366022	10666.345530
552.724173	10665.685139
553.082267	10649.576132
553.440305	10782.176122
553.798288	10588.931051
554.156215	10734.930428
554.514086	10717.619106
554.871902	10572.688453
555.229661	10611.510379
555.587365	10585.097253
555.945014	10480.153033
556.302606	10605.768505
556.660143	10500.569706
557.017625	10652.472275
557.375050	10553.794209
557.732421	10685.065855
558.089735	10599.583009
558.446994	10601.097876
558.804197	10641.563218
559.161345	10641.147323
559.518437	10490.283232
559.875474	10577.464947
560.232455	10611.822931
560.589381	10563.032123
560.946251	10558.772348
561.303065	10661.112812
561.659825	10598.514284
562.016528	10530.892247
562.373177	10410.784236
562.729770	10523.701041
563.086307	10436.920098
563.442789	10538.960613
563.799216	10410.068392
564.155587	10463.988573
564.511904	10412.374720
564.868164	10406.854656
565.224370	10421.300083
565.580520	10349.337612
565.936615	10351.538075
566.292654	10221.743487
566.648638	10350.998672
567.004567	10309.371344
567.360441	10289.050453
567.716260	10206.551970
568.072023	10296.728130
568.427732	10247.874308
568.783385	10158.454321
569.138982	10230.404189
569.494525	10244.388350
569.850013	10123.481316
570.205445	10200.295898
570.560823	10102.600857
570.916145	10028.301811
571.271412	10087.762221
571.626625	10033.595023
571.981782	10011.355973
572.336884	9981.840017
572.691931	9986.306479
573.046923	9944.795098
573.401860	9893.776100
573.756743	9832.074898
574.111570	9874.498728
574.466342	9857.807467
574.821059	9885.886694
575.175722	9776.256722
575.530330	9790.497981
575.884882	9777.751424
576.239380	9707.815497
576.593823	9685.770531
576.948211	9707.475219
577.302544	9585.559954
577.656823	9595.838867
578.011047	9594.679401
578.365216	9571.306092
578.719330	9494.909926
579.073389	9502.151543
579.427394	9457.560017
579.781344	9433.690153
580.135239	9385.935303
580.489080	9387.876147
580.842866	9292.865521
581.196597	9304.351790
581.550273	9339.612140
581.903895	9306.658118
582.257463	9373.259322
582.610975	9252.989994
582.964434	9281.283470
583.317837	9203.508548
583.671186	9180.397378
584.024481	9173.047376
584.377721	9096.159697
584.730906	9076.635309
585.084037	9103.711346
585.437113	9041.800936
585.790135	9060.964882
586.143103	8960.905540
586.496016	8932.682640
586.848874	8994.469542
587.201679	8976.225606
587.554428	8872.219041
587.907124	8912.192870
588.259765	8888.078511
588.612352	8891.995487
588.964884	8765.288606
589.317362	8778.554402
589.669786	8779.184547
590.022155	8830.372423
590.374470	8847.073765
590.726731	8779.640771
591.078937	8636.509810
591.431090	8747.142973
591.783188	8621.096482
592.135232	8614.719423
592.487222	8614.706820
592.839157	8665.098194
593.191038	8597.017411
593.542866	8544.254174
593.894639	8443.312630
594.246358	8495.682657
594.598022	8508.078854
594.949633	8411.775172
595.301190	8388.727017
595.652692	8416.070235
596.004141	8522.410855
596.355535	8302.795508
596.706876	8282.525028
597.058162	8221.043116
597.409395	8298.253428
597.760573	8354.495061
598.111698	8262.219261
598.462768	8250.309535
598.813785	8214.469452
599.164748	8186.985081
599.515657	8178.405037
599.866511	8086.562776
600.217312	8214.711427
600.568060	8074.040549
600.918753	8173.966301
601.269392	8148.967219
601.619978	8056.378867
601.970510	8120.540152
602.320988	8113.701827
602.671412	8171.836413
603.021783	8109.721836
603.372100	8075.996517
603.722363	8082.504647
604.072572	8061.344403
604.422728	8074.723626
604.772830	7998.322419
605.122878	8007.646033
605.472872	8002.405753
605.822813	8033.098818
606.172701	7976.101012
606.522534	8052.600522
606.872314	8048.953247
607.222041	8022.041047
607.571714	8076.934172
607.921333	8032.226699
608.270899	8041.136938
608.620411	8126.506358
608.969870	8033.358438
609.319276	8026.416769
609.668627	8046.931745
610.017926	8076.243534
610.367171	8129.803273
610.716362	8103.054910
611.065500	8096.009898
611.414585	8124.008466
611.763616	8113.406920
612.112594	8086.986232
612.461518	8107.818801
612.810389	8167.929519
613.159207	8105.114222
613.507971	8051.264616
613.856682	8177.177516
614.205340	8125.170452
614.553945	8209.776137
614.902496	8109.154707
615.250994	8160.851739
615.599439	8141.922207
615.947830	8155.780338
616.296169	8126.680278
616.644454	8141.763410
616.992686	8137.808625
617.340864	8192.711832
617.688990	8101.960980
618.037063	8192.169908
618.385082	8138.665621
618.733048	8222.716779
619.080961	8164.882142
619.428821	8182.964761
619.776628	8183.824277
620.124382	8139.303327
620.472083	8122.586861
620.819731	8149.216756
621.167326	8036.413377
621.514868	8046.772948
621.862357	7933.311699
622.209793	7955.613763
622.557176	7893.340390
622.904506	7855.695573
623.251783	7798.670041
623.599007	7750.743792
623.946179	7752.193123
624.293297	7707.200825
624.640363	7631.792725
624.987376	7612.129705
625.334336	7562.479381
625.681243	7512.224118
626.028097	7500.253898
626.374899	7482.221691
626.721647	7468.353477
627.068343	7401.747231
627.414987	7375.374435
627.761577	7329.298289
628.108115	7357.911878
628.454600	7258.878411
628.801032	7312.637275
629.147412	7271.985411
629.493739	7264.038032
629.840014	7202.170471
630.186236	7252.597133
630.532405	7137.202601
630.878521	7190.477515
631.224585	7141.301059
631.570597	7067.029739
631.916556	7100.261026
632.262462	7098.171467
632.608316	7063.992444
632.954117	7037.793568
633.299866	7023.393512
633.645562	7018.604416
633.991206	6939.750687
634.336797	6879.866821
634.682336	6838.675553
635.027823	6804.030223
635.373257	6796.433204
635.718639	6730.008440
636.063968	6742.018989
636.409245	6641.619369
636.754470	6633.049408
637.099642	6595.021464
637.444762	6535.326640
637.789829	6548.060595
638.134845	6489.079095
638.479808	6477.618032
638.824719	6480.824206
639.169577	6407.810654
639.514383	6430.838645
639.859137	6357.361307
640.203839	6363.360280
640.548489	6350.943918
640.893086	6328.833417
641.237632	6302.493388
641.582125	6321.543909
641.926566	6291.470905
642.270955	6306.211239
642.615292	6301.646474
642.959576	6314.067877
643.303809	6304.305683
643.647990	6312.885727
643.992118	6306.790972
644.336195	6249.127734
644.680219	6272.488441
645.024192	6266.582729
645.368112	6361.139652
645.711981	6384.518002
646.055797	6457.186235
646.399562	6414.598567
646.743274	6541.633124
647.086935	6592.510969
647.430544	6590.502069
647.774101	6611.445543
648.117606	6615.649865
648.461059	6608.428412
648.804460	6568.895684
649.147810	6476.309852
649.491108	6450.163908
649.834354	6417.850112
650.177548	6340.758267
650.520690	6261.080309
650.863781	6234.132822
651.206820	6258.983189
651.549807	6174.024624
651.892742	6114.604543
652.235626	6120.719463
652.578458	6109.964161
652.921238	6017.784143
653.263967	6054.743362
653.606644	5996.046687
653.949269	6003.038767
654.291843	5940.089879
654.634365	5992.243137
654.976836	5943.477535
655.319255	5942.544921
655.661622	5925.483136
656.003938	5916.318318
656.346203	5877.705601
656.688416	5910.649541
657.030577	5868.646647
657.372687	5834.084496
657.714746	5821.353062
658.056753	5863.108940
658.398708	5800.994363
658.740612	5794.869361
659.082465	5838.624055
659.424266	5830.873281
659.766016	5832.131049
660.107715	5811.182534
660.449362	5823.641746
660.790958	5818.895500
661.132503	5805.687677
661.473996	5844.643193
661.815438	5827.631819
662.156829	5826.038815
662.498168	5816.926929
662.839456	5796.575791
663.180693	5829.998641
663.521879	5833.378735
663.863013	5821.721067
664.204097	5842.805693
664.545129	5875.724427
664.886110	5872.767790
665.227040	5911.899747
665.567918	5874.000353
665.908746	5900.267285
666.249522	5908.839767
666.590248	5893.260081
666.930922	5921.818217
667.271545	5932.185350
667.612118	5940.180620
667.952639	5910.084932
668.293109	5928.162509
668.633528	5885.985696
668.973896	5891.893928
669.314213	5882.174583
669.654480	5864.762438
669.994695	5861.147931
670.334859	5849.011353
670.674973	5839.564231
671.015035	5847.226784
671.355047	5844.310477
671.695008	5831.644578
672.034918	5803.008303
672.374777	5812.914171
672.714585	5796.858096
673.054342	5805.186082
673.394049	5797.659639
673.733705	5825.612837
674.073310	5810.567514
674.412864	5771.279281
674.752368	5761.973311
675.091820	5769.431698
675.431223	5705.066246
675.770574	5704.922573
676.109875	5661.787940
676.449125	5663.935472
676.788324	5631.732581
677.127473	5575.364919
677.466571	5565.690945
677.805619	5554.134100
678.144616	5541.289240
678.483562	5522.798287
678.822458	5494.482126
679.161303	5484.256146
679.500098	5475.976051
679.838842	5458.384944
680.177535	5463.312672
680.516179	5479.930836
680.854771	5486.912834
681.193314	5569.139094
681.531805	5678.953069
681.870247	5828.229196
682.208638	5924.948774
682.546978	5940.394869
682.885268	5920.187404
683.223508	5833.310679
683.561697	5781.628770
683.899836	5748.301702
684.237925	5706.185382
684.575963	5677.203789
684.913951	5632.513960
685.251889	5696.589546
685.589776	5659.373227
685.927614	5634.933714
686.265401	5699.019382
686.603137	5686.172001
686.940824	5762.129587
687.278460	5785.613802
687.616046	5797.147962
687.953582	5856.845306
688.291068	5845.278378
688.628504	5909.031331
688.965889	5871.610846
689.303224	5812.909130
689.640510	5774.182986
689.977745	5696.702972
690.314930	5593.994503
690.652065	5537.450401
690.989150	5448.337925
691.326185	5371.830853
691.663170	5318.394623
692.000105	5237.801696
692.336990	5166.403834
692.673825	5140.235204
693.010610	5074.400256
693.347345	5007.196634
693.684030	4991.246423
694.020665	4948.936019
694.357251	4859.982339
694.693786	4870.851066
695.030272	4838.519626
695.366707	4803.959996
695.703093	4767.915746
696.039429	4791.253768
696.375716	4772.656951
696.711952	4750.022170
697.048139	4736.499275
697.384276	4718.131831
697.720363	4729.587853
698.056400	4738.785438
698.392388	4688.789795
698.728326	4668.627700
699.064214	4642.547291
699.400053	4639.920850
699.735842	4604.221919
700.071581	4581.657714
700.407270	4555.894898
700.742910	4537.817320
701.078501	4484.199608
701.414042	4484.020647
701.749533	4447.741983
702.084974	4391.230648
702.420366	4443.615798
702.755709	4390.673601
703.091002	4329.942820
703.426246	4380.480388
703.761440	4333.171679
704.096584	4298.493582
704.431679	4321.511491
704.766725	4306.814007
705.101721	4294.652223
705.436668	4322.716326
705.771565	4271.442751
706.106413	4295.695742
706.441212	4330.787214
706.775961	4341.184593
707.110661	4320.349505
707.445311	4347.176005
707.779913	4365.926577
708.114465	4382.978279
708.448967	4403.531064
708.783421	4464.352585
709.117825	4503.318183
709.452180	4511.787322
709.786485	4554.788364
710.120742	4640.208196
710.454949	4624.963746
710.789107	4693.183161
711.123216	4765.087659
711.457275	4757.465434
711.791286	4828.056711
712.125247	4850.005895
712.459159	4747.178960
712.793023	4824.601000
713.126837	4785.816883
713.460602	4779.664155
713.794318	4696.646433
714.127985	4707.114389
714.461602	4616.807159
714.795171	4594.416875
715.128691	4521.617572
715.462162	4467.286536
715.795584	4418.616717
716.128957	4404.272113
716.462281	4349.908310
716.795556	4323.442253
717.128782	4286.924134
717.461960	4218.989545
717.795088	4230.180906
718.128167	4183.512425
718.461198	4127.550576
718.794180	4126.194505
719.127113	4106.833954
719.459997	4087.191098
719.792833	4043.365827
720.125619	4032.582799
720.458357	3994.504443
720.791046	4002.812265
721.123686	3979.567505
721.456278	3934.277778
721.788821	3949.691106
722.121315	3925.959875
722.453761	3898.720000
722.786158	3912.787340
723.118506	3938.582924
723.450805	3887.397568
723.783056	3908.885487
724.115259	3926.758897
724.447412	3931.923560
724.779518	3922.093310
725.111574	3924.825615
725.443582	3959.470945
725.775542	3942.255404
726.107453	3991.905729
726.439315	3996.442767
726.771129	4004.934591
727.102895	4044.268194
727.434612	4091.924742
727.766281	4103.191720
728.097901	4101.812965
728.429473	4109.581383
728.760996	4115.981128
729.092471	4110.478708
729.423897	4094.289043
729.755276	4101.414714
730.086606	4097.517902
730.417887	4138.283192
730.749120	4202.421793
731.080305	4263.994446
731.411442	4292.882778
731.742530	4260.417747
732.073570	4261.267182
732.404562	4320.316737
732.735506	4309.185869
733.066401	4277.053555
733.397249	4208.468657
733.728048	4134.300681
734.058798	4047.484450
734.389501	3980.550530
734.720156	3918.798916
735.050762	3876.642267
735.381320	3870.240001
735.711831	3816.851661
736.042293	3790.604894
736.372707	3809.700785
736.703073	3782.229017
737.033391	3773.280969
737.363661	3790.851910
737.693883	3814.822597
738.024056	3824.368022
738.354182	3818.212773
738.684260	3883.974625
739.014290	3901.396852
739.344272	3897.981471
739.674207	3941.174077
740.004093	3949.108853
740.333931	3938.892955
740.663722	3940.841361
740.993464	3940.516206
741.323159	3913.755241
741.652806	3883.299110
741.982405	3862.222046
742.311956	3829.671316
742.641460	3820.161179
742.970915	3793.140594
743.300323	3751.974532
743.629683	3720.598390
743.958996	3710.445507
744.288260	3686.668904
744.617477	3656.459790
744.946647	3636.958086
745.275768	3614.945888
745.604842	3614.247688
745.933869	3563.029565
746.262847	3555.949265
746.591778	3593.861262
746.920662	3563.019483
747.249498	3528.653937
747.578286	3580.139241
747.907027	3594.751026
748.235720	3592.832867
748.564365	3619.389665
748.892963	3618.275570
749.221514	3602.711008
749.550017	3576.721339
749.878473	3577.250660
750.206881	3548.853841
750.535242	3544.125238
750.863555	3544.904097
751.191821	3537.912016
751.520039	3521.379552
751.848210	3498.464987
752.176334	3533.518651
752.504411	3539.467212
752.832440	3497.479442
753.160421	3482.045949
753.488356	3489.930314
753.816243	3505.567973
754.144082	3462.571972
754.471875	3447.335084
754.799620	3461.841005
755.127318	3453.621403
755.454969	3457.248513
755.782572	3461.407465
756.110129	3439.349897
756.437638	3430.684153
756.765100	3442.921554
757.092515	3451.047894
757.419882	3456.590643
757.747203	3432.909823
758.074477	3435.906789
758.401703	3452.708954
758.728882	3470.153867
759.056014	3478.315495
759.383099	3481.927482
759.710138	3479.268273
760.037129	3494.666478
760.364073	3529.142929
760.690970	3512.849920
761.017820	3485.466372
761.344623	3508.925382
761.671379	3552.624624
761.998088	3600.528188
762.324751	3725.485789
762.651366	3972.250270
762.977935	4444.170325
763.304456	4883.935381
763.630931	4970.721365
763.957359	4614.566367
764.283740	4276.902320
764.610074	4086.218155
764.936362	3893.394021
765.262602	3734.806882
765.588796	3622.663895
765.914943	3534.690719
766.241044	3451.131073
766.567097	3418.255188
766.893104	3372.703322
767.219064	3344.258612
767.544978	3314.145279
767.870845	3260.131836
768.196665	3245.857809
768.522438	3251.536669
768.848165	3246.815628
769.173846	3209.221224
769.499479	3194.591795
769.825066	3176.123528
770.150607	3160.546363
770.476101	3179.317099
770.801548	3174.449865
771.126949	3126.352216
771.452303	3108.262036
771.777611	3115.304527
772.102872	3120.625465
772.428087	3096.866507
772.753256	3084.505598
773.078378	3076.570822
773.403453	3045.774413
773.728482	3032.037269
774.053465	3052.126267
774.378401	3043.445400
774.703291	3008.530368
775.028135	3010.856861
775.352932	3006.218999
775.677683	2997.109634
776.002388	2991.760970
776.327046	2997.578462
776.651658	2982.437356
776.976224	2972.092908
777.300743	2971.314050
777.625216	2962.302988
777.949643	2956.394755
778.274024	2960.790642
778.598359	2946.559464
778.922647	2953.412913
779.246889	2952.901236
779.571086	2939.771551
779.895236	2930.692433
780.219339	2944.679114
780.543397	2954.907615
780.867409	2958.880044
781.191374	2951.071297
781.515294	2947.184567
781.839167	2948.893518
782.162995	2941.621654
782.486776	2950.519291
782.810511	2946.758590
783.134201	2935.741148
783.457844	2940.595779
783.781441	2930.894079
784.104993	2912.473703
784.428498	2912.173754
784.751958	2925.830240
785.075372	2917.461924
785.398739	2903.268556
785.722061	2919.160793
786.045337	2933.303750
786.368568	2916.393200
786.691752	2907.901376
787.014891	2956.525825
787.337983	2985.169662
787.661030	3012.832993
787.984031	3078.635174
788.306987	3124.204685
788.629897	3113.703961
788.952760	3101.262393
789.275579	3088.137749
789.598351	3028.153060
789.921078	2982.727223
790.243759	2974.943681
790.566395	2957.592029
790.888984	2933.744851
791.211529	2917.918149
791.534027	2907.994637
791.856480	2898.565159
792.178888	2884.137377
792.501249	2875.607744
792.823566	2872.167157
793.145836	2871.726056
793.468062	2866.785725
793.790241	2865.041486
794.112375	2868.610623
794.434464	2883.313148
794.756507	2885.012017
795.078505	2892.067112
795.400457	2907.389699
795.722364	2944.439659
796.044226	2964.170735
796.366042	2968.985037
796.687812	2955.323510
797.009538	2973.638022
797.331218	2965.005046
797.652852	2947.739094
797.974442	2934.311981
798.295986	2926.288985
798.617484	2924.043151
798.938938	2908.949936
799.260346	2892.664488
799.581709	2887.746843
799.903026	2879.922972
800.224299	2873.704709
800.545526	2869.404605
800.866708	2850.593539
801.187845	2841.274966
801.508936	2845.567509
801.829983	2849.106399
802.150984	2836.601817
802.471940	2822.668067
802.792851	2824.913901
803.113717	2824.306442
803.434538	2830.252483
803.755314	2824.266113
804.076045	2816.432160
804.396731	2816.873261
804.717372	2816.101964
805.037967	2808.552837
805.358518	2819.013231
805.679024	2830.449088
805.999485	2828.072184
806.319901	2830.809531
806.640272	2820.364260
806.960598	2828.480518
807.280879	2836.581652
807.601115	2842.986438
807.921306	2830.280210
808.241453	2828.384736
808.561554	2832.752896
808.881611	2835.885973
809.201623	2827.331135
809.521590	2827.167297
809.841513	2825.153356
810.161390	2828.712411
810.481223	2823.411637
810.801011	2812.784885
811.120755	2807.751293
811.440453	2810.735656
811.760107	2808.938485
812.079716	2808.779688
812.399281	2797.984057
812.718801	2794.296453
813.038276	2789.396452
813.357707	2795.844088
813.677093	2800.459264
813.996434	2797.895837
814.315731	2794.740075
814.634983	2785.315638
814.954191	2792.169087
815.273354	2801.812814
815.592473	2812.555513
815.911547	2813.200780
816.230577	2819.572799
816.549562	2828.404900
816.868502	2828.374653
817.187399	2835.618792
817.506250	2853.030937
817.825058	2844.392920
818.143821	2857.527646
818.462539	2876.343753
818.781213	2898.451733
819.099843	2938.765840
819.418429	2992.819613
819.736970	3056.912843
820.055466	3126.064870
820.373919	3229.421127
820.692327	3368.632591
821.010691	3534.272303
821.329011	3971.814210
821.647286	4858.512842
821.965517	6217.426438
822.283704	6935.246416
822.601847	6910.622900
822.919945	6294.656915
823.237999	5796.918590
823.556010	5226.517073
823.873976	4679.229247
824.191897	4276.511631
824.509775	3993.813805
824.827609	3724.346488
825.145398	3604.757716
825.463144	3595.519802
825.780845	3685.010365
826.098502	3787.570119
826.416116	4068.256524
826.733685	4376.313874
827.051210	4436.628759
827.368692	4326.293025
827.686129	4059.817633
828.003522	3741.362903
828.320872	3484.483347
828.638177	3295.293884
828.955439	3160.773215
829.272656	3077.266501
829.589830	3012.268384
829.906960	2963.659058
830.224046	2918.616348
830.541088	2883.804661
830.858086	2872.141951
831.175041	2853.862727
831.491952	2854.805423
831.808819	2868.892927
832.125642	2893.193810
832.442421	2939.191818
832.759157	3017.060001
833.075849	3193.555838
833.392497	3471.179742
833.709101	3669.173580
834.025662	3618.268008
834.342179	3460.489975
834.658653	3287.565796
834.975083	3144.500370
835.291469	3044.047818
835.607811	2963.545632
835.924110	2904.117990
836.240366	2853.552696
836.556578	2810.982673
836.872746	2788.791513
837.188871	2767.759820
837.504952	2749.732653
837.820990	2744.479771
838.136984	2729.018552
838.452935	2722.412120
838.768842	2721.479507
839.084706	2737.870818
839.400526	2820.442398
839.716303	2948.442335
840.032037	3024.702390
840.347727	3007.456603
840.663373	2952.049281
840.978977	2878.655122
841.294537	2810.531489
841.610054	2760.417379
841.925527	2738.707650
842.240957	2719.679815
842.556344	2692.606298
842.871687	2679.554751
843.186987	2670.883966
843.502244	2667.660148
843.817458	2662.535815
844.132629	2650.036274
844.447756	2644.075110
844.762840	2633.559263
845.077881	2637.234264
845.392879	2635.119500
845.707833	2632.029273
846.022745	2624.530557
846.337613	2627.136833
846.652438	2626.940228
846.967221	2628.623973
847.281960	2622.113323
847.596656	2622.244393
847.911309	2623.391256
848.225919	2620.111985
848.540485	2615.403547
848.855009	2616.772221
849.169490	2615.602673
849.483928	2617.248610
849.798323	2615.002776
850.112675	2610.896756
850.426984	2612.767024
850.741251	2612.104112
851.055474	2611.673094
851.369654	2617.198198
851.683792	2614.770883
851.997887	2611.441201
852.311938	2613.250975
852.625947	2613.054370
852.939914	2615.738784
853.253837	2616.290791
853.567718	2610.906838
853.881555	2612.572940
854.195350	2615.549741
854.509103	2616.749536
854.822812	2611.322733
855.136479	2612.633433
855.450103	2614.110492
855.763685	2615.758949
856.077224	2614.904473
856.390720	2611.670573
856.704173	2614.297014
857.017584	2618.403034
857.330953	2618.108127
857.644278	2621.183230
857.957561	2619.610390
858.270802	2615.622838
858.584000	2617.321707
858.897155	2619.378497
859.210268	2618.723147
859.523339	2617.692231
859.836367	2610.811056
860.149352	2615.244751
860.462295	2614.997735
860.775195	2611.494133
861.088054	2609.432301
861.400869	2610.914400
861.713642	2605.480036
862.026373	2605.568256
862.339062	2608.003134
862.651708	2611.126128
862.964312	2614.975049
863.276873	2614.256685
863.589392	2619.691049
863.901869	2621.899074
864.214303	2627.156998
864.526696	2627.499796
864.839045	2630.315281
865.151353	2633.332411
865.463619	2632.661938
865.775842	2634.859881
866.088023	2632.016670
866.400162	2634.827113
866.712258	2633.218985
867.024313	2632.520785
867.336325	2629.175980
867.648296	2630.380816
867.960224	2636.765437
868.272110	2633.342493
868.583954	2626.557100
868.895755	2631.499952
869.207515	2631.651186
869.519233	2638.413894
869.830909	2636.100005
870.142542	2632.382154
870.454134	2630.600106
870.765684	2638.991106
871.077191	2640.117804
871.388657	2644.160810
871.700081	2641.239461
872.011463	2640.667290
872.322803	2642.492188
872.634101	2646.290697
872.945357	2653.234887
873.256571	2659.730413
873.567744	2655.596667
873.878874	2655.130360
874.189963	2658.235711
874.501010	2660.907523
874.812015	2665.016063
875.122979	2667.639984
875.433900	2655.899136
875.744780	2654.548107
876.055618	2662.190496
876.366415	2668.726352
876.677169	2664.499345
876.987882	2660.796617
877.298554	2658.805362
877.609183	2670.624347
877.919771	2675.282373
878.230317	2684.600946
878.540822	2693.433047
878.851285	2707.422249
879.161707	2729.275651
879.472087	2764.291506
879.782425	2813.140287
880.092722	2926.130188
880.402977	3111.042232
880.713191	3361.955582
881.023363	3642.604179
881.333494	3827.639731
881.643583	4000.342100
881.953631	3997.662726
882.263637	3821.252589
882.573602	3606.746451
882.883526	3483.991835
883.193408	3372.504197
883.503248	3274.476440
883.813048	3161.834377
884.122806	3048.768858
884.432522	2969.678196
884.742197	2901.211765
885.051831	2868.638349
885.361424	2833.635097
885.670975	2798.624284
885.980485	2769.085643
886.289954	2751.512181
886.599382	2737.487691
886.908768	2724.978067
887.218113	2709.277394
887.527417	2696.845908
887.836680	2688.689322
888.145901	2681.780420
888.455082	2672.502177
888.764221	2664.219561
889.073319	2654.817809
889.382376	2653.993580
889.691392	2656.488951
890.000366	2658.739827
890.309300	2656.216729
890.618193	2659.064981
890.927044	2659.826195
891.235855	2657.766884
891.544625	2660.191679
891.853353	2659.153201
892.162041	2666.006650
892.470687	2687.217305
892.779293	2697.390353
893.087858	2707.344111
893.396381	2726.510578
893.704864	2767.515324
894.013306	2837.993175
894.321707	2926.450302
894.630068	2975.009216
894.938387	2995.763646
895.246665	2987.866679
895.554903	2947.512242
895.863100	2903.197979
896.171256	2846.248064
896.479371	2786.611214
896.787446	2749.450349
897.095480	2731.100549
897.403473	2728.912688
897.711425	2711.815615
898.019336	2695.205013
898.327207	2681.215811
898.635038	2679.577436
898.942827	2677.182888
899.250576	2665.741989
899.558284	2651.319248
899.865952	2650.668939
900.173579	2649.864875
900.481165	2649.244813
900.788711	2638.043369
901.096216	2633.697895
901.403681	2630.136320
901.711105	2632.654376
902.018489	2629.299488
902.325832	2632.130096
902.633135	2629.571710
902.940397	2650.500061
903.247619	2685.304187
903.554800	2754.241966
903.861941	2876.303424
904.169041	2997.538133
904.476101	3056.544838
904.783121	3047.354815
905.090100	2995.244408
905.397039	2922.397214
905.703938	2850.132273
906.010796	2786.913684
906.317614	2737.646487
906.624391	2704.339584
906.931129	2680.338650
907.237826	2656.700680
907.544483	2637.619912
907.851099	2625.422841
908.157675	2616.376490
908.464211	2613.878598
908.770707	2598.576176
909.077163	2596.574838
909.383578	2592.209199
909.689954	2594.699529
909.996289	2590.291040
910.302584	2589.265165
910.608839	2585.985894
910.915054	2589.141657
911.221229	2589.681060
911.527363	2593.759353
911.833458	2592.892275
912.139513	2589.360947
912.445527	2593.010742
912.751502	2596.375712
913.057436	2605.543051
913.363331	2608.492126
913.669186	2614.927158
913.975000	2631.386526
914.280775	2649.963178
914.586510	2667.645025
914.892205	2699.679037
915.197859	2765.967689
915.503475	2845.002899
915.809050	2909.532189
916.114585	2924.380908
916.420081	2933.467588
916.725536	2946.466203
917.030952	2922.563572
917.336328	2876.671428
917.641665	2827.462205
917.946961	2780.319854
918.252218	2749.505802
918.557435	2722.298694
918.862612	2701.955118
919.167750	2685.667150
919.472848	2668.393636
919.777906	2652.826553
920.082925	2642.915645
920.387904	2630.736217
920.692843	2627.104066
920.997743	2624.835546
921.302603	2615.418671
921.607423	2608.913062
921.912204	2604.917947
922.216946	2602.142792
922.521647	2599.435693
922.826310	2595.700198
923.130932	2591.609301
923.435516	2585.201995
923.740059	2584.183682
924.044564	2584.773497
924.349028	2580.135635
924.653454	2573.879563
924.957840	2573.814028
925.262186	2568.301527
925.566493	2569.309757
925.870761	2566.786660
926.174989	2567.605847
926.479178	2565.753223
926.783328	2565.894376
927.087438	2568.039387
927.391509	2562.572255
927.695541	2560.243242
927.999533	2560.611246
928.303486	2558.614949
928.607400	2556.908519
928.911275	2556.240566
929.215110	2556.948848
929.518906	2558.660320
929.822663	2561.175856
930.126381	2555.590257
930.430060	2557.687377
930.733699	2557.200906
931.037299	2560.386915
931.340861	2559.308108
931.644383	2558.778787
931.947866	2561.140568
932.251309	2558.015052
932.554714	2558.753581
932.858080	2557.246276
933.161407	2555.731409
933.464694	2555.426420
933.767943	2556.081770
934.071153	2556.263251
934.374323	2554.508930
934.677455	2552.615976
934.980548	2556.908519
935.283602	2557.450443
935.586617	2554.211502
935.889593	2555.146636
936.192530	2553.165462
936.495428	2553.868703
936.798287	2554.476162
937.101108	2554.796275
937.403890	2560.258366
937.706632	2564.986968
938.009336	2565.092832
938.312002	2570.252453
938.614628	2570.471743
938.917216	2575.205387
939.219765	2573.423339
939.522275	2576.808474
939.824747	2574.360993
940.127179	2572.399985
940.429573	2570.675910
940.731929	2567.714232
941.034246	2565.574262
941.336524	2566.741289
941.638763	2570.111301
941.940964	2568.233471
942.243126	2565.793552
942.545250	2565.213820
942.847335	2563.547718
943.149381	2562.181566
943.451389	2563.552760
943.753359	2559.497151
944.055290	2560.273489
944.357182	2560.049158
944.659036	2559.053530
944.960851	2558.004970
945.262628	2559.978582
945.564367	2556.429609
945.866067	2558.617470
946.167729	2559.948335
946.469352	2561.155691
946.770937	2557.846173
947.072484	2557.047151
947.373992	2556.452294
947.675462	2559.771894
947.976893	2556.931204
948.278286	2555.938097
948.579641	2554.491286
948.880958	2554.650082
949.182236	2555.151677
949.483476	2553.649413
949.784678	2552.686553
950.085841	2552.605894
950.386967	2553.195709
950.688054	2552.409289
950.989103	2554.871893
951.290114	2555.270144
951.591087	2559.499672
951.892021	2559.076215
952.192917	2562.935218
952.493776	2561.427913
952.794596	2562.519323
953.095378	2561.357337
953.396122	2566.562328
953.696828	2562.632749
953.997496	2559.640824
954.298126	2558.395659
954.598718	2559.277861
954.899272	2555.008004
955.199788	2556.200237
955.500266	2553.034392
955.800706	2549.976932
956.101108	2547.088351
956.401472	2549.495502
956.701798	2546.105326
957.002087	2545.555840
957.302337	2550.208825
957.602550	2546.158258
957.902724	2545.195398
958.202861	2545.719678
958.502960	2543.015099
958.803022	2546.334699
959.103045	2545.346633
959.403031	2547.103475
959.702979	2543.993083
960.002889	2543.551982
960.302762	2543.047866
960.602596	2544.862682
960.902393	2541.210366
961.202153	2540.935623
961.501875	2543.458720
961.801559	2542.856302
962.101205	2542.795809
962.400814	2543.478885
962.700385	2542.160623
962.999918	2541.951415
963.299414	2539.965201
963.598873	2542.894111
963.898293	2540.486960
964.197677	2543.647764
964.497022	2542.200953
964.796331	2543.234389
965.095601	2539.725746
965.394835	2541.472506
965.694030	2540.635674
965.993189	2541.976621
966.292309	2539.887063
966.591393	2541.149872
966.890439	2538.631816
967.189447	2540.416384
967.488419	2539.377906
967.787353	2540.867567
968.086249	2540.401261
968.385108	2543.032743
968.683930	2539.607279
968.982714	2541.512835
969.281462	2541.336395
969.580172	2540.103833
969.878844	2538.493184
970.177480	2543.234389
970.476078	2540.945705
970.774639	2541.626261
971.073162	2540.073586
971.371649	2539.950077
971.670098	2538.679707
971.968510	2539.246836
972.266885	2534.719880
972.565223	2540.834800
972.863524	2538.757844
973.161788	2539.193904
973.460014	2542.488298
973.758204	2541.865716
974.056356	2541.843031
974.354471	2542.705068
974.652550	2542.904193
974.950591	2540.721374
975.248595	2540.297917
975.546563	2540.965870
975.844493	2541.444779
976.142386	2542.064841
976.440243	2539.929913
976.738062	2539.448483
977.035845	2540.711292
977.333590	2540.335726
977.631299	2537.026208
977.928971	2540.330684
978.226606	2538.828421
978.524204	2536.955632
978.821765	2540.199614
979.119290	2540.754141
979.416777	2542.062321
979.714228	2538.767927
980.011642	2538.407484
980.309020	2540.123997
980.606360	2538.530992
980.903664	2540.262629
981.200931	2539.778678
981.498162	2538.384799
981.795356	2544.192208
982.092513	2548.799823
982.389633	2550.418033
982.686717	2551.683363
982.983764	2553.725030
983.280775	2555.345761
983.577749	2556.250648
983.874686	2551.789227
984.171587	2548.215049
984.468451	2547.428629
984.765279	2543.267157
985.062070	2545.903680
985.358824	2543.514173
985.655543	2540.560057
985.952224	2542.208514
986.248869	2541.548123
986.545478	2534.770292
986.842050	2539.398071
987.138586	2533.119314
987.435086	2536.068389
987.731549	2531.231402
988.027975	2535.045035
988.324366	2538.006713
988.620719	2536.756506
988.917037	2536.738862
989.213318	2537.036290
989.509563	2535.589479
989.805772	2535.990251
990.101944	2535.024870
990.398080	2537.293389
990.694180	2535.637370
990.990244	2538.362114
991.286271	2534.709798
991.582262	2536.257432
991.878217	2537.865560
992.174136	2536.189377
992.470019	2538.089892
992.765865	2539.309851
993.061676	2536.605272
993.357450	2539.619882
993.653188	2537.439583
993.948890	2538.238606
994.244556	2535.564273
994.540186	2538.669624
994.835780	2539.317412
995.131337	2536.577545
995.426859	2538.941847
995.722345	2538.893956
996.017795	2539.206507
996.313208	2541.323792
996.608586	2541.245654
996.903928	2538.886394
997.199234	2541.235572
997.494504	2539.738349
997.789738	2540.325643
998.084936	2538.906558
998.380099	2537.779861
998.675225	2539.075437
998.970316	2540.860006
999.265371	2539.206507
999.560390	2537.991589
999.855373	2533.988913
1000.150320	2535.917154
1000.445232	2537.358924
1000.740108	2537.497556
1001.034948	2535.357586
1001.329752	2535.372710
1001.624521	2537.389171
1001.919254	2531.178470
1002.213951	2532.534540
1002.508613	2531.977492
1002.803239	2535.496218
1003.097829	2532.184180
1003.392384	2535.833975
1003.686903	2536.630477
1003.981386	2533.078985
1004.275834	2536.282638
1004.570246	2535.760878
1004.864623	2533.071423
1005.158964	2536.118800
1005.453270	2532.673172
1005.747540	2539.355221
1006.041775	2534.157792
1006.335974	2534.349355
1006.630138	2535.405477
1006.924266	2535.032432
1007.218359	2533.724252
1007.512416	2534.324150
1007.806438	2535.488656
1008.100425	2534.447658
1008.394376	2536.759027
1008.688292	2535.211393
1008.982172	2535.319777
1009.276017	2536.610313
1009.569827	2534.422452
1009.863602	2537.792463
1010.157341	2533.477236
1010.451045	2533.217616
1010.744714	2536.033101
1011.038347	2535.067720
1011.331945	2533.222657
1011.625508	2533.963707
1011.919036	2535.445806
1012.212528	2534.719880
1012.505986	2534.782895
1012.799408	2533.646114
1013.092795	2535.743234
1013.386147	2534.503111
1013.679464	2535.004705
1013.972745	2533.883049
1014.265992	2533.141999
1014.559204	2534.992103
1014.852380	2533.638553
1015.145521	2536.653163
1015.438628	2534.767771
1015.731699	2533.217616
1016.024736	2534.815662
1016.317737	2535.783564
1016.610703	2534.417411
1016.903635	2530.568490
1017.196531	2530.886083
1017.489393	2531.952287
1017.782219	2527.669827
1018.075011	2535.007226
1018.367768	2535.665097
1018.660490	2534.828265
1018.953177	2534.828265
1019.245829	2534.828265
