Dividing Wavelength (nm)	Counts (n)	Blue Motor Position (mm): 29.300000	Red Motor Position (mm): 0.000000	
326.493990	2130.961266
326.888308	2130.961266
327.282561	2130.961266
327.676750	2097.573704
328.070874	2095.574886
328.464933	2099.214599
328.858929	2105.846237
329.252859	2117.967692
329.646726	2130.235340
330.040528	2138.369241
330.434265	2158.085194
330.827938	2173.327123
331.221547	2193.544670
331.615091	2210.248533
332.008571	2229.142778
332.401986	2249.267064
332.795338	2270.679365
333.188625	2288.225101
333.581847	2307.767134
333.975006	2327.233550
334.368100	2346.631910
334.761129	2362.491380
335.154095	2377.992928
335.546996	2398.623850
335.939833	2423.844742
336.332606	2439.580704
336.725315	2450.275512
337.117960	2458.570731
337.510540	2470.336784
337.903056	2479.864565
338.295508	2490.403097
338.687896	2497.062461
339.080220	2503.552947
339.472480	2512.017044
339.864676	2513.579802
340.256807	2522.243024
340.648875	2522.114475
341.040879	2526.487676
341.432818	2526.457429
341.824694	2529.222502
342.216506	2526.200330
342.608253	2532.285003
342.999937	2530.457585
343.391557	2528.584796
343.783113	2528.763757
344.174605	2526.306194
344.566033	2522.621111
344.957397	2524.075484
345.348697	2521.338137
345.739934	2518.885616
346.131106	2517.249762
346.522215	2516.738084
346.913260	2514.721623
347.304241	2513.194153
347.695159	2509.682990
348.086012	2512.327075
348.476802	2505.571929
348.867528	2504.946826
349.258191	2505.125787
349.648789	2503.247957
350.039324	2503.462206
350.429796	2500.014057
350.820203	2500.674448
351.210548	2499.419200
351.600828	2498.698315
351.991045	2496.581031
352.381198	2495.852584
352.771288	2498.342914
353.161314	2495.109014
353.551276	2494.635145
353.941175	2496.139930
354.331010	2494.398211
354.720782	2496.646566
355.110490	2495.913078
355.500135	2493.894096
355.889717	2494.849394
356.279235	2495.817296
356.668689	2493.959631
357.058080	2496.606237
357.447408	2495.383757
357.836672	2490.962665
358.225873	2495.567759
358.615010	2493.140443
359.004084	2499.202431
359.393095	2496.487769
359.782043	2500.044303
360.170927	2499.419200
360.559748	2501.652432
360.948505	2501.680158
361.337199	2504.175529
361.725830	2503.759634
362.114398	2500.979438
362.502903	2503.764675
362.891344	2503.714263
363.279722	2504.450272
363.668037	2504.077227
364.056289	2502.857267
364.444478	2503.701661
364.832603	2506.118894
365.220665	2508.609224
365.608665	2504.901455
365.996601	2507.933709
366.384474	2506.101250
366.772284	2508.200890
367.160031	2507.691734
367.547715	2506.625530
367.935336	2507.522855
368.322893	2508.490757
368.710388	2508.054697
369.097820	2513.582322
369.485189	2507.003616
369.872495	2510.819770
370.259738	2508.498318
370.646918	2506.406240
371.034035	2511.510408
371.421090	2513.237003
371.808081	2510.209790
372.195010	2511.729698
372.581875	2512.294307
372.968678	2514.560306
373.355418	2512.959740
373.742096	2509.572084
374.128710	2512.843793
374.515262	2513.685666
374.901751	2514.066273
375.288177	2512.659791
375.674540	2513.141221
376.060841	2512.863958
376.447079	2515.316479
376.833254	2514.595594
377.219367	2509.488905
377.605417	2512.354801
377.991404	2510.010665
378.377329	2511.107116
378.763191	2509.186436
379.148991	2516.889319
379.534727	2513.897394
379.920402	2518.318486
380.306013	2515.684483
380.691563	2518.346213
381.077049	2513.998217
381.462474	2516.402848
381.847835	2516.155831
382.233134	2515.152642
382.618371	2516.541479
383.003545	2517.895029
383.388657	2517.141377
383.773706	2517.731192
384.158693	2520.642458
384.543618	2521.501975
384.928480	2515.162724
385.313280	2520.488703
385.698017	2516.864113
386.082692	2522.641276
386.467305	2518.925945
386.851856	2521.524660
387.236344	2520.957530
387.620770	2522.898374
388.005133	2519.878723
388.389435	2523.130267
388.773674	2520.425688
389.157851	2519.798065
389.541965	2523.813344
389.926018	2524.561955
390.310008	2522.686646
390.693936	2522.553055
391.077802	2523.140350
391.461606	2522.769825
391.845348	2521.068436
392.229027	2522.946265
392.612645	2523.163035
392.996200	2523.152953
393.379694	2525.313087
393.763125	2522.651358
394.146494	2524.947603
394.529801	2523.589013
394.913047	2524.584640
395.296230	2526.235618
395.679351	2524.715710
396.062410	2525.219826
396.445408	2524.965248
396.828343	2525.880217
397.211217	2519.732530
397.594028	2526.565814
397.976778	2523.074815
398.359466	2526.880886
398.742092	2522.663961
399.124656	2527.241328
399.507158	2529.146885
399.889598	2529.280475
400.271977	2528.806607
400.654294	2528.967924
401.036549	2527.649662
401.418742	2525.504651
401.800874	2528.680578
402.182944	2528.403314
402.564952	2527.992460
402.946898	2530.689478
403.328783	2529.885414
403.710606	2530.263500
404.092367	2532.254756
404.474067	2530.976823
404.855705	2532.761392
405.237282	2531.944725
405.618797	2530.011442
406.000250	2530.933974
406.381642	2532.335414
406.762972	2534.747607
407.144240	2532.176618
407.525447	2534.336753
407.906593	2533.353727
408.287677	2533.983872
408.668700	2531.901875
409.049661	2533.711649
409.430560	2535.415559
409.811399	2535.680220
410.192176	2534.697195
410.572891	2532.738707
410.953545	2534.104859
411.334138	2534.205683
411.714669	2534.727442
412.095139	2534.432534
412.475547	2533.313398
412.855894	2536.559901
413.236180	2536.640560
413.616405	2536.186856
413.996568	2538.067206
414.376670	2536.368337
414.756711	2539.055273
415.136691	2540.275232
415.516609	2538.878832
415.896466	2538.881353
416.276262	2537.946219
416.655997	2537.426980
417.035670	2536.179294
417.415283	2539.516538
417.794834	2534.026722
418.174324	2537.179963
418.553753	2537.779861
418.933121	2542.047197
419.312428	2541.938813
419.691674	2540.764224
420.070859	2541.913607
420.449983	2541.931251
420.829045	2539.577032
421.208047	2541.384286
421.586988	2544.618186
421.965867	2543.725902
422.344686	2543.347815
422.723444	2546.700182
423.102141	2545.722198
423.480777	2547.537014
423.859352	2545.092054
424.237866	2546.475851
424.616319	2547.673125
424.994712	2551.413661
425.373044	2549.361912
425.751314	2551.910215
426.129524	2551.607746
426.507673	2555.807027
426.885762	2554.939948
427.263789	2562.705846
427.641756	2559.731565
428.019662	2565.760785
428.397508	2567.356310
428.775292	2572.563822
429.153016	2577.831828
429.530679	2583.697210
429.908282	2589.040833
430.285824	2591.712645
430.663305	2604.323091
431.040726	2606.856271
431.418086	2614.130656
431.795385	2624.928808
432.172624	2635.283338
432.549802	2645.731129
432.926920	2656.990546
433.303977	2667.385405
433.680974	2684.406861
434.057910	2692.886082
434.434786	2708.241437
434.811601	2720.531770
435.188355	2744.389030
435.565050	2753.601739
435.941683	2771.926333
436.318257	2800.665951
436.694770	2819.802171
437.071222	2844.125739
437.447614	2857.499920
437.823946	2869.381919
438.200218	2905.572363
438.576429	2917.701379
438.952580	2953.700259
439.328670	2985.986328
439.704700	2999.834378
440.080670	3025.541742
440.456580	3092.959613
440.832429	3104.652569
441.208218	3112.690689
441.583947	3166.550377
441.959616	3200.926005
442.335224	3224.082545
442.710773	3282.378448
443.086261	3329.213288
443.461689	3320.867658
443.837057	3390.841394
444.212365	3471.177222
444.587612	3484.185919
444.962800	3565.734144
445.337927	3602.821913
445.712995	3541.733211
446.088002	3750.265581
446.462949	3747.155189
446.837837	3775.390692
447.212664	3868.077346
447.587431	3978.612206
447.962139	4235.015373
448.336786	4630.632524
448.711374	4589.506791
449.085901	4297.187923
449.460369	4321.637519
449.834776	4348.791695
450.209124	4582.265173
450.583412	4721.370772
450.957640	4826.922452
451.331808	4794.414571
451.705917	4639.015963
452.079965	4646.983506
452.453954	4819.726205
452.827883	4809.437210
453.201752	4916.571811
453.575562	4856.698027
453.949311	5033.791241
454.323001	5015.262480
454.696632	5116.206545
455.070202	5257.313482
455.443713	5401.873610
455.817164	5521.588411
456.190556	5635.674763
456.563888	5743.089149
456.937160	5822.303320
457.310373	5654.057331
457.683526	5724.162137
458.056619	5702.301173
458.429653	5743.482359
458.802628	5740.739971
459.175542	5862.945102
459.548398	6177.871024
459.921194	6344.279512
460.293930	6383.981120
460.666607	6835.915521
461.039224	7111.162521
461.411782	7268.086078
461.784280	7342.299425
462.156719	7315.805641
462.529099	7275.836852
462.901419	6990.633573
463.273680	6944.665812
463.645882	6992.342525
464.018024	6927.067144
464.390106	7103.119360
464.762130	7474.448232
465.134094	7915.599605
465.505999	8819.138211
465.877845	9926.649464
466.249631	10559.944416
466.621358	10291.470207
466.993026	9796.940576
467.364634	9608.986196
467.736184	9323.172938
468.107674	9051.711844
468.479105	9107.109084
468.850477	8921.055219
469.221790	8736.347342
469.593043	8453.402500
469.964238	8347.974329
470.335373	8384.056388
470.706449	8458.514230
471.077467	8452.820247
471.448425	9730.546059
471.819324	10769.427044
472.190164	10804.142950
472.560945	9624.223083
472.931667	8881.479640
473.302330	8761.800127
473.672934	8432.832072
474.043479	8789.465980
474.413965	8746.399402
474.784393	8645.273856
475.154761	8797.947721
475.525070	8891.652689
475.895321	8728.780570
476.265513	8914.983149
476.635645	9085.782482
477.005719	9093.560983
477.375734	9213.056493
477.745691	9441.274569
478.115588	9586.048946
478.485427	9831.001132
478.855207	10357.161482
479.224928	11169.185503
479.594591	11797.063735
479.964194	11613.298554
480.333739	11554.634646
480.703226	11470.807820
481.072653	11568.712068
481.442022	11811.010087
481.811333	11996.993376
482.180584	11803.834004
482.549777	11521.783967
482.918912	11345.704025
483.287988	11368.328724
483.657005	11379.141999
484.025964	11072.405431
484.394864	11201.645492
484.763706	11172.487458
485.132489	10927.883112
485.501213	10899.256920
485.869879	10978.468570
486.238487	10818.424539
486.607036	10932.578947
486.975527	10716.434435
487.343959	10898.578885
487.712333	10955.070055
488.080648	10884.816535
488.448905	10924.157699
488.817104	10871.149967
489.185244	11130.003134
489.553326	11290.553802
489.921350	11836.508243
490.289315	12871.807488
490.657222	13219.321949
491.025070	13125.886683
491.392861	13000.359432
491.760593	12620.037141
492.128267	12277.263886
492.495883	11947.844646
492.863440	11614.236208
493.230939	11285.915941
493.598380	11217.459592
493.965763	11089.857906
494.333088	10984.512914
494.700354	10905.114741
495.067563	10977.687192
495.434713	10794.380755
495.801805	10931.492578
496.168839	10853.032060
496.535815	10786.062852
496.902733	10786.466144
497.269593	10729.576723
497.636395	10825.464510
498.003139	10818.903448
498.369825	10685.360762
498.736453	10838.392549
499.103023	10763.859089
499.469535	10793.485951
499.835989	10781.538416
500.202385	10745.905020
500.568723	10601.725499
500.935003	10821.965949
501.301226	10628.511670
501.667390	10886.157482
502.033497	10982.256997
502.399546	10841.901192
502.765537	10750.588252
503.131470	10821.073665
503.497345	10999.591005
503.863163	10607.432086
504.228923	10921.153172
504.594625	10984.709519
504.960269	10731.822557
505.325856	10953.381268
505.691385	10743.081974
506.056856	10902.924359
506.422270	10928.127608
506.787625	10815.006636
507.152924	10929.771024
507.518164	10905.465101
507.883347	10834.422640
508.248472	10759.685014
508.613540	10993.445838
508.978550	10870.197189
509.343503	10848.986534
509.708398	10965.492640
510.073236	11080.226781
510.438016	11084.244581
510.802738	11032.391272
511.167403	11089.250447
511.532010	10986.703295
511.896561	11216.085878
512.261053	11283.102977
512.625488	11154.586321
512.989866	11132.279215
513.354186	11124.359563
513.718449	11023.904490
514.082655	11217.474715
514.446803	11115.227512
514.810894	11235.751419
515.174927	11105.311563
515.538904	11124.346960
515.902822	11272.874476
516.266684	11166.808599
516.630488	11102.937179
516.994235	11165.150059
517.357925	11220.849768
517.721558	11320.969604
518.085133	11324.604276
518.448651	11330.212559
518.812112	11220.093595
519.175516	11235.809392
519.538863	11349.189983
519.902152	11268.672674
520.265385	11425.886098
520.628560	11335.556182
520.991678	11319.490025
521.354739	11386.229861
521.717743	11317.138327
522.080690	11296.706530
522.443580	11431.696028
522.806413	11385.272042
523.169189	11415.266907
523.531908	11474.336627
523.894569	11295.789040
524.257174	11305.064763
524.619722	11415.471074
524.982213	11366.067766
525.344647	11421.938874
525.707025	11361.447549
526.069345	11457.037908
526.431608	11372.994312
526.793815	11484.537402
527.155964	11276.788932
527.518057	11326.124184
527.880093	11277.900506
528.242072	11342.954076
528.603995	11253.082906
528.965860	11174.970227
529.327669	11223.375386
529.689421	11171.829588
530.051117	11149.295630
530.412755	11249.682647
530.774337	11140.029989
531.135862	11124.503236
531.497331	11144.279682
531.858743	10993.024902
532.220098	11161.656539
532.581396	11040.278158
532.942638	11016.252018
533.303824	10972.978754
533.664953	10994.814512
534.026025	10903.746068
534.387040	11009.275062
534.747999	11012.254383
535.108902	11065.345295
535.469748	10818.454786
535.830537	10935.815368
536.191270	10907.494165
536.551947	10923.756928
536.912567	10931.122053
537.273131	10855.386279
537.633638	10829.815026
537.994089	10815.851030
538.354483	10775.408373
538.714821	10917.505897
539.075103	10919.592935
539.435328	10887.453058
539.795497	10717.598941
540.155609	10875.714732
540.515665	10959.395365
540.875665	10689.134066
541.235609	10769.671540
541.595496	10763.012176
541.955328	10914.085474
542.315102	10795.328492
542.674821	10756.993038
543.034483	10750.255536
543.394090	10758.480178
543.753640	10683.480412
544.113134	10902.919318
544.472571	10762.578636
544.831953	10906.894268
545.191278	10711.274814
545.550548	10735.802548
545.909761	10868.853721
546.268918	10845.205668
546.628019	10928.203225
546.987064	10793.059973
547.346053	10713.883611
547.704986	10815.109980
548.063863	10805.667899
548.422684	10796.603904
548.781449	10712.293127
549.140158	10817.905300
549.498811	10695.629593
549.857408	10544.919257
550.215949	10774.732858
550.574434	10629.540066
550.932864	10725.087575
551.291237	10783.610330
551.649555	10732.679553
552.007817	10752.587069
552.366022	10701.880623
552.724173	10702.949348
553.082267	10684.886894
553.440305	10819.024436
553.798288	10626.525456
554.156215	10774.874011
554.514086	10750.915927
554.871902	10606.108783
555.229661	10640.504575
555.587365	10614.668662
555.945014	10514.727787
556.302606	10638.634307
556.660143	10524.348829
557.017625	10687.228510
557.375050	10581.074413
557.732421	10715.438807
558.089735	10629.232555
558.446994	10626.192740
558.804197	10669.745788
559.161345	10665.382670
559.518437	10517.971769
559.875474	10608.463002
560.232455	10635.113061
560.589381	10590.529097
560.946251	10583.325288
561.303065	10686.870588
561.659825	10622.815167
562.016528	10552.004599
562.373177	10429.847359
562.729770	10549.088292
563.086307	10463.537390
563.442789	10552.939733
563.799216	10435.748030
564.155587	10487.505556
564.511904	10437.953534
564.868164	10421.191698
565.224370	10439.846488
565.580520	10370.908709
565.936615	10373.527588
566.292654	10242.177804
566.648638	10372.410973
567.004567	10330.811371
567.360441	10318.624382
567.716260	10225.514270
568.072023	10325.198046
568.427732	10270.297360
568.783385	10181.081540
569.138982	10247.990255
569.494525	10265.314180
569.850013	10145.433021
570.205445	10223.833045
570.560823	10118.079720
570.916145	10035.465291
571.271412	10113.454461
571.626625	10053.169823
571.981782	10029.599908
572.336884	10003.733748
572.691931	10002.276854
573.046923	9955.124422
573.401860	9907.407380
573.756743	9842.404222
574.111570	9890.486747
574.466342	9872.389005
574.821059	9903.137523
575.175722	9796.663312
575.530330	9808.812493
575.884882	9796.875041
576.239380	9726.213188
576.593823	9702.053458
576.948211	9720.189009
577.302544	9598.379608
577.656823	9610.987534
578.011047	9619.978432
578.365216	9591.135470
578.719330	9517.138893
579.073389	9532.844608
579.427394	9475.604827
579.781344	9451.319068
580.135239	9395.006859
580.489080	9402.944156
580.842866	9317.158841
581.196597	9317.932658
581.550273	9354.503709
581.903895	9322.978853
582.257463	9392.604749
582.610975	9265.058516
582.964434	9292.310994
583.317837	9219.108399
583.671186	9197.222229
584.024481	9194.681488
584.377721	9113.828942
584.730906	9086.573943
585.084037	9118.761711
585.437113	9053.214108
585.790135	9077.991379
586.143103	8976.530596
586.496016	8949.094116
586.848874	9005.716356
587.201679	8996.531374
587.554428	8882.661791
587.907124	8932.382691
588.259765	8891.514057
588.612352	8901.669462
588.964884	8782.299980
589.317362	8794.701218
589.669786	8790.050754
590.022155	8843.290379
590.374470	8860.266465
590.726731	8795.333883
591.078937	8646.904670
591.431090	8758.553624
591.783188	8632.555025
592.135232	8627.864232
592.487222	8621.371225
592.839157	8676.420625
593.191038	8609.892518
593.542866	8555.279178
593.894639	8456.157490
594.246358	8507.678083
594.598022	8525.261627
594.949633	8419.727592
595.301190	8396.495435
595.652692	8423.142974
596.004141	8536.090026
596.355535	8311.267167
596.706876	8296.471381
597.058162	8230.003767
597.409395	8306.805746
597.760573	8366.321608
598.111698	8276.621837
598.462768	8261.528623
598.813785	8227.150474
599.164748	8198.728449
599.515657	8182.110285
599.866511	8095.684743
600.217312	8223.162921
600.568060	8081.743432
600.918753	8188.169752
601.269392	8149.284812
601.619978	8064.374137
601.970510	8134.783933
602.320988	8129.765464
602.671412	8180.292949
603.021783	8119.131150
603.372100	8091.142664
603.722363	8095.440247
604.072572	8072.417298
604.422728	8080.064728
604.772830	8011.530242
605.122878	8016.599122
605.472872	8014.325562
605.822813	8040.663070
606.172701	7985.643917
606.522534	8058.889362
606.872314	8059.330462
607.222041	8034.137296
607.571714	8084.717713
607.921333	8041.416722
608.270899	8047.645068
608.620411	8145.466138
608.969870	8040.272380
609.319276	8040.063173
609.668627	8057.069505
610.017926	8091.314063
610.367171	8138.809294
610.716362	8111.629913
611.065500	8105.875436
611.414585	8129.309240
611.763616	8117.606201
612.112594	8098.661545
612.461518	8115.909853
612.810389	8174.984614
613.159207	8118.342209
613.507971	8056.459525
613.856682	8187.678239
614.205340	8139.295765
614.553945	8212.720171
614.902496	8115.050336
615.250994	8171.864140
615.599439	8150.640882
615.947830	8162.033890
616.296169	8134.030280
616.644454	8150.083835
616.992686	8145.713154
617.340864	8207.603400
617.688990	8109.759645
618.037063	8202.985703
618.385082	8151.384452
618.733048	8234.394612
619.080961	8172.630395
619.428821	8190.203858
619.776628	8195.040845
620.124382	8148.682394
620.472083	8130.705639
620.819731	8157.448960
621.167326	8050.329482
621.514868	8061.596461
621.862357	7947.739481
622.209793	7961.464022
622.557176	7898.822645
622.904506	7869.767954
623.251783	7799.650546
623.599007	7754.721262
623.946179	7768.236595
624.293297	7719.617187
624.640363	7636.614589
624.987376	7622.650593
625.334336	7565.098260
625.681243	7517.146805
626.028097	7503.132397
626.374899	7482.133471
626.721647	7474.980073
627.068343	7404.479537
627.414987	7378.885599
627.761577	7333.318609
628.108115	7379.636731
628.454600	7267.140862
628.801032	7315.510733
629.147412	7276.582943
629.493739	7264.839575
629.840014	7204.141562
630.186236	7258.787670
630.532405	7145.870865
630.878521	7192.993051
631.224585	7155.701115
631.570597	7078.543735
631.916556	7114.928263
632.262462	7101.430573
632.608316	7065.134266
632.954117	7042.156686
633.299866	7027.673451
633.645562	7024.507607
633.991206	6950.120341
634.336797	6890.659931
634.682336	6846.509506
635.027823	6815.055226
635.373257	6800.652650
635.718639	6731.644295
636.063968	6749.432006
636.409245	6648.281254
636.754470	6640.412013
637.099642	6600.571774
637.444762	6543.231170
637.789829	6555.380350
638.134845	6497.127297
638.479808	6482.074412
638.824719	6486.119938
639.169577	6413.454226
639.514383	6438.443225
639.859137	6364.494539
640.203839	6372.552824
640.548489	6360.028077
640.893086	6337.224418
641.237632	6309.659388
641.582125	6330.111350
641.926566	6297.414426
642.270955	6311.438916
642.615292	6305.820550
642.959576	6321.317057
643.303809	6310.508823
643.647990	6315.338248
643.992118	6309.147711
644.336195	6257.375061
644.680219	6280.894565
645.024192	6273.531959
645.368112	6365.079313
645.711981	6386.431120
646.055797	6465.015147
646.399562	6418.044196
646.743274	6547.334669
647.086935	6600.927175
647.430544	6593.347801
647.774101	6615.271779
648.117606	6619.922243
648.461059	6612.655420
648.804460	6572.101858
649.147810	6489.520196
649.491108	6456.997192
649.834354	6433.465086
650.177548	6344.980233
650.520690	6262.264981
650.863781	6242.231435
651.206820	6262.837152
651.549807	6183.691036
651.892742	6124.422190
652.235626	6130.947964
652.578458	6116.300892
652.921238	6022.207755
653.263967	6065.622172
653.606644	6005.430795
653.949269	6006.809551
654.291843	5946.575324
654.634365	5994.403271
654.976836	5949.189162
655.319255	5950.020953
655.661622	5929.742911
656.003938	5923.627992
656.346203	5884.415376
656.688416	5919.164050
657.030577	5868.913828
657.372687	5841.361402
657.714746	5826.686603
658.056753	5871.580599
658.398708	5814.277803
658.740612	5803.530063
659.082465	5849.369275
659.424266	5840.179251
659.766016	5842.982133
660.107715	5817.703267
660.449362	5833.033416
660.790958	5826.235420
661.132503	5808.412420
661.473996	5852.489749
661.815438	5838.195557
662.156829	5836.791596
662.498168	5827.800698
662.839456	5805.002080
663.180693	5840.461556
663.521879	5836.877296
663.863013	5825.033105
664.204097	5848.739131
664.545129	5886.149533
664.886110	5882.464450
665.227040	5911.960241
665.567918	5882.582917
665.908746	5912.116517
666.249522	5913.719604
666.590248	5900.443725
666.930922	5929.773158
667.271545	5935.363798
667.612118	5949.012722
667.952639	5921.609009
668.293109	5937.309683
668.633528	5894.656480
668.973896	5898.898611
669.314213	5890.742024
669.654480	5877.866918
669.994695	5869.196133
670.334859	5856.079051
670.674973	5845.550601
671.015035	5853.613926
671.355047	5853.447568
671.695008	5840.469118
672.034918	5810.701104
672.374777	5823.321633
672.714585	5807.439478
673.054342	5811.676568
673.394049	5807.565507
673.733705	5836.804199
674.073310	5822.084030
674.412864	5786.672444
674.752368	5774.886227
675.091820	5778.258759
675.431223	5713.923553
675.770574	5717.404470
676.109875	5667.423950
676.449125	5672.538201
676.788324	5637.171986
677.127473	5583.045117
677.466571	5574.008849
677.805619	5567.415020
678.144616	5549.279469
678.483562	5528.920769
678.822458	5504.617366
679.161303	5489.151106
679.500098	5481.400332
679.838842	5468.966326
680.177535	5475.015711
680.516179	5488.745293
680.854771	5494.668649
681.193314	5579.896917
681.531805	5692.291962
681.870247	5840.648079
682.208638	5939.610970
682.546978	5952.455830
682.885268	5927.081182
683.223508	5844.948183
683.561697	5791.358197
683.899836	5757.181694
684.237925	5716.232402
684.575963	5682.741496
684.913951	5640.552080
685.251889	5704.627666
685.589776	5671.192213
685.927614	5647.246732
686.265401	5711.239139
686.603137	5696.702972
686.940824	5774.170383
687.278460	5797.725174
687.616046	5811.190096
687.953582	5874.043202
688.291068	5853.533268
688.628504	5919.998361
688.965889	5882.088884
689.303224	5827.614175
689.640510	5777.724396
689.977745	5700.632551
690.314930	5604.369198
690.652065	5549.947422
690.989150	5455.851764
691.326185	5382.190424
691.663170	5328.479451
692.000105	5252.715950
692.336990	5172.765770
692.673825	5150.299868
693.010610	5081.735135
693.347345	5009.707128
693.684030	4997.303369
694.020665	4957.810970
694.357251	4871.975244
694.693786	4877.644021
695.030272	4842.645811
695.366707	4811.577179
695.703093	4777.478815
696.039429	4798.825581
696.375716	4779.991830
696.711952	4752.852778
697.048139	4744.560080
697.384276	4723.656936
697.720363	4736.216971
698.056400	4752.580556
698.392388	4696.679201
698.728326	4671.612063
699.064214	4653.741173
699.400053	4651.812932
699.735842	4613.230461
700.071581	4588.322120
700.407270	4561.750198
700.742910	4546.321746
701.078501	4491.191688
701.414042	4487.320082
701.749533	4460.899394
702.084974	4393.040422
702.420366	4451.041418
702.755709	4394.706524
703.091002	4337.567566
703.426246	4383.583218
703.761440	4346.324050
704.096584	4304.268224
704.431679	4324.153055
704.766725	4309.944563
705.101721	4303.980878
705.436668	4328.652285
705.771565	4274.699336
706.106413	4305.773008
706.441212	4339.770550
706.775961	4347.914534
707.110661	4325.516687
707.445311	4353.847972
707.779913	4376.812948
708.114465	4394.038571
708.448967	4414.687137
708.783421	4473.593020
709.117825	4517.574567
709.452180	4517.488867
709.786485	4564.454777
710.120742	4646.524761
710.454949	4635.245180
710.789107	4699.769428
711.123216	4775.870687
711.457275	4764.326444
711.791286	4843.127241
712.125247	4857.945712
712.459159	4757.977111
712.793023	4836.470397
713.126837	4793.000527
713.460602	4786.532727
713.794318	4709.161098
714.127985	4715.573446
714.461602	4628.432060
714.795171	4603.432978
715.128691	4533.905384
715.462162	4478.034276
715.795584	4428.691462
716.128957	4412.703443
716.462281	4361.639075
716.795556	4332.002132
717.128782	4297.129950
717.461960	4227.549424
717.795088	4238.753388
718.128167	4197.778890
718.461198	4135.702122
718.794180	4138.079026
719.127113	4116.598669
719.459997	4091.158486
719.792833	4049.475706
720.125619	4040.991444
720.458357	4006.184797
720.791046	4008.692771
721.123686	3981.780571
721.456278	3940.927060
721.788821	3958.329123
722.121315	3933.042696
722.453761	3902.326945
722.786158	3919.643309
723.118506	3942.575518
723.450805	3896.622880
723.783056	3917.909152
724.115259	3930.401131
724.447412	3935.885907
724.779518	3929.705452
725.111574	3935.127213
725.443582	3962.583857
725.775542	3947.427628
726.107453	3998.464270
726.439315	4002.436699
726.771129	4014.669059
727.102895	4050.068041
727.434612	4099.254579
727.766281	4112.038945
728.097901	4113.057258
728.429473	4117.133031
728.760996	4119.928351
729.092471	4116.638998
729.423897	4104.134416
729.755276	4107.632977
730.086606	4108.525261
730.417887	4146.464985
730.749120	4210.958987
731.080305	4273.638173
731.411442	4300.568017
731.742530	4270.474849
732.073570	4272.997947
732.404562	4331.981967
732.735506	4321.887057
733.066401	4281.867857
733.397249	4221.305955
733.728048	4142.404336
734.058798	4060.662026
734.389501	3990.721057
734.720156	3924.606325
735.050762	3883.069738
735.381320	3873.562122
735.711831	3824.489009
736.042293	3795.686377
736.372707	3817.965756
736.703073	3792.512971
737.033391	3779.453862
737.363661	3796.157725
737.693883	3822.757373
738.024056	3834.218436
738.354182	3825.232580
738.684260	3891.201119
739.014290	3914.430756
739.344272	3907.171494
739.674207	3946.968883
740.004093	3955.266622
740.333931	3949.948205
740.663722	3953.734112
740.993464	3947.609110
741.323159	3926.831994
741.652806	3895.080287
741.982405	3864.966954
742.311956	3836.194569
742.641460	3826.364319
742.970915	3803.202737
743.300323	3761.935852
743.629683	3727.703897
743.958996	3716.147052
744.288260	3691.692414
744.617477	3658.657733
744.946647	3644.590393
745.275768	3621.048205
745.604842	3618.119294
745.933869	3567.735482
746.262847	3561.270202
746.591778	3599.308229
746.920662	3570.359403
747.249498	3539.376471
747.578286	3585.719799
747.907027	3601.238991
748.235720	3603.764609
748.564365	3626.301087
748.892963	3626.399390
749.221514	3608.853654
749.550017	3589.430088
749.878473	3581.734767
750.206881	3552.410375
750.535242	3551.908780
750.863555	3551.971794
751.191821	3546.350908
751.520039	3529.382384
751.848210	3506.135103
752.176334	3539.043755
752.504411	3547.129766
752.832440	3505.111749
753.160421	3485.552072
753.488356	3498.031448
753.816243	3509.532841
754.144082	3466.017601
754.471875	3452.570323
754.799620	3473.503714
755.127318	3459.902681
755.454969	3461.777990
755.782572	3467.648414
756.110129	3445.149744
756.437638	3437.565328
756.765100	3448.860033
757.092515	3459.532156
757.419882	3464.812765
757.747203	3438.525668
758.074477	3438.848302
758.401703	3458.508802
758.728882	3477.652584
759.056014	3483.132318
759.383099	3485.970488
759.710138	3483.470075
760.037129	3502.946573
760.364073	3533.344731
760.690970	3518.233872
761.017820	3494.290912
761.344623	3514.878984
761.671379	3558.011097
761.998088	3607.994137
762.324751	3734.491810
762.651366	3986.804081
762.977935	4459.331596
763.304456	4903.270727
763.630931	4992.799098
763.957359	4632.401969
764.283740	4290.228610
764.610074	4097.843056
764.936362	3899.957603
765.262602	3746.202411
765.588796	3631.972385
765.914943	3542.486863
766.241044	3454.952268
766.567097	3425.305242
766.893104	3380.048283
767.219064	3348.236082
767.544978	3323.504181
767.870845	3264.041251
768.196665	3248.161617
768.522438	3256.928183
768.848165	3250.231010
769.173846	3216.563664
769.499479	3198.637321
769.825066	3182.951771
770.150607	3165.660613
770.476101	3182.820701
770.801548	3176.226872
771.126949	3131.269862
771.452303	3114.492902
771.777611	3120.605301
772.102872	3125.066722
772.428087	3102.341200
772.753256	3089.196392
773.078378	3083.131884
773.403453	3049.870351
773.728482	3036.594472
774.053465	3059.796383
774.378401	3045.839948
774.703291	3012.739732
775.028135	3015.270391
775.352932	3010.705626
775.677683	2999.237001
776.002388	2995.158708
776.327046	2997.480159
776.651658	2987.765856
776.976224	2975.929227
777.300743	2976.773620
777.625216	2966.681230
777.949643	2959.570682
778.274024	2962.605457
778.598359	2952.573561
778.922647	2958.615384
779.246889	2956.175465
779.571086	2938.889349
779.895236	2934.236364
780.219339	2944.888322
780.543397	2957.103038
780.867409	2960.309211
781.191374	2955.073973
781.515294	2949.531224
781.839167	2952.145063
782.162995	2942.932354
782.486776	2952.792851
782.810511	2949.526183
783.134201	2938.607044
783.457844	2943.134000
783.781441	2931.252001
784.104993	2913.799526
784.428498	2911.788106
784.751958	2928.650765
785.075372	2922.044333
785.398739	2907.856006
785.722061	2922.359405
786.045337	2934.301899
786.368568	2921.673808
786.691752	2913.860020
787.014891	2960.059674
787.337983	2988.794251
787.661030	3016.117305
787.984031	3080.578539
788.306987	3130.503606
788.629897	3123.589664
788.952760	3106.850512
789.275579	3093.234356
789.598351	3029.617515
789.921078	2984.254692
790.243759	2977.819659
790.566395	2961.284675
790.888984	2938.770882
791.211529	2921.540218
791.534027	2911.770462
791.856480	2902.913154
792.178888	2887.025958
792.501249	2879.315513
792.823566	2876.920965
793.145836	2873.601365
793.468062	2870.306971
793.790241	2866.047196
794.112375	2871.847044
794.434464	2883.149311
794.756507	2890.695918
795.078505	2894.882596
795.400457	2909.060841
795.722364	2946.473765
796.044226	2969.413535
796.366042	2972.652477
796.687812	2961.244345
797.009538	2981.751759
797.331218	2967.487814
797.652852	2956.172945
797.974442	2934.160746
798.295986	2932.494645
798.617484	2925.971392
798.938938	2913.650812
799.260346	2895.142216
799.581709	2891.626011
799.903026	2883.489588
800.224299	2880.495143
800.545526	2870.841333
800.866708	2853.862727
801.187845	2844.430728
801.508936	2844.710512
801.829983	2850.840556
802.150984	2836.821107
802.471940	2823.772080
802.792851	2823.280567
803.113717	2827.343737
803.434538	2830.892710
803.755314	2823.454487
804.076045	2818.990546
804.396731	2819.146821
804.717372	2819.955927
805.037967	2815.285297
805.358518	2819.519867
805.679024	2829.534119
805.999485	2827.565548
806.319901	2833.050324
806.640272	2822.925166
806.960598	2825.929694
807.280879	2838.212465
807.601115	2844.430728
807.921306	2834.630725
808.241453	2827.537822
808.561554	2832.183245
808.881611	2834.960921
809.201623	2829.667709
809.521590	2830.539829
809.841513	2825.990188
810.161390	2831.106959
810.481223	2823.961123
810.801011	2813.692293
811.120755	2807.625264
811.440453	2814.571974
811.760107	2815.630617
812.079716	2813.115081
812.399281	2801.046558
812.718801	2793.731844
813.038276	2788.882254
813.357707	2796.207051
813.677093	2804.913123
813.996434	2797.358954
814.315731	2793.878038
814.634983	2786.200360
814.954191	2790.702111
815.273354	2801.679223
815.592473	2810.541572
815.911547	2815.280256
816.230577	2823.099086
816.549562	2833.919923
816.868502	2831.951352
817.187399	2838.938391
817.506250	2856.625280
817.825058	2849.358456
818.143821	2863.783718
818.462539	2877.185626
818.781213	2905.032959
819.099843	2941.931685
819.418429	3001.250942
819.736970	3062.218657
820.055466	3133.177938
820.373919	3240.494022
820.692327	3378.782954
821.010691	3548.939540
821.329011	3991.610821
821.647286	4900.379625
821.965517	6280.806344
822.283704	7021.971906
822.601847	6997.855026
822.919945	6365.321289
823.237999	5857.548547
823.556010	5271.043064
823.873976	4718.857757
824.191897	4311.003205
824.509775	4010.232843
824.827609	3742.587903
825.145398	3622.701703
825.463144	3612.911782
825.780845	3702.742623
826.098502	3806.907985
826.416116	4093.268209
826.733685	4407.669851
827.051210	4470.328873
827.368692	4356.756718
827.686129	4087.412909
828.003522	3762.306377
828.320872	3506.717356
828.638177	3306.780153
828.955439	3170.321160
829.272656	3087.689087
829.589830	3022.764066
829.906960	2969.274903
830.224046	2926.760333
830.541088	2891.878068
830.858086	2876.283259
831.175041	2856.660568
831.491952	2861.210209
831.808819	2871.330325
832.125642	2895.671537
832.442421	2940.714246
832.759157	3021.960002
833.075849	3201.099925
833.392497	3484.531238
833.709101	3688.085469
834.025662	3634.651758
834.342179	3475.943633
834.658653	3302.653969
834.975083	3149.841472
835.291469	3051.082748
835.607811	2967.621405
835.924110	2907.598907
836.240366	2857.459591
836.556578	2815.612972
836.872746	2793.096659
837.188871	2770.159409
837.504952	2754.816657
837.820990	2746.377766
838.136984	2731.259345
838.452935	2721.388766
838.768842	2720.239383
839.084706	2739.693196
839.400526	2819.895433
839.716303	2952.694548
840.032037	3031.079450
840.347727	3018.161493
840.663373	2957.954993
840.978977	2882.559496
841.294537	2807.572332
841.610054	2761.947369
841.925527	2737.742269
842.240957	2717.744012
842.556344	2695.542770
842.871687	2679.902590
843.186987	2671.834224
843.502244	2666.707370
843.817458	2661.716628
844.132629	2648.493681
844.447756	2637.819038
844.762840	2634.978348
845.077881	2635.527834
845.392879	2634.355765
845.707833	2629.833850
846.022745	2623.628190
846.337613	2625.662296
846.652438	2623.287912
846.967221	2626.317646
847.281960	2623.141719
847.596656	2621.851183
847.911309	2622.057871
848.225919	2620.134670
848.540485	2615.721140
848.855009	2615.274998
849.169490	2615.834566
849.483928	2618.483692
849.798323	2613.835749
850.112675	2613.656788
850.426984	2615.365739
850.741251	2609.767537
851.055474	2610.168309
851.369654	2619.103754
851.683792	2615.557303
851.997887	2612.522528
852.311938	2611.191663
852.625947	2613.316510
852.939914	2613.140069
853.253837	2615.726181
853.567718	2610.775768
853.881555	2610.806015
854.195350	2613.838269
854.509103	2614.700307
854.822812	2610.324585
855.136479	2610.140583
855.450103	2612.381376
855.763685	2613.583691
856.077224	2611.993207
856.390720	2611.015223
856.704173	2612.308279
857.017584	2618.163579
857.330953	2617.167951
857.644278	2620.517798
857.957561	2620.260699
858.270802	2615.166613
858.584000	2613.150152
858.897155	2620.008642
859.210268	2619.375977
859.523339	2613.377004
859.836367	2611.058073
860.149352	2610.085130
860.462295	2611.761314
860.775195	2608.187136
861.088054	2608.829883
861.400869	2609.616303
861.713642	2607.352825
862.026373	2608.139245
862.339062	2610.143103
862.651708	2617.001593
862.964312	2616.583178
863.276873	2614.468413
863.589392	2619.423868
863.901869	2624.258334
864.214303	2626.171452
864.526696	2629.019704
864.839045	2630.711011
865.151353	2631.502472
865.463619	2635.245529
865.775842	2632.707308
866.088023	2631.336114
866.400162	2631.875518
866.712258	2631.404170
867.024313	2635.747124
867.336325	2628.031638
867.648296	2630.169087
867.960224	2635.938688
868.272110	2632.724952
868.583954	2627.572893
868.895755	2626.400825
869.207515	2634.196969
869.519233	2639.205355
869.830909	2637.748462
870.142542	2632.213275
870.454134	2633.476084
870.765684	2637.236785
871.077191	2640.054790
871.388657	2644.314565
871.700081	2642.235089
872.011463	2641.884729
872.322803	2643.545789
872.634101	2648.481078
872.945357	2654.575833
873.256571	2661.010866
873.567744	2657.250166
873.878874	2656.224291
874.189963	2657.663540
874.501010	2663.181083
874.812015	2667.108142
875.122979	2666.997237
875.433900	2658.805362
875.744780	2656.582213
876.055618	2662.631597
876.366415	2667.488749
876.677169	2667.612257
876.987882	2660.395846
877.298554	2659.201092
877.609183	2669.273317
877.919771	2678.543999
878.230317	2684.847962
878.540822	2696.873635
878.851285	2710.169678
879.161707	2732.287741
879.472087	2771.480191
879.782425	2819.948365
880.092722	2934.674944
880.402977	3125.729634
880.713191	3386.425343
881.023363	3677.960311
881.333494	3867.086759
881.643583	4044.951270
881.953631	4043.864901
882.263637	3861.125595
882.573602	3641.200217
882.883526	3512.731453
883.193408	3394.695356
883.503248	3293.022845
883.813048	3178.671831
884.122806	3062.768143
884.432522	2976.788743
884.742197	2914.966553
885.051831	2873.964328
885.361424	2840.296982
885.670975	2806.846406
885.980485	2774.799791
886.289954	2755.840011
886.599382	2742.667476
886.908768	2731.816393
887.218113	2710.943495
887.527417	2697.050075
887.836680	2688.258303
888.145901	2685.513395
888.455082	2676.887980
888.764221	2665.991526
889.073319	2657.754281
889.382376	2656.017603
889.691392	2657.628252
890.000366	2658.676812
890.309300	2654.147335
890.618193	2657.194713
890.927044	2662.558501
891.235855	2660.506751
891.544625	2659.669919
891.853353	2661.368788
892.162041	2667.771054
892.470687	2685.949454
892.779293	2698.766588
893.087858	2711.039277
893.396381	2733.948801
893.704864	2772.228802
894.013306	2844.254288
894.321707	2941.866150
894.630068	2988.711072
894.938387	3009.147910
895.246665	3002.604492
895.554903	2961.748461
895.863100	2915.508477
896.171256	2856.237111
896.479371	2796.403656
896.787446	2759.204982
897.095480	2736.595407
897.403473	2728.776577
897.711425	2713.214535
898.019336	2695.371371
898.327207	2682.639937
898.635038	2680.462158
898.942827	2681.319155
899.250576	2671.796415
899.558284	2661.726710
899.865952	2653.557520
900.173579	2649.436377
900.481165	2649.617859
900.788711	2641.854482
901.096216	2634.905251
901.403681	2632.031793
901.711105	2632.936681
902.018489	2629.029786
902.325832	2634.665796
902.633135	2634.174284
902.940397	2649.708599
903.247619	2689.909281
903.554800	2759.565424
903.861941	2884.114692
904.169041	3013.642098
904.476101	3073.147878
904.783121	3068.910789
905.090100	3011.751666
905.397039	2935.237033
905.703938	2863.549304
906.010796	2800.229892
906.317614	2746.004720
906.624391	2709.509287
906.931129	2680.883095
907.237826	2660.090856
907.544483	2643.003865
907.851099	2625.264044
908.157675	2614.632251
908.464211	2611.358022
908.770707	2598.621546
909.077163	2597.719180
909.383578	2593.035948
909.689954	2592.761205
909.996289	2590.475042
910.302584	2590.711976
910.608839	2584.813826
910.915054	2586.868096
911.221229	2590.505289
911.527363	2592.244487
911.833458	2590.739702
912.139513	2592.887234
912.445527	2590.603591
912.751502	2597.827565
913.057436	2601.162288
913.363331	2610.458176
913.669186	2621.115175
913.975000	2634.585138
914.280775	2649.607776
914.586510	2670.193328
914.892205	2706.376210
915.197859	2773.857095
915.503475	2859.992770
915.809050	2924.660692
916.114585	2938.496139
916.420081	2954.254786
916.725536	2961.955148
917.030952	2937.198042
917.336328	2889.511247
917.641665	2840.233968
917.946961	2790.878551
918.252218	2756.260948
918.557435	2728.020404
918.862612	2707.071889
919.167750	2690.133612
919.472848	2671.967814
919.777906	2655.631955
920.082925	2645.519401
920.387904	2634.322998
920.692843	2630.010291
920.997743	2625.690022
921.302603	2616.623507
921.607423	2611.811725
921.912204	2605.137238
922.216946	2605.585900
922.521647	2599.171032
922.826310	2595.528798
923.130932	2589.446646
923.435516	2586.721903
923.740059	2582.570512
924.044564	2585.265009
924.349028	2581.219483
924.653454	2576.110274
924.957840	2570.345714
925.262186	2571.076682
925.566493	2569.967628
925.870761	2565.012174
926.174989	2565.861608
926.479178	2566.063254
926.783328	2562.816751
927.087438	2561.115362
927.391509	2563.015877
927.695541	2559.265258
927.999533	2558.592264
928.303486	2558.945145
928.607400	2557.150494
928.911275	2555.852397
929.215110	2555.933056
929.518906	2555.915412
929.822663	2558.796431
930.126381	2557.939435
930.430060	2556.502706
930.733699	2554.909701
931.037299	2557.848694
931.340861	2557.228632
931.644383	2557.072356
931.947866	2557.972202
932.251309	2558.806513
932.554714	2555.239897
932.858080	2556.795093
933.161407	2554.455997
933.464694	2557.228632
933.767943	2553.427602
934.071153	2556.049002
934.374323	2551.214536
934.677455	2552.515153
934.980548	2552.948693
935.283602	2549.263609
935.586617	2551.002807
935.889593	2555.534804
936.192530	2550.355019
936.495428	2551.816953
936.798287	2553.586398
937.101108	2554.768549
937.403890	2559.529919
937.706632	2564.031669
938.009336	2565.836402
938.312002	2569.334963
938.614628	2573.526683
938.917216	2577.446180
939.219765	2572.180694
939.522275	2575.911148
939.824747	2577.410892
940.127179	2572.861250
940.429573	2568.150292
940.731929	2570.010478
941.034246	2565.508727
941.336524	2568.422514
941.638763	2567.575600
941.940964	2566.648028
942.243126	2564.031669
942.545250	2563.749365
942.847335	2560.041596
943.149381	2562.436144
943.451389	2560.278530
943.753359	2558.695608
944.055290	2558.526729
944.357182	2558.572100
944.659036	2557.354661
944.960851	2558.814075
945.262628	2556.669064
945.564367	2558.582182
945.866067	2556.028838
946.167729	2558.274672
946.469352	2558.854404
946.770937	2557.180741
947.072484	2552.983981
947.373992	2557.427758
947.675462	2554.370298
947.976893	2557.815927
948.278286	2555.073539
948.579641	2553.525905
948.880958	2555.865000
949.182236	2554.720658
949.483476	2552.827705
949.784678	2552.847869
950.085841	2552.500030
950.386967	2552.351316
950.688054	2553.846018
950.989103	2553.503219
951.290114	2555.073539
951.591087	2558.965310
951.892021	2555.781821
952.192917	2558.544373
952.493776	2559.965979
952.794596	2561.342214
953.095378	2561.485887
953.396122	2561.448078
953.696828	2560.112172
953.997496	2559.388767
954.298126	2556.674105
954.598718	2555.307953
954.899272	2556.233004
955.199788	2554.758467
955.500266	2554.357695
955.800706	2547.163968
956.101108	2543.637681
956.401472	2545.775131
956.701798	2543.778834
957.002087	2542.735315
957.302337	2545.666746
957.602550	2543.211704
957.902724	2544.260264
958.202861	2545.462579
958.502960	2544.310675
958.803022	2541.661549
959.103045	2542.145500
959.403031	2545.132383
959.702979	2541.520397
960.002889	2539.889583
960.302762	2539.662732
960.602596	2541.321271
960.902393	2538.588966
961.202153	2539.093081
961.501875	2538.150385
961.801559	2542.279090
962.101205	2538.934285
962.400814	2539.839172
962.700385	2540.050900
962.999918	2540.547454
963.299414	2534.477905
963.598873	2540.202135
963.898293	2537.865560
964.197677	2535.460930
964.497022	2540.300438
964.796331	2538.268852
965.095601	2539.445962
965.394835	2541.167516
965.694030	2536.940508
965.993189	2538.220962
966.292309	2540.045859
966.591393	2536.580066
966.890439	2538.115097
967.189447	2536.877494
967.488419	2537.253060
967.787353	2538.568801
968.086249	2538.049562
968.385108	2539.718184
968.683930	2536.156609
968.982714	2541.331353
969.281462	2534.213244
969.580172	2537.636188
969.878844	2541.984183
970.177480	2539.869419
970.476078	2540.030736
970.774639	2537.893287
971.073162	2536.433873
971.371649	2537.605941
971.670098	2534.054448
971.968510	2536.396064
972.266885	2534.533357
972.565223	2539.874460
972.863524	2539.887063
973.161788	2540.698689
973.460014	2536.819521
973.758204	2539.493853
974.056356	2539.750952
974.354471	2540.010571
974.652550	2537.280786
974.950591	2541.139790
975.248595	2537.739531
975.546563	2541.643905
975.844493	2536.673327
976.142386	2541.580891
976.440243	2539.302289
976.738062	2537.868081
977.035845	2537.863040
977.333590	2537.699202
977.631299	2536.922864
977.928971	2538.256250
978.226606	2536.121321
978.524204	2534.684592
978.821765	2536.373379
979.119290	2534.946732
979.416777	2536.181815
979.714228	2537.868081
980.011642	2535.231557
980.309020	2539.314892
980.606360	2536.345652
980.903664	2538.392361
981.200931	2537.308513
981.498162	2538.263811
981.795356	2541.832948
982.092513	2542.619368
982.389633	2545.717157
982.686717	2549.815615
982.983764	2551.764021
983.280775	2553.057077
983.577749	2552.172355
983.874686	2552.477345
984.171587	2545.704554
984.468451	2548.267981
984.765279	2541.885880
985.062070	2543.998124
985.358824	2539.655170
985.655543	2541.205325
985.952224	2539.733308
986.248869	2537.033770
986.545478	2533.580579
986.842050	2537.724408
987.138586	2531.143182
987.435086	2532.166536
987.731549	2528.113448
988.027975	2536.549819
988.324366	2533.520086
988.620719	2535.869263
988.917037	2535.304654
989.213318	2533.101670
989.509563	2536.396064
989.805772	2534.838347
990.101944	2534.029242
990.398080	2533.802390
990.694180	2533.852802
990.990244	2535.556712
991.286271	2533.477236
991.582262	2534.160312
991.878217	2532.153933
992.174136	2534.369520
992.470019	2535.039993
992.765865	2535.952442
993.061676	2531.332225
993.357450	2534.215765
993.653188	2534.387164
993.948890	2536.166691
994.244556	2533.076464
994.540186	2534.538399
994.835780	2536.247350
995.131337	2537.124511
995.426859	2534.056968
995.722345	2535.846578
996.017795	2538.888914
996.313208	2539.705581
996.608586	2538.578883
996.903928	2539.498894
997.199234	2538.657021
997.494504	2538.614172
997.789738	2536.922864
998.084936	2540.287835
998.380099	2536.043183
998.675225	2534.838347
998.970316	2533.676361
999.265371	2533.883049
999.560390	2534.735004
999.855373	2535.904551
1000.150320	2533.056299
1000.445232	2533.830117
1000.740108	2533.320960
1001.034948	2536.824562
1001.329752	2533.956145
1001.624521	2534.051927
1001.919254	2527.359796
1002.213951	2531.186031
1002.508613	2530.432379
1002.803239	2532.007739
1003.097829	2528.027748
1003.392384	2533.991433
1003.686903	2532.095960
1003.981386	2531.833820
1004.275834	2531.909437
1004.570246	2533.394057
1004.864623	2531.133099
1005.158964	2530.036648
1005.453270	2533.303316
1005.747540	2534.160312
1006.041775	2531.518747
1006.335974	2530.467667
1006.630138	2530.467667
1006.924266	2533.394057
1007.218359	2533.565456
1007.512416	2531.019673
1007.806438	2533.804911
1008.100425	2534.077133
1008.394376	2531.261649
1008.688292	2534.019160
1008.982172	2532.191742
1009.276017	2534.994623
1009.569827	2530.455064
1009.863602	2531.304498
1010.157341	2528.932636
1010.451045	2531.637215
1010.744714	2529.010773
1011.038347	2532.451361
1011.331945	2529.202337
1011.625508	2530.974303
1011.919036	2530.109745
1012.212528	2533.479756
1012.505986	2530.926412
1012.799408	2528.751154
1013.092795	2531.972451
1013.386147	2532.957997
1013.679464	2529.724097
1013.972745	2531.115455
1014.265992	2530.666793
1014.559204	2532.910106
1014.852380	2530.679395
1015.145521	2533.721732
1015.438628	2531.123017
1015.731699	2532.894982
1016.024736	2531.511186
1016.317737	2534.223327
1016.610703	2533.187369
1016.903635	2526.820392
1017.196531	2529.111597
1017.489393	2529.651000
1017.782219	2527.906761
1018.075011	2529.658562
1018.367768	2532.768954
1018.660490	2531.745599
1018.953177	2531.745599
1019.245829	2531.745599
