Dividing Wavelength (nm)	Counts (n)	Blue Motor Position (mm): 35.300000	Red Motor Position (mm): 0.000000	
326.493990	2131.162912
326.888308	2131.162912
327.282561	2131.162912
327.676750	2099.312902
328.070874	2096.890628
328.464933	2099.454054
328.858929	2105.281628
329.252859	2114.791765
329.646726	2128.450771
330.040528	2140.965436
330.434265	2156.330873
330.827938	2175.772082
331.221547	2190.701459
331.615091	2211.891950
332.008571	2229.092367
332.401986	2251.560789
332.795338	2270.313882
333.188625	2290.125616
333.581847	2308.908955
333.975006	2325.847232
334.368100	2342.742659
334.761129	2361.410052
335.154095	2377.524100
335.546996	2399.057389
335.939833	2426.403128
336.332606	2440.175560
336.725315	2453.947993
337.117960	2462.956535
337.510540	2467.397791
337.903056	2482.974957
338.295508	2487.779176
338.687896	2499.013387
339.080220	2503.749552
339.472480	2512.541324
339.864676	2518.157169
340.256807	2521.905267
340.648875	2522.185051
341.040879	2522.217819
341.432818	2525.285361
341.824694	2527.402645
342.216506	2530.669313
342.608253	2526.500279
342.999937	2531.614529
343.391557	2528.524302
343.783113	2527.074970
344.174605	2526.596061
344.566033	2525.882737
344.957397	2525.527336
345.348697	2521.582633
345.739934	2520.647499
346.131106	2519.588857
346.522215	2518.651202
346.913260	2513.378155
347.304241	2517.161541
347.695159	2510.252640
348.086012	2508.967146
348.476802	2506.620489
348.867528	2506.302896
349.258191	2506.673421
349.648789	2505.516476
350.039324	2504.367093
350.429796	2503.351300
350.820203	2499.099087
351.210548	2498.239570
351.600828	2501.100425
351.991045	2496.321411
352.381198	2498.910044
352.771288	2497.390136
353.161314	2496.061792
353.551276	2497.760661
353.941175	2498.181597
354.331010	2495.338386
354.720782	2493.616832
355.110490	2496.059271
355.500135	2496.797800
355.889717	2496.170177
356.279235	2497.180928
356.668689	2498.249653
357.058080	2495.930722
357.447408	2495.671102
357.836672	2494.045330
358.225873	2495.073726
358.615010	2495.230002
359.004084	2501.228975
359.393095	2499.615805
359.782043	2501.816269
360.170927	2497.934581
360.559748	2502.680827
360.948505	2504.031856
361.337199	2500.089674
361.725830	2502.527072
362.114398	2502.610251
362.502903	2502.595127
362.891344	2503.500014
363.279722	2502.751403
363.668037	2505.105622
364.056289	2504.109994
364.444478	2507.800119
364.832603	2505.093019
365.220665	2508.800788
365.608665	2507.537979
365.996601	2505.440859
366.384474	2510.902949
366.772284	2509.435973
367.160031	2508.102588
367.547715	2508.831035
367.935336	2508.599142
368.322893	2507.200221
368.710388	2510.965963
369.097820	2515.092148
369.485189	2511.520490
369.872495	2509.015037
370.259738	2509.241889
370.646918	2509.814060
371.034035	2513.181550
371.421090	2513.947806
371.808081	2508.417660
372.195010	2512.929493
372.581875	2514.280522
372.968678	2510.658453
373.355418	2514.227590
373.742096	2514.267919
374.128710	2510.902949
374.515262	2513.705830
374.901751	2515.404699
375.288177	2514.172137
375.674540	2515.500481
376.060841	2514.925790
376.447079	2512.924452
376.833254	2517.043074
377.219367	2512.296828
377.605417	2514.033505
377.991404	2511.578463
378.377329	2514.214987
378.763191	2514.943434
379.148991	2517.862262
379.534727	2516.480986
379.920402	2516.632220
380.306013	2518.651202
380.691563	2517.340502
381.077049	2517.350585
381.462474	2520.186234
381.847835	2520.085411
382.233134	2518.779752
382.618371	2521.869979
383.003545	2522.757222
383.388657	2522.873169
383.773706	2521.199506
384.158693	2521.590195
384.543618	2521.978364
384.928480	2520.937366
385.313280	2522.220339
385.698017	2522.096831
386.082692	2525.018180
386.467305	2523.016842
386.851856	2527.153108
387.236344	2526.487676
387.620770	2524.486338
388.005133	2526.225536
388.389435	2525.774353
388.773674	2525.655886
389.157851	2524.703108
389.541965	2525.630680
389.926018	2528.277286
390.310008	2526.306194
390.693936	2527.042203
391.077802	2528.703263
391.461606	2528.632687
391.845348	2527.261493
392.229027	2527.523633
392.612645	2528.126051
392.996200	2527.697553
393.379694	2528.415917
393.763125	2528.783922
394.146494	2531.846422
394.529801	2530.268541
394.913047	2530.553367
395.296230	2530.825589
395.679351	2530.434899
396.062410	2535.672658
396.445408	2533.951104
396.828343	2534.780374
397.211217	2533.956145
397.594028	2533.225178
397.976778	2533.434386
398.359466	2537.091743
398.742092	2530.195445
399.124656	2536.970755
399.507158	2535.763399
399.889598	2538.112577
400.271977	2537.905889
400.654294	2542.687424
401.036549	2540.214738
401.418742	2543.557023
401.800874	2545.465100
402.182944	2544.933258
402.564952	2549.815615
402.946898	2552.545400
403.328783	2554.892057
403.710606	2562.073181
404.092367	2569.597103
404.474067	2573.793864
404.855705	2581.978177
405.237282	2589.242480
405.618797	2599.796135
406.000250	2615.784155
406.381642	2628.790332
406.762972	2640.546302
407.144240	2650.326141
407.525447	2668.270128
407.906593	2687.315607
408.287677	2704.702547
408.668700	2720.289794
409.049661	2739.617578
409.430560	2764.256218
409.811399	2778.235337
410.192176	2819.098930
410.572891	2834.620643
410.953545	2873.596324
411.334138	2881.440359
411.714669	2917.741708
412.095139	2928.000456
412.475547	2979.279073
412.855894	3005.730008
413.236180	3040.670245
413.616405	3062.143040
413.996568	3116.219497
414.376670	3132.063843
414.756711	3152.203253
415.136691	3199.350644
415.516609	3259.620159
415.896466	3306.581028
416.276262	3358.484748
416.655997	3387.365518
417.035670	3494.674040
417.415283	3572.494332
417.794834	3597.279164
418.174324	3617.927731
418.553753	3622.610962
418.933121	3749.625354
419.312428	3826.848269
419.691674	3851.756611
420.070859	3958.442549
420.449983	3960.406079
420.829045	4070.187286
421.208047	4064.258889
421.586988	4157.938651
421.965867	4206.532854
422.344686	4341.666024
422.723444	4294.934528
423.102141	4222.616655
423.480777	4460.047439
423.859352	4352.149103
424.237866	4574.406014
424.616319	4608.058237
424.994712	4730.238162
425.373044	4682.846275
425.751314	4833.783462
426.129524	4727.084920
426.507673	4914.860339
426.885762	5014.297099
427.263789	5003.433413
427.641756	4939.569555
428.019662	5071.461263
428.397508	5107.901244
428.775292	5103.081901
429.153016	5217.203541
429.530679	5187.929561
429.908282	5283.653511
430.285824	5195.849214
430.663305	5466.967509
431.040726	5257.376496
431.418086	5277.702429
431.795385	5396.887908
432.172624	5428.160706
432.549802	5444.428510
432.926920	5474.559486
433.303977	5496.468341
433.680974	5547.779725
434.057910	5584.849850
434.434786	5603.930617
434.811601	5582.775415
435.188355	5824.488660
435.565050	5711.438264
435.941683	5703.276636
436.318257	5920.852836
436.694770	5911.211630
437.071222	5952.465912
437.447614	5896.004989
437.823946	5817.874666
438.200218	5973.366536
438.576429	5845.958934
438.952580	5948.531292
439.328670	5997.624568
439.704700	5910.087452
440.080670	5901.494806
440.456580	6168.865003
440.832429	6059.028343
441.208218	5909.837915
441.583947	6062.824332
441.959616	6069.415640
442.335224	6000.056925
442.710773	6136.132791
443.086261	6163.365104
443.461689	5961.197191
443.837057	6107.549448
444.212365	6261.720536
444.587612	6153.013094
444.962800	6309.309028
445.337927	6292.020391
445.712995	5906.180558
446.088002	6481.860163
446.462949	6313.203320
446.837837	6247.267548
447.212664	6415.337097
447.587431	6560.945784
447.962139	7105.198836
448.336786	8022.086418
448.711374	7763.717201
449.085901	6834.851837
449.460369	6766.554285
449.834776	6696.699016
450.209124	7087.869869
450.583412	7241.488951
450.957640	7385.895323
451.331808	7147.340361
451.705917	6705.528597
452.079965	6628.063707
452.453954	6845.566810
452.827883	6716.929167
453.201752	6812.083466
453.575562	6608.597291
453.949311	6816.464229
454.323001	6705.226128
454.696632	6777.024762
455.070202	6915.805206
455.443713	7069.199956
455.817164	7172.649474
456.190556	7249.171669
456.563888	7327.596899
456.937160	7373.728498
457.310373	7025.402412
457.683526	7049.224384
458.056619	6947.514064
458.429653	6933.751714
458.802628	6865.696137
459.175542	6977.123281
459.548398	7330.503125
459.921194	7488.019018
460.293930	7492.606468
460.666607	8016.200871
461.039224	8329.828696
461.411782	8448.376469
461.784280	8470.423956
462.156719	8362.424796
462.529099	8248.890450
462.901419	7832.372675
463.273680	7727.418373
463.645882	7738.914724
464.018024	7603.718540
464.390106	7765.761389
464.762130	8151.422261
465.134094	8624.937842
465.505999	9642.373758
465.877845	10859.764521
466.249631	11508.530774
466.621358	11125.768565
466.993026	10505.351241
467.364634	10245.678886
467.736184	9879.796981
468.107674	9547.242144
468.479105	9578.464530
468.850477	9343.803860
469.221790	9120.866393
469.593043	8789.592009
469.964238	8651.487078
470.335373	8666.479470
470.706449	8726.703614
471.077467	8711.433959
471.448425	10005.659469
471.819324	11076.314846
472.190164	11098.299318
472.560945	9850.303710
472.931667	9071.354700
473.302330	8936.758413
473.672934	8580.026202
474.043479	8940.388044
474.413965	8879.193477
474.784393	8759.191330
475.154761	8921.667719
475.525070	9010.177778
475.895321	8834.904420
476.265513	9006.820369
476.635645	9180.493160
477.005719	9177.594497
477.375734	9285.840673
477.745691	9526.336479
478.115588	9655.871447
478.485427	9905.113655
478.855207	10437.502351
479.224928	11251.590724
479.594591	11877.142464
479.964194	11681.230622
480.333739	11630.718261
480.703226	11541.648634
481.072653	11644.105045
481.442022	11875.098276
481.811333	12056.597458
482.180584	11861.343488
482.549777	11573.274313
482.918912	11400.955071
483.287988	11425.369379
483.657005	11433.498240
484.025964	11117.407812
484.394864	11250.365724
484.763706	11217.031094
485.132489	10976.857922
485.501213	10943.666965
485.869879	11017.189673
486.238487	10863.184944
486.607036	10963.937444
486.975527	10750.313509
487.343959	10939.240832
487.712333	10983.590383
488.080648	10922.738615
488.448905	10956.733636
488.817104	10901.096941
489.185244	11167.070739
489.553326	11316.069602
489.921350	11861.356090
490.289315	12913.545721
490.657222	13266.008075
491.025070	13157.093946
491.392861	13038.203373
491.760593	12658.796053
492.128267	12317.401552
492.495883	11990.550781
492.863440	11646.098821
493.230939	11312.215640
493.598380	11250.771537
493.965763	11119.837648
494.333088	11017.658500
494.700354	10937.035327
495.067563	10997.637558
495.434713	10832.960706
495.801805	10959.360077
496.168839	10882.961390
496.535815	10819.813377
496.902733	10820.100722
497.269593	10748.418035
497.636395	10849.609116
498.003139	10840.189720
498.369825	10707.675430
498.736453	10863.338699
499.103023	10791.719026
499.469535	10820.811525
499.835989	10806.156891
500.202385	10777.213106
500.568723	10627.140477
500.935003	10846.828920
501.301226	10651.645525
501.667390	10911.244784
502.033497	11002.882878
502.399546	10870.252641
502.765537	10777.649166
503.131470	10850.082985
503.497345	11022.830724
503.863163	10631.790941
504.228923	10940.962386
504.594625	11008.251707
504.960269	10756.554458
505.325856	10973.956738
505.691385	10765.220201
506.056856	10927.522670
506.422270	10943.997160
506.787625	10836.996149
507.152924	10958.384613
507.518164	10938.585482
507.883347	10852.490136
508.248472	10773.356623
508.613540	11008.518888
508.978550	10891.342308
509.343503	10873.010153
509.708398	10983.297996
510.073236	11093.779923
510.438016	11107.413724
510.802738	11050.995651
511.167403	11106.975144
511.532010	11002.472024
511.896561	11232.736809
512.261053	11300.318517
512.625488	11175.965855
512.989866	11150.845785
513.354186	11143.047120
513.718449	11049.642101
514.082655	11240.691749
514.446803	11132.072528
514.810894	11255.938719
515.174927	11119.378903
515.538904	11144.909826
515.902822	11290.654625
516.266684	11182.279900
516.630488	11125.844183
516.994235	11180.896103
517.357925	11243.502193
517.721558	11330.063845
518.085133	11343.286792
518.448651	11357.855727
518.812112	11236.767211
519.175516	11254.464182
519.538863	11368.739578
519.902152	11288.260077
520.265385	11455.971704
520.628560	11362.460821
520.991678	11339.447953
521.354739	11400.556820
521.717743	11334.643734
522.080690	11315.900724
522.443580	11455.265942
522.806413	11405.235011
523.169189	11436.132243
523.531908	11498.506439
523.894569	11316.793008
524.257174	11321.738380
524.619722	11437.566451
524.982213	11386.819676
525.344647	11437.921852
525.707025	11393.332847
526.069345	11482.195786
526.431608	11400.811398
526.793815	11510.859787
527.155964	11294.924482
527.518057	11354.084943
527.880093	11299.380862
528.242072	11371.308046
528.603995	11270.580751
528.965860	11198.222549
529.327669	11242.899775
529.689421	11202.381501
530.051117	11167.405975
530.412755	11272.793817
530.774337	11157.046404
531.135862	11141.479321
531.497331	11164.126705
531.858743	11012.269507
532.220098	11188.664521
532.581396	11056.377083
532.942638	11031.728361
533.303824	10992.271250
533.664953	11017.978614
534.026025	10933.756056
534.387040	11029.734584
534.747999	11028.328102
535.108902	11090.843451
535.469748	10851.517193
535.830537	10951.732811
536.191270	10923.635940
536.551947	10954.041659
536.912567	10954.102153
537.273131	10876.259176
537.633638	10859.509943
537.994089	10843.910092
538.354483	10795.641044
538.714821	10938.935842
539.075103	10946.053951
539.435328	10913.452809
539.795497	10741.277241
540.155609	10893.383976
540.515665	10984.729683
540.875665	10719.761596
541.235609	10792.455035
541.595496	10784.404312
541.955328	10932.420151
542.315102	10825.416619
542.674821	10777.795359
543.034483	10777.195462
543.394090	10778.382654
543.753640	10703.508916
544.113134	10931.558113
544.472571	10780.686461
544.831953	10925.768348
545.191278	10733.473535
545.550548	10766.644327
545.909761	10897.631148
546.268918	10875.820596
546.628019	10956.572319
546.987064	10823.624489
547.346053	10748.919630
547.704986	10850.821514
548.063863	10831.362660
548.422684	10825.005765
548.781449	10741.549463
549.140158	10840.648465
549.498811	10718.329908
549.857408	10578.137941
550.215949	10801.183793
550.574434	10650.561677
550.932864	10749.597665
551.291237	10818.608541
551.649555	10757.177040
552.007817	10774.097673
552.366022	10733.584440
552.724173	10727.761907
553.082267	10715.968128
553.440305	10852.593479
553.798288	10652.303396
554.156215	10806.358537
554.514086	10782.370206
554.871902	10627.097627
555.229661	10670.388535
555.587365	10644.676130
555.945014	10535.814933
556.302606	10663.613225
556.660143	10555.848479
557.017625	10707.012518
557.375050	10611.966603
557.732421	10743.255894
558.089735	10660.817905
558.446994	10661.753039
558.804197	10695.039778
559.161345	10688.766062
559.518437	10545.524196
559.875474	10630.896136
560.232455	10666.375777
560.589381	10613.877201
560.946251	10613.983065
561.303065	10716.452079
561.659825	10648.209979
562.016528	10581.707077
562.373177	10461.417585
562.729770	10576.436551
563.086307	10490.928500
563.442789	10589.236041
563.799216	10467.570313
564.155587	10510.735193
564.511904	10461.813316
564.868164	10463.101330
565.224370	10468.621394
565.580520	10393.223376
565.936615	10399.756712
566.292654	10270.110838
566.648638	10408.417414
567.004567	10365.403769
567.360441	10342.940387
567.716260	10256.887891
568.072023	10347.313588
568.427732	10306.139964
568.783385	10213.715450
569.138982	10280.800604
569.494525	10298.358943
569.850013	10169.557463
570.205445	10249.520245
570.560823	10143.121652
570.916145	10068.371423
571.271412	10140.165015
571.626625	10083.545296
571.981782	10054.651922
572.336884	10032.236432
572.691931	10037.040651
573.046923	9983.717847
573.401860	9942.309809
573.756743	9872.709118
574.111570	9917.134287
574.466342	9901.315146
574.821059	9933.213047
575.175722	9825.324793
575.530330	9838.792235
575.884882	9830.015586
576.239380	9749.536086
576.593823	9733.560669
576.948211	9747.423842
577.302544	9630.738775
577.656823	9643.568511
578.011047	9640.143047
578.365216	9621.188309
578.719330	9539.173777
579.073389	9552.348832
579.427394	9500.311522
579.781344	9475.859405
580.135239	9432.228219
580.489080	9432.608826
580.842866	9339.105504
581.196597	9345.147327
581.550273	9382.288028
581.903895	9346.621865
582.257463	9418.236496
582.610975	9296.558166
582.964434	9322.510026
583.317837	9242.433817
583.671186	9223.980674
584.024481	9221.661743
584.377721	9142.412284
584.730906	9118.396227
585.084037	9148.476792
585.437113	9081.373993
585.790135	9108.084547
586.143103	9006.734669
586.496016	8977.178384
586.848874	9036.603506
587.201679	9022.964664
587.554428	8908.603569
587.907124	8961.628945
588.259765	8928.443030
588.612352	8934.676416
588.964884	8809.623033
589.317362	8821.076535
589.669786	8820.285074
590.022155	8875.130307
590.374470	8886.021720
590.726731	8813.807191
591.078937	8671.649173
591.431090	8782.673025
591.783188	8660.258686
592.135232	8653.740474
592.487222	8645.677149
592.839157	8703.085809
593.191038	8636.504769
593.542866	8584.785051
593.894639	8484.927355
594.246358	8536.084985
594.598022	8549.224752
594.949633	8451.249927
595.301190	8431.632277
595.652692	8454.098179
596.004141	8563.554232
596.355535	8342.388730
596.706876	8318.508785
597.058162	8255.433868
597.409395	8331.114190
597.760573	8392.681802
598.111698	8300.663100
598.462768	8288.816388
598.813785	8256.679033
599.164748	8220.861635
599.515657	8215.644040
599.866511	8123.786656
600.217312	8248.494719
600.568060	8110.074717
600.918753	8212.347126
601.269392	8176.796909
601.619978	8091.805576
601.970510	8156.274372
602.320988	8155.084659
602.671412	8210.192032
603.021783	8141.639902
603.372100	8120.744319
603.722363	8124.109289
604.072572	8092.811286
604.422728	8113.129656
604.772830	8033.124024
605.122878	8046.379738
605.472872	8038.969242
605.822813	8064.021256
606.172701	8013.047629
606.522534	8082.847445
606.872314	8085.975481
607.222041	8055.915081
607.571714	8108.879964
607.921333	8064.109476
608.270899	8078.244872
608.620411	8165.426586
608.969870	8070.007626
609.319276	8063.910351
609.668627	8079.704286
610.017926	8111.140921
610.367171	8163.710073
610.716362	8138.242164
611.065500	8132.308726
611.414585	8153.405955
611.763616	8147.951427
612.112594	8126.544167
612.461518	8141.904563
612.810389	8206.824542
613.159207	8140.213255
613.507971	8089.322807
613.856682	8214.096406
614.205340	8162.999271
614.553945	8247.579750
614.902496	8142.892629
615.250994	8197.127882
615.599439	8178.251282
615.947830	8188.671347
616.296169	8164.224271
616.644454	8177.875716
616.992686	8169.116711
617.340864	8228.325063
617.688990	8139.399109
618.037063	8227.853715
618.385082	8180.204729
618.733048	8261.558870
619.080961	8196.815331
619.428821	8216.904329
619.776628	8223.737613
620.124382	8170.074530
620.472083	8152.869072
620.819731	8185.041716
621.167326	8081.113288
621.514868	8091.629135
621.862357	7972.231927
622.209793	7994.372675
622.557176	7926.496059
622.904506	7899.014208
623.251783	7829.932757
623.599007	7779.896784
623.946179	7788.038248
624.293297	7747.792196
624.640363	7660.885224
624.987376	7642.653891
625.334336	7593.119514
625.681243	7537.964249
626.028097	7531.067951
626.374899	7504.541399
626.721647	7501.236923
627.068343	7429.355110
627.414987	7402.548775
627.761577	7360.490428
628.108115	7397.769761
628.454600	7288.994264
628.801032	7340.575350
629.147412	7304.132849
629.493739	7289.450488
629.840014	7227.353555
630.186236	7281.835825
630.532405	7164.145048
630.878521	7214.428037
631.224585	7172.102509
631.570597	7099.134328
631.916556	7135.501212
632.262462	7130.908720
632.608316	7086.549087
632.954117	7071.060142
633.299866	7052.072636
633.645562	7043.732047
633.991206	6965.740356
634.336797	6906.232055
634.682336	6866.331323
635.027823	6830.334963
635.373257	6824.293141
635.718639	6757.467605
636.063968	6772.641478
636.409245	6664.896897
636.754470	6661.494118
637.099642	6617.111800
637.444762	6564.446866
637.789829	6577.843732
638.134845	6517.523806
638.479808	6500.351115
638.824719	6506.397979
639.169577	6431.176402
639.514383	6455.583148
639.859137	6379.870059
640.203839	6389.120576
640.548489	6374.559203
640.893086	6350.601119
641.237632	6328.430125
641.582125	6345.340675
641.926566	6316.626263
642.270955	6331.429611
642.615292	6323.457027
642.959576	6338.913204
643.303809	6331.417008
643.647990	6332.473130
643.992118	6328.840979
644.336195	6272.979953
644.680219	6296.683458
645.024192	6291.304547
645.368112	6381.256376
645.711981	6404.397793
646.055797	6480.199103
646.399562	6436.678821
646.743274	6570.224028
647.086935	6620.141533
647.430544	6614.931501
647.774101	6636.358925
648.117606	6641.047198
648.461059	6631.960518
648.804460	6596.415343
649.147810	6498.722822
649.491108	6474.547969
649.834354	6446.940090
650.177548	6364.678542
650.520690	6283.178207
650.863781	6257.128045
651.206820	6277.181755
651.549807	6201.415733
651.892742	6141.546990
652.235626	6142.391383
652.578458	6131.434435
652.921238	6043.509151
653.263967	6081.471560
653.606644	6019.972003
653.949269	6018.840264
654.291843	5960.879598
654.634365	6013.093349
654.976836	5967.039888
655.319255	5969.245393
655.661622	5944.100117
656.003938	5943.490138
656.346203	5899.604373
656.688416	5931.862716
657.030577	5885.685747
657.372687	5854.533937
657.714746	5841.996587
658.056753	5882.857660
658.398708	5822.878011
658.740612	5812.725128
659.082465	5864.328899
659.424266	5855.675758
659.766016	5853.823134
660.107715	5831.702551
660.449362	5846.677299
660.790958	5839.700342
661.132503	5829.471841
661.473996	5863.565164
661.815438	5851.365572
662.156829	5844.111351
662.498168	5841.575651
662.839456	5816.919368
663.180693	5847.153688
663.521879	5850.165777
663.863013	5838.687070
664.204097	5858.569381
664.545129	5904.060753
664.886110	5897.265278
665.227040	5930.385658
665.567918	5896.602366
665.908746	5918.806128
666.249522	5928.389361
666.590248	5911.052833
666.930922	5938.464107
667.271545	5951.135048
667.612118	5955.906500
667.952639	5931.139311
668.293109	5951.371982
668.633528	5910.543677
668.973896	5908.403707
669.314213	5905.389097
669.654480	5882.502258
669.994695	5874.733840
670.334859	5867.277974
670.674973	5860.091809
671.015035	5864.162541
671.355047	5865.821080
671.695008	5849.656621
672.034918	5824.176108
672.374777	5832.060473
672.714585	5822.058824
673.054342	5823.261139
673.394049	5820.425490
673.733705	5847.683009
674.073310	5835.490978
674.412864	5799.804650
674.752368	5786.382578
675.091820	5790.760820
675.431223	5729.034412
675.770574	5727.975770
676.109875	5679.613460
676.449125	5684.122772
676.788324	5648.902751
677.127473	5596.142035
677.466571	5585.815231
677.805619	5572.340227
678.144616	5559.024019
678.483562	5541.473242
678.822458	5507.218602
679.161303	5504.319938
679.500098	5494.051108
679.838842	5474.768694
680.177535	5483.507534
680.516179	5495.903732
680.854771	5505.348333
681.193314	5591.294965
681.531805	5697.678435
681.870247	5845.795097
682.208638	5950.628412
682.546978	5960.085616
682.885268	5940.266320
683.223508	5850.702660
683.561697	5802.242048
683.899836	5771.687615
684.237925	5726.486109
684.575963	5691.407240
684.913951	5648.980889
685.251889	5710.167894
685.589776	5680.064643
685.927614	5648.708667
686.265401	5723.055603
686.603137	5705.726637
686.940824	5780.615498
687.278460	5802.499147
687.616046	5815.724614
687.953582	5880.241301
688.291068	5865.347212
688.628504	5930.693169
688.965889	5886.472167
689.303224	5838.772769
689.640510	5787.189163
689.977745	5713.215271
690.314930	5612.820692
690.652065	5552.815838
690.989150	5464.676304
691.326185	5383.304519
691.663170	5334.324669
692.000105	5261.416981
692.336990	5181.287841
692.673825	5157.049973
693.010610	5093.067648
693.347345	5019.895300
693.684030	5006.770656
694.020665	4964.581240
694.357251	4870.924163
694.693786	4885.629209
695.030272	4849.010267
695.366707	4816.290658
695.703093	4781.983086
696.039429	4803.791117
696.375716	4789.902738
696.711952	4758.725722
697.048139	4750.075102
697.384276	4725.963264
697.720363	4740.179317
698.056400	4750.455710
698.392388	4700.306311
698.728326	4680.824772
699.064214	4659.490609
699.400053	4648.533661
699.735842	4615.511583
700.071581	4597.509622
700.407270	4563.867482
700.742910	4550.387437
701.078501	4492.089013
701.414042	4494.372656
701.749533	4464.607163
702.084974	4397.562338
702.420366	4455.712047
702.755709	4399.740116
703.091002	4343.160726
703.426246	4389.433477
703.761440	4345.593083
704.096584	4311.635870
704.431679	4335.162935
704.766725	4317.876819
705.101721	4306.566990
705.436668	4331.286288
705.771565	4279.725366
706.106413	4307.585303
706.441212	4336.135878
706.775961	4347.546530
707.110661	4329.549610
707.445311	4357.548179
707.779913	4377.828741
708.114465	4390.726533
708.448967	4417.240482
708.783421	4479.440758
709.117825	4517.791336
709.452180	4520.246378
709.786485	4567.875200
710.120742	4654.152027
710.454949	4635.378770
710.789107	4705.481056
711.123216	4775.913537
711.457275	4768.460191
711.791286	4843.890976
712.125247	4860.367987
712.459159	4758.609776
712.793023	4835.867979
713.126837	4793.693686
713.460602	4788.234117
713.794318	4710.423907
714.127985	4716.682499
714.461602	4631.010610
714.795171	4602.883493
715.128691	4536.589799
715.462162	4479.929750
715.795584	4431.567441
716.128957	4416.133948
716.462281	4362.460783
716.795556	4337.600333
717.128782	4298.186072
717.461960	4230.377511
717.795088	4237.132658
718.128167	4200.816185
718.461198	4140.866784
718.794180	4133.116010
719.127113	4116.102115
719.459997	4094.430195
719.792833	4048.883370
720.125619	4042.604613
720.458357	4004.490969
720.791046	4009.398532
721.123686	3982.446003
721.456278	3944.448306
721.788821	3961.439515
722.121315	3935.157460
722.453761	3906.478336
722.786158	3918.839245
723.118506	3945.945529
723.450805	3891.511150
723.783056	3917.026950
724.115259	3933.582099
724.447412	3939.656690
724.779518	3932.830967
725.111574	3935.364147
725.443582	3966.158035
725.775542	3947.707412
726.107453	4000.183303
726.439315	4001.730937
726.771129	4013.754089
727.102895	4052.225655
727.434612	4100.734158
727.766281	4108.757154
728.097901	4112.132207
728.429473	4117.551447
728.760996	4123.348774
729.092471	4117.385089
729.423897	4103.169035
729.755276	4107.209520
730.086606	4109.047021
730.417887	4144.317453
730.749120	4211.158112
731.080305	4271.457874
731.411442	4298.503664
731.742530	4270.958800
732.073570	4277.590438
732.404562	4330.051205
732.735506	4321.478723
733.066401	4281.653608
733.397249	4220.232189
733.728048	4142.348883
734.058798	4057.385276
734.389501	3985.538751
734.720156	3929.770987
735.050762	3880.365159
735.381320	3876.291906
735.711831	3823.977332
736.042293	3795.164618
736.372707	3819.687310
736.703073	3788.553144
737.033391	3778.226341
737.363661	3796.785348
737.693883	3821.766786
738.024056	3832.703570
738.354182	3828.348013
738.684260	3890.679359
739.014290	3910.879263
739.344272	3908.620826
739.674207	3946.447124
740.004093	3953.431642
740.333931	3949.164306
740.663722	3950.900983
740.993464	3943.455199
741.323159	3922.307559
741.652806	3892.947879
741.982405	3867.485011
742.311956	3837.084332
742.641460	3825.716530
742.970915	3799.205102
743.300323	3758.371756
743.629683	3725.934452
743.958996	3717.543451
744.288260	3694.046633
744.617477	3657.800737
744.946647	3643.980414
745.275768	3617.963019
745.604842	3617.844552
745.933869	3569.378898
746.262847	3560.987898
746.591778	3598.489041
746.920662	3567.879155
747.249498	3541.571894
747.578286	3586.410437
747.907027	3601.448199
748.235720	3598.577262
748.564365	3624.042650
748.892963	3623.445273
749.221514	3605.685288
749.550017	3583.526897
749.878473	3582.977411
750.206881	3550.310734
750.535242	3544.606668
750.863555	3551.142524
751.191821	3545.771175
751.520039	3527.512116
751.848210	3504.542098
752.176334	3537.168446
752.504411	3546.741597
752.832440	3506.944208
753.160421	3490.124398
753.488356	3496.408197
753.816243	3510.425125
754.144082	3467.691264
754.471875	3452.708954
754.799620	3470.829382
755.127318	3462.440902
755.454969	3463.993577
755.782572	3469.241418
756.110129	3445.263170
756.437638	3434.089453
756.765100	3448.517235
757.092515	3455.380766
757.419882	3463.920481
757.747203	3437.893003
758.074477	3437.572890
758.401703	3455.335396
758.728882	3478.038232
759.056014	3483.412102
759.383099	3485.446208
759.710138	3480.883963
760.037129	3499.561438
760.364073	3532.487735
760.690970	3513.858151
761.017820	3493.688494
761.344623	3512.161802
761.671379	3558.845407
761.998088	3609.206534
762.324751	3734.045668
762.651366	3977.840909
762.977935	4449.806335
763.304456	4894.110950
763.630931	4989.250126
763.957359	4628.237976
764.283740	4291.040236
764.610074	4095.909774
764.936362	3899.607243
765.262602	3742.313161
765.588796	3629.958444
765.914943	3545.032646
766.241044	3455.766414
766.567097	3427.858587
766.893104	3378.760269
767.219064	3347.716843
767.544978	3323.100889
767.870845	3264.762136
768.196665	3245.913262
768.522438	3253.318717
768.848165	3251.387955
769.173846	3216.704817
769.499479	3199.663196
769.825066	3178.346677
770.150607	3164.082732
770.476101	3181.184847
770.801548	3172.456089
771.126949	3128.172073
771.452303	3113.903087
771.777611	3120.708644
772.102872	3124.539921
772.428087	3099.631580
772.753256	3087.583223
773.078378	3083.003334
773.403453	3049.199877
773.728482	3036.649925
774.053465	3056.597770
774.378401	3045.993703
774.703291	3012.913652
775.028135	3015.645957
775.352932	3010.181346
775.677683	2998.465705
776.002388	2994.410097
776.327046	2995.398163
776.651658	2985.081441
776.976224	2974.305975
777.300743	2972.120635
777.625216	2965.315077
777.949643	2958.544808
778.274024	2961.357771
778.598359	2953.019703
778.922647	2955.255455
779.246889	2956.079683
779.571086	2939.592590
779.895236	2932.560180
780.219339	2944.822787
780.543397	2959.908440
780.867409	2958.665795
781.191374	2953.627162
781.515294	2951.348560
781.839167	2951.159517
782.162995	2941.878753
782.486776	2949.811008
782.810511	2949.987449
783.134201	2934.861467
783.457844	2940.860440
783.781441	2933.240736
784.104993	2913.383631
784.428498	2914.676687
784.751958	2925.875610
785.075372	2919.168355
785.398739	2905.831982
785.722061	2921.550300
786.045337	2935.743669
786.368568	2918.767583
786.691752	2912.519073
787.014891	2956.077163
787.337983	2984.675628
787.661030	3017.170906
787.984031	3082.375711
788.306987	3126.556383
788.629897	3122.657050
788.952760	3103.409925
789.275579	3089.433326
789.598351	3032.032228
789.921078	2985.630927
790.243759	2977.108857
790.566395	2956.684622
790.888984	2935.463885
791.211529	2919.642223
791.534027	2909.098650
791.856480	2899.061713
792.178888	2885.881616
792.501249	2876.439535
792.823566	2872.968700
793.145836	2874.531458
793.468062	2866.581558
793.790241	2866.271528
794.112375	2866.800849
794.434464	2882.995555
794.756507	2887.272974
795.078505	2893.715569
795.400457	2905.839544
795.722364	2942.748352
796.044226	2968.057465
796.366042	2972.087867
796.687812	2959.701752
797.009538	2981.416523
797.331218	2967.462609
797.652852	2953.715382
797.974442	2935.174018
798.295986	2930.757968
798.617484	2926.472987
798.938938	2912.945050
799.260346	2896.727658
799.581709	2889.748181
799.903026	2884.921276
800.224299	2878.324926
800.545526	2868.701364
800.866708	2853.567820
801.187845	2842.613392
801.508936	2843.946778
801.829983	2851.689990
802.150984	2838.905624
802.471940	2825.609581
802.792851	2825.337358
803.113717	2823.393993
803.434538	2831.296002
803.755314	2824.976916
804.076045	2817.969712
804.396731	2818.234372
804.717372	2817.815957
805.037967	2812.545430
805.358518	2816.911070
805.679024	2828.742658
805.999485	2829.017401
806.319901	2831.941270
806.640272	2822.839467
806.960598	2828.470435
807.280879	2836.947136
807.601115	2847.646985
807.921306	2830.993533
808.241453	2824.578665
808.561554	2831.023780
808.881611	2836.448061
809.201623	2830.010508
809.521590	2828.477997
809.841513	2825.140753
810.161390	2828.026814
810.481223	2821.438026
810.801011	2812.598362
811.120755	2808.875470
811.440453	2811.466623
811.760107	2811.701037
812.079716	2811.552323
812.399281	2799.819037
812.718801	2794.818213
813.038276	2787.125412
813.357707	2796.325518
813.677093	2804.434214
813.996434	2794.808131
814.315731	2794.054478
814.634983	2787.138015
814.954191	2789.162038
815.273354	2803.736014
815.592473	2810.586942
815.911547	2814.329999
816.230577	2816.691779
816.549562	2829.423213
816.868502	2829.231650
817.187399	2838.590552
817.506250	2857.520084
817.825058	2849.396265
818.143821	2860.607791
818.462539	2878.327447
818.781213	2903.467681
819.099843	2937.742486
819.418429	2994.684839
819.736970	3057.671536
820.055466	3132.479739
820.373919	3239.032087
820.692327	3374.767675
821.010691	3544.031977
821.329011	3983.597907
821.647286	4884.016040
821.965517	6256.379433
822.283704	6997.320664
822.601847	6984.727862
822.919945	6352.526840
823.237999	5845.076732
823.556010	5263.420840
823.873976	4713.756110
824.191897	4302.040034
824.509775	4009.096063
824.827609	3741.569590
825.145398	3615.225672
825.463144	3607.023715
825.780845	3695.558979
826.098502	3798.741316
826.416116	4083.690017
826.733685	4398.144591
827.051210	4461.574909
827.368692	4348.048124
827.686129	4083.291766
828.003522	3758.349071
828.320872	3498.507837
828.638177	3302.946356
828.955439	3168.828978
829.272656	3086.048191
829.589830	3016.225690
829.906960	2969.237095
830.224046	2922.586257
830.541088	2888.863458
830.858086	2874.609596
831.175041	2855.228880
831.491952	2858.046885
831.808819	2869.127341
832.125642	2894.421331
832.442421	2937.898762
832.759157	3019.298273
833.075849	3193.689429
833.392497	3476.757779
833.709101	3682.295703
834.025662	3635.511275
834.342179	3470.410966
834.658653	3295.485448
834.975083	3145.659835
835.291469	3049.056204
835.607811	2964.193420
835.924110	2907.563619
836.240366	2856.970599
836.556578	2814.990390
836.872746	2792.605146
837.188871	2770.277876
837.504952	2751.711306
837.820990	2747.302817
838.136984	2730.417472
838.452935	2724.032851
838.768842	2721.605536
839.084706	2738.357290
839.400526	2816.996769
839.716303	2950.970474
840.032037	3028.498379
840.347727	3015.593025
840.663373	2956.727472
840.978977	2880.469937
841.294537	2808.225162
841.610054	2759.933428
841.925527	2740.328381
842.240957	2716.526573
842.556344	2695.094107
842.871687	2681.049453
843.186987	2670.911693
843.502244	2668.116373
843.817458	2658.966678
844.132629	2646.434370
844.447756	2640.145531
844.762840	2633.188738
845.077881	2635.041362
845.392879	2633.491207
845.707833	2630.345527
846.022745	2623.088787
846.337613	2627.066257
846.652438	2625.732872
846.967221	2626.423510
847.281960	2622.201543
847.596656	2622.796400
847.911309	2621.248765
848.225919	2618.692900
848.540485	2613.850872
848.855009	2615.706017
849.169490	2615.179216
849.483928	2613.586212
849.798323	2614.861623
850.112675	2610.397682
850.426984	2611.748711
850.741251	2612.288114
851.055474	2611.738629
851.369654	2615.000255
851.683792	2615.867334
851.997887	2614.438167
852.311938	2611.146293
852.625947	2611.665532
852.939914	2614.619648
853.253837	2616.749536
853.567718	2609.886005
853.881555	2612.262909
854.195350	2614.730553
854.509103	2614.712909
854.822812	2610.821139
855.136479	2611.302569
855.450103	2612.777106
855.763685	2616.235338
856.077224	2612.300717
856.390720	2607.332660
856.704173	2612.494802
857.017584	2617.132663
857.330953	2617.540997
857.644278	2619.895216
857.957561	2619.927983
858.270802	2614.216356
858.584000	2615.426233
858.897155	2622.178858
859.210268	2619.612911
859.523339	2616.638630
859.836367	2609.991869
860.149352	2608.779471
860.462295	2612.003289
860.775195	2609.349122
861.088054	2607.771241
861.400869	2609.197887
861.713642	2606.110180
862.026373	2607.985490
862.339062	2608.847527
862.651708	2618.279526
862.964312	2616.137035
863.276873	2612.850203
863.589392	2614.291973
863.901869	2621.432767
864.214303	2626.491565
864.526696	2628.860908
864.839045	2631.046248
865.151353	2632.266207
865.463619	2632.598923
865.775842	2628.213119
866.088023	2631.222688
866.400162	2633.193779
866.712258	2633.632360
867.024313	2631.497431
867.336325	2627.235136
867.648296	2629.801083
867.960224	2636.851137
868.272110	2630.854684
868.583954	2627.966103
868.895755	2628.903757
869.207515	2631.157153
869.519233	2639.139820
869.830909	2636.074799
870.142542	2631.552884
870.454134	2632.883748
870.765684	2637.902217
871.077191	2639.764923
871.388657	2644.589308
871.700081	2643.283649
872.011463	2641.914976
872.322803	2641.914976
872.634101	2645.370687
872.945357	2653.764208
873.256571	2658.407110
873.567744	2656.909888
873.878874	2656.796462
874.189963	2657.741678
874.501010	2662.752585
874.812015	2669.260715
875.122979	2665.716783
875.433900	2655.649599
875.744780	2658.137409
876.055618	2660.605053
876.366415	2667.140909
876.677169	2668.038235
876.987882	2661.419200
877.298554	2658.639003
877.609183	2671.582166
877.919771	2674.584173
878.230317	2682.231603
878.540822	2697.377750
878.851285	2709.693289
879.161707	2731.607185
879.472087	2769.751075
879.782425	2818.173879
880.092722	2930.490786
880.402977	3121.129581
880.713191	3378.205742
881.023363	3672.480577
881.333494	3865.309753
881.643583	4034.916853
881.953631	4032.166904
882.263637	3858.726006
882.573602	3636.872387
882.883526	3507.579393
883.193408	3392.119326
883.503248	3290.834984
883.813048	3176.811646
884.122806	3062.720252
884.432522	2977.002992
884.742197	2911.374731
885.051831	2873.130017
885.361424	2839.283710
885.670975	2803.972948
885.980485	2774.421704
886.289954	2755.270361
886.599382	2740.744276
886.908768	2731.428224
887.218113	2710.114225
887.527417	2697.339942
887.836680	2687.224866
888.145901	2685.336954
888.455082	2675.042918
888.764221	2665.661331
889.073319	2656.622542
889.382376	2655.997439
889.691392	2658.255876
890.000366	2657.613129
890.309300	2656.559527
890.618193	2655.848725
890.927044	2661.114210
891.235855	2661.245280
891.544625	2659.793428
891.853353	2661.182266
892.162041	2663.826351
892.470687	2687.161852
892.779293	2698.829602
893.087858	2707.273535
893.396381	2730.457802
893.704864	2772.405243
894.013306	2843.082220
894.321707	2935.766354
894.630068	2986.508088
894.938387	3006.090450
895.246665	2998.800942
895.554903	2956.508181
895.863100	2910.434556
896.171256	2854.714682
896.479371	2792.219498
896.787446	2755.532501
897.095480	2738.221179
897.403473	2728.305229
897.711425	2714.709237
898.019336	2695.084025
898.327207	2683.111285
898.635038	2682.284536
898.942827	2678.995183
899.250576	2669.764830
899.558284	2656.491472
899.865952	2652.249341
900.173579	2652.526604
900.481165	2648.319762
900.788711	2642.048566
901.096216	2632.422483
901.403681	2628.361833
901.711105	2635.169912
902.018489	2626.904940
902.325832	2630.695888
902.633135	2634.073461
902.940397	2650.941162
903.247619	2688.303673
903.554800	2758.032913
903.861941	2882.846841
904.169041	3011.552540
904.476101	3071.958166
904.783121	3066.493555
905.090100	3007.522138
905.397039	2934.042279
905.703938	2859.753316
906.010796	2796.859880
906.317614	2742.707806
906.624391	2708.261601
906.931129	2681.669515
907.237826	2661.003305
907.544483	2639.419604
907.851099	2628.714714
908.157675	2617.674587
908.464211	2609.974225
908.770707	2599.831423
909.077163	2596.279930
909.383578	2594.845722
909.689954	2591.526122
909.996289	2591.095104
910.302584	2590.656523
910.608839	2583.125039
910.915054	2586.232911
911.221229	2589.517222
911.527363	2591.130392
911.833458	2590.908581
912.139513	2590.628797
912.445527	2594.628952
912.751502	2597.688933
913.057436	2603.440889
913.363331	2608.731580
913.669186	2620.316152
913.975000	2632.896351
914.280775	2650.295894
914.586510	2668.567556
914.892205	2704.609285
915.197859	2773.582352
915.503475	2855.957327
915.809050	2923.375198
916.114585	2939.280038
916.420081	2948.916204
916.725536	2959.457256
917.030952	2934.374995
917.336328	2886.904970
917.641665	2839.281190
917.946961	2790.792852
918.252218	2754.894795
918.557435	2730.140209
918.862612	2704.566436
919.167750	2688.764939
919.472848	2673.470078
919.777906	2657.038437
920.082925	2645.489154
920.387904	2635.437093
920.692843	2628.523150
920.997743	2623.502161
921.302603	2619.063425
921.607423	2608.986159
921.912204	2605.616147
922.216946	2602.122628
922.521647	2599.465940
922.826310	2595.599375
923.130932	2590.457398
923.435516	2584.218970
923.740059	2584.871799
924.044564	2582.295770
924.349028	2581.771490
924.653454	2569.516445
924.957840	2568.929150
925.262186	2568.266238
925.566493	2569.110632
925.870761	2563.734241
926.174989	2566.912689
926.479178	2562.368088
926.783328	2561.296843
927.087438	2561.579148
927.391509	2558.413303
927.695541	2558.801472
927.999533	2559.086297
928.303486	2556.235525
928.607400	2557.382387
928.911275	2553.906512
929.215110	2555.842315
929.518906	2556.913560
929.822663	2555.008004
930.126381	2554.934907
930.430060	2556.449774
930.733699	2555.139074
931.037299	2555.872562
931.340861	2558.093190
931.644383	2554.163611
931.947866	2553.586398
932.251309	2559.068653
932.554714	2554.697973
932.858080	2559.018242
933.161407	2554.879454
933.464694	2554.995401
933.767943	2553.369629
934.071153	2555.892726
934.374323	2553.999773
934.677455	2554.536656
934.980548	2551.695966
935.283602	2553.195709
935.586617	2552.958775
935.889593	2556.384239
936.192530	2552.991542
936.495428	2550.967519
936.798287	2555.799465
937.101108	2555.224773
937.403890	2560.664178
937.706632	2561.511092
938.009336	2564.278686
938.312002	2568.435117
938.614628	2574.020716
938.917216	2573.899728
939.219765	2574.870150
939.522275	2577.932651
939.824747	2576.755542
940.127179	2569.672720
940.429573	2565.571742
940.731929	2567.162226
941.034246	2564.472770
941.336524	2567.205076
941.638763	2565.042421
941.940964	2565.042421
942.243126	2565.574262
942.545250	2562.680640
942.847335	2559.401369
943.149381	2559.373643
943.451389	2559.565207
943.753359	2561.092677
944.055290	2552.227807
944.357182	2554.428271
944.659036	2554.831563
944.960851	2555.650751
945.262628	2557.178221
945.564367	2557.984805
945.866067	2557.213509
946.167729	2556.873231
946.469352	2557.193344
946.770937	2558.062943
947.072484	2554.171172
947.373992	2557.326935
947.675462	2553.891388
947.976893	2554.725699
948.278286	2553.341903
948.579641	2552.154711
948.880958	2553.236038
949.182236	2555.796944
949.483476	2550.702858
949.784678	2553.162942
950.085841	2553.026830
950.386967	2553.573796
950.688054	2554.062787
950.989103	2555.653272
951.290114	2555.587737
951.591087	2556.853066
951.892021	2558.020093
952.192917	2558.438509
952.493776	2561.934549
952.794596	2562.194169
953.095378	2561.122923
953.396122	2561.997564
953.696828	2559.161915
953.997496	2556.033879
954.298126	2555.499516
954.598718	2554.508930
954.899272	2552.414330
955.199788	2553.467931
955.500266	2553.785524
955.800706	2550.213867
956.101108	2543.312527
956.401472	2548.527601
956.701798	2543.007537
957.002087	2541.545602
957.302337	2544.101467
957.602550	2544.028371
957.902724	2544.928217
958.202861	2542.135418
958.502960	2543.118442
958.803022	2543.002496
959.103045	2542.853782
959.403031	2540.096271
959.702979	2539.715664
960.002889	2539.992927
960.302762	2539.927392
960.602596	2539.534182
960.902393	2537.303472
961.202153	2539.032587
961.501875	2538.301620
961.801559	2539.914789
962.101205	2536.398584
962.400814	2538.818338
962.700385	2540.129038
962.999918	2537.580735
963.299414	2537.779861
963.598873	2539.539223
963.898293	2536.254912
964.197677	2538.072247
964.497022	2538.286497
964.796331	2537.852957
965.095601	2538.042001
965.394835	2538.699871
965.694030	2537.275745
965.993189	2539.332536
966.292309	2538.059645
966.591393	2538.657021
966.890439	2536.882535
967.189447	2536.537216
967.488419	2537.724408
967.787353	2537.250539
968.086249	2538.147865
968.385108	2540.207176
968.683930	2535.748276
968.982714	2536.272556
969.281462	2536.937988
969.580172	2539.826569
969.878844	2539.461085
970.177480	2538.992258
970.476078	2539.708102
970.774639	2538.604089
971.073162	2537.038811
971.371649	2535.730632
971.670098	2535.564273
971.968510	2537.273225
972.266885	2533.983872
972.565223	2538.962011
972.863524	2538.483102
973.161788	2538.392361
973.460014	2539.708102
973.758204	2540.101312
974.056356	2539.698020
974.354471	2538.412525
974.652550	2537.870601
974.950591	2536.287679
975.248595	2538.548637
975.546563	2536.789274
975.844493	2538.339429
976.142386	2539.002340
976.440243	2536.993441
976.738062	2537.331198
977.035845	2538.707433
977.333590	2535.655014
977.631299	2537.023687
977.928971	2537.495035
978.226606	2536.189377
978.524204	2536.514531
978.821765	2534.140148
979.119290	2536.466640
979.416777	2537.510159
979.714228	2538.772968
980.011642	2537.626105
980.309020	2540.040818
980.606360	2535.947401
980.903664	2537.691640
981.200931	2540.365972
981.498162	2538.873791
981.795356	2542.899152
982.092513	2545.971736
982.389633	2545.681869
982.686717	2547.254709
982.983764	2552.268137
983.280775	2552.805020
983.577749	2552.731923
983.874686	2552.767211
984.171587	2549.755122
984.468451	2546.314534
984.765279	2546.276725
985.062070	2541.996786
985.358824	2542.836138
985.655543	2542.112732
985.952224	2540.214738
986.248869	2540.272711
986.545478	2533.774664
986.842050	2534.495549
987.138586	2531.806093
987.435086	2532.776515
987.731549	2529.870290
988.027975	2535.002185
988.324366	2533.658717
988.620719	2534.671989
988.917037	2535.254243
989.213318	2536.890097
989.509563	2533.341125
989.805772	2534.006557
990.101944	2536.353214
990.398080	2535.579397
990.694180	2534.298944
990.990244	2533.930940
991.286271	2537.013605
991.582262	2533.068902
991.878217	2533.215096
992.174136	2533.638553
992.470019	2534.165353
992.765865	2534.306506
993.061676	2531.869108
993.357450	2535.334901
993.653188	2532.592513
993.948890	2535.836496
994.244556	2534.578728
994.540186	2534.762730
994.835780	2535.523944
995.131337	2537.220293
995.426859	2534.208203
995.722345	2534.530837
996.017795	2538.649460
996.313208	2536.822041
996.608586	2534.452699
996.903928	2537.086702
997.199234	2536.325488
997.494504	2536.953111
997.789738	2537.527803
998.084936	2538.604089
998.380099	2533.915816
998.675225	2536.726259
998.970316	2533.615867
999.265371	2535.042514
999.560390	2533.255425
999.855373	2534.994623
1000.150320	2534.505631
1000.445232	2533.336083
1000.740108	2532.983203
1001.034948	2532.405991
1001.329752	2533.941022
1001.624521	2535.670138
1001.919254	2530.049251
1002.213951	2529.887934
1002.508613	2529.013294
1002.803239	2531.397760
1003.097829	2526.754857
1003.392384	2533.719211
1003.686903	2531.811134
1003.981386	2533.416742
1004.275834	2530.152595
1004.570246	2534.107380
1004.864623	2530.949097
1005.158964	2532.438758
1005.453270	2530.812986
1005.747540	2533.076464
1006.041775	2531.750641
1006.335974	2530.621422
1006.630138	2530.152595
1006.924266	2531.808614
1007.218359	2530.235774
1007.512416	2533.182328
1007.806438	2532.131248
1008.100425	2532.584952
1008.394376	2531.554036
1008.688292	2534.414890
1008.982172	2531.574200
1009.276017	2527.843746
1009.569827	2529.593027
1009.863602	2532.143851
1010.157341	2532.877338
1010.451045	2532.466484
1010.744714	2531.165867
1011.038347	2533.116793
1011.331945	2532.511855
1011.625508	2531.720394
1011.919036	2530.752492
1012.212528	2531.218799
1012.505986	2529.386339
1012.799408	2535.891948
1013.092795	2530.593696
1013.386147	2532.849612
1013.679464	2530.450023
1013.972745	2533.169725
1014.265992	2532.080836
1014.559204	2532.615198
1014.852380	2532.045548
1015.145521	2529.696370
1015.438628	2530.364323
1015.731699	2533.225178
1016.024736	2530.843233
1016.317737	2532.111083
1016.610703	2529.587986
1016.903635	2528.778880
1017.196531	2527.528674
1017.489393	2529.073788
1017.782219	2528.723428
1018.075011	2529.020856
1018.367768	2532.348017
1018.660490	2532.118645
1018.953177	2532.118645
1019.245829	2532.118645
