Dividing Wavelength (nm)	Counts (n)	Blue Motor Position (mm): 45.400000	Red Motor Position (mm): 0.000000	
326.493990	2130.953704
326.888308	2130.953704
327.282561	2130.953704
327.676750	2097.790473
328.070874	2095.559763
328.464933	2098.241657
328.858929	2104.104519
329.252859	2114.070880
329.646726	2127.346758
330.040528	2139.576598
330.434265	2158.770791
330.827938	2171.484581
331.221547	2189.902437
331.615091	2209.721733
332.008571	2229.714949
332.401986	2251.699421
332.795338	2268.615013
333.188625	2288.640996
333.581847	2305.712864
333.975006	2323.787921
334.368100	2341.568071
334.761129	2361.087418
335.154095	2377.322454
335.546996	2397.850033
335.939833	2426.307346
336.332606	2443.379214
336.725315	2453.280040
337.117960	2460.312449
337.510540	2470.218317
337.903056	2480.630820
338.295508	2490.156080
338.687896	2498.337873
339.080220	2504.777947
339.472480	2513.173989
339.864676	2514.900584
340.256807	2522.477438
340.648875	2522.512726
341.040879	2526.956503
341.432818	2525.943231
341.824694	2529.177132
342.216506	2531.448171
342.608253	2530.807945
342.999937	2530.402132
343.391557	2531.680064
343.783113	2527.647141
344.174605	2528.267203
344.566033	2524.773684
344.957397	2522.984074
345.348697	2522.671522
345.739934	2521.466687
346.131106	2518.560462
346.522215	2517.887467
346.913260	2514.537621
347.304241	2517.532066
347.695159	2511.149965
348.086012	2510.676097
348.476802	2509.786333
348.867528	2510.131652
349.258191	2504.825838
349.648789	2506.917917
350.039324	2503.036228
350.429796	2501.833913
350.820203	2498.829385
351.210548	2500.835765
351.600828	2503.003461
351.991045	2498.451299
352.381198	2498.234529
352.771288	2498.494149
353.161314	2496.833088
353.551276	2497.291833
353.941175	2496.787718
354.331010	2497.624550
354.720782	2497.203613
355.110490	2497.861484
355.500135	2499.013387
355.889717	2497.261587
356.279235	2498.806700
356.668689	2496.525578
357.058080	2498.312667
357.447408	2496.646566
357.836672	2495.222440
358.225873	2498.970538
358.615010	2492.848056
359.004084	2503.167298
359.393095	2501.075219
359.782043	2501.443224
360.170927	2503.991527
360.559748	2505.377844
360.948505	2504.263749
361.337199	2505.375324
361.725830	2506.844820
362.114398	2506.481857
362.502903	2506.943123
362.891344	2505.075375
363.279722	2509.100736
363.668037	2507.424553
364.056289	2510.073679
364.444478	2509.967815
364.832603	2509.866992
365.220665	2510.779441
365.608665	2511.268432
365.996601	2513.032836
366.384474	2513.274812
366.772284	2514.111643
367.160031	2513.068124
367.547715	2514.618279
367.935336	2514.086437
368.322893	2515.687004
368.710388	2515.371932
369.097820	2517.373270
369.485189	2517.731192
369.872495	2516.833866
370.259738	2518.096675
370.646918	2517.436284
371.034035	2518.242869
371.421090	2516.544000
371.808081	2516.848990
372.195010	2519.944258
372.581875	2521.774197
372.968678	2520.294618
373.355418	2522.021214
373.742096	2526.762419
374.128710	2528.063037
374.515262	2527.856349
374.901751	2531.748120
375.288177	2537.409336
375.674540	2543.851930
376.060841	2549.631613
376.447079	2554.937428
376.833254	2564.785322
377.219367	2569.937381
377.605417	2587.069742
377.991404	2592.945207
378.377329	2607.365428
378.763191	2618.191306
379.148991	2641.370531
379.534727	2655.082469
379.920402	2674.332115
380.306013	2688.908612
380.691563	2717.018086
381.077049	2734.767988
381.462474	2754.786410
381.847835	2783.841100
382.233134	2808.434369
382.618371	2822.809220
383.003545	2869.276055
383.388657	2888.198026
383.773706	2923.949889
384.158693	2948.555761
384.543618	2980.988024
384.928480	3016.702079
385.313280	3061.162535
385.698017	3079.161975
386.082692	3133.298926
386.467305	3157.289777
386.851856	3192.731609
387.236344	3227.989439
387.620770	3272.727159
388.005133	3308.259732
388.389435	3349.047708
388.773674	3371.780791
389.157851	3422.827515
389.541965	3452.058646
389.926018	3437.325873
390.310008	3513.192718
390.693936	3547.480126
391.077802	3595.202209
391.461606	3599.290585
391.845348	3670.275072
392.229027	3680.107843
392.612645	3703.329918
392.996200	3784.568112
393.379694	3833.752130
393.763125	3901.578334
394.146494	3880.037484
394.529801	3949.517187
394.913047	4002.900485
395.296230	3973.697081
395.679351	4035.052964
396.062410	4063.790062
396.445408	4052.129873
396.828343	4090.281325
397.211217	4118.179071
397.594028	4041.021691
397.976778	4107.849747
398.359466	4144.171260
398.742092	4166.092718
399.124656	4096.161831
399.507158	4174.143440
399.889598	4201.287533
400.271977	4263.145011
400.654294	4233.865990
401.036549	4241.112648
401.418742	4212.574677
401.800874	4320.843538
402.182944	4339.798276
402.564952	4401.023090
402.946898	4387.840472
403.328783	4391.419692
403.710606	4301.193120
404.092367	4495.022965
404.474067	4454.345894
404.855705	4466.222853
405.237282	4396.564189
405.618797	4501.649562
406.000250	4538.956621
406.381642	4617.712047
406.762972	4581.677879
407.144240	4591.059466
407.525447	4590.673818
407.906593	4651.969207
408.287677	4690.468499
408.668700	4626.897029
409.049661	4675.382847
409.430560	4715.712077
409.811399	4642.264986
410.192176	4804.983350
410.572891	4744.134103
410.953545	4843.691850
411.334138	4725.174323
411.714669	4794.570847
412.095139	4692.452193
412.475547	4832.099717
412.855894	4813.896110
413.236180	4821.498170
413.616405	4771.789873
413.996568	4861.429150
414.376670	4804.748937
414.756711	4762.365436
415.136691	4790.028767
415.516609	4868.214543
415.896466	4903.381632
416.276262	4940.398825
416.655997	4922.376700
417.035670	5101.534266
417.415283	5195.531621
417.794834	5135.420903
418.174324	5088.250826
418.553753	4997.762114
418.933121	5183.097615
419.312428	5251.856433
419.691674	5186.734808
420.070859	5314.822965
420.449983	5227.374069
420.829045	5341.099979
421.208047	5249.134210
421.586988	5318.989479
421.965867	5337.611501
422.344686	5464.867868
422.723444	5316.796577
423.102141	5135.864524
423.480777	5438.101862
423.859352	5205.387077
424.237866	5465.326613
424.616319	5456.028205
424.994712	5564.042488
425.373044	5442.419610
425.751314	5585.180046
426.129524	5390.757865
426.507673	5581.555456
426.885762	5665.571326
427.263789	5596.842755
427.641756	5476.346575
428.019662	5601.709989
428.397508	5607.547645
428.775292	5550.741403
429.153016	5652.010622
429.530679	5577.414148
429.908282	5663.113764
430.285824	5536.669022
430.663305	5809.791176
431.040726	5543.585485
431.418086	5542.471390
431.795385	5654.977341
432.172624	5662.566798
432.549802	5654.841230
432.926920	5668.228014
433.303977	5679.709242
433.680974	5718.150561
434.057910	5731.582715
434.434786	5738.733592
434.811601	5707.327203
435.188355	5943.177586
435.565050	5814.151774
435.941683	5799.111492
436.318257	6016.934708
436.694770	5994.554506
437.071222	6031.370052
437.447614	5961.260205
437.823946	5874.081011
438.200218	6033.172265
438.576429	5891.399895
438.952580	5991.965873
439.328670	6037.106885
439.704700	5945.289830
440.080670	5939.381597
440.456580	6202.983532
440.832429	6087.115131
441.208218	5927.814670
441.583947	6089.489515
441.959616	6091.546306
442.335224	6017.063258
442.710773	6155.251367
443.086261	6184.603485
443.461689	5980.852649
443.837057	6124.066789
444.212365	6279.291478
444.587612	6171.501526
444.962800	6323.971224
445.337927	6306.612011
445.712995	5920.063896
446.088002	6498.884139
446.462949	6329.508932
446.837837	6256.177787
447.212664	6429.964004
447.587431	6572.679070
447.962139	7114.877851
448.336786	8039.707771
448.711374	7784.012886
449.085901	6858.023501
449.460369	6773.039729
449.834776	6711.915739
450.209124	7099.416632
450.583412	7252.627380
450.957640	7395.811273
451.331808	7160.845612
451.705917	6710.728547
452.079965	6640.560727
452.453954	6848.170566
452.827883	6729.892494
453.201752	6817.396842
453.575562	6619.274455
453.949311	6824.588048
454.323001	6712.568568
454.696632	6784.949455
455.070202	6925.385919
455.443713	7082.097748
455.817164	7180.619538
456.190556	7264.751355
456.563888	7337.154927
456.937160	7380.818881
457.310373	7036.949174
457.683526	7064.897331
458.056619	6958.133255
458.429653	6940.819412
458.802628	6880.219701
459.175542	6983.225598
459.548398	7343.567275
459.921194	7500.889083
460.293930	7502.270360
460.666607	8034.225516
461.039224	8339.744645
461.411782	8468.193245
461.784280	8484.385431
462.156719	8376.333340
462.529099	8249.336592
462.901419	7846.135025
463.273680	7732.283086
463.645882	7748.674398
464.018024	7612.419571
464.390106	7784.630428
464.762130	8174.150303
465.134094	8637.306313
465.505999	9668.023149
465.877845	10884.466175
466.249631	11536.922552
466.621358	11153.341156
466.993026	10517.913796
467.364634	10267.910374
467.736184	9902.071319
468.107674	9567.210154
468.479105	9599.841543
468.850477	9367.472077
469.221790	9138.031521
469.593043	8808.879463
469.964238	8671.681941
470.335373	8681.739043
470.706449	8734.913133
471.077467	8718.015186
471.448425	10030.250217
471.819324	11104.754515
472.190164	11125.884512
472.560945	9879.456703
472.931667	9090.795910
473.302330	8958.810940
473.672934	8596.016742
474.043479	8960.535015
474.413965	8893.638903
474.784393	8774.408053
475.154761	8941.620606
475.525070	9027.756281
475.895321	8855.406793
476.265513	9031.627887
476.635645	9192.352475
477.005719	9194.409265
477.375734	9315.386875
477.745691	9545.197956
478.115588	9686.859420
478.485427	9931.090721
478.855207	10463.774324
479.224928	11285.036259
479.594591	11911.124882
479.964194	11718.394008
480.333739	11660.050214
480.703226	11572.944117
481.072653	11660.120791
481.442022	11901.077862
481.811333	12091.119280
482.180584	11892.608724
482.549777	11601.540062
482.918912	11428.694020
483.287988	11445.879314
483.657005	11467.029475
484.025964	11145.353448
484.394864	11279.473346
484.763706	11244.598644
485.132489	10998.355922
485.501213	10972.905657
485.869879	11041.775380
486.238487	10882.006092
486.607036	10993.947433
486.975527	10771.909812
487.343959	10969.167642
487.712333	11007.470328
488.080648	10947.291554
488.448905	10987.272946
488.817104	10924.916393
489.185244	11197.010151
489.553326	11345.404077
489.921350	11892.323898
490.289315	12948.611987
490.657222	13292.395994
491.025070	13202.159341
491.392861	13067.409298
491.760593	12688.385105
492.128267	12339.900222
492.495883	12010.536436
492.863440	11671.849035
493.230939	11338.560710
493.598380	11269.060843
493.965763	11138.033692
494.333088	11038.523836
494.700354	10961.857968
495.067563	11019.127997
495.434713	10852.409477
495.801805	10984.147430
496.168839	10901.762373
496.535815	10834.813330
496.902733	10839.892292
497.269593	10779.968097
497.636395	10875.500482
498.003139	10863.550427
498.369825	10735.689122
498.736453	10892.544624
499.103023	10806.814761
499.469535	10842.112921
499.835989	10831.261837
500.202385	10798.383432
500.568723	10645.762499
500.935003	10868.442867
501.301226	10671.840388
501.667390	10929.173648
502.033497	11035.804134
502.399546	10889.030939
502.765537	10798.932917
503.131470	10865.506395
503.497345	11049.689992
503.863163	10648.129321
504.228923	10967.340223
504.594625	11027.208966
504.960269	10779.179156
505.325856	10999.459935
505.691385	10788.129725
506.056856	10940.372571
506.422270	10966.856272
506.787625	10854.541885
507.152924	10972.482200
507.518164	10954.462596
507.883347	10873.514268
508.248472	10802.620521
508.613540	11025.918431
508.978550	10914.050186
509.343503	10884.698068
509.708398	11004.180976
510.073236	11125.887032
510.438016	11128.132866
510.802738	11076.677809
511.167403	11123.152206
511.532010	11028.665860
511.896561	11255.946281
512.261053	11327.157620
512.625488	11198.078876
512.989866	11180.850733
513.354186	11174.219095
513.718449	11073.406100
514.082655	11266.976326
514.446803	11161.424646
514.810894	11278.825558
515.174927	11149.149437
515.538904	11180.228150
515.902822	11325.715850
516.266684	11204.413086
516.630488	11153.167236
516.994235	11207.881400
517.357925	11264.087744
517.721558	11358.828669
518.085133	11366.448373
518.448651	11378.153932
518.812112	11267.361974
519.175516	11282.785384
519.538863	11406.482697
519.902152	11313.453243
520.265385	11477.310908
520.628560	11388.324460
520.991678	11363.443846
521.354739	11434.410689
521.717743	11360.184740
522.080690	11339.412665
522.443580	11477.759571
522.806413	11431.822056
523.169189	11464.682818
523.531908	11522.288083
523.894569	11336.322438
524.257174	11349.731907
524.619722	11463.760287
524.982213	11408.743654
525.344647	11467.236162
525.707025	11413.280693
526.069345	11512.782987
526.431608	11423.189080
526.793815	11540.647965
527.155964	11318.489356
527.518057	11374.675536
527.880093	11327.044194
528.242072	11391.573484
528.603995	11297.089658
528.965860	11220.915303
529.327669	11274.666606
529.689421	11221.684079
530.051117	11187.162257
530.412755	11296.323403
530.774337	11186.201918
531.135862	11168.946048
531.497331	11187.363903
531.858743	11037.807992
532.220098	11206.174969
532.581396	11075.223436
532.942638	11061.889584
533.303824	11020.894921
533.664953	11038.289422
534.026025	10953.852616
534.387040	11051.391381
534.747999	11049.203521
535.108902	11111.633170
535.469748	10868.594102
535.830537	10975.907664
536.191270	10954.354211
536.551947	10980.326236
536.912567	10975.264917
537.273131	10901.331355
537.633638	10880.932326
537.994089	10872.758095
538.354483	10819.455455
538.714821	10965.963988
539.075103	10967.622528
539.435328	10933.728330
539.795497	10758.263409
540.155609	10918.675445
540.515665	11000.478248
540.875665	10743.918805
541.235609	10807.843157
541.595496	10810.449433
541.955328	10961.600870
542.315102	10846.186173
542.674821	10792.540734
543.034483	10790.718357
543.394090	10802.527260
543.753640	10724.528007
544.113134	10945.756523
544.472571	10804.059771
544.831953	10948.980341
545.191278	10757.600497
545.550548	10787.769282
545.909761	10918.161247
546.268918	10894.208204
546.628019	10986.436114
546.987064	10841.208033
547.346053	10755.437842
547.704986	10863.762156
548.063863	10849.669610
548.422684	10840.053609
548.781449	10761.822463
549.140158	10858.461383
549.498811	10740.311860
549.857408	10596.918759
550.215949	10822.974180
550.574434	10672.029431
550.932864	10774.072467
551.291237	10831.813843
551.649555	10780.888107
552.007817	10792.412185
552.366022	10756.188974
552.724173	10751.732594
553.082267	10732.813143
553.440305	10868.735254
553.798288	10669.110603
554.156215	10823.163223
554.514086	10797.470983
554.871902	10652.719291
555.229661	10684.350011
555.587365	10660.706999
555.945014	10555.694724
556.302606	10682.875473
556.660143	10572.960676
557.017625	10738.847405
557.375050	10629.411516
557.732421	10762.699624
558.089735	10671.832826
558.446994	10674.728969
558.804197	10710.770698
559.161345	10720.676566
559.518437	10563.712679
559.875474	10652.976390
560.232455	10681.194249
560.589381	10632.113575
560.946251	10629.572833
561.303065	10734.040664
561.659825	10668.057002
562.016528	10605.118196
562.373177	10474.643052
562.729770	10596.008831
563.086307	10512.655873
563.442789	10598.746178
563.799216	10480.480708
564.155587	10535.141939
564.511904	10482.948353
564.868164	10472.122475
565.224370	10487.956739
565.580520	10420.170864
565.936615	10416.942005
566.292654	10280.714905
566.648638	10418.840000
567.004567	10377.936077
567.360441	10363.115085
567.716260	10267.396176
568.072023	10368.781342
568.427732	10318.412653
568.783385	10226.991328
569.138982	10297.554879
569.494525	10317.966511
569.850013	10190.697541
570.205445	10273.483370
570.560823	10169.857411
570.916145	10092.019475
571.271412	10155.843003
571.626625	10098.146998
571.981782	10078.700747
572.336884	10043.841168
572.691931	10056.875071
573.046923	9998.311987
573.401860	9958.113826
573.756743	9890.673270
574.111570	9934.400238
574.466342	9917.376262
574.821059	9949.531262
575.175722	9843.495632
575.530330	9849.242547
575.884882	9837.751237
576.239380	9770.308160
576.593823	9749.697403
576.948211	9759.331048
577.302544	9650.343822
577.656823	9657.194750
578.011047	9661.951079
578.365216	9635.212799
578.719330	9553.120129
579.073389	9565.765863
579.427394	9518.268112
579.781344	9490.627465
580.135239	9443.444786
580.489080	9453.363256
580.842866	9352.618317
581.196597	9354.841466
581.550273	9396.327642
581.903895	9369.775884
582.257463	9431.892982
582.610975	9314.053490
582.964434	9341.759672
583.317837	9256.397814
583.671186	9237.574145
584.024481	9242.249815
584.377721	9153.890991
584.730906	9127.220767
585.084037	9166.733331
585.437113	9099.819575
585.790135	9116.210887
586.143103	9017.658850
586.496016	8990.323193
586.848874	9046.552223
587.201679	9038.819093
587.554428	8922.234849
587.907124	8968.109349
588.259765	8937.985934
588.612352	8949.573026
588.964884	8816.847007
589.317362	8836.346190
589.669786	8832.376281
590.022155	8876.713229
590.374470	8893.848111
590.726731	8834.922064
591.078937	8689.237759
591.431090	8796.647103
591.783188	8673.499277
592.135232	8659.527719
592.487222	8663.149788
592.839157	8712.263229
593.191038	8646.965163
593.542866	8592.278727
593.894639	8492.511771
594.246358	8543.518166
594.598022	8563.226557
594.949633	8461.357441
595.301190	8434.629243
595.652692	8466.746434
596.004141	8574.649812
596.355535	8352.934824
596.706876	8333.564191
597.058162	8263.449302
597.409395	8347.208073
597.760573	8403.227896
598.111698	8314.594329
598.462768	8296.978017
598.813785	8269.392823
599.164748	8232.342863
599.515657	8222.313487
599.866511	8135.204869
600.217312	8265.412832
600.568060	8118.836242
600.918753	8222.656285
601.269392	8188.106737
601.619978	8103.864016
601.970510	8171.274325
602.320988	8166.734766
602.671412	8220.317190
603.021783	8154.933425
603.372100	8133.097667
603.722363	8133.374930
604.072572	8104.852082
604.422728	8117.482693
604.772830	8045.676497
605.122878	8055.884834
605.472872	8049.104482
605.822813	8076.777896
606.172701	8023.641614
606.522534	8094.613498
606.872314	8097.413859
607.222041	8068.785147
607.571714	8121.644165
607.921333	8082.607990
608.270899	8084.511026
608.620411	8173.789861
608.969870	8077.612207
609.319276	8077.098009
609.668627	8088.070081
610.017926	8125.117520
610.367171	8171.849016
610.716362	8147.772466
611.065500	8138.804253
611.414585	8172.685848
611.763616	8155.550966
612.112594	8132.951473
612.461518	8152.995101
612.810389	8217.239566
613.159207	8153.884865
613.507971	8103.586752
613.856682	8215.860810
614.205340	8176.093668
614.553945	8250.763239
614.902496	8149.126015
615.250994	8204.114922
615.599439	8189.490534
615.947830	8201.722894
616.296169	8177.749687
616.644454	8191.164197
616.992686	8185.077004
617.340864	8241.167402
617.688990	8151.689442
618.037063	8238.760251
618.385082	8185.059360
618.733048	8268.157740
619.080961	8207.613482
619.428821	8227.339517
619.776628	8230.999395
620.124382	8177.164913
620.472083	8163.941967
620.819731	8191.358282
621.167326	8087.392045
621.514868	8098.076771
621.862357	7984.902867
622.209793	8003.280393
622.557176	7930.591996
622.904506	7906.472596
623.251783	7843.639654
623.599007	7791.836757
623.946179	7794.843805
624.293297	7757.146057
624.640363	7680.641506
624.987376	7652.088411
625.334336	7603.453879
625.681243	7551.840025
626.028097	7536.731687
626.374899	7517.083790
626.721647	7510.303438
627.068343	7437.209228
627.414987	7413.535970
627.761577	7364.863629
628.108115	7402.631954
628.454600	7297.546581
628.801032	7350.037596
629.147412	7307.795247
629.493739	7296.061962
629.840014	7236.682210
630.186236	7290.811600
630.532405	7173.748446
630.878521	7225.332052
631.224585	7184.029879
631.570597	7108.992304
631.916556	7139.501367
632.262462	7133.749411
632.608316	7092.868173
632.954117	7074.520894
633.299866	7058.618574
633.645562	7054.903244
633.991206	6974.275029
634.336797	6916.127840
634.682336	6876.138887
635.027823	6839.361149
635.373257	6831.224727
635.718639	6761.366938
636.063968	6778.302694
636.409245	6672.869482
636.754470	6664.639798
637.099642	6628.071268
637.444762	6570.826446
637.789829	6578.519247
638.134845	6523.323653
638.479808	6503.559809
638.824719	6513.614391
639.169577	6443.529749
639.514383	6460.899045
639.859137	6390.600155
640.203839	6396.909159
640.548489	6383.471963
640.893086	6357.315936
641.237632	6330.065979
641.582125	6348.690522
641.926566	6319.628270
642.270955	6333.680487
642.615292	6332.246278
642.959576	6343.248597
643.303809	6336.049829
643.647990	6338.953533
643.992118	6330.552451
644.336195	6278.749554
644.680219	6301.941382
645.024192	6291.954856
645.368112	6388.268621
645.711981	6411.765439
646.055797	6487.760833
646.399562	6444.671571
646.743274	6570.541621
647.086935	6625.086905
647.430544	6620.401153
647.774101	6639.290356
648.117606	6646.126161
648.461059	6636.676518
648.804460	6599.432473
649.147810	6510.103227
649.491108	6471.520756
649.834354	6451.603157
650.177548	6367.914962
650.520690	6280.251817
650.863781	6260.891266
651.206820	6283.785666
651.549807	6199.220311
651.892742	6145.804244
652.235626	6148.992774
652.578458	6136.609180
652.921238	6044.812289
653.263967	6084.075316
653.606644	6022.003588
653.949269	6022.996696
654.291843	5969.749508
654.634365	6018.205079
654.976836	5970.798068
655.319255	5968.239683
655.661622	5944.838646
656.003938	5949.123627
656.346203	5904.958078
656.688416	5935.078973
657.030577	5891.997272
657.372687	5860.207756
657.714746	5848.088822
658.056753	5889.028032
658.398708	5833.608107
658.740612	5820.589328
659.082465	5865.674887
659.424266	5862.688003
659.766016	5863.973498
660.107715	5835.513663
660.449362	5851.133679
660.790958	5844.998594
661.132503	5827.256253
661.473996	5867.351071
661.815438	5855.065779
662.156829	5853.104770
662.498168	5845.759809
662.839456	5820.100336
663.180693	5855.741293
663.521879	5860.923599
663.863013	5842.752760
664.204097	5869.949785
664.545129	5911.937556
664.886110	5899.984980
665.227040	5930.423467
665.567918	5901.497326
665.908746	5928.233086
666.249522	5939.235404
666.590248	5918.649852
666.930922	5944.576506
667.271545	5960.241892
667.612118	5956.687878
667.952639	5934.164003
668.293109	5957.781809
668.633528	5915.052989
668.973896	5914.816055
669.314213	5907.904633
669.654480	5887.838320
669.994695	5885.698350
670.334859	5878.686105
670.674973	5865.992480
671.015035	5865.720257
671.355047	5869.009610
671.695008	5852.721642
672.034918	5826.457231
672.374777	5839.223953
672.714585	5825.113763
673.054342	5827.901521
673.394049	5820.901879
673.733705	5853.177867
674.073310	5836.131205
674.412864	5799.716430
674.752368	5789.613958
675.091820	5796.190143
675.431223	5730.917283
675.770574	5731.640688
676.109875	5685.040262
676.449125	5688.926992
676.788324	5654.732845
677.127473	5598.657571
677.466571	5587.009985
677.805619	5576.821813
678.144616	5561.942847
678.483562	5546.307708
678.822458	5512.100959
679.161303	5511.415362
679.500098	5497.043032
679.838842	5481.017204
680.177535	5485.710519
680.516179	5500.965050
680.854771	5510.941494
681.193314	5595.695893
681.531805	5700.877047
681.870247	5854.354976
682.208638	5951.636642
682.546978	5966.775227
682.885268	5942.993584
683.223508	5860.845462
683.561697	5808.919056
683.899836	5776.237256
684.237925	5730.012396
684.575963	5696.445873
684.913951	5654.929450
685.251889	5716.199634
685.589776	5687.969173
685.927614	5656.285521
686.265401	5726.551644
686.603137	5710.422472
686.940824	5790.574298
687.278460	5807.928470
687.616046	5822.078988
687.953582	5892.443414
688.291068	5872.167893
688.628504	5931.822387
688.965889	5896.340226
689.303224	5839.536504
689.640510	5796.742149
689.977745	5715.037648
690.314930	5617.277072
690.652065	5563.200615
690.989150	5469.225946
691.326185	5394.387496
691.663170	5340.835319
692.000105	5263.393113
692.336990	5183.432852
692.673825	5164.284029
693.010610	5092.782823
693.347345	5025.768245
693.684030	5008.761912
694.020665	4968.692301
694.357251	4876.633270
694.693786	4889.049632
695.030272	4855.599055
695.366707	4820.343746
695.703093	4786.126914
696.039429	4807.423269
696.375716	4788.949960
696.711952	4766.980612
697.048139	4753.089712
697.384276	4736.458946
697.720363	4746.090070
698.056400	4756.066514
698.392388	4702.035427
698.728326	4684.134290
699.064214	4663.475641
699.400053	4652.332171
699.735842	4623.713540
700.071581	4597.718830
700.407270	4569.042227
700.742910	4553.268456
701.078501	4499.630579
701.414042	4498.672760
701.749533	4468.017504
702.084974	4403.034510
702.420366	4461.002738
702.755709	4401.436464
703.091002	4344.221889
703.426246	4393.569744
703.761440	4347.317157
704.096584	4311.325839
704.431679	4330.618335
704.766725	4317.786078
705.101721	4304.258142
705.436668	4336.024973
705.771565	4282.336684
706.106413	4311.285510
706.441212	4343.705170
706.775961	4349.752034
707.110661	4331.810568
707.445311	4359.292418
707.779913	4383.242940
708.114465	4394.363725
708.448967	4419.178805
708.783421	4479.957477
709.117825	4519.570863
709.452180	4528.198798
709.786485	4572.939039
710.120742	4658.573119
710.454949	4639.240294
710.789107	4705.481056
711.123216	4780.654742
711.457275	4773.582003
711.791286	4849.925237
712.125247	4864.945355
712.459159	4763.885343
712.793023	4845.252087
713.126837	4800.837001
713.460602	4794.535559
713.794318	4712.190831
714.127985	4718.993868
714.461602	4634.340292
714.795171	4608.491776
715.128691	4539.788411
715.462162	4483.559381
715.795584	4434.992905
716.128957	4418.445317
716.462281	4363.874827
716.795556	4338.457329
717.128782	4303.615394
717.461960	4234.123089
717.795088	4243.229933
718.128167	4201.398438
718.461198	4140.738234
718.794180	4139.785456
719.127113	4119.479688
719.459997	4099.065536
719.792833	4054.582394
720.125619	4043.358265
720.458357	4007.500538
720.791046	4011.472967
721.123686	3985.516066
721.456278	3945.489305
721.788821	3962.838436
722.121315	3936.543777
722.453761	3911.690889
722.786158	3921.604318
723.118506	3946.757155
723.450805	3899.118251
723.783056	3918.158689
724.115259	3938.469498
724.447412	3942.799849
724.779518	3935.409517
725.111574	3940.125517
725.443582	3968.575269
725.775542	3953.098926
726.107453	4004.037265
726.439315	4004.223788
726.771129	4017.832383
727.102895	4055.489802
727.434612	4098.695011
727.766281	4113.558853
728.097901	4116.346611
728.429473	4119.746870
728.760996	4127.001090
729.092471	4124.735091
729.423897	4107.070888
729.755276	4113.306796
730.086606	4112.767392
730.417887	4152.690810
730.749120	4215.498546
731.080305	4276.811579
731.411442	4308.366682
731.742530	4274.485087
732.073570	4281.361221
732.404562	4335.183100
732.735506	4324.271522
733.066401	4291.740957
733.397249	4226.609249
733.728048	4143.493225
734.058798	4063.321235
734.389501	3990.247189
734.720156	3932.231070
735.050762	3885.171899
735.381320	3878.482288
735.711831	3829.477231
736.042293	3798.335503
736.372707	3820.972805
736.703073	3792.109678
737.033391	3783.998462
737.363661	3798.726193
737.693883	3824.736026
738.024056	3837.873273
738.354182	3832.194413
738.684260	3892.784041
739.014290	3913.871188
739.344272	3908.963624
739.674207	3952.161272
740.004093	3959.508753
740.333931	3956.065645
740.663722	3956.642857
740.993464	3952.292342
741.323159	3929.655040
741.652806	3896.421234
741.982405	3869.829147
742.311956	3841.102132
742.641460	3827.508661
742.970915	3806.116524
743.300323	3762.815533
743.629683	3731.935945
743.958996	3718.120663
744.288260	3694.510419
744.617477	3660.381808
744.946647	3646.402688
745.275768	3624.312352
745.604842	3619.760190
745.933869	3571.912078
746.262847	3561.829771
746.591778	3602.199331
746.920662	3572.733786
747.249498	3540.639280
747.578286	3585.014037
747.907027	3603.441975
748.235720	3605.985237
748.564365	3624.997949
748.892963	3626.948875
749.221514	3609.153602
749.550017	3587.985797
749.878473	3584.194850
750.206881	3558.603432
750.535242	3550.366187
750.863555	3552.024726
751.191821	3550.391393
751.520039	3530.161242
751.848210	3506.036800
752.176334	3540.293961
752.504411	3547.606155
752.832440	3505.608302
753.160421	3491.067094
753.488356	3498.452384
753.816243	3514.427801
754.144082	3469.569093
754.471875	3455.022844
754.799620	3473.692757
755.127318	3465.876448
755.454969	3465.523567
755.782572	3472.127479
756.110129	3445.845423
756.437638	3436.804114
756.765100	3453.477730
757.092515	3463.242445
757.419882	3466.703197
757.747203	3438.573559
758.074477	3442.314095
758.401703	3456.885550
758.728882	3481.879591
759.056014	3489.640448
759.383099	3490.005931
759.710138	3490.205057
760.037129	3503.022190
760.364073	3536.606357
760.690970	3522.992721
761.017820	3499.430368
761.344623	3516.605579
761.671379	3563.016962
761.998088	3607.895834
762.324751	3742.580342
762.651366	3986.907425
762.977935	4459.603818
763.304456	4904.163011
763.630931	4996.277495
763.957359	4640.591323
764.283740	4296.020896
764.610074	4103.393367
764.936362	3905.742327
765.262602	3748.105446
765.588796	3633.888024
765.914943	3545.693037
766.241044	3456.663740
766.567097	3428.307249
766.893104	3384.078686
767.219064	3348.846062
767.544978	3324.832525
767.870845	3270.635080
768.196665	3247.024836
768.522438	3257.591095
768.848165	3249.389137
769.173846	3214.587532
769.499479	3201.510779
769.825066	3180.287521
770.150607	3165.103566
770.476101	3180.872295
770.801548	3176.683096
771.126949	3133.808083
771.452303	3116.267388
771.777611	3119.450877
772.102872	3125.696866
772.428087	3102.711725
772.753256	3091.535487
773.078378	3084.787903
773.403453	3051.266750
773.728482	3037.736293
774.053465	3059.960220
774.378401	3049.809857
774.703291	3014.811646
775.028135	3016.472706
775.352932	3010.158661
775.677683	2999.756240
776.002388	2998.022083
776.327046	3000.245232
776.651658	2989.230311
776.976224	2973.421253
777.300743	2973.378403
777.625216	2968.584265
777.949643	2962.504634
778.274024	2962.403811
778.598359	2951.396451
778.922647	2958.648151
779.246889	2958.214612
779.571086	2940.258022
779.895236	2936.494801
780.219339	2946.246913
780.543397	2959.061526
780.867409	2963.946404
781.191374	2956.056998
781.515294	2952.593725
781.839167	2955.162193
782.162995	2945.120215
782.486776	2954.521967
782.810511	2951.315793
783.134201	2938.831375
783.457844	2942.972683
783.781441	2934.112855
784.104993	2913.575195
784.428498	2914.858168
784.751958	2928.529778
785.075372	2922.450146
785.398739	2905.292579
785.722061	2923.513829
786.045337	2935.791560
786.368568	2921.424271
786.691752	2911.707447
787.014891	2962.239973
787.337983	2988.310300
787.661030	3015.804753
787.984031	3084.891246
788.306987	3131.922691
788.629897	3121.361474
788.952760	3107.258846
789.275579	3091.253183
789.598351	3032.160777
789.921078	2988.572440
790.243759	2979.218579
790.566395	2962.323152
790.888984	2937.533278
791.211529	2922.926535
791.534027	2912.163672
791.856480	2900.067423
792.178888	2886.819271
792.501249	2877.770399
792.823566	2875.514483
793.145836	2872.330994
793.468062	2868.789584
793.790241	2867.015098
794.112375	2873.167826
794.434464	2886.408417
794.756507	2893.246742
795.078505	2896.576424
795.400457	2909.486819
795.722364	2946.902263
796.044226	2972.723053
796.366042	2974.505101
796.687812	2960.999849
797.009538	2982.112202
797.331218	2969.219451
797.652852	2954.864765
797.974442	2938.697785
798.295986	2932.255190
798.617484	2928.154212
798.938938	2911.175605
799.260346	2898.822258
799.581709	2894.829664
799.903026	2888.739950
800.224299	2879.345760
800.545526	2871.428628
800.866708	2855.974971
801.187845	2843.649350
801.508936	2845.726305
801.829983	2854.071935
802.150984	2841.121211
802.471940	2827.633604
802.792851	2827.384067
803.113717	2826.121258
803.434538	2833.171311
803.755314	2825.065136
804.076045	2820.276040
804.396731	2816.338899
804.717372	2819.693787
805.037967	2814.093065
805.358518	2822.146308
805.679024	2831.588389
805.999485	2826.925322
806.319901	2832.165601
806.640272	2823.724189
806.960598	2830.640652
807.280879	2841.065758
807.601115	2845.413753
807.921306	2832.470591
808.241453	2828.425065
808.561554	2836.619461
808.881611	2838.313288
809.201623	2833.045282
809.521590	2831.858091
809.841513	2825.687718
810.161390	2832.500838
810.481223	2826.017914
810.801011	2814.874443
811.120755	2810.269349
811.440453	2813.619196
811.760107	2813.893939
812.079716	2810.894452
812.399281	2802.942032
812.718801	2796.920374
813.038276	2790.245886
813.357707	2797.595889
813.677093	2803.703247
813.996434	2799.715694
814.315731	2793.840229
814.634983	2786.061729
814.954191	2790.762605
815.273354	2805.591159
815.592473	2814.750935
815.911547	2815.852427
816.230577	2823.925835
816.549562	2835.913699
816.868502	2832.006805
817.187399	2840.619616
817.506250	2858.412369
817.825058	2848.388034
818.143821	2865.124665
818.462539	2881.253837
818.781213	2905.723598
819.099843	2940.333639
819.418429	3000.146930
819.736970	3062.536250
820.055466	3136.061478
820.373919	3238.616192
820.692327	3383.282184
821.010691	3551.626475
821.329011	4000.826050
821.647286	4905.322476
821.965517	6300.570188
822.283704	7054.676392
822.601847	7033.790892
822.919945	6395.732049
823.237999	5883.606271
823.556010	5291.709275
823.873976	4733.716558
824.191897	4318.607786
824.509775	4024.595091
824.827609	3751.815736
825.145398	3629.287971
825.463144	3615.288687
825.780845	3709.883418
826.098502	3812.423008
826.416116	4099.186524
826.733685	4413.799894
827.051210	4484.166840
827.368692	4365.702245
827.686129	4097.790124
828.003522	3769.429527
828.320872	3511.342615
828.638177	3313.056390
828.955439	3171.306706
829.272656	3091.462390
829.589830	3022.612832
829.906960	2973.625419
830.224046	2927.745878
830.541088	2894.963255
830.858086	2877.846017
831.175041	2859.874303
831.491952	2859.680219
831.808819	2874.067672
832.125642	2896.896537
832.442421	2940.807508
832.759157	3024.898995
833.075849	3205.246274
833.392497	3485.804129
833.709101	3692.166283
834.025662	3644.194663
834.342179	3484.158193
834.658653	3303.266469
834.975083	3155.311124
835.291469	3057.429561
835.607811	2970.688947
835.924110	2910.626120
836.240366	2859.904550
836.556578	2818.052891
836.872746	2792.625311
837.188871	2771.586055
837.504952	2755.139291
837.820990	2747.491861
838.136984	2735.156157
838.452935	2723.221225
838.768842	2725.865311
839.084706	2741.455079
839.400526	2819.330823
839.716303	2959.227884
840.032037	3037.746376
840.347727	3021.937317
840.663373	2958.330558
840.978977	2883.171996
841.294537	2811.413691
841.610054	2763.177411
841.925527	2739.657907
842.240957	2717.731409
842.556344	2695.678881
842.871687	2679.108609
843.186987	2671.491425
843.502244	2664.365754
843.817458	2660.718479
844.132629	2648.276912
844.447756	2639.855664
844.762840	2634.219654
845.077881	2639.359111
845.392879	2636.873822
845.707833	2631.452061
846.022745	2624.825464
846.337613	2629.238994
846.652438	2625.989971
846.967221	2625.067439
847.281960	2624.432254
847.596656	2620.885802
847.911309	2620.263220
848.225919	2618.551748
848.540485	2614.917076
848.855009	2616.421861
849.169490	2614.007148
849.483928	2616.900770
849.798323	2617.689711
850.112675	2613.104781
850.426984	2613.356839
850.741251	2613.152672
851.055474	2610.027157
851.369654	2617.004114
851.683792	2616.527725
851.997887	2612.794750
852.311938	2611.224431
852.625947	2614.055039
852.939914	2616.454628
853.253837	2616.487396
853.567718	2614.924638
853.881555	2611.322733
854.195350	2614.596963
854.509103	2615.282560
854.822812	2612.341047
855.136479	2610.170830
855.450103	2612.830038
855.763685	2617.503188
856.077224	2613.997066
856.390720	2609.500356
856.704173	2615.882457
857.017584	2615.537138
857.330953	2615.869854
857.644278	2620.830350
857.957561	2619.416306
858.270802	2613.704679
858.584000	2612.696448
858.897155	2617.427571
859.210268	2620.853035
859.523339	2612.545213
859.836367	2609.139914
860.149352	2610.314503
860.462295	2612.772065
860.775195	2611.534462
861.088054	2610.622013
861.400869	2609.583535
861.713642	2605.096908
862.026373	2608.146807
862.339062	2609.928854
862.651708	2615.864813
862.964312	2616.620986
863.276873	2613.437497
863.589392	2616.401696
863.901869	2623.262706
864.214303	2627.179683
864.526696	2630.133799
864.839045	2629.165897
865.151353	2631.550363
865.463619	2636.818369
865.775842	2632.926598
866.088023	2633.307205
866.400162	2634.738893
866.712258	2633.029942
867.024313	2634.121352
867.336325	2628.755043
867.648296	2630.796711
867.960224	2635.500107
868.272110	2634.751496
868.583954	2628.336628
868.895755	2629.319653
869.207515	2633.551701
869.519233	2641.589821
869.830909	2636.503297
870.142542	2631.164715
870.454134	2635.946249
870.765684	2639.858185
871.077191	2642.406488
871.388657	2646.545275
871.700081	2644.362456
872.011463	2644.876653
872.322803	2645.022847
872.634101	2649.267498
872.945357	2655.551297
873.256571	2660.214364
873.567744	2659.932059
873.878874	2656.362922
874.189963	2659.833757
874.501010	2662.253511
874.812015	2669.721980
875.122979	2669.681651
875.433900	2658.084477
875.744780	2658.321411
876.055618	2664.083450
876.366415	2667.375323
876.677169	2666.533450
876.987882	2664.509427
877.298554	2662.961793
877.609183	2672.494615
877.919771	2679.085923
878.230317	2686.529187
878.540822	2696.823223
878.851285	2711.147662
879.161707	2736.176991
879.472087	2776.244082
879.782425	2822.720999
880.092722	2938.158381
880.402977	3133.014101
880.713191	3396.547980
881.023363	3698.923949
881.333494	3898.170514
881.643583	4071.215682
881.953631	4068.107810
882.263637	3888.544431
882.573602	3667.749454
882.883526	3530.509082
883.193408	3411.661359
883.503248	3306.134886
883.813048	3190.972247
884.122806	3075.580235
884.432522	2990.586381
884.742197	2921.668767
885.051831	2882.461193
885.361424	2845.287725
885.670975	2813.276398
885.980485	2779.195677
886.289954	2760.866042
886.599382	2745.702251
886.908768	2732.070971
887.218113	2713.630430
887.527417	2699.162319
887.836680	2691.804755
888.145901	2688.291070
888.455082	2679.524504
888.764221	2665.600837
889.073319	2658.933911
889.382376	2659.619508
889.691392	2659.072543
890.000366	2661.245280
890.309300	2660.229487
890.618193	2661.623367
890.927044	2663.234015
891.235855	2666.263749
891.544625	2661.764519
891.853353	2662.981957
892.162041	2670.256342
892.470687	2690.173941
892.779293	2702.444110
893.087858	2713.166644
893.396381	2737.863257
893.704864	2779.102416
894.013306	2850.863241
894.321707	2944.553085
894.630068	3002.271776
894.938387	3018.806761
895.246665	3012.404495
895.554903	2966.466981
895.863100	2919.823705
896.171256	2861.240456
896.479371	2799.650159
896.787446	2761.304622
897.095480	2740.366190
897.403473	2735.935015
897.711425	2718.515308
898.019336	2701.398070
898.327207	2684.016172
898.635038	2684.646316
898.942827	2681.636747
899.250576	2674.314471
899.558284	2660.710918
899.865952	2655.856287
900.173579	2655.332007
900.481165	2650.086686
900.788711	2644.803557
901.096216	2635.810138
901.403681	2632.795528
901.711105	2634.302833
902.018489	2629.417955
902.325832	2634.600261
902.633135	2637.047742
902.940397	2652.508960
903.247619	2692.747450
903.554800	2764.326794
903.861941	2892.525857
904.169041	3023.915970
904.476101	3087.832760
904.783121	3081.077613
905.090100	3021.556710
905.397039	2946.521656
905.703938	2868.497197
906.010796	2803.085705
906.317614	2751.890267
906.624391	2712.977601
906.931129	2685.107582
907.237826	2661.353665
907.544483	2648.317241
907.851099	2632.059520
908.157675	2618.486213
908.464211	2612.764503
908.770707	2600.544747
909.077163	2598.039293
909.383578	2595.359920
909.689954	2592.809096
909.996289	2593.303129
910.302584	2590.548138
910.608839	2586.255596
910.915054	2588.415730
911.221229	2588.798858
911.527363	2594.069384
911.833458	2590.709455
912.139513	2591.982347
912.445527	2593.537543
912.751502	2596.166504
913.057436	2605.538009
913.363331	2611.221910
913.669186	2622.836729
913.975000	2635.568163
914.280775	2655.258910
914.586510	2671.836744
914.892205	2711.755121
915.197859	2780.652571
915.503475	2864.880169
915.809050	2934.490942
916.114585	2953.181020
916.420081	2966.005715
916.725536	2974.585759
917.030952	2949.455607
917.336328	2898.935684
917.641665	2847.765452
917.946961	2796.751495
918.252218	2767.507762
918.557435	2734.089953
918.862612	2713.317879
919.167750	2699.540405
919.472848	2679.884946
919.777906	2661.154539
920.082925	2647.855975
920.387904	2636.989768
920.692843	2630.932822
920.997743	2626.917543
921.302603	2617.740122
921.607423	2613.727364
921.912204	2606.831065
922.216946	2605.578339
922.521647	2604.277721
922.826310	2595.004518
923.130932	2594.323963
923.435516	2587.934300
923.740059	2585.557396
924.044564	2584.677715
924.349028	2581.201839
924.653454	2574.741601
924.957840	2575.283525
925.262186	2570.290262
925.566493	2571.686661
925.870761	2563.802297
926.174989	2568.440158
926.479178	2564.775239
926.783328	2563.676268
927.087438	2564.737431
927.391509	2562.327759
927.695541	2561.180897
927.999533	2561.120403
928.303486	2558.385577
928.607400	2556.180072
928.911275	2556.049002
929.215110	2555.509599
929.518906	2555.441543
929.822663	2557.183262
930.126381	2556.595967
930.430060	2555.996070
930.733699	2553.936759
931.037299	2557.243756
931.340861	2556.537994
931.644383	2557.561348
931.947866	2556.961451
932.251309	2555.960782
932.554714	2555.106306
932.858080	2558.128478
933.161407	2556.666543
933.464694	2556.424568
933.767943	2555.076059
934.071153	2554.400545
934.374323	2550.173537
934.677455	2551.844680
934.980548	2552.719320
935.283602	2552.074052
935.586617	2553.122612
935.889593	2553.236038
936.192530	2555.363405
936.495428	2552.184958
936.798287	2555.030689
937.101108	2555.728889
937.403890	2559.434137
937.706632	2560.722152
938.009336	2565.722976
938.312002	2569.319840
938.614628	2569.864284
938.917216	2577.892322
939.219765	2577.214287
939.522275	2578.678742
939.824747	2578.207394
940.127179	2571.853019
940.429573	2567.734397
940.731929	2569.201373
941.034246	2569.592062
941.336524	2569.526527
941.638763	2568.440158
941.940964	2565.382698
942.243126	2563.197358
942.545250	2561.710218
942.847335	2562.224416
943.149381	2562.171483
943.451389	2562.610064
943.753359	2560.147460
944.055290	2559.978582
944.357182	2556.908519
944.659036	2557.626883
944.960851	2557.049671
945.262628	2557.274002
945.564367	2558.209137
945.866067	2555.678477
946.167729	2557.173179
946.469352	2558.125957
946.770937	2555.741492
947.072484	2556.666543
947.373992	2558.564538
947.675462	2553.170503
947.976893	2555.217212
948.278286	2555.244938
948.579641	2555.895247
948.880958	2555.312994
949.182236	2553.641851
949.483476	2554.682849
949.784678	2553.064639
950.085841	2553.286450
950.386967	2555.290308
950.688054	2550.929710
950.989103	2553.596481
951.290114	2552.810061
951.591087	2559.156873
951.892021	2559.527398
952.192917	2559.350958
952.493776	2559.333314
952.794596	2560.018911
953.095378	2561.009497
953.396122	2560.676781
953.696828	2561.584189
953.997496	2559.671071
954.298126	2558.284754
954.598718	2557.677295
954.899272	2551.043136
955.199788	2552.278219
955.500266	2552.547921
955.800706	2548.157076
956.101108	2543.405788
956.401472	2544.149358
956.701798	2543.083154
957.002087	2543.304965
957.302337	2541.641384
957.602550	2544.464431
957.902724	2543.231868
958.202861	2543.342774
958.502960	2541.107022
958.803022	2543.143648
959.103045	2540.413863
959.403031	2541.812784
959.702979	2542.465613
960.002889	2540.854964
960.302762	2539.438400
960.602596	2539.140972
960.902393	2538.198276
961.202153	2538.493184
961.501875	2536.801877
961.801559	2537.971424
962.101205	2537.794984
962.400814	2537.784902
962.700385	2539.405633
962.999918	2540.106353
963.299414	2535.813811
963.598873	2537.863040
963.898293	2539.125849
964.197677	2540.867567
964.497022	2535.662576
964.796331	2537.245498
965.095601	2537.363965
965.394835	2536.726259
965.694030	2538.508307
965.993189	2537.590817
966.292309	2539.519059
966.591393	2536.282638
966.890439	2539.168698
967.189447	2536.549819
967.488419	2538.069727
967.787353	2535.395395
968.086249	2534.309026
968.385108	2535.740714
968.683930	2537.421939
968.982714	2536.658204
969.281462	2538.445293
969.580172	2534.336753
969.878844	2538.392361
970.177480	2538.034439
970.476078	2535.803728
970.774639	2536.746424
971.073162	2536.529654
971.371649	2536.396064
971.670098	2534.566125
971.968510	2538.296579
972.266885	2533.358769
972.565223	2538.004192
972.863524	2540.197094
973.161788	2540.955788
973.460014	2536.859850
973.758204	2536.401105
974.056356	2538.576363
974.354471	2541.258257
974.652550	2540.497042
974.950591	2537.827752
975.248595	2538.704912
975.546563	2536.098636
975.844493	2535.234078
976.142386	2537.651311
976.440243	2536.345652
976.738062	2539.725746
977.035845	2535.816331
977.333590	2533.948584
977.631299	2535.597041
977.928971	2535.304654
978.226606	2536.479243
978.524204	2538.152906
978.821765	2534.553522
979.119290	2537.021167
979.416777	2535.513862
979.714228	2535.952442
980.011642	2535.760878
980.309020	2537.505118
980.606360	2537.469830
980.903664	2539.740869
981.200931	2540.088709
981.498162	2539.761034
981.795356	2539.685417
982.092513	2542.634492
982.389633	2544.837476
982.686717	2548.762014
982.983764	2548.736808
983.280775	2555.123950
983.577749	2553.087324
983.874686	2553.609084
984.171587	2549.130018
984.468451	2546.979966
984.765279	2543.594832
985.062070	2542.127856
985.358824	2541.381765
985.655543	2540.552495
985.952224	2537.230375
986.248869	2536.655683
986.545478	2530.684437
986.842050	2534.939170
987.138586	2530.266021
987.435086	2533.842719
987.731549	2530.041689
988.027975	2534.316588
988.324366	2536.098636
988.620719	2533.280631
988.917037	2534.082174
989.213318	2533.373892
989.509563	2533.419262
989.805772	2533.878008
990.101944	2535.034952
990.398080	2533.106711
990.694180	2532.378264
990.990244	2533.852802
991.286271	2532.481608
991.582262	2532.862215
991.878217	2531.811134
992.174136	2533.237781
992.470019	2533.510003
992.765865	2533.625950
993.061676	2535.118131
993.357450	2533.525127
993.653188	2533.394057
993.948890	2535.274407
994.244556	2533.812472
994.540186	2533.605785
994.835780	2534.674510
995.131337	2537.734490
995.426859	2534.740045
995.722345	2534.992102
996.017795	2538.863709
996.313208	2541.167516
996.608586	2538.324305
996.903928	2535.039993
997.199234	2538.495704
997.494504	2536.257432
997.789738	2538.014274
998.084936	2535.342463
998.380099	2539.163657
998.675225	2533.542771
998.970316	2533.268028
999.265371	2535.014788
999.560390	2533.431865
999.855373	2536.305323
1000.150320	2532.640404
1000.445232	2534.117462
1000.740108	2534.107380
1001.034948	2533.860363
1001.329752	2533.477236
1001.624521	2532.458923
1001.919254	2527.185876
1002.213951	2532.539581
1002.508613	2528.738551
1002.803239	2531.627132
1003.097829	2527.422810
1003.392384	2532.002698
1003.686903	2529.000691
1003.981386	2529.504807
1004.275834	2532.504293
1004.570246	2531.347348
1004.864623	2530.777698
1005.158964	2531.687626
1005.453270	2530.071936
1005.747540	2533.336083
1006.041775	2531.183511
1006.335974	2532.320291
1006.630138	2531.390198
1006.924266	2533.552853
1007.218359	2530.578572
1007.512416	2530.029087
1007.806438	2530.054292
1008.100425	2530.245856
1008.394376	2529.782070
1008.688292	2528.889786
1008.982172	2529.882893
1009.276017	2531.314581
1009.569827	2531.546474
1009.863602	2534.084695
1010.157341	2532.030425
1010.451045	2531.647297
1010.744714	2529.381298
1011.038347	2532.259797
1011.331945	2532.930271
1011.625508	2529.030938
1011.919036	2531.455733
1012.212528	2531.836340
1012.505986	2530.336597
1012.799408	2530.749972
1013.092795	2528.163860
1013.386147	2531.974972
1013.679464	2530.838192
1013.972745	2531.803573
1014.265992	2529.580424
1014.559204	2532.277441
1014.852380	2531.606968
1015.145521	2531.914478
1015.438628	2528.310053
1015.731699	2532.257277
1016.024736	2528.536905
1016.317737	2528.736031
1016.610703	2531.894313
1016.903635	2527.866432
1017.196531	2526.344003
1017.489393	2529.587986
1017.782219	2524.708149
1018.075011	2529.356093
1018.367768	2531.554036
1018.660490	2532.095960
1018.953177	2532.095960
1019.245829	2532.095960
