Dividing Wavelength (nm)	Counts (n)	Blue Motor Position (mm): 14.900000	Red Motor Position (mm): 0.000000	
326.493990	2133.572583
326.888308	2133.572583
327.282561	2133.572583
327.676750	2102.055290
328.070874	2100.888263
328.464933	2105.407657
328.858929	2111.920828
329.252859	2119.709410
329.646726	2130.477315
330.040528	2145.091620
330.434265	2160.719197
330.827938	2179.613442
331.221547	2199.435258
331.615091	2216.837322
332.008571	2236.240723
332.401986	2256.453229
332.795338	2273.572988
333.188625	2293.568724
333.581847	2310.988431
333.975006	2330.303612
334.368100	2349.039061
334.761129	2366.080681
335.154095	2382.724051
335.546996	2400.020249
335.939833	2421.069587
336.332606	2436.853440
336.725315	2452.874227
337.117960	2456.771039
337.510540	2466.868470
337.903056	2478.838690
338.295508	2485.525780
338.687896	2494.151195
339.080220	2503.265601
339.472480	2507.278359
339.864676	2513.448732
340.256807	2516.191119
340.648875	2523.117665
341.040879	2521.043230
341.432818	2524.264527
341.824694	2526.817872
342.216506	2526.359127
342.608253	2524.935001
342.999937	2526.124713
343.391557	2525.081194
343.783113	2525.237470
344.174605	2524.544311
344.566033	2520.405524
344.957397	2520.791172
345.348697	2518.063908
345.739934	2516.453259
346.131106	2515.959226
346.522215	2512.952178
346.913260	2513.524349
347.304241	2514.083917
347.695159	2508.803308
348.086012	2508.069820
348.476802	2505.095540
348.867528	2503.835251
349.258191	2502.121259
349.648789	2501.241578
350.039324	2498.363079
350.429796	2499.157060
350.820203	2493.639517
351.210548	2497.478356
351.600828	2495.716473
351.991045	2498.867194
352.381198	2495.255207
352.771288	2494.279744
353.161314	2492.762357
353.551276	2495.577841
353.941175	2493.140443
354.331010	2492.079280
354.720782	2492.999291
355.110490	2493.490803
355.500135	2492.674137
355.889717	2493.783190
356.279235	2491.857470
356.668689	2495.159425
357.058080	2492.013745
357.447408	2493.558859
357.836672	2491.857470
358.225873	2491.098776
358.615010	2490.443426
359.004084	2496.253356
359.393095	2495.300578
359.782043	2496.477687
360.170927	2495.913078
360.559748	2497.569097
360.948505	2497.508603
361.337199	2500.311485
361.725830	2497.685043
362.114398	2499.368789
362.502903	2497.911895
362.891344	2500.802997
363.279722	2501.599499
363.668037	2500.555981
364.056289	2502.307782
364.444478	2501.428100
364.832603	2502.544716
365.220665	2503.981445
365.608665	2506.411281
365.996601	2506.464213
366.384474	2505.110663
366.772284	2502.254849
367.160031	2505.584532
367.547715	2505.725684
367.935336	2508.400016
368.322893	2505.322392
368.710388	2507.396826
369.097820	2509.168792
369.485189	2507.124604
369.872495	2506.595283
370.259738	2506.587721
370.646918	2507.046466
371.034035	2506.502022
371.421090	2508.410098
371.808081	2508.778102
372.195010	2509.100736
372.581875	2507.482526
372.968678	2511.956550
373.355418	2508.248781
373.742096	2510.363545
374.128710	2511.112157
374.515262	2509.987979
374.901751	2507.449758
375.288177	2512.039729
375.674540	2507.371621
376.060841	2510.242558
376.447079	2509.400685
376.833254	2510.938237
377.219367	2507.089316
377.605417	2508.122753
377.991404	2506.706188
378.377329	2508.392454
378.763191	2505.831548
379.148991	2512.967301
379.534727	2511.258350
379.920402	2515.291273
380.306013	2514.131808
380.691563	2512.453104
381.077049	2515.409740
381.462474	2514.842611
381.847835	2512.329595
382.233134	2515.185409
382.618371	2511.802795
383.003545	2515.369411
383.388657	2513.216838
383.773706	2514.436798
384.158693	2513.257168
384.543618	2516.861593
384.928480	2514.464524
385.313280	2515.402179
385.698017	2514.499812
386.082692	2516.909484
386.467305	2513.904956
386.851856	2517.393434
387.236344	2518.230266
387.620770	2519.921573
388.005133	2515.200533
388.389435	2518.809999
388.773674	2516.932169
389.157851	2516.609535
389.541965	2517.887468
389.926018	2519.982067
390.310008	2520.660102
390.693936	2517.327899
391.077802	2519.286388
391.461606	2516.912004
391.845348	2518.386542
392.229027	2517.988291
392.612645	2518.787313
392.996200	2519.155318
393.379694	2523.765453
393.763125	2518.653723
394.146494	2518.159690
394.529801	2519.911491
394.913047	2520.279495
395.296230	2520.108096
395.679351	2523.299146
396.062410	2520.907119
396.445408	2520.702952
396.828343	2523.223529
397.211217	2516.039885
397.594028	2520.040040
397.976778	2518.404186
398.359466	2521.292767
398.742092	2517.428722
399.124656	2522.210257
399.507158	2523.203364
399.889598	2524.067922
400.271977	2525.295443
400.654294	2525.116482
401.036549	2521.635565
401.418742	2526.008766
401.800874	2521.786800
402.182944	2525.791997
402.564952	2524.098169
402.946898	2524.753519
403.328783	2524.935001
403.710606	2524.128416
404.092367	2523.762932
404.474067	2527.994981
404.855705	2523.228570
405.237282	2525.003056
405.618797	2523.931811
406.000250	2525.645803
406.381642	2524.902233
406.762972	2526.994312
407.144240	2527.906761
407.525447	2529.867770
407.906593	2528.879703
408.287677	2528.209230
408.668700	2527.352234
409.049661	2528.610002
409.430560	2527.813499
409.811399	2526.775022
410.192176	2529.174611
410.572891	2530.157636
410.953545	2527.251411
411.334138	2528.221833
411.714669	2525.048427
412.095139	2527.125382
412.475547	2528.519261
412.855894	2530.381967
413.236180	2528.393232
413.616405	2529.787111
413.996568	2530.170239
414.376670	2529.905578
414.756711	2529.096473
415.136691	2531.886752
415.516609	2529.028417
415.896466	2528.839374
416.276262	2528.678057
416.655997	2528.133613
417.035670	2527.851308
417.415283	2529.391381
417.794834	2525.817202
418.174324	2528.917512
418.553753	2529.262831
418.933121	2531.707791
419.312428	2531.614529
419.691674	2531.395239
420.070859	2530.495393
420.449983	2531.092770
420.829045	2529.035979
421.208047	2532.101001
421.586988	2533.898172
421.965867	2533.015970
422.344686	2531.092770
422.723444	2530.437420
423.102141	2533.053779
423.480777	2533.404139
423.859352	2530.634025
424.237866	2529.918181
424.616319	2531.866587
424.994712	2534.366999
425.373044	2532.620240
425.751314	2532.814324
426.129524	2531.090249
426.507673	2533.933460
426.885762	2532.809283
427.263789	2534.417411
427.641756	2535.614685
428.019662	2534.127545
428.397508	2534.135106
428.775292	2533.948584
429.153016	2535.155940
429.530679	2536.680889
429.908282	2531.523789
430.285824	2535.828934
430.663305	2534.248532
431.040726	2533.550332
431.418086	2534.472864
431.795385	2535.783564
432.172624	2535.478574
432.549802	2533.134437
432.926920	2531.732997
433.303977	2535.692823
433.680974	2536.421270
434.057910	2532.700898
434.434786	2534.883718
434.811601	2536.368338
435.188355	2534.268697
435.565050	2535.342463
435.941683	2534.573687
436.318257	2531.473377
436.694770	2533.673841
437.071222	2533.948584
437.447614	2532.453882
437.823946	2533.452030
438.200218	2537.404295
438.576429	2538.102494
438.952580	2536.781712
439.328670	2536.512010
439.704700	2534.813142
440.080670	2536.781712
440.456580	2536.580066
440.832429	2537.779861
441.208218	2532.849612
441.583947	2537.245498
441.959616	2536.557381
442.335224	2537.116949
442.710773	2540.209697
443.086261	2538.011754
443.461689	2539.017464
443.837057	2538.805735
444.212365	2539.284645
444.587612	2537.961342
444.962800	2539.430838
445.337927	2540.701209
445.712995	2538.692309
446.088002	2538.992258
446.462949	2540.275232
446.837837	2539.866898
447.212664	2537.910931
447.587431	2540.156765
447.962139	2540.986034
448.336786	2538.896476
448.711374	2540.023174
449.085901	2541.177598
449.460369	2540.549975
449.834776	2541.291024
450.209124	2536.660724
450.583412	2538.369676
450.957640	2541.064172
451.331808	2539.151054
451.705917	2540.297917
452.079965	2541.616179
452.453954	2537.381609
452.827883	2542.402599
453.201752	2542.213555
453.575562	2540.444110
453.949311	2541.880839
454.323001	2542.884029
454.696632	2539.952598
455.070202	2541.603576
455.443713	2541.711961
455.817164	2537.305992
456.190556	2538.099974
456.563888	2539.599717
456.937160	2537.583256
457.310373	2542.016950
457.683526	2541.533000
458.056619	2542.251364
458.429653	2542.364790
458.802628	2544.565254
459.175542	2542.914276
459.548398	2545.293700
459.921194	2542.573998
460.293930	2542.468134
460.666607	2541.154913
461.039224	2542.856302
461.411782	2543.919986
461.784280	2543.672969
462.156719	2545.205480
462.529099	2543.307486
462.901419	2543.526776
463.273680	2542.581560
463.645882	2541.212886
464.018024	2543.630120
464.390106	2542.228679
464.762130	2543.201622
465.134094	2543.730943
465.505999	2543.947712
465.877845	2542.145500
466.249631	2544.744215
466.621358	2544.169523
466.993026	2548.880481
467.364634	2547.952909
467.736184	2543.267157
468.107674	2544.441745
468.479105	2543.793957
468.850477	2544.285470
469.221790	2545.313865
469.593043	2542.294214
469.964238	2542.437887
470.335373	2543.927548
470.706449	2545.991900
471.077467	2544.356046
471.448425	2544.645912
471.819324	2547.842004
472.190164	2545.845707
472.560945	2546.085162
472.931667	2543.183977
473.302330	2544.512322
473.672934	2546.705223
474.043479	2548.900646
474.413965	2545.051725
474.784393	2542.606765
475.154761	2544.204811
475.525070	2540.572660
475.895321	2542.919317
476.265513	2540.179450
476.635645	2548.051212
477.005719	2547.259750
477.375734	2546.947199
477.745691	2548.083979
478.115588	2548.230172
478.485427	2545.974256
478.855207	2549.944165
479.224928	2548.638506
479.594591	2549.752601
479.964194	2549.765204
480.333739	2547.665563
480.703226	2546.536345
481.072653	2550.067673
481.442022	2551.174206
481.811333	2549.598846
482.180584	2547.945347
482.549777	2549.170348
482.918912	2547.325285
483.287988	2551.259906
483.657005	2549.409803
484.025964	2551.393497
484.394864	2550.231511
484.763706	2548.477189
485.132489	2550.455842
485.501213	2552.489947
485.869879	2546.990049
486.238487	2548.663712
486.607036	2547.516849
486.975527	2548.414175
487.343959	2546.871582
487.712333	2548.643547
488.080648	2549.097251
488.448905	2551.484237
488.817104	2546.493495
489.185244	2549.145142
489.553326	2549.684545
489.921350	2551.895091
490.289315	2552.346275
490.657222	2554.738302
491.025070	2550.586912
491.392861	2553.830894
491.760593	2549.853424
492.128267	2553.944320
492.495883	2551.010369
492.863440	2552.003476
493.230939	2553.218394
493.598380	2549.457693
493.965763	2548.212528
494.333088	2546.778320
494.700354	2545.578526
495.067563	2552.051367
495.434713	2544.484595
495.801805	2552.419371
496.168839	2549.329144
496.535815	2551.927859
496.902733	2551.955585
497.269593	2555.035730
497.636395	2546.387631
498.003139	2548.966181
498.369825	2550.128167
498.736453	2554.622356
499.103023	2551.935421
499.469535	2552.126984
499.835989	2550.586912
500.202385	2552.986501
500.568723	2551.572457
500.935003	2551.925338
501.301226	2552.215205
501.667390	2551.277550
502.033497	2553.223435
502.399546	2554.682849
502.765537	2552.137067
503.131470	2555.519681
503.497345	2553.057077
503.863163	2552.668908
504.228923	2553.813250
504.594625	2553.946841
504.960269	2553.757798
505.325856	2553.833415
505.691385	2555.633107
506.056856	2555.280226
506.422270	2552.701676
506.787625	2555.030689
507.152924	2553.752757
507.518164	2556.290977
507.883347	2553.730071
508.248472	2555.116389
508.613540	2554.241748
508.978550	2555.312994
509.343503	2554.271995
509.708398	2560.636452
510.073236	2556.497665
510.438016	2556.623694
510.802738	2557.425237
511.167403	2558.267110
511.532010	2556.457336
511.896561	2558.478838
512.261053	2558.090669
512.625488	2557.470607
512.989866	2553.898950
513.354186	2556.863148
513.718449	2554.526574
514.082655	2555.643189
514.446803	2560.399518
514.810894	2559.401369
515.174927	2560.245763
515.538904	2560.649055
515.902822	2560.402038
516.266684	2559.048489
516.630488	2557.636966
516.994235	2560.941442
517.357925	2560.893551
517.721558	2565.299519
518.085133	2562.599982
518.448651	2563.857749
518.812112	2561.259035
519.175516	2564.520661
519.538863	2562.962945
519.902152	2563.552760
520.265385	2563.754406
520.628560	2563.663665
520.991678	2563.887996
521.354739	2563.731721
521.717743	2565.649880
522.080690	2566.925292
522.443580	2567.371434
522.806413	2568.886300
523.169189	2566.658110
523.531908	2565.687688
523.894569	2567.941084
524.257174	2567.457133
524.619722	2567.971331
524.982213	2570.726322
525.344647	2570.756568
525.707025	2570.242371
526.069345	2571.941240
526.431608	2570.489387
526.793815	2571.656414
527.155964	2572.949470
527.518057	2571.469892
527.880093	2573.367886
528.242072	2572.284038
528.603995	2572.435273
528.965860	2575.064234
529.327669	2573.178843
529.689421	2573.332598
530.051117	2575.422156
530.412755	2575.545665
530.774337	2572.339491
531.135862	2576.821077
531.497331	2574.063565
531.858743	2570.965776
532.220098	2576.420305
532.581396	2576.372414
532.942638	2577.095819
533.303824	2579.681931
533.664953	2578.824935
534.026025	2579.371900
534.387040	2580.596901
534.747999	2582.641089
535.108902	2581.988259
535.469748	2580.982549
535.830537	2584.924731
536.191270	2584.695359
536.551947	2585.549834
536.912567	2584.828949
537.273131	2587.722572
537.633638	2585.532190
537.994089	2589.101327
538.354483	2590.177614
538.714821	2592.302460
539.075103	2593.671133
539.435328	2592.831781
539.795497	2595.364961
540.155609	2597.552822
540.515665	2596.784046
540.875665	2597.630960
541.235609	2600.504417
541.595496	2603.466095
541.955328	2603.153544
542.315102	2605.381734
542.674821	2607.718308
543.034483	2610.929523
543.394090	2610.977414
543.753640	2612.976232
544.113134	2617.251130
544.472571	2618.032509
544.831953	2619.892695
545.191278	2617.944289
545.550548	2624.054167
545.909761	2626.388222
546.268918	2629.828809
546.628019	2631.240332
546.987064	2632.845940
547.346053	2636.082361
547.704986	2641.194091
548.063863	2643.893628
548.422684	2644.317085
548.781449	2650.434526
549.140158	2654.492654
549.498811	2657.668581
549.857408	2655.445432
550.215949	2660.355516
550.574434	2661.162101
550.932864	2667.700477
551.291237	2669.437155
551.649555	2681.425019
552.007817	2679.489216
552.366022	2685.092458
552.724173	2690.937676
553.082267	2693.138140
553.440305	2704.132896
553.798288	2703.442258
554.156215	2716.055225
554.514086	2718.908518
554.871902	2720.710731
555.229661	2727.665002
555.587365	2731.400497
555.945014	2735.922412
556.302606	2746.307189
556.660143	2750.246851
557.017625	2761.959972
557.375050	2765.665220
557.732421	2776.344905
558.089735	2783.765483
558.446994	2787.475772
558.804197	2801.459933
559.161345	2805.545788
559.518437	2804.814821
559.875474	2819.792089
560.232455	2833.635097
560.589381	2841.280007
560.946251	2854.510516
561.303065	2859.322297
561.659825	2871.494163
562.016528	2875.433825
562.373177	2877.853578
562.729770	2894.794376
563.086307	2899.898544
563.442789	2914.724578
563.799216	2927.012390
564.155587	2937.082095
564.511904	2945.987293
564.868164	2960.609160
565.224370	2967.843216
565.580520	2986.233345
565.936615	2987.087821
566.292654	3003.884945
566.648638	3020.271216
567.004567	3033.789070
567.360441	3045.666028
567.716260	3056.655744
568.072023	3071.060841
568.427732	3083.898139
568.783385	3090.171855
569.138982	3113.262860
569.494525	3127.993112
569.850013	3134.148361
570.205445	3163.934018
570.560823	3169.857374
570.916145	3181.331040
571.271412	3206.809032
571.626625	3223.399469
571.981782	3231.939183
572.336884	3249.575660
572.691931	3259.819285
573.046923	3282.496915
573.401860	3296.075263
573.756743	3309.010864
574.111570	3331.640604
574.466342	3345.047552
574.821059	3370.303733
575.175722	3377.139538
575.530330	3403.885379
575.884882	3421.045467
576.239380	3431.221036
576.593823	3446.034467
576.948211	3473.478508
577.302544	3466.851912
577.656823	3503.301974
578.011047	3518.914428
578.365216	3542.234806
578.719330	3551.954150
579.073389	3579.703182
579.427394	3583.030343
579.781344	3604.908951
580.135239	3616.511166
580.489080	3642.992347
580.842866	3653.535921
581.196597	3680.546423
581.550273	3703.720607
581.903895	3732.704721
582.257463	3759.700100
582.610975	3773.210393
582.964434	3794.705872
583.317837	3809.284889
583.671186	3826.061849
584.024481	3852.011189
584.377721	3860.626521
584.730906	3879.712329
585.084037	3916.159872
585.437113	3920.757404
585.790135	3955.470789
586.143103	3960.937921
586.496016	3978.609685
586.848874	4014.147299
587.201679	4033.888458
587.554428	4037.679406
587.907124	4073.703491
588.259765	4084.365531
588.612352	4123.255513
588.964884	4110.524079
589.317362	4148.267198
589.669786	4172.994057
590.022155	4199.384498
590.374470	4237.394798
590.726731	4234.972523
591.078937	4231.060588
591.431090	4287.445893
591.783188	4274.250673
592.135232	4302.143378
592.487222	4314.211900
592.839157	4365.246021
593.191038	4369.218450
593.542866	4375.928226
593.894639	4370.970251
594.246358	4408.962907
594.598022	4441.279224
594.949633	4440.802835
595.301190	4460.123057
595.652692	4481.545440
596.004141	4557.051842
596.355535	4501.581506
596.706876	4520.271584
597.058162	4524.934651
597.409395	4574.093463
597.760573	4622.107933
598.111698	4613.195173
598.462768	4635.116630
598.813785	4642.199451
599.164748	4664.582174
599.515657	4678.137837
599.866511	4679.690512
600.217312	4744.181994
600.568060	4719.651739
600.918753	4782.807314
601.269392	4795.299294
601.619978	4789.733860
601.970510	4839.074153
602.320988	4860.874623
602.671412	4912.899331
603.021783	4907.273403
603.372100	4918.444600
603.722363	4947.030463
604.072572	4961.049912
604.422728	4992.657946
604.772830	4985.796936
605.122878	5017.581411
605.472872	5029.629768
605.822813	5075.484104
606.172701	5073.744906
606.522534	5130.742712
606.872314	5157.975025
607.222041	5167.439791
607.571714	5217.206062
607.921333	5223.683945
608.270899	5249.902986
608.620411	5316.536957
608.969870	5300.828722
609.319276	5321.764634
609.668627	5353.213872
610.017926	5388.590169
610.367171	5442.888437
610.716362	5453.805056
611.065500	5473.427747
611.414585	5515.937277
611.763616	5526.085120
612.112594	5547.449530
612.461518	5580.204427
612.810389	5631.447756
613.159207	5625.080778
613.507971	5615.346310
613.856682	5707.206216
614.205340	5703.105237
614.553945	5774.351864
614.902496	5741.602008
615.250994	5797.087468
615.599439	5807.200023
615.947830	5840.151525
616.296169	5842.137740
616.644454	5875.026227
616.992686	5898.775103
617.340864	5954.663855
617.688990	5928.628816
618.037063	5992.172560
618.385082	5983.900027
618.733048	6058.670421
619.080961	6040.418923
619.428821	6073.551907
619.776628	6095.775834
620.124382	6085.330563
620.472083	6105.510302
620.819731	6136.992308
621.167326	6095.853972
621.514868	6119.804493
621.862357	6063.583025
622.209793	6101.910918
622.557176	6082.676395
622.904506	6088.463640
623.251783	6061.337191
623.599007	6057.153033
623.946179	6077.128606
624.293297	6075.449901
624.640363	6035.284508
624.987376	6050.773453
625.334336	6027.591707
625.681243	6018.174832
626.028097	6029.746801
626.374899	6026.437283
626.721647	6045.107196
627.068343	6010.885323
627.414987	6004.384756
627.761577	5991.839844
628.108115	6031.430546
628.454600	5978.339634
628.801032	6034.984559
629.147412	6008.523543
629.493739	6023.644484
629.840014	5990.587118
630.186236	6050.377723
630.532405	5975.115816
630.878521	6022.094329
631.224585	6008.203430
631.570597	5959.780626
631.916556	6002.146483
632.262462	6007.658985
632.608316	6000.112378
632.954117	5995.013251
633.299866	5995.998796
633.645562	6006.933059
633.991206	5960.735925
634.336797	5934.126194
634.682336	5912.126599
635.027823	5896.040277
635.373257	5902.155197
635.718639	5868.137491
636.063968	5886.683896
636.409245	5819.939019
636.754470	5828.113250
637.099642	5808.603984
637.444762	5780.373523
637.789829	5793.861130
638.134845	5762.484988
638.479808	5758.847796
638.824719	5777.293378
639.169577	5722.218772
639.514383	5756.110449
639.859137	5707.523808
640.203839	5716.655859
640.548489	5719.234409
640.893086	5706.550866
641.237632	5696.796233
641.582125	5722.286827
641.926566	5699.505853
642.270955	5726.642384
642.615292	5730.942489
642.959576	5753.423514
643.303809	5748.563842
643.647990	5765.819712
643.992118	5764.065390
644.336195	5729.193208
644.680219	5751.414614
645.024192	5754.277990
645.368112	5842.387277
645.711981	5868.999528
646.055797	5938.237255
646.399562	5908.451598
646.743274	6028.032808
647.086935	6076.919398
647.430544	6074.171969
647.774101	6108.787052
648.117606	6115.222085
648.461059	6118.014884
648.804460	6094.676862
649.147810	6018.373958
649.491108	6000.674466
649.834354	5987.829606
650.177548	5925.130255
650.520690	5856.936047
650.863781	5843.032544
651.206820	5869.634713
651.549807	5805.765815
651.892742	5761.108753
652.235626	5774.513181
652.578458	5768.751143
652.921238	5687.707033
653.263967	5729.604062
653.606644	5679.275703
653.949269	5688.468247
654.291843	5636.998066
654.634365	5689.058062
654.976836	5654.523637
655.319255	5656.093957
655.661622	5637.890350
656.003938	5641.252800
656.346203	5608.334065
656.688416	5645.217667
657.030577	5606.330207
657.372687	5584.444037
657.714746	5578.054375
658.056753	5620.826045
658.398708	5568.851748
658.740612	5567.104989
659.082465	5613.347493
659.424266	5611.459581
659.766016	5610.839519
660.107715	5590.924441
660.449362	5610.902533
660.790958	5610.736175
661.132503	5602.627479
661.473996	5638.081914
661.815438	5627.278722
662.156829	5630.628568
662.498168	5624.312002
662.839456	5601.296615
663.180693	5641.373788
663.521879	5647.365199
663.863013	5639.674919
664.204097	5660.255429
664.545129	5698.558116
664.886110	5696.443352
665.227040	5734.030195
665.567918	5701.945772
665.908746	5728.409309
666.249522	5735.608077
666.590248	5729.808229
666.930922	5759.528352
667.271545	5770.046719
667.612118	5778.810765
667.952639	5757.368217
668.293109	5774.876144
668.633528	5746.963276
668.973896	5744.588892
669.314213	5738.242079
669.654480	5730.372838
669.994695	5721.510490
670.334859	5714.102514
670.674973	5709.376432
671.015035	5718.574018
671.355047	5720.227516
671.695008	5707.672523
672.034918	5681.491290
672.374777	5698.933682
672.714585	5681.846691
673.054342	5687.021436
673.394049	5683.049007
673.733705	5712.086053
674.073310	5701.030802
674.412864	5666.564433
674.752368	5662.433208
675.091820	5669.163148
675.431223	5609.783397
675.770574	5613.113079
676.109875	5563.011572
676.449125	5571.508437
676.788324	5541.427872
677.127473	5491.102033
677.466571	5482.370754
677.805619	5475.482018
678.144616	5465.840811
678.483562	5445.613181
678.822458	5417.435652
679.161303	5408.613632
679.500098	5400.930914
679.838842	5390.520931
680.177535	5394.417743
680.516179	5410.151184
680.854771	5418.070837
681.193314	5500.501264
681.531805	5608.041678
681.870247	5753.478967
682.208638	5852.958576
682.546978	5864.442325
682.885268	5848.204768
683.223508	5761.300317
683.561697	5713.013625
683.899836	5681.760992
684.237925	5641.464528
684.575963	5607.237614
684.913951	5568.347633
685.251889	5629.327951
685.589776	5597.682107
685.927614	5570.890895
686.265401	5641.497296
686.603137	5624.717815
686.940824	5703.261513
687.278460	5724.376386
687.616046	5731.696141
687.953582	5804.409744
688.291068	5783.287310
688.628504	5841.983984
688.965889	5808.331762
689.303224	5755.021560
689.640510	5710.059509
689.977745	5635.705010
690.314930	5539.343354
690.652065	5487.391743
690.989150	5398.115429
691.326185	5323.680272
691.663170	5271.748826
692.000105	5196.635634
692.336990	5123.906907
692.673825	5097.839101
693.010610	5032.767887
693.347345	4965.065191
693.684030	4959.340960
694.020665	4911.938991
694.357251	4825.730219
694.693786	4835.063915
695.030272	4803.488648
695.366707	4770.895068
695.703093	4735.211260
696.039429	4758.680352
696.375716	4743.609823
696.711952	4719.679465
697.048139	4708.334349
697.384276	4687.065721
697.720363	4696.951423
698.056400	4708.795614
698.392388	4659.543541
698.728326	4640.258607
699.064214	4620.053662
699.400053	4611.909678
699.735842	4579.522786
700.071581	4558.982604
700.407270	4529.935476
700.742910	4512.583824
701.078501	4456.730360
701.414042	4462.426864
701.749533	4432.502575
702.084974	4366.649982
702.420366	4423.839352
702.755709	4364.502451
703.091002	4311.348524
703.426246	4361.185371
703.761440	4317.014781
704.096584	4276.718318
704.431679	4301.833347
704.766725	4286.142755
705.101721	4275.117752
705.436668	4304.427020
705.771565	4252.866099
706.106413	4279.652270
706.441212	4315.754493
706.775961	4323.379238
707.110661	4299.075835
707.445311	4329.526925
707.779913	4353.721943
708.114465	4364.099158
708.448967	4387.152355
708.783421	4446.128814
709.117825	4486.871419
709.452180	4490.301924
709.786485	4537.086353
710.120742	4624.578098
710.454949	4605.290643
710.789107	4669.774563
711.123216	4742.999843
711.457275	4736.222012
711.791286	4809.908557
712.125247	4826.854396
712.459159	4729.890322
712.793023	4802.114934
713.126837	4764.833080
713.460602	4756.870578
713.794318	4672.166590
714.127985	4686.596893
714.461602	4599.609263
714.795171	4569.201023
715.128691	4505.581662
715.462162	4449.380358
715.795584	4403.861259
716.128957	4388.125298
716.462281	4332.972554
716.795556	4307.728976
717.128782	4272.256897
717.461960	4205.050754
717.795088	4213.008216
718.128167	4177.004295
718.461198	4116.943988
718.794180	4109.344449
719.127113	4090.397272
719.459997	4073.227102
719.792833	4028.451573
720.125619	4016.302393
720.458357	3984.326354
720.791046	3990.027899
721.123686	3964.199547
721.456278	3923.038526
721.788821	3938.560239
722.121315	3913.941764
722.453761	3891.985018
722.786158	3900.731420
723.118506	3924.321500
723.450805	3874.673696
723.783056	3895.110534
724.115259	3913.193152
724.447412	3916.500149
724.779518	3914.387906
725.111574	3915.083585
725.443582	3944.198769
725.775542	3933.130916
726.107453	3982.161178
726.439315	3979.507011
726.771129	3992.850945
727.102895	4028.519629
727.434612	4080.567022
727.766281	4088.048094
728.097901	4090.361984
728.429473	4095.682922
728.760996	4102.604426
729.092471	4099.609981
729.423897	4079.662135
729.755276	4088.279987
730.086606	4085.582970
730.417887	4124.344402
730.749120	4191.805123
731.080305	4251.517590
731.411442	4282.855923
731.742530	4247.126745
732.073570	4250.353083
732.404562	4303.073470
732.735506	4293.286070
733.066401	4257.012448
733.397249	4198.756874
733.728048	4118.244606
734.058798	4036.101524
734.389501	3968.179538
734.720156	3904.655958
735.050762	3862.577447
735.381320	3856.938917
735.711831	3808.180877
736.042293	3778.947226
736.372707	3800.614105
736.703073	3773.303654
737.033391	3762.886109
737.363661	3781.029222
737.693883	3805.151143
738.024056	3816.723112
738.354182	3808.364879
738.684260	3872.253942
739.014290	3890.752456
739.344272	3888.579719
739.674207	3934.204682
740.004093	3938.953449
740.333931	3932.054630
740.663722	3929.448353
740.993464	3926.960544
741.323159	3903.267121
741.652806	3875.926423
741.982405	3849.253678
742.311956	3817.345694
742.641460	3808.896721
742.970915	3782.234058
743.300323	3744.440528
743.629683	3710.843758
743.958996	3700.380843
744.288260	3675.379240
744.617477	3642.011843
744.946647	3630.515492
745.275768	3605.763426
745.604842	3600.969289
745.933869	3557.401117
746.262847	3549.577246
746.591778	3585.339192
746.920662	3556.045047
747.249498	3522.765869
747.578286	3571.672623
747.907027	3586.486054
748.235720	3579.763675
748.564365	3612.185856
748.892963	3609.808952
749.221514	3592.313628
749.550017	3572.484249
749.878473	3565.923188
750.206881	3537.244063
750.535242	3536.404711
750.863555	3537.566697
751.191821	3533.127961
751.520039	3512.612986
751.848210	3492.748319
752.176334	3527.320552
752.504411	3532.596119
752.832440	3489.247238
753.160421	3473.095381
753.488356	3481.362873
753.816243	3496.687981
754.144082	3453.800364
754.471875	3439.712860
754.799620	3459.285140
755.127318	3450.374900
755.454969	3448.958336
755.782572	3453.450004
756.110129	3430.356478
756.437638	3419.255858
756.765100	3434.429731
757.092515	3447.819035
757.419882	3448.834828
757.747203	3425.398503
758.074477	3429.013011
758.401703	3446.478088
758.728882	3463.683546
759.056014	3471.189824
759.383099	3470.723518
759.710138	3468.081953
760.037129	3486.625837
760.364073	3520.300745
760.690970	3504.126203
761.017820	3478.043273
761.344623	3497.202178
761.671379	3543.180022
761.998088	3593.357147
762.324751	3721.377249
762.651366	3966.873879
762.977935	4433.102472
763.304456	4869.976426
763.630931	4949.651863
763.957359	4595.606587
764.283740	4257.405658
764.610074	4075.820776
764.936362	3878.973800
765.262602	3725.909246
765.588796	3612.679889
765.914943	3529.954555
766.241044	3440.584979
766.567097	3412.530958
766.893104	3363.712424
767.219064	3335.166891
767.544978	3307.226296
767.870845	3253.157400
768.196665	3234.300964
768.522438	3246.175402
768.848165	3239.430338
769.173846	3201.820810
769.499479	3187.612318
769.825066	3170.059020
770.150607	3155.399345
770.476101	3170.651356
770.801548	3165.572393
771.126949	3118.525825
771.452303	3104.660131
771.777611	3112.940226
772.102872	3115.163375
772.428087	3093.551949
772.753256	3080.593663
773.078378	3076.021336
773.403453	3039.780481
773.728482	3027.777494
774.053465	3048.511760
774.378401	3037.781664
774.703291	3006.367713
775.028135	3007.701099
775.352932	3004.101715
775.677683	2994.760457
776.002388	2987.912049
776.327046	2990.528408
776.651658	2977.905359
776.976224	2966.799697
777.300743	2968.536374
777.625216	2958.993470
777.949643	2953.596915
778.274024	2958.081021
778.598359	2942.261881
778.922647	2949.143056
779.246889	2949.201029
779.571086	2933.147474
779.895236	2929.442226
780.219339	2939.388423
780.543397	2950.720937
780.867409	2956.692183
781.191374	2946.872016
781.515294	2947.429063
781.839167	2943.126438
782.162995	2936.237702
782.486776	2943.686007
782.810511	2945.004268
783.134201	2928.993564
783.457844	2937.684513
783.781441	2926.659509
784.104993	2907.576222
784.428498	2908.279463
784.751958	2920.453849
785.075372	2911.982190
785.398739	2900.291754
785.722061	2913.933117
786.045337	2930.319387
786.368568	2916.173909
786.691752	2902.792167
787.014891	2953.848973
787.337983	2981.658498
787.661030	3007.597755
787.984031	3073.089905
788.306987	3118.263685
788.629897	3110.034001
788.952760	3098.590582
789.275579	3081.770772
789.598351	3023.545445
789.921078	2977.590287
790.243759	2969.925212
790.566395	2953.841411
790.888984	2930.009356
791.211529	2911.410019
791.534027	2903.165212
791.856480	2892.472925
792.178888	2878.584546
792.501249	2873.419884
792.823566	2867.269676
793.145836	2865.777494
793.468062	2861.376567
793.790241	2860.582585
794.112375	2865.283461
794.434464	2879.683517
794.756507	2882.506563
795.078505	2887.061246
795.400457	2901.063051
795.722364	2939.769030
796.044226	2963.550673
796.366042	2963.321301
796.687812	2952.576081
797.009538	2971.727425
797.331218	2958.932976
797.652852	2946.231789
797.974442	2928.539860
798.295986	2925.414344
798.617484	2918.860844
798.938938	2903.966755
799.260346	2890.101062
799.581709	2885.619476
799.903026	2876.389123
800.224299	2873.046838
800.545526	2862.750282
800.866708	2847.745287
801.187845	2837.640294
801.508936	2839.387054
801.829983	2847.273939
802.150984	2832.342042
802.471940	2822.209322
802.792851	2822.229487
803.113717	2819.381235
803.434538	2827.189982
803.755314	2818.824187
804.076045	2815.277736
804.396731	2810.914617
804.717372	2812.038794
805.037967	2810.024853
805.358518	2813.639361
805.679024	2826.612770
805.999485	2823.835094
806.319901	2828.843481
806.640272	2816.971563
806.960598	2824.772749
807.280879	2830.940601
807.601115	2840.410408
807.921306	2826.055723
808.241453	2824.399704
808.561554	2830.444047
808.881611	2831.154850
809.201623	2825.032368
809.521590	2823.159580
809.841513	2818.957778
810.161390	2827.280723
810.481223	2820.258396
810.801011	2808.338587
811.120755	2805.603762
811.440453	2806.806077
811.760107	2807.332877
812.079716	2806.556540
812.399281	2799.052782
812.718801	2793.242852
813.038276	2785.260185
813.357707	2790.374436
813.677093	2799.728297
813.996434	2791.579272
814.315731	2786.270937
814.634983	2784.337654
814.954191	2782.885802
815.273354	2801.033956
815.592473	2804.933288
815.911547	2810.869247
816.230577	2816.671615
816.549562	2825.062615
816.868502	2824.530774
817.187399	2832.841116
817.506250	2850.432222
817.825058	2842.154647
818.143821	2854.381966
818.462539	2868.313195
818.781213	2894.557442
819.099843	2935.549584
819.418429	2988.441370
819.736970	3049.030998
820.055466	3119.589508
820.373919	3224.198492
820.692327	3360.259234
821.010691	3523.784182
821.329011	3958.379535
821.647286	4843.041541
821.965517	6193.796029
822.283704	6902.481437
822.601847	6867.324430
822.919945	6249.624287
823.237999	5760.082878
823.556010	5190.069531
823.873976	4653.131193
824.191897	4256.646964
824.509775	3973.117348
824.827609	3709.018860
825.145398	3589.382197
825.463144	3581.049170
825.780845	3669.486132
826.098502	3776.782050
826.416116	4049.652146
826.733685	4360.449363
827.051210	4416.547323
827.368692	4300.373933
827.686129	4042.791136
828.003522	3726.057960
828.320872	3477.118221
828.638177	3286.693676
828.955439	3149.904487
829.272656	3072.116962
829.589830	3006.355111
829.906960	2959.880713
830.224046	2916.007551
830.541088	2881.379866
830.858086	2866.969727
831.175041	2848.572036
831.491952	2852.070597
831.808819	2861.041330
832.125642	2888.518139
832.442421	2931.967844
832.759157	3009.982221
833.075849	3185.560568
833.392497	3459.383442
833.709101	3660.233094
834.025662	3603.439454
834.342179	3447.256947
834.658653	3275.555247
834.975083	3133.976961
835.291469	3038.938608
835.607811	2955.300825
835.924110	2898.456774
836.240366	2849.587829
836.556578	2807.781540
836.872746	2784.796399
837.188871	2762.950559
837.504952	2745.724936
837.820990	2740.328381
838.136984	2725.474621
838.452935	2722.046637
838.768842	2718.381718
839.084706	2736.192114
839.400526	2813.548620
839.716303	2944.845472
840.032037	3020.435053
840.347727	3002.254132
840.663373	2944.006120
840.978977	2871.312681
841.294537	2801.391877
841.610054	2754.352871
841.925527	2731.145919
842.240957	2711.208156
842.556344	2692.807944
842.871687	2678.307065
843.186987	2667.506393
843.502244	2664.431289
843.817458	2659.241421
844.132629	2647.583753
844.447756	2640.168216
844.762840	2632.611526
845.077881	2635.303502
845.392879	2633.886938
845.707833	2630.244704
846.022745	2619.262551
846.337613	2625.624487
846.652438	2622.967799
846.967221	2624.623818
847.281960	2621.047119
847.596656	2620.868158
847.911309	2619.348250
848.225919	2617.127622
848.540485	2611.947837
848.855009	2614.027312
849.169490	2613.377004
849.483928	2613.457662
849.798323	2616.134515
850.112675	2612.260388
850.426984	2613.233331
850.741251	2609.840634
851.055474	2609.523042
851.369654	2614.423043
851.683792	2615.196860
851.997887	2612.613269
852.311938	2611.100923
852.625947	2612.020933
852.939914	2614.402878
853.253837	2614.574278
853.567718	2610.196036
853.881555	2608.744183
854.195350	2614.533948
854.509103	2612.792230
854.822812	2613.891201
855.136479	2609.001282
855.450103	2611.814246
855.763685	2613.377004
856.077224	2609.820470
856.390720	2607.599841
856.704173	2612.819956
857.017584	2614.884309
857.330953	2615.111161
857.644278	2618.211470
857.957561	2619.020575
858.270802	2613.923969
858.584000	2614.990173
858.897155	2619.504526
859.210268	2618.486213
859.523339	2612.714092
859.836367	2607.869543
860.149352	2610.551437
860.462295	2612.411623
860.775195	2608.860130
861.088054	2608.771910
861.400869	2605.671600
861.713642	2604.285283
862.026373	2604.570108
862.339062	2607.173864
862.651708	2611.700820
862.964312	2614.470934
863.276873	2611.801643
863.589392	2613.694596
863.901869	2621.236162
864.214303	2625.211112
864.526696	2625.143057
864.839045	2627.199847
865.151353	2629.402832
865.463619	2630.040538
865.775842	2630.791670
866.088023	2632.808131
866.400162	2631.444499
866.712258	2628.482821
867.024313	2628.114817
867.336325	2626.552059
867.648296	2627.875362
867.960224	2633.216465
868.272110	2632.409880
868.583954	2623.086266
868.895755	2625.102727
869.207515	2631.386526
869.519233	2637.264511
869.830909	2632.172946
870.142542	2626.108438
870.454134	2631.414252
870.765684	2636.720067
871.077191	2636.735190
871.388657	2643.016468
871.700081	2642.668628
872.011463	2639.732156
872.322803	2640.145531
872.634101	2643.870943
872.945357	2650.973929
873.256571	2657.850063
873.567744	2654.238076
873.878874	2651.041985
874.189963	2653.151707
874.501010	2657.330824
874.812015	2662.823161
875.122979	2662.051865
875.433900	2652.932417
875.744780	2653.923004
876.055618	2658.896102
876.366415	2664.474139
876.677169	2664.882472
876.987882	2657.217398
877.298554	2654.830412
877.609183	2668.615447
877.919771	2673.016374
878.230317	2680.303362
878.540822	2690.594878
878.851285	2703.744727
879.161707	2725.855228
879.472087	2762.958121
879.782425	2808.336067
880.092722	2918.576019
880.402977	3098.653596
880.713191	3350.953264
881.023363	3629.287971
881.333494	3807.807831
881.643583	3979.280159
881.953631	3977.220847
882.263637	3797.871717
882.573602	3589.591405
882.883526	3462.476190
883.193408	3356.664891
883.503248	3261.424892
883.813048	3147.978766
884.122806	3036.982641
884.432522	2956.936679
884.742197	2893.471073
885.051831	2859.029910
885.361424	2825.375167
885.670975	2792.630352
885.980485	2763.555497
886.289954	2747.733836
886.599382	2732.070971
886.908768	2721.308107
887.218113	2702.134079
887.527417	2693.828778
887.836680	2682.337468
888.145901	2680.593228
888.455082	2670.901610
888.764221	2660.249652
889.073319	2653.648261
889.382376	2652.476193
889.691392	2652.662716
890.000366	2654.570792
890.309300	2651.735143
890.618193	2654.943838
890.927044	2654.467449
891.235855	2656.720844
891.544625	2653.577685
891.853353	2653.335710
892.162041	2665.109324
892.470687	2682.279494
892.779293	2691.653520
893.087858	2702.242464
893.396381	2725.116699
893.704864	2764.475508
894.013306	2829.536639
894.321707	2919.821184
894.630068	2964.821044
894.938387	2986.440032
895.246665	2978.994248
895.554903	2936.746858
895.863100	2894.282699
896.171256	2840.685151
896.479371	2779.525873
896.787446	2745.049422
897.095480	2723.901781
897.403473	2721.746688
897.711425	2705.085674
898.019336	2688.089424
898.327207	2676.000737
898.635038	2674.425377
898.942827	2673.495284
899.250576	2663.526402
899.558284	2652.196409
899.865952	2648.702889
900.173579	2646.189874
900.481165	2645.151396
900.788711	2634.824593
901.096216	2629.818727
901.403681	2627.706483
901.711105	2629.054992
902.018489	2624.802779
902.325832	2629.854015
902.633135	2630.126237
902.940397	2645.290028
903.247619	2680.862930
903.554800	2747.065883
903.861941	2867.917464
904.169041	2989.008500
904.476101	3042.923641
904.783121	3038.086653
905.090100	2980.322592
905.397039	2911.830955
905.703938	2844.854185
906.010796	2782.905966
906.317614	2733.679099
906.624391	2700.193235
906.931129	2677.583660
907.237826	2650.903353
907.544483	2638.439100
907.851099	2621.175669
908.157675	2614.269288
908.464211	2605.890890
908.770707	2593.219950
909.077163	2593.628283
909.383578	2589.602922
909.689954	2592.468818
909.996289	2587.939341
910.302584	2589.459249
910.608839	2582.406675
910.915054	2584.362643
911.221229	2587.193251
911.527363	2589.348344
911.833458	2588.829105
912.139513	2588.897161
912.445527	2590.165011
912.751502	2595.927050
913.057436	2599.050044
913.363331	2609.114708
913.669186	2616.502519
913.975000	2627.328397
914.280775	2645.703403
914.586510	2661.862821
914.892205	2696.130065
915.197859	2761.723038
915.503475	2840.531396
915.809050	2904.377609
916.114585	2913.519742
916.420081	2924.494334
916.725536	2934.533792
917.030952	2911.778023
917.336328	2866.400077
917.641665	2822.005156
917.946961	2771.351642
918.252218	2739.867115
918.557435	2717.383569
918.862612	2695.268027
919.167750	2680.361335
919.472848	2663.619663
919.777906	2648.667601
920.082925	2636.079840
920.387904	2629.276803
920.692843	2626.408386
920.997743	2619.343209
921.302603	2614.609566
921.607423	2604.275200
921.912204	2602.866198
922.216946	2599.400405
922.521647	2598.334201
922.826310	2595.143150
923.130932	2590.540577
923.435516	2583.162848
923.740059	2583.699731
924.044564	2582.356263
924.349028	2581.252251
924.653454	2569.955025
924.957840	2570.242371
925.262186	2567.285734
925.566493	2572.170612
925.870761	2562.786504
926.174989	2567.973852
926.479178	2561.359858
926.783328	2566.617781
927.087438	2560.974209
927.391509	2561.543860
927.695541	2559.308108
927.999533	2559.114024
928.303486	2556.275854
928.607400	2558.998077
928.911275	2558.491441
929.215110	2556.180072
929.518906	2554.070349
929.822663	2558.282233
930.126381	2554.647561
930.430060	2555.038251
930.733699	2554.652602
931.037299	2557.150494
931.340861	2557.158056
931.644383	2557.936914
931.947866	2558.095711
932.251309	2557.228632
932.554714	2556.948848
932.858080	2558.519167
933.161407	2557.914229
933.464694	2556.762325
933.767943	2554.249310
934.071153	2554.143446
934.374323	2554.307283
934.677455	2553.702345
934.980548	2553.707386
935.283602	2553.538507
935.586617	2551.804351
935.889593	2553.530946
936.192530	2552.005997
936.495428	2554.118240
936.798287	2554.433312
937.101108	2557.614280
937.403890	2558.909857
937.706632	2561.372461
938.009336	2563.625856
938.312002	2567.472257
938.614628	2568.324212
938.917216	2572.732701
939.219765	2572.001733
939.522275	2577.088258
939.824747	2576.735377
940.127179	2569.511403
940.429573	2564.404715
940.731929	2570.438976
941.034246	2564.964283
941.336524	2563.217523
941.638763	2563.782132
941.940964	2566.408573
942.243126	2563.484704
942.545250	2562.877245
942.847335	2562.685681
943.149381	2560.492779
943.451389	2559.131668
943.753359	2561.085115
944.055290	2558.030176
944.357182	2560.339024
944.659036	2556.376677
944.960851	2557.279044
945.262628	2554.897098
945.564367	2558.887172
945.866067	2555.544887
946.167729	2558.307439
946.469352	2556.162428
946.770937	2553.924156
947.072484	2554.851728
947.373992	2555.738971
947.675462	2552.316028
947.976893	2555.106306
948.278286	2556.593447
948.579641	2554.924825
948.880958	2553.717468
949.182236	2553.004145
949.483476	2553.281409
949.784678	2552.832746
950.085841	2551.600184
950.386967	2554.128322
950.688054	2553.593960
950.989103	2554.219063
951.290114	2558.093190
951.591087	2554.408107
951.892021	2555.670916
952.192917	2559.832388
952.493776	2559.918088
952.794596	2560.565876
953.095378	2561.881617
953.396122	2560.762481
953.696828	2559.638304
953.997496	2556.268292
954.298126	2558.098231
954.598718	2556.381718
954.899272	2554.027499
955.199788	2553.407438
955.500266	2556.069167
955.800706	2548.252858
956.101108	2543.771272
956.401472	2547.544576
956.701798	2544.328319
957.002087	2547.547096
957.302337	2547.804195
957.602550	2546.163299
957.902724	2546.390151
958.202861	2541.545603
958.502960	2542.631971
958.803022	2542.233720
959.103045	2546.725388
959.403031	2543.342774
959.702979	2544.131714
960.002889	2544.454348
960.302762	2543.055428
960.602596	2542.256405
960.902393	2542.453010
961.202153	2540.101312
961.501875	2543.859492
961.801559	2541.202804
962.101205	2539.960160
962.400814	2543.239430
962.700385	2540.502084
962.999918	2542.279090
963.299414	2540.043339
963.598873	2542.596683
963.898293	2541.187681
964.197677	2539.859337
964.497022	2543.259595
964.796331	2542.246323
965.095601	2539.413194
965.394835	2542.105171
965.694030	2539.488812
965.993189	2538.583925
966.292309	2540.739018
966.591393	2540.063503
966.890439	2539.309851
967.189447	2542.631971
967.488419	2540.343287
967.787353	2538.115097
968.086249	2541.417053
968.385108	2540.610468
968.683930	2540.358411
968.982714	2539.254398
969.281462	2542.677342
969.580172	2538.306661
969.878844	2542.631971
970.177480	2543.476364
970.476078	2541.127187
970.774639	2541.953936
971.073162	2543.052908
971.371649	2537.631147
971.670098	2536.993441
971.968510	2540.499563
972.266885	2534.586290
972.565223	2544.126673
972.863524	2539.289686
973.161788	2541.280942
973.460014	2539.486291
973.758204	2542.826056
974.056356	2541.590973
974.354471	2539.889583
974.652550	2541.356559
974.950591	2541.911086
975.248595	2539.486291
975.546563	2541.049049
975.844493	2540.222300
976.142386	2540.151723
976.440243	2540.499563
976.738062	2539.045190
977.035845	2539.040149
977.333590	2539.866898
977.631299	2539.375386
977.928971	2538.183153
978.226606	2539.133410
978.524204	2537.305992
978.821765	2539.577032
979.119290	2540.096271
979.416777	2539.849254
979.714228	2539.682896
980.011642	2540.335726
980.309020	2541.328833
980.606360	2537.311033
980.903664	2538.331867
981.200931	2539.609799
981.498162	2541.364121
981.795356	2541.870757
982.092513	2549.528270
982.389633	2548.852755
982.686717	2550.128167
982.983764	2552.608415
983.280775	2552.852911
983.577749	2552.303425
983.874686	2552.222766
984.171587	2551.532128
984.468451	2546.644730
984.765279	2546.299411
985.062070	2544.071221
985.358824	2542.558874
985.655543	2541.885880
985.952224	2539.871939
986.248869	2541.492670
986.545478	2535.581917
986.842050	2537.623585
987.138586	2535.753317
987.435086	2536.237268
987.731549	2534.218285
988.027975	2536.118800
988.324366	2537.031249
988.620719	2537.794984
988.917037	2535.773481
989.213318	2538.352032
989.509563	2537.585776
989.805772	2538.324305
990.101944	2535.859181
990.398080	2539.050231
990.694180	2536.577545
990.990244	2536.191897
991.286271	2539.128369
991.582262	2538.709953
991.878217	2536.045704
992.174136	2539.796322
992.470019	2538.321785
992.765865	2536.917823
993.061676	2538.601569
993.357450	2538.331867
993.653188	2538.233564
993.948890	2536.995961
994.244556	2534.830786
994.540186	2537.497556
994.835780	2537.321116
995.131337	2540.340767
995.426859	2538.238606
995.722345	2539.279604
996.017795	2541.762372
996.313208	2540.207176
996.608586	2540.275232
996.903928	2540.265149
997.199234	2540.915458
997.494504	2542.011909
997.789738	2537.986548
998.084936	2540.655839
998.380099	2540.756662
998.675225	2539.680376
998.970316	2538.835982
999.265371	2536.023018
999.560390	2537.610982
999.855373	2538.800694
1000.150320	2535.765920
1000.445232	2538.157947
1000.740108	2536.106197
1001.034948	2538.447813
1001.329752	2537.426980
1001.624521	2539.627443
1001.919254	2532.816845
1002.213951	2535.501259
1002.508613	2533.285672
1002.803239	2535.259284
1003.097829	2532.360620
1003.392384	2536.345652
1003.686903	2535.788605
1003.981386	2536.827083
1004.275834	2536.113759
1004.570246	2537.800025
1004.864623	2537.989068
1005.158964	2536.673327
1005.453270	2535.009747
1005.747540	2538.004192
1006.041775	2536.297761
1006.335974	2537.106867
1006.630138	2534.818183
1006.924266	2535.929757
1007.218359	2536.514531
1007.512416	2537.011085
1007.806438	2534.097298
1008.100425	2535.314736
1008.394376	2537.631147
1008.688292	2536.199459
1008.982172	2533.492359
1009.276017	2535.496218
1009.569827	2532.675692
1009.863602	2537.807587
1010.157341	2534.470343
1010.451045	2533.739376
1010.744714	2534.621578
1011.038347	2536.239788
1011.331945	2534.175436
1011.625508	2534.853471
1011.919036	2535.869263
1012.212528	2536.804397
1012.505986	2535.833975
1012.799408	2536.471681
1013.092795	2536.834644
1013.386147	2535.150899
1013.679464	2537.295910
1013.972745	2534.848430
1014.265992	2534.815662
1014.559204	2534.677030
1014.852380	2534.838347
1015.145521	2535.115611
1015.438628	2535.712987
1015.731699	2537.069058
1016.024736	2535.100487
1016.317737	2537.495035
1016.610703	2537.159799
1016.903635	2532.705939
1017.196531	2531.349869
1017.489393	2534.288862
1017.782219	2529.230064
1018.075011	2535.201310
1018.367768	2534.790456
1018.660490	2536.146527
1018.953177	2536.146527
1019.245829	2536.146527
