Dividing Wavelength (nm)	Counts (n)	Blue Motor Position (mm): 32.300000	Red Motor Position (mm): 0.000000	
326.493990	2130.699126
326.888308	2130.699126
327.282561	2130.699126
327.676750	2099.136462
328.070874	2096.867942
328.464933	2098.778540
328.858929	2103.688623
329.252859	2115.598349
329.646726	2127.409773
330.040528	2139.952164
330.434265	2157.828095
330.827938	2171.850065
331.221547	2192.430575
331.615091	2208.398430
332.008571	2229.853581
332.401986	2251.588516
332.795338	2270.074427
333.188625	2291.887499
333.581847	2307.676393
333.975006	2326.817654
334.368100	2345.101919
334.761129	2363.852491
335.154095	2380.251365
335.546996	2402.513100
335.939833	2423.010432
336.332606	2438.723708
336.725315	2450.872889
337.117960	2464.085753
337.510540	2470.089767
337.903056	2480.522435
338.295508	2486.879330
338.687896	2497.324601
339.080220	2506.663338
339.472480	2513.042919
339.864676	2516.785975
340.256807	2518.341171
340.648875	2522.548014
341.040879	2528.078160
341.432818	2528.226874
341.824694	2529.109076
342.216506	2527.972296
342.608253	2531.022194
342.999937	2529.625794
343.391557	2529.270393
343.783113	2529.119158
344.174605	2526.926256
344.566033	2527.397604
344.957397	2524.594723
345.348697	2522.936183
345.739934	2521.978364
346.131106	2522.351409
346.522215	2518.648682
346.913260	2515.286232
347.304241	2515.145080
347.695159	2509.861951
348.086012	2511.618793
348.476802	2506.887670
348.867528	2510.224914
349.258191	2508.289111
349.648789	2505.292145
350.039324	2501.344921
350.429796	2502.874911
350.820203	2501.334839
351.210548	2498.151350
351.600828	2499.583038
351.991045	2498.650424
352.381198	2497.848881
352.771288	2498.302585
353.161314	2496.124806
353.551276	2498.358038
353.941175	2500.112359
354.331010	2494.821668
354.720782	2496.041627
355.110490	2496.628922
355.500135	2498.055568
355.889717	2495.812255
356.279235	2496.954076
356.668689	2497.732934
357.058080	2497.800990
357.447408	2494.534322
357.836672	2496.054230
358.225873	2497.480877
358.615010	2495.051041
359.004084	2499.847698
359.393095	2499.535147
359.782043	2504.089829
360.170927	2496.817965
360.559748	2501.423059
360.948505	2501.763337
361.337199	2503.552947
361.725830	2500.225785
362.114398	2503.074037
362.502903	2505.508914
362.891344	2505.501353
363.279722	2503.494973
363.668037	2506.547392
364.056289	2505.944974
364.444478	2503.575632
364.832603	2505.728204
365.220665	2507.903462
365.608665	2506.580159
365.996601	2508.836076
366.384474	2506.880108
366.772284	2507.452279
367.160031	2508.284069
367.547715	2510.361025
367.935336	2507.220386
368.322893	2508.604183
368.710388	2509.975377
369.097820	2511.893536
369.485189	2511.359173
369.872495	2512.616941
370.259738	2509.201559
370.646918	2509.163751
371.034035	2511.039060
371.421090	2511.434791
371.808081	2512.684997
372.195010	2515.344205
372.581875	2511.805315
372.968678	2516.755728
373.355418	2512.942096
373.742096	2515.220697
374.128710	2512.969822
374.515262	2514.151973
374.901751	2513.685666
375.288177	2515.848321
375.674540	2512.629544
376.060841	2515.497961
376.447079	2515.530728
376.833254	2514.262878
377.219367	2511.414626
377.605417	2512.178361
377.991404	2513.380676
378.377329	2512.425377
378.763191	2514.164575
379.148991	2518.154649
379.534727	2519.422499
379.920402	2516.347395
380.306013	2519.606501
380.691563	2516.972498
381.077049	2518.073990
381.462474	2519.455266
381.847835	2518.547859
382.233134	2519.919053
382.618371	2517.088445
383.003545	2519.099865
383.388657	2516.854031
383.773706	2522.255627
384.158693	2517.637930
384.543618	2522.187572
384.928480	2521.655730
385.313280	2521.292767
385.698017	2521.146573
386.082692	2522.053981
386.467305	2517.779083
386.851856	2522.202695
387.236344	2520.198837
387.620770	2522.048940
388.005133	2520.143384
388.389435	2523.677233
388.773674	2521.040709
389.157851	2522.522808
389.541965	2524.395597
389.926018	2524.710669
390.310008	2524.037675
390.693936	2523.762932
391.077802	2525.182017
391.461606	2524.299815
391.845348	2522.825278
392.229027	2524.705628
392.612645	2529.403983
392.996200	2526.520443
393.379694	2526.490197
393.763125	2525.360978
394.146494	2527.455578
394.529801	2529.378778
394.913047	2524.998015
395.296230	2528.635208
395.679351	2528.607481
396.062410	2528.652852
396.445408	2529.356093
396.828343	2528.753675
397.211217	2524.529188
397.594028	2528.869621
397.976778	2526.512882
398.359466	2528.809127
398.742092	2525.358457
399.124656	2530.313912
399.507158	2531.392719
399.889598	2533.371372
400.271977	2531.470857
400.654294	2533.585621
401.036549	2529.799714
401.418742	2531.753161
401.800874	2531.344828
402.182944	2531.364992
402.564952	2535.486136
402.946898	2532.307688
403.328783	2532.267359
403.710606	2535.196269
404.092367	2536.149047
404.474067	2533.552853
404.855705	2535.715508
405.237282	2535.826413
405.618797	2537.510159
406.000250	2537.784902
406.381642	2536.504449
406.762972	2538.019315
407.144240	2539.211548
407.525447	2541.895963
407.906593	2538.808256
408.287677	2540.295396
408.668700	2540.451672
409.049661	2541.951415
409.430560	2540.920499
409.811399	2541.961498
410.192176	2542.765562
410.572891	2542.362269
410.953545	2543.960315
411.334138	2545.767569
411.714669	2546.085162
412.095139	2543.935109
412.475547	2546.105326
412.855894	2549.563558
413.236180	2551.121274
413.616405	2555.885165
413.996568	2557.760474
414.376670	2561.337172
414.756711	2563.625856
415.136691	2568.619119
415.516609	2573.932495
415.896466	2578.930799
416.276262	2587.379773
416.655997	2591.626945
417.035670	2605.296034
417.415283	2617.959412
417.794834	2624.792697
418.174324	2635.094294
418.553753	2642.298103
418.933121	2661.209992
419.312428	2678.791016
419.691674	2691.600588
420.070859	2712.007179
420.449983	2718.079248
420.829045	2745.513208
421.208047	2754.874630
421.586988	2779.553599
421.965867	2801.938843
422.344686	2835.543174
422.723444	2844.276973
423.102141	2842.436952
423.480777	2900.679923
423.859352	2899.336456
424.237866	2960.210909
424.616319	2985.293170
424.994712	3025.977802
425.373044	3040.889535
425.751314	3099.059409
426.129524	3098.207454
426.507673	3166.358813
426.885762	3212.722305
427.263789	3242.923858
427.641756	3248.942995
428.019662	3318.349602
428.397508	3358.383925
428.775292	3391.867269
429.153016	3458.027372
429.530679	3477.017398
429.908282	3545.335115
430.285824	3545.589693
430.663305	3685.148997
431.040726	3641.084271
431.418086	3685.912731
431.795385	3770.747789
432.172624	3821.280315
432.549802	3868.311760
432.926920	3923.043567
433.303977	3976.036176
433.680974	4038.186042
434.057910	4098.586626
434.434786	4153.734329
434.811601	4187.767158
435.188355	4355.768652
435.565050	4340.690560
435.941683	4381.675141
436.318257	4556.462027
436.694770	4598.522894
437.071222	4671.649872
437.447614	4678.551212
437.823946	4674.359492
438.200218	4823.547399
438.576429	4785.947953
438.952580	4900.240993
439.328670	4978.560359
439.704700	4959.076300
440.080670	4988.841793
440.456580	5236.685080
440.832429	5195.524059
441.208218	5121.915651
441.583947	5284.341628
441.959616	5324.081044
442.335224	5312.065454
442.710773	5454.515859
443.086261	5517.749572
443.461689	5379.866452
443.837057	5538.544332
444.212365	5710.336772
444.587612	5648.985930
444.962800	5814.171939
445.337927	5831.306821
445.712995	5519.556826
446.088002	6058.874588
446.462949	5936.077121
446.837837	5900.388272
447.212664	6077.552063
447.587431	6244.923411
447.962139	6761.704695
448.336786	7634.396481
448.711374	7414.536639
449.085901	6587.293375
449.460369	6538.389141
449.834776	6491.783674
450.209124	6887.100876
450.583412	7048.659775
450.957640	7193.040942
451.331808	6988.891855
451.705917	6573.208391
452.079965	6506.211456
452.453954	6727.772688
452.827883	6621.643797
453.201752	6716.851029
453.575562	6532.385127
453.949311	6739.163176
454.323001	6636.558051
454.696632	6717.645010
455.070202	6858.885538
455.443713	7017.336565
455.817164	7122.656352
456.190556	7204.565019
456.563888	7285.576362
456.937160	7330.755182
457.310373	6998.606158
457.683526	7024.943667
458.056619	6918.358551
458.429653	6910.958137
458.802628	6847.691656
459.175542	6953.608819
459.548398	7313.857235
459.921194	7468.091337
460.293930	7476.704148
460.666607	8004.129828
461.039224	8311.955285
461.411782	8436.991023
461.784280	8454.773694
462.156719	8354.250565
462.529099	8231.158191
462.901419	7821.735841
463.273680	7719.937300
463.645882	7727.806542
464.018024	7593.404339
464.390106	7766.484794
464.762130	8144.775500
465.134094	8616.889640
465.505999	9630.622828
465.877845	10860.445077
466.249631	11500.661533
466.621358	11113.997471
466.993026	10495.727678
467.364634	10240.511703
467.736184	9872.767092
468.107674	9552.679028
468.479105	9582.784799
468.850477	9334.802879
469.221790	9115.197615
469.593043	8790.428840
469.964238	8651.371132
470.335373	8659.013521
470.706449	8718.108447
471.077467	8703.048000
471.448425	10007.466722
471.819324	11075.397356
472.190164	11091.327402
472.560945	9861.376604
472.931667	9078.094723
473.302330	8930.751878
473.672934	8582.498888
474.043479	8938.369062
474.413965	8879.422850
474.784393	8759.347606
475.154761	8914.020288
475.525070	9009.018312
475.895321	8829.906116
476.265513	9010.976800
476.635645	9176.576184
477.005719	9177.438221
477.375734	9294.284605
477.745691	9524.400676
478.115588	9664.428806
478.485427	9897.655268
478.855207	10436.584861
479.224928	11249.218861
479.594591	11875.178934
479.964194	11688.373937
480.333739	11626.581994
480.703226	11539.435568
481.072653	11633.931996
481.442022	11870.039478
481.811333	12059.934702
482.180584	11865.822553
482.549777	11570.552090
482.918912	11399.157900
483.287988	11422.579101
483.657005	11434.569485
484.025964	11119.240271
484.394864	11251.583162
484.763706	11217.948584
485.132489	10976.593261
485.501213	10944.718045
485.869879	11016.614982
486.238487	10856.583553
486.607036	10973.966820
486.975527	10748.917109
487.343959	10937.390728
487.712333	10988.303862
488.080648	10919.582852
488.448905	10960.539707
488.817104	10905.202961
489.185244	11164.293063
489.553326	11320.319295
489.921350	11854.464833
490.289315	12913.669229
490.657222	13252.097011
491.025070	13162.828258
491.392861	13033.767158
491.760593	12658.944767
492.128267	12313.887868
492.495883	11985.943167
492.863440	11648.218626
493.230939	11306.307408
493.598380	11244.575958
493.965763	11110.723242
494.333088	11023.622185
494.700354	10939.651686
495.067563	11000.722744
495.434713	10825.038532
495.801805	10959.972577
496.168839	10878.016018
496.535815	10820.115846
496.902733	10817.033180
497.269593	10757.436659
497.636395	10848.545433
498.003139	10838.916829
498.369825	10706.407580
498.736453	10868.135357
499.103023	10793.848914
499.469535	10821.645836
499.835989	10817.433952
500.202385	10777.039186
500.568723	10626.288522
500.935003	10844.530154
501.301226	10648.232664
501.667390	10912.338714
502.033497	11008.370174
502.399546	10870.953362
502.765537	10776.540112
503.131470	10850.879487
503.497345	11019.601865
503.863163	10637.439554
504.228923	10947.480598
504.594625	11009.020483
504.960269	10755.304251
505.325856	10979.431431
505.691385	10771.561973
506.056856	10928.409913
506.422270	10949.010588
506.787625	10836.504637
507.152924	10954.911258
507.518164	10935.278485
507.883347	10856.283604
508.248472	10777.737386
508.613540	11009.171718
508.978550	10887.722760
509.343503	10863.983967
509.708398	10987.860240
510.073236	11102.090266
510.438016	11106.213929
510.802738	11051.343490
511.167403	11111.353386
511.532010	11006.683908
511.896561	11235.537170
512.261053	11303.040740
512.625488	11176.505258
512.989866	11153.394088
513.354186	11139.805658
513.718449	11050.330218
514.082655	11237.057077
514.446803	11140.090483
514.810894	11258.754204
515.174927	11121.294541
515.538904	11145.769343
515.902822	11296.492281
516.266684	11188.717453
516.630488	11125.645057
516.994235	11185.491115
517.357925	11238.624876
517.721558	11337.154228
518.085133	11347.513799
518.448651	11351.340035
518.812112	11246.335321
519.175516	11264.022209
519.538863	11378.073274
519.902152	11297.049329
520.265385	11453.347783
520.628560	11364.807478
520.991678	11345.910712
521.354739	11407.574106
521.717743	11345.182266
522.080690	11325.632671
522.443580	11454.860129
522.806413	11406.399517
523.169189	11437.387490
523.531908	11501.712613
523.894569	11314.350569
524.257174	11319.157309
524.619722	11441.433016
524.982213	11389.010057
525.344647	11435.060998
525.707025	11388.624409
526.069345	11485.951446
526.431608	11410.162739
526.793815	11508.109838
527.155964	11299.121243
527.518057	11351.337515
527.880093	11298.430605
528.242072	11377.874148
528.603995	11280.355548
528.965860	11198.638444
529.327669	11257.345201
529.689421	11198.030985
530.051117	11165.392034
530.412755	11273.648293
530.774337	11157.215283
531.135862	11138.941100
531.497331	11161.427167
531.858743	11016.899807
532.220098	11186.678307
532.581396	11050.514221
532.942638	11037.384535
533.303824	11006.888075
533.664953	11018.618840
534.026025	10931.081724
534.387040	11028.481858
534.747999	11035.237004
535.108902	11092.968298
535.469748	10843.128713
535.830537	10955.609458
536.191270	10929.362691
536.551947	10950.301123
536.912567	10950.109559
537.273131	10878.598272
537.633638	10855.310661
537.994089	10842.654845
538.354483	10799.250510
538.714821	10942.134454
539.075103	10944.425658
539.435328	10912.575648
539.795497	10733.660057
540.155609	10893.517566
540.515665	10985.382513
540.875665	10723.081196
541.235609	10788.989241
541.595496	10786.027563
541.955328	10938.346027
542.315102	10819.447893
542.674821	10775.499114
543.034483	10777.991964
543.394090	10778.727973
543.753640	10706.883969
544.113134	10934.348392
544.472571	10783.580083
544.831953	10921.448079
545.191278	10731.971271
545.550548	10756.128480
545.909761	10899.133412
546.268918	10871.747343
546.628019	10955.959818
546.987064	10817.318005
547.346053	10746.061296
547.704986	10841.608805
548.063863	10823.581639
548.422684	10821.953346
548.781449	10739.278423
549.140158	10844.893117
549.498811	10715.721111
549.857408	10574.876314
550.215949	10798.766559
550.574434	10651.169136
550.932864	10751.248643
551.291237	10808.856429
551.649555	10764.305232
552.007817	10768.978381
552.366022	10732.185520
552.724173	10729.150745
553.082267	10712.986285
553.440305	10842.128044
553.798288	10644.887859
554.156215	10801.352671
554.514086	10777.180338
554.871902	10627.909253
555.229661	10671.618577
555.587365	10636.585078
555.945014	10532.873420
556.302606	10659.976032
556.660143	10548.720287
557.017625	10708.502179
557.375050	10608.170615
557.732421	10740.485780
558.089735	10650.733077
558.446994	10655.607872
558.804197	10691.442914
559.161345	10694.598677
559.518437	10544.190811
559.875474	10633.406631
560.232455	10655.834724
560.589381	10603.489903
560.946251	10607.636252
561.303065	10713.394619
561.659825	10652.981431
562.016528	10579.133568
562.373177	10455.985742
562.729770	10577.419576
563.086307	10494.674077
563.442789	10576.000491
563.799216	10463.827257
564.155587	10513.228044
564.511904	10471.527619
564.868164	10457.152769
565.224370	10470.418565
565.580520	10396.396783
565.936615	10401.616897
566.292654	10271.839953
566.648638	10398.506506
567.004567	10363.682215
567.360441	10342.111118
567.716260	10251.718188
568.072023	10348.009267
568.427732	10298.522781
568.783385	10205.074912
569.138982	10279.063927
569.494525	10291.689497
569.850013	10170.845477
570.205445	10250.286500
570.560823	10143.633329
570.916145	10065.056864
571.271412	10136.328697
571.626625	10080.931457
571.981782	10057.754753
572.336884	10037.411176
572.691931	10031.472697
573.046923	9986.692127
573.401860	9935.436196
573.756743	9871.791628
574.111570	9916.546992
574.466342	9892.903981
574.821059	9931.163818
575.175722	9815.038318
575.530330	9829.372839
575.884882	9823.449483
576.239380	9754.544472
576.593823	9730.876255
576.948211	9745.601465
577.302544	9620.827866
577.656823	9636.493252
578.011047	9641.410897
578.365216	9618.599676
578.719330	9538.271410
579.073389	9552.081651
579.427394	9502.116255
579.781344	9470.838416
580.135239	9419.557278
580.489080	9439.661400
580.842866	9333.023352
581.196597	9346.750414
581.550273	9382.930775
581.903895	9348.953398
582.257463	9412.005630
582.610975	9286.669943
582.964434	9317.020209
583.317837	9238.224454
583.671186	9223.284995
584.024481	9226.128205
584.377721	9142.437490
584.730906	9113.299621
585.084037	9145.106781
585.437113	9075.823683
585.790135	9104.485163
586.143103	9005.451696
586.496016	8973.087488
586.848874	9032.588227
587.201679	9019.655147
587.554428	8905.175584
587.907124	8953.560579
588.259765	8922.444057
588.612352	8923.744674
588.964884	8800.501066
589.317362	8822.601484
589.669786	8818.092172
590.022155	8864.579172
590.374470	8876.710709
590.726731	8819.990166
591.078937	8667.606168
591.431090	8787.625959
591.783188	8654.476483
592.135232	8651.759301
592.487222	8644.442066
592.839157	8704.288124
593.191038	8631.791290
593.542866	8580.671470
593.894639	8476.851427
594.246358	8534.711270
594.598022	8547.946820
594.949633	8443.904966
595.301190	8426.180269
595.652692	8450.599618
596.004141	8559.770846
596.355535	8335.323553
596.706876	8318.261768
597.058162	8255.123837
597.409395	8335.557967
597.760573	8393.571565
598.111698	8298.588665
598.462768	8284.402858
598.813785	8253.719875
599.164748	8217.421047
599.515657	8208.624234
599.866511	8118.024617
600.217312	8244.066066
600.568060	8105.746887
600.918753	8205.591980
601.269392	8174.351949
601.619978	8086.953465
601.970510	8154.220101
602.320988	8150.393866
602.671412	8205.740694
603.021783	8140.959346
603.372100	8109.177392
603.722363	8118.259030
604.072572	8090.784742
604.422728	8105.220086
604.772830	8035.221144
605.122878	8041.504942
605.472872	8034.364148
605.822813	8070.499139
606.172701	8008.414809
606.522534	8089.106038
606.872314	8086.091428
607.222041	8054.352323
607.571714	8106.964325
607.921333	8067.915547
608.270899	8071.494767
608.620411	8158.807551
608.969870	8074.592556
609.319276	8060.084115
609.668627	8077.826456
610.017926	8113.709389
610.367171	8160.430803
610.716362	8138.249726
611.065500	8126.007284
611.414585	8158.590782
611.763616	8141.695355
612.112594	8124.459650
612.461518	8133.014488
612.810389	8197.140485
613.159207	8132.946432
613.507971	8089.474042
613.856682	8208.924182
614.205340	8162.711925
614.553945	8241.973987
614.902496	8138.748800
615.250994	8191.680916
615.599439	8173.547885
615.947830	8186.700256
616.296169	8161.280237
616.644454	8172.141403
616.992686	8173.164758
617.340864	8232.935198
617.688990	8138.980693
618.037063	8231.627019
618.385082	8171.670055
618.733048	8258.395546
619.080961	8195.741565
619.428821	8220.022283
619.776628	8215.568423
620.124382	8169.635950
620.472083	8152.465780
620.819731	8179.788834
621.167326	8070.715908
621.514868	8082.000531
621.862357	7976.584963
622.209793	7986.402610
622.557176	7924.277951
622.904506	7893.516830
623.251783	7827.361768
623.599007	7784.937938
623.946179	7785.631097
624.293297	7741.972184
624.640363	7657.391705
624.987376	7641.960733
625.334336	7590.102383
625.681243	7535.970473
626.028097	7529.658948
626.374899	7503.802870
626.721647	7496.047055
627.068343	7430.023063
627.414987	7405.008858
627.761577	7353.800817
628.108115	7395.206334
628.454600	7282.816330
628.801032	7338.137952
629.147412	7297.342415
629.493739	7280.338603
629.840014	7219.723769
630.186236	7282.082842
630.532405	7167.920872
630.878521	7211.564661
631.224585	7172.954464
631.570597	7098.050480
631.916556	7127.074923
632.262462	7127.621888
632.608316	7087.537153
632.954117	7062.807773
633.299866	7046.776904
633.645562	7045.486368
633.991206	6965.326981
634.336797	6902.531848
634.682336	6868.453648
635.027823	6829.651887
635.373257	6820.620660
635.718639	6751.871924
636.063968	6767.698627
636.409245	6664.768348
636.754470	6660.649725
637.099642	6620.000381
637.444762	6564.341001
637.789829	6568.376445
638.134845	6510.998032
638.479808	6499.118553
638.824719	6502.556620
639.169577	6433.767555
639.514383	6451.366223
639.859137	6383.237549
640.203839	6391.177367
640.548489	6376.487444
640.893086	6348.688002
641.237632	6324.997099
641.582125	6349.066088
641.926566	6311.048226
642.270955	6331.495146
642.615292	6321.906872
642.959576	6337.242062
643.303809	6322.141285
643.647990	6335.825497
643.992118	6327.742007
644.336195	6271.470127
644.680219	6292.819414
645.024192	6287.742972
645.368112	6386.829372
645.711981	6402.484675
646.055797	6480.690615
646.399562	6435.322751
646.743274	6558.924282
647.086935	6616.970648
647.430544	6612.950327
647.774101	6634.604604
648.117606	6636.565613
648.461059	6632.603266
648.804460	6591.444765
649.147810	6503.983266
649.491108	6468.589325
649.834354	6442.937414
650.177548	6360.310382
650.520690	6276.211333
650.863781	6254.909937
651.206820	6276.891888
651.549807	6192.818045
651.892742	6143.223174
652.235626	6140.201002
652.578458	6127.494774
652.921238	6039.249376
653.263967	6080.105407
653.606644	6015.848339
653.949269	6021.701119
654.291843	5962.825483
654.634365	6012.380026
654.976836	5963.884126
655.319255	5962.240709
655.661622	5940.767915
656.003938	5937.216422
656.346203	5897.300566
656.688416	5929.057314
657.030577	5885.174070
657.372687	5852.149471
657.714746	5840.333007
658.056753	5880.866404
658.398708	5826.774823
658.740612	5815.240663
659.082465	5861.972159
659.424266	5855.748855
659.766016	5856.389082
660.107715	5830.028888
660.449362	5842.510785
660.790958	5835.281770
661.132503	5821.645449
661.473996	5859.615420
661.815438	5850.685016
662.156829	5846.311815
662.498168	5837.903170
662.839456	5815.873328
663.180693	5845.779973
663.521879	5847.824161
663.863013	5836.340413
664.204097	5857.800605
664.545129	5898.807871
664.886110	5895.158075
665.227040	5929.959681
665.567918	5893.242437
665.908746	5926.216624
666.249522	5925.299134
666.590248	5907.708028
666.930922	5943.341424
667.271545	5956.357683
667.612118	5953.307785
667.952639	5928.719557
668.293109	5947.452485
668.633528	5908.570065
668.973896	5907.219036
669.314213	5901.509929
669.654480	5884.528802
669.994695	5874.401124
670.334859	5866.862079
670.674973	5860.716912
671.015035	5862.367890
671.355047	5862.105750
671.695008	5845.744685
672.034918	5828.619886
672.374777	5836.862172
672.714585	5815.681764
673.054342	5821.368186
673.394049	5816.997505
673.733705	5846.173183
674.073310	5830.444783
674.412864	5792.189987
674.752368	5786.317043
675.091820	5790.473474
675.431223	5721.807918
675.770574	5724.303289
676.109875	5675.247821
676.449125	5680.528430
676.788324	5650.541126
677.127473	5594.168423
677.466571	5585.341363
677.805619	5574.810392
678.144616	5560.838834
678.483562	5535.181882
678.822458	5505.013097
679.161303	5502.903374
679.500098	5495.626468
679.838842	5477.543849
680.177535	5482.816896
680.516179	5494.154451
680.854771	5513.013408
681.193314	5585.792546
681.531805	5697.544844
681.870247	5848.671075
682.208638	5952.279389
682.546978	5958.543023
682.885268	5938.663233
683.223508	5854.289441
683.561697	5798.103261
683.899836	5768.821719
684.237925	5724.416715
684.575963	5689.020253
684.913951	5645.361340
685.251889	5712.244849
685.589776	5677.723027
685.927614	5651.687988
686.265401	5719.599892
686.603137	5700.877047
686.940824	5776.811948
687.278460	5805.599457
687.616046	5814.005581
687.953582	5881.085694
688.291068	5861.057190
688.628504	5926.914824
688.965889	5889.166664
689.303224	5833.721533
689.640510	5787.053052
689.977745	5707.733016
690.314930	5611.406649
690.652065	5557.231889
690.989150	5465.739988
691.326185	5387.748297
691.663170	5331.103371
692.000105	5258.082258
692.336990	5179.843550
692.673825	5155.424201
693.010610	5089.367442
693.347345	5019.199621
693.684030	5005.936345
694.020665	4962.889933
694.357251	4869.575654
694.693786	4884.310947
695.030272	4850.326008
695.366707	4817.999609
695.703093	4781.539464
696.039429	4804.448988
696.375716	4784.639774
696.711952	4761.195888
697.048139	4744.285337
697.384276	4728.821598
697.720363	4739.254266
698.056400	4747.793980
698.392388	4700.051733
698.728326	4676.917878
699.064214	4656.506246
699.400053	4651.923837
699.735842	4616.504690
700.071581	4592.763376
700.407270	4565.437802
700.742910	4550.394999
701.078501	4496.066484
701.414042	4496.467255
701.749533	4461.569868
702.084974	4394.502357
702.420366	4454.887818
702.755709	4398.321031
703.091002	4342.573431
703.426246	4388.624372
703.761440	4349.303372
704.096584	4309.795849
704.431679	4332.299560
704.766725	4314.065706
705.101721	4304.457267
705.436668	4331.873582
705.771565	4277.308133
706.106413	4307.476918
706.441212	4338.969006
706.775961	4347.647353
707.110661	4329.862162
707.445311	4356.023230
707.779913	4380.067013
708.114465	4393.355495
708.448967	4417.595883
708.783421	4474.636539
709.117825	4516.223537
709.452180	4523.311400
709.786485	4566.987957
710.120742	4653.123632
710.454949	4640.583762
710.789107	4701.352351
711.123216	4777.524185
711.457275	4767.898102
711.791286	4841.292261
712.125247	4858.134756
712.459159	4756.434518
712.793023	4833.400334
713.126837	4796.927586
713.460602	4784.861585
713.794318	4707.144636
714.127985	4711.830389
714.461602	4629.314262
714.795171	4603.732927
715.128691	4536.357906
715.462162	4481.757168
715.795584	4429.641720
716.128957	4410.941560
716.462281	4360.618242
716.795556	4335.747709
717.128782	4294.606853
717.461960	4227.267119
717.795088	4239.212133
718.128167	4201.098490
718.461198	4142.003564
718.794180	4135.813027
719.127113	4117.450624
719.459997	4096.524794
719.792833	4051.872774
720.125619	4041.172925
720.458357	4004.211185
720.791046	4012.476157
721.123686	3985.415243
721.456278	3942.018470
721.788821	3960.459011
722.121315	3934.854991
722.453761	3909.404725
722.786158	3919.605500
723.118506	3943.936629
723.450805	3894.661871
723.783056	3919.945778
724.115259	3932.334414
724.447412	3938.290537
724.779518	3931.860545
725.111574	3934.552521
725.443582	3961.565544
725.775542	3952.211683
726.107453	3999.389322
726.439315	4001.783870
726.771129	4014.248122
727.102895	4048.626271
727.434612	4097.238118
727.766281	4109.997278
728.097901	4113.636991
728.429473	4116.422229
728.760996	4122.358187
729.092471	4117.228813
729.423897	4104.620887
729.755276	4110.690437
730.086606	4108.565590
730.417887	4145.040859
730.749120	4208.377916
731.080305	4270.621043
731.411442	4301.694715
731.742530	4271.593985
732.073570	4273.333183
732.404562	4326.696317
732.735506	4323.107016
733.066401	4282.853402
733.397249	4218.419894
733.728048	4143.294099
734.058798	4056.641706
734.389501	3989.246520
734.720156	3925.677570
735.050762	3882.900859
735.381320	3874.787122
735.711831	3827.397755
736.042293	3797.218888
736.372707	3818.979028
736.703073	3790.710758
737.033391	3783.650622
737.363661	3795.371305
737.693883	3824.597394
738.024056	3831.539063
738.354182	3824.534380
738.684260	3890.439905
739.014290	3909.964293
739.344272	3905.523037
739.674207	3950.659008
740.004093	3956.053042
740.333931	3950.926189
740.663722	3950.653967
740.993464	3947.248667
741.323159	3923.308228
741.652806	3892.373187
741.982405	3869.599775
742.311956	3833.563086
742.641460	3826.845749
742.970915	3801.829023
743.300323	3762.850821
743.629683	3725.788258
743.958996	3716.134449
744.288260	3692.446067
744.617477	3660.467507
744.946647	3645.656597
745.275768	3618.673821
745.604842	3613.236937
745.933869	3570.649269
746.262847	3562.885892
746.591778	3600.359309
746.920662	3570.631625
747.249498	3539.905793
747.578286	3586.042432
747.907027	3602.060699
748.235720	3600.550873
748.564365	3625.403762
748.892963	3625.623052
749.221514	3607.379116
749.550017	3582.826176
749.878473	3580.986155
750.206881	3553.905077
750.535242	3551.351732
750.863555	3551.208059
751.191821	3542.933005
751.520039	3528.646375
751.848210	3501.885410
752.176334	3537.017211
752.504411	3544.878891
752.832440	3506.182994
753.160421	3489.864779
753.488356	3494.298474
753.816243	3509.326153
754.144082	3466.693115
754.471875	3453.031588
754.799620	3473.052531
755.127318	3460.089204
755.454969	3463.746561
755.782572	3468.812920
756.110129	3443.990279
756.437638	3432.504010
756.765100	3447.861885
757.092515	3460.421920
757.419882	3464.762353
757.747203	3439.667489
758.074477	3440.118673
758.401703	3456.928400
758.728882	3476.425063
759.056014	3484.506032
759.383099	3487.548369
759.710138	3485.070642
760.037129	3502.208044
760.364073	3532.701984
760.690970	3517.654139
761.017820	3489.731188
761.344623	3513.651463
761.671379	3556.760890
761.998088	3607.089250
762.324751	3733.604567
762.651366	3982.614882
762.977935	4454.171975
763.304456	4897.962392
763.630931	4989.897914
763.957359	4631.539932
764.283740	4287.811377
764.610074	4097.424640
764.936362	3900.045823
765.262602	3743.442379
765.588796	3633.774598
765.914943	3543.858057
766.241044	3453.255920
766.567097	3427.636776
766.893104	3380.219683
767.219064	3347.968901
767.544978	3320.557627
767.870845	3266.055192
768.196665	3246.976945
768.522438	3254.952051
768.848165	3250.876278
769.173846	3217.077862
769.499479	3199.275027
769.825066	3183.037471
770.150607	3166.079029
770.476101	3178.601255
770.801548	3175.125380
771.126949	3129.523102
771.452303	3114.223200
771.777611	3118.374590
772.102872	3125.633852
772.428087	3099.639142
772.753256	3090.358378
773.078378	3083.199939
773.403453	3048.776420
773.728482	3038.837785
774.053465	3054.755229
774.378401	3048.070659
774.703291	3015.330885
775.028135	3013.911800
775.352932	3008.104391
775.677683	2995.559480
776.002388	2996.441682
776.327046	2998.725324
776.651658	2988.821978
776.976224	2975.868733
777.300743	2976.924854
777.625216	2964.390025
777.949643	2960.959520
778.274024	2963.091928
778.598359	2951.477110
778.922647	2956.956844
779.246889	2954.073304
779.571086	2940.212652
779.895236	2935.652928
780.219339	2946.844289
780.543397	2958.867441
780.867409	2960.578913
781.191374	2952.621452
781.515294	2950.884774
781.839167	2952.175310
782.162995	2944.124587
782.486776	2950.995680
782.810511	2950.844445
783.134201	2938.228958
783.457844	2942.438321
783.781441	2933.737289
784.104993	2912.098137
784.428498	2913.391193
784.751958	2929.900971
785.075372	2923.579364
785.398739	2906.315933
785.722061	2922.520722
786.045337	2930.352155
786.368568	2918.888571
786.691752	2911.163003
787.014891	2959.661423
787.337983	2986.399703
787.661030	3015.570340
787.984031	3083.283118
788.306987	3128.661065
788.629897	3121.636217
788.952760	3105.063423
789.275579	3090.587750
789.598351	3029.173893
789.921078	2986.752584
790.243759	2979.223621
790.566395	2961.231743
790.888984	2937.649225
791.211529	2918.497881
791.534027	2907.278793
791.856480	2900.523647
792.178888	2887.514950
792.501249	2875.975749
792.823566	2874.919627
793.145836	2870.218751
793.468062	2865.855632
793.790241	2864.045858
794.112375	2872.535161
794.434464	2885.869013
794.756507	2888.581154
795.078505	2895.923594
795.400457	2907.913979
795.722364	2948.177675
796.044226	2968.783391
796.366042	2971.596355
796.687812	2961.135961
797.009538	2979.624392
797.331218	2966.577886
797.652852	2953.402831
797.974442	2934.432969
798.295986	2934.490942
798.617484	2927.561876
798.938938	2909.917838
799.260346	2897.957700
799.581709	2889.304559
799.903026	2883.686193
800.224299	2876.633619
800.545526	2869.018956
800.866708	2852.214270
801.187845	2840.879236
801.508936	2845.968280
801.829983	2853.600587
802.150984	2838.358659
802.471940	2824.356854
802.792851	2826.610250
803.113717	2823.928356
803.434538	2832.969665
803.755314	2823.169662
804.076045	2818.138591
804.396731	2816.777479
804.717372	2818.161276
805.037967	2812.099288
805.358518	2818.549445
805.679024	2832.074860
805.999485	2829.493790
806.319901	2831.772391
806.640272	2824.175372
806.960598	2828.563697
807.280879	2837.151302
807.601115	2846.421984
807.921306	2831.721980
808.241453	2825.987667
808.561554	2833.751044
808.881611	2834.333297
809.201623	2828.132678
809.521590	2830.910354
809.841513	2824.437512
810.161390	2828.039417
810.481223	2824.409786
810.801011	2814.246820
811.120755	2811.338074
811.440453	2815.262612
811.760107	2813.586429
812.079716	2811.239772
812.399281	2806.231385
812.718801	2795.072791
813.038276	2789.484672
813.357707	2798.314253
813.677093	2801.838020
813.996434	2797.711835
814.315731	2795.188738
814.634983	2787.208591
814.954191	2791.062553
815.273354	2805.192907
815.592473	2813.485606
815.911547	2812.681542
816.230577	2822.085814
816.549562	2830.055878
816.868502	2831.868173
817.187399	2838.615757
817.506250	2856.970599
817.825058	2846.621110
818.143821	2861.419417
818.462539	2878.148486
818.781213	2902.257804
819.099843	2938.985131
819.418429	2998.848833
819.736970	3058.263872
820.055466	3132.338586
820.373919	3236.977817
820.692327	3378.747666
821.010691	3542.333108
821.329011	3987.129235
821.647286	4881.313981
821.965517	6255.572849
822.283704	6998.177660
822.601847	6971.126829
822.919945	6345.307908
823.237999	5842.702349
823.556010	5265.197847
823.873976	4712.147982
824.191897	4305.735200
824.509775	4010.913399
824.827609	3738.754106
825.145398	3614.978656
825.463144	3605.987758
825.780845	3697.799772
826.098502	3801.808858
826.416116	4084.620110
826.733685	4402.684150
827.051210	4462.303356
827.368692	4347.551571
827.686129	4083.432918
828.003522	3757.048453
828.320872	3500.942714
828.638177	3306.548260
828.955439	3168.768485
829.272656	3086.423757
829.589830	3018.030423
829.906960	2966.545119
830.224046	2924.078439
830.541088	2890.998387
830.858086	2873.576159
831.175041	2857.809951
831.491952	2860.718697
831.808819	2870.380068
832.125642	2897.577093
832.442421	2940.787343
832.759157	3022.837163
833.075849	3199.706046
833.392497	3480.276504
833.709101	3685.043132
834.025662	3633.131851
834.342179	3472.684527
834.658653	3297.252373
834.975083	3149.448262
835.291469	3047.818601
835.607811	2966.555201
835.924110	2906.086561
836.240366	2859.866742
836.556578	2815.229845
836.872746	2791.874179
837.188871	2768.989861
837.504952	2750.947572
837.820990	2745.397261
838.136984	2730.735065
838.452935	2720.309959
838.768842	2719.682335
839.084706	2741.845768
839.400526	2817.415185
839.716303	2949.143056
840.032037	3031.591127
840.347727	3015.940865
840.663373	2958.436423
840.978977	2879.832231
841.294537	2809.677014
841.610054	2759.663727
841.925527	2738.022053
842.240957	2717.345761
842.556344	2694.705939
842.871687	2679.186747
843.186987	2672.348421
843.502244	2665.298368
843.817458	2662.026659
844.132629	2648.571819
844.447756	2639.656539
844.762840	2630.048099
845.077881	2637.962711
845.392879	2635.099336
845.707833	2630.640435
846.022745	2624.308746
846.337613	2627.542646
846.652438	2626.337810
846.967221	2624.565845
847.281960	2623.925618
847.596656	2623.902933
847.911309	2621.596605
848.225919	2619.852366
848.540485	2616.353805
848.855009	2614.743156
849.169490	2615.166613
849.483928	2613.901284
849.798323	2613.697117
850.112675	2611.589915
850.426984	2613.760131
850.741251	2612.794750
851.055474	2609.802826
851.369654	2616.462190
851.683792	2617.994701
851.997887	2609.616303
852.311938	2610.445573
852.625947	2614.299535
852.939914	2615.675770
853.253837	2616.762138
853.567718	2611.295007
853.881555	2611.751232
854.195350	2614.259206
854.509103	2612.719133
854.822812	2612.149483
855.136479	2608.484564
855.450103	2613.276181
855.763685	2614.208794
856.077224	2613.220728
856.390720	2608.542537
856.704173	2612.585542
857.017584	2616.754577
857.330953	2618.269443
857.644278	2617.604011
857.957561	2617.823301
858.270802	2615.617797
858.584000	2615.030502
858.897155	2621.415123
859.210268	2621.442850
859.523339	2614.841459
859.836367	2610.622013
860.149352	2612.925820
860.462295	2612.588063
860.775195	2609.268463
861.088054	2608.920624
861.400869	2605.885849
861.713642	2603.846702
862.026373	2605.432145
862.339062	2612.222579
862.651708	2616.699124
862.964312	2618.004783
863.276873	2617.866151
863.589392	2615.330451
863.901869	2620.285905
864.214303	2629.060033
864.526696	2630.789149
864.839045	2630.262348
865.151353	2631.089098
865.463619	2630.063223
865.775842	2632.644294
866.088023	2632.336783
866.400162	2633.702936
866.712258	2633.730662
867.024313	2631.933491
867.336325	2628.084570
867.648296	2629.952317
867.960224	2637.282155
868.272110	2635.789974
868.583954	2626.151287
868.895755	2630.000208
869.207515	2634.179325
869.519233	2640.014461
869.830909	2635.021198
870.142542	2631.202524
870.454134	2633.546660
870.765684	2640.689975
871.077191	2639.510345
871.388657	2643.573515
871.700081	2642.018319
872.011463	2641.163844
872.322803	2642.834986
872.634101	2647.056952
872.945357	2654.648930
873.256571	2658.331493
873.567744	2654.139774
873.878874	2653.744043
874.189963	2656.806544
874.501010	2660.471463
874.812015	2667.062772
875.122979	2665.678975
875.433900	2657.797131
875.744780	2658.097079
876.055618	2663.939777
876.366415	2669.502690
876.677169	2666.961948
876.987882	2662.518171
877.298554	2661.547749
877.609183	2671.642660
877.919771	2676.605676
878.230317	2685.841070
878.540822	2694.862214
878.851285	2707.780171
879.161707	2732.650704
879.472087	2769.541867
879.782425	2819.098930
880.092722	2932.827361
880.402977	3121.134622
880.713191	3377.636091
881.023363	3670.038138
881.333494	3858.579812
881.643583	4033.578427
881.953631	4029.258158
882.263637	3853.818443
882.573602	3632.834422
882.883526	3504.509331
883.193408	3389.419788
883.503248	3286.219807
883.813048	3176.299968
884.122806	3063.070612
884.432522	2975.548619
884.742197	2912.095616
885.051831	2875.126314
885.361424	2840.912003
885.670975	2807.070737
885.980485	2772.334667
886.289954	2756.024013
886.599382	2741.253433
886.908768	2728.703480
887.218113	2713.418702
887.527417	2697.166022
887.836680	2689.584126
888.145901	2685.604135
888.455082	2678.090296
888.764221	2666.248625
889.073319	2654.028868
889.382376	2660.864673
889.691392	2657.328303
890.000366	2660.592451
890.309300	2654.953920
890.618193	2658.497851
890.927044	2659.944662
891.235855	2663.352482
891.544625	2661.746875
891.853353	2658.034065
892.162041	2667.201403
892.470687	2688.903571
892.779293	2700.089891
893.087858	2708.092723
893.396381	2731.700446
893.704864	2772.523710
894.013306	2840.385202
894.321707	2935.063113
894.630068	2984.841987
894.938387	3005.145234
895.246665	2997.580982
895.554903	2952.024075
895.863100	2912.125863
896.171256	2856.796679
896.479371	2793.421813
896.787446	2753.256420
897.095480	2736.643297
897.403473	2727.289437
897.711425	2713.267467
898.019336	2695.283151
898.327207	2682.153466
898.635038	2679.963084
898.942827	2677.439987
899.250576	2669.790036
899.558284	2657.482059
899.865952	2652.037612
900.173579	2647.505615
900.481165	2648.392858
900.788711	2644.329688
901.096216	2634.973307
901.403681	2632.828296
901.711105	2633.644963
902.018489	2631.620939
902.325832	2633.009777
902.633135	2634.673358
902.940397	2649.070893
903.247619	2686.297294
903.554800	2755.391349
903.861941	2882.937582
904.169041	3006.889473
904.476101	3069.692167
904.783121	3060.991136
905.090100	3005.089781
905.397039	2933.439861
905.703938	2857.378932
906.010796	2792.872327
906.317614	2743.136304
906.624391	2706.837475
906.931129	2684.119516
907.237826	2657.040958
907.544483	2640.858854
907.851099	2629.193624
908.157675	2616.502519
908.464211	2612.767024
908.770707	2598.835795
909.077163	2595.513675
909.383578	2592.791452
909.689954	2591.427820
909.996289	2591.054774
910.302584	2589.547469
910.608839	2587.011769
910.915054	2586.847932
911.221229	2588.047726
911.527363	2596.431165
911.833458	2589.701225
912.139513	2591.163159
912.445527	2592.015114
912.751502	2596.315218
913.057436	2601.578183
913.363331	2608.784512
913.669186	2619.368415
913.975000	2634.504479
914.280775	2650.265647
914.586510	2666.561177
914.892205	2703.346476
915.197859	2772.279214
915.503475	2856.554703
915.809050	2921.023499
916.114585	2935.325253
916.420081	2946.617438
916.725536	2959.739561
917.030952	2937.135027
917.336328	2883.408930
917.641665	2834.794563
917.946961	2788.360495
918.252218	2752.507809
918.557435	2726.618963
918.862612	2706.847558
919.167750	2689.475742
919.472848	2674.574091
919.777906	2655.170690
920.082925	2644.743063
920.387904	2632.979530
920.692843	2628.848305
920.997743	2626.050464
921.302603	2617.611573
921.607423	2611.524380
921.912204	2605.059100
922.216946	2602.271342
922.521647	2599.168512
922.826310	2597.615836
923.130932	2592.899837
923.435516	2588.188878
923.740059	2581.544638
924.044564	2583.966912
924.349028	2582.018506
924.653454	2573.771178
924.957840	2573.788823
925.262186	2567.265569
925.566493	2568.631722
925.870761	2566.025446
926.174989	2566.542164
926.479178	2567.258008
926.783328	2562.118551
927.087438	2561.143088
927.391509	2562.854560
927.695541	2558.012532
927.999533	2558.388097
928.303486	2556.154866
928.607400	2556.721996
928.911275	2557.402552
929.215110	2555.174362
929.518906	2557.752912
929.822663	2555.996070
930.126381	2555.154197
930.430060	2556.056564
930.733699	2556.495144
931.037299	2556.989177
931.340861	2557.347099
931.644383	2554.085473
931.947866	2558.806513
932.251309	2556.013714
932.554714	2559.025803
932.858080	2555.751574
933.161407	2554.879454
933.464694	2553.783003
933.767943	2555.466749
934.071153	2554.052705
934.374323	2551.043136
934.677455	2555.055895
934.980548	2551.801830
935.283602	2552.532797
935.586617	2553.286450
935.889593	2551.532128
936.192530	2553.593960
936.495428	2553.994732
936.798287	2553.299053
937.101108	2555.544887
937.403890	2555.985988
937.706632	2563.295661
938.009336	2564.787842
938.312002	2569.057700
938.614628	2573.375448
938.917216	2574.902917
939.219765	2579.412230
939.522275	2576.286714
939.824747	2574.834862
940.127179	2571.124573
940.429573	2568.314129
940.731929	2567.878070
941.034246	2565.854046
941.336524	2566.080898
941.638763	2566.005281
941.940964	2565.823799
942.243126	2564.535785
942.545250	2565.753223
942.847335	2562.481514
943.149381	2562.012687
943.451389	2562.577296
943.753359	2558.788869
944.055290	2557.306770
944.357182	2557.291647
944.659036	2555.670916
944.960851	2555.996070
945.262628	2557.793241
945.564367	2558.831719
945.866067	2557.195865
946.167729	2559.996226
946.469352	2559.184600
946.770937	2555.991029
947.072484	2555.963303
947.373992	2556.802655
947.675462	2554.455998
947.976893	2556.802655
948.278286	2555.111348
948.579641	2554.478683
948.880958	2552.036244
949.182236	2552.588250
949.483476	2552.966337
949.784678	2556.079249
950.085841	2548.787220
950.386967	2553.785524
950.688054	2554.440874
950.989103	2556.623694
951.290114	2557.818447
951.591087	2561.274158
951.892021	2560.182748
952.192917	2560.008828
952.493776	2559.292985
952.794596	2560.109652
953.095378	2562.569735
953.396122	2563.522513
953.696828	2560.694425
953.997496	2559.053530
954.298126	2555.938097
954.598718	2554.950031
954.899272	2555.252500
955.199788	2555.267623
955.500266	2553.326779
955.800706	2548.482230
956.101108	2542.581560
956.401472	2544.023330
956.701798	2542.868905
957.002087	2543.904863
957.302337	2546.785882
957.602550	2542.730274
957.902724	2542.521066
958.202861	2544.650953
958.502960	2544.754297
958.803022	2541.661549
959.103045	2540.544933
959.403031	2541.293545
959.702979	2539.647608
960.002889	2539.738349
960.302762	2540.328164
960.602596	2539.917310
960.902393	2540.083668
961.202153	2538.087371
961.501875	2540.096271
961.801559	2536.154088
962.101205	2538.200797
962.400814	2539.783719
962.700385	2538.268853
962.999918	2540.678524
963.299414	2540.154244
963.598873	2540.542413
963.898293	2535.009747
964.197677	2539.418236
964.497022	2537.870601
964.796331	2539.705581
965.095601	2540.824717
965.394835	2536.660724
965.694030	2539.796322
965.993189	2540.809594
966.292309	2540.310520
966.591393	2537.449665
966.890439	2538.445293
967.189447	2539.992927
967.488419	2538.742721
967.787353	2536.353214
968.086249	2538.909079
968.385108	2537.159799
968.683930	2537.653832
968.982714	2537.263142
969.281462	2535.561753
969.580172	2539.710623
969.878844	2539.866898
970.177480	2539.128369
970.476078	2537.956301
970.774639	2537.782381
971.073162	2539.214069
971.371649	2534.261135
971.670098	2535.695343
971.968510	2537.651311
972.266885	2534.969417
972.565223	2539.193904
972.863524	2538.704912
973.161788	2540.315561
973.460014	2539.022505
973.758204	2539.798843
974.056356	2538.576363
974.354471	2540.701209
974.652550	2539.057793
974.950591	2538.331867
975.248595	2538.226003
975.546563	2539.977804
975.844493	2538.205838
976.142386	2538.291538
976.440243	2536.388502
976.738062	2540.814635
977.035845	2536.824562
977.333590	2535.970086
977.631299	2538.543595
977.928971	2537.263142
978.226606	2539.592155
978.524204	2538.195756
978.821765	2539.045190
979.119290	2536.990920
979.416777	2535.004705
979.714228	2536.862371
980.011642	2537.419418
980.309020	2538.069727
980.606360	2538.397402
980.903664	2539.577032
981.200931	2538.558719
981.498162	2540.885211
981.795356	2539.808925
982.092513	2543.284801
982.389633	2545.651622
982.686717	2549.583722
982.983764	2553.677139
983.280775	2553.906512
983.577749	2552.563044
983.874686	2552.648744
984.171587	2549.364432
984.468451	2544.865202
984.765279	2542.800850
985.062070	2542.672300
985.358824	2540.275232
985.655543	2539.894625
985.952224	2538.951929
986.248869	2536.980838
986.545478	2534.384643
986.842050	2531.848943
987.138586	2534.583769
987.435086	2531.959848
987.731549	2531.097811
988.027975	2535.849099
988.324366	2535.498738
988.620719	2532.894982
988.917037	2533.696526
989.213318	2535.352545
989.509563	2536.388502
989.805772	2534.765251
990.101944	2532.736186
990.398080	2533.814993
990.694180	2533.567977
990.990244	2535.266845
991.286271	2533.721732
991.582262	2534.845909
991.878217	2534.266176
992.174136	2535.375230
992.470019	2530.563449
992.765865	2534.155271
993.061676	2532.095960
993.357450	2535.392874
993.653188	2531.206196
993.948890	2536.149047
994.244556	2535.634850
994.540186	2534.697195
994.835780	2535.927237
995.131337	2538.238606
995.426859	2536.587628
995.722345	2534.218285
996.017795	2537.182484
996.313208	2541.684234
996.608586	2540.040818
996.903928	2540.411343
997.199234	2537.195087
997.494504	2538.528472
997.789738	2535.844058
998.084936	2539.226672
998.380099	2537.890766
998.675225	2537.187525
998.970316	2534.921526
999.265371	2536.103677
999.560390	2536.978317
999.855373	2535.317257
1000.150320	2534.535878
1000.445232	2536.023018
1000.740108	2532.968079
1001.034948	2532.552184
1001.329752	2533.850281
1001.624521	2531.896834
1001.919254	2526.540608
1002.213951	2529.620753
1002.508613	2527.773170
1002.803239	2531.853984
1003.097829	2529.267872
1003.392384	2531.004550
1003.686903	2530.717204
1003.981386	2532.721063
1004.275834	2532.453882
1004.570246	2533.431865
1004.864623	2532.436238
1005.158964	2530.046731
1005.453270	2532.963038
1005.747540	2531.029756
1006.041775	2533.378933
1006.335974	2532.209386
1006.630138	2533.199972
1006.924266	2534.619057
1007.218359	2533.512524
1007.512416	2535.738193
1007.806438	2532.983203
1008.100425	2535.128214
1008.394376	2533.973789
1008.688292	2532.736186
1008.982172	2531.274252
1009.276017	2533.411701
1009.569827	2531.995137
1009.863602	2533.729293
1010.157341	2532.980682
1010.451045	2532.040507
1010.744714	2533.081505
1011.038347	2531.342307
1011.331945	2533.323481
1011.625508	2533.893131
1011.919036	2531.153264
1012.212528	2531.244005
1012.505986	2532.821886
1012.799408	2532.340456
1013.092795	2528.851977
1013.386147	2533.346166
1013.679464	2531.422966
1013.972745	2531.533871
1014.265992	2530.848274
1014.559204	2534.558563
1014.852380	2534.172915
1015.145521	2529.862728
1015.438628	2529.179652
1015.731699	2534.729963
1016.024736	2530.013963
1016.317737	2530.734848
1016.610703	2535.294572
1016.903635	2529.726617
1017.196531	2526.618746
1017.489393	2530.593696
1017.782219	2527.132944
1018.075011	2532.932791
1018.367768	2531.296937
1018.660490	2532.380785
1018.953177	2532.380785
1019.245829	2532.380785
