Dividing Wavelength (nm)	Counts (n)	Blue Motor Position (mm): 34.800000	Red Motor Position (mm): 0.000000	
326.493990	2132.385392
326.888308	2132.385392
327.282561	2132.385392
327.676750	2098.793663
328.070874	2095.826944
328.464933	2102.140989
328.858929	2105.770620
329.252859	2113.821343
329.646726	2129.048148
330.040528	2137.532410
330.434265	2158.611995
330.827938	2173.422905
331.221547	2191.782787
331.615091	2211.738194
332.008571	2229.921636
332.401986	2252.616911
332.795338	2270.533172
333.188625	2292.129475
333.581847	2306.050621
333.975006	2325.232212
334.368100	2345.454800
334.761129	2363.154291
335.154095	2377.032588
335.546996	2398.465053
335.939833	2426.163673
336.332606	2440.974583
336.725315	2452.453291
337.117960	2463.682461
337.510540	2472.741414
337.903056	2482.165851
338.295508	2487.701038
338.687896	2495.504744
339.080220	2507.772392
339.472480	2514.519977
339.864676	2516.808661
340.256807	2520.781090
340.648875	2523.286543
341.040879	2524.098169
341.432818	2528.199148
341.824694	2526.832995
342.216506	2527.289219
342.608253	2529.724097
342.999937	2530.583613
343.391557	2529.073788
343.783113	2526.689322
344.174605	2528.403314
344.566033	2525.088756
344.957397	2521.993487
345.348697	2523.790659
345.739934	2520.266892
346.131106	2520.947448
346.522215	2517.895029
346.913260	2513.950326
347.304241	2514.656088
347.695159	2511.923783
348.086012	2509.345232
348.476802	2508.316837
348.867528	2504.906496
349.258191	2505.221568
349.648789	2506.149141
350.039324	2501.080261
350.429796	2503.283245
350.820203	2500.724859
351.210548	2501.201248
351.600828	2499.025990
351.991045	2497.614467
352.381198	2496.475167
352.771288	2496.235712
353.161314	2499.482215
353.551276	2500.142606
353.941175	2496.016422
354.331010	2496.815444
354.720782	2496.815444
355.110490	2498.428614
355.500135	2497.130517
355.889717	2497.291833
356.279235	2495.298057
356.668689	2499.744355
357.058080	2496.054230
357.447408	2497.448109
357.836672	2493.248828
358.225873	2496.661689
358.615010	2495.265290
359.004084	2499.457009
359.393095	2497.039776
359.782043	2499.207472
360.170927	2500.283758
360.559748	2500.679489
360.948505	2502.138903
361.337199	2503.701661
361.725830	2501.110508
362.114398	2503.404233
362.502903	2505.622340
362.891344	2504.974552
363.279722	2502.141423
363.668037	2504.800632
364.056289	2505.592093
364.444478	2507.543020
364.832603	2507.051507
365.220665	2505.869357
365.608665	2504.931702
365.996601	2507.800119
366.384474	2508.258864
366.772284	2509.246930
367.160031	2509.108298
367.547715	2509.403206
367.935336	2509.067969
368.322893	2509.945130
368.710388	2510.403875
369.097820	2512.642147
369.485189	2510.280366
369.872495	2512.304390
370.259738	2510.870181
370.646918	2510.363545
371.034035	2512.198525
371.421090	2513.128618
371.808081	2512.690038
372.195010	2512.425377
372.581875	2512.765655
372.968678	2514.257837
373.355418	2512.664832
373.742096	2514.421674
374.128710	2514.593073
374.515262	2516.289422
374.901751	2514.749349
375.288177	2516.175996
375.674540	2515.840759
376.060841	2516.599453
376.447079	2517.015348
376.833254	2515.238341
377.219367	2510.300531
377.605417	2513.272291
377.991404	2513.980573
378.377329	2514.608197
378.763191	2512.231293
379.148991	2515.613907
379.534727	2517.819412
379.920402	2519.125071
380.306013	2516.007117
380.691563	2518.021058
381.077049	2519.498116
381.462474	2518.131963
381.847835	2519.077180
382.233134	2521.391069
382.618371	2517.524504
383.003545	2521.232273
383.388657	2519.392252
383.773706	2519.614063
384.158693	2519.916532
384.543618	2521.388549
384.928480	2521.799403
385.313280	2520.644979
385.698017	2522.096831
386.082692	2523.941893
386.467305	2522.853004
386.851856	2521.229752
387.236344	2521.229753
387.620770	2525.416431
388.005133	2525.799558
388.389435	2525.494569
388.773674	2524.947603
389.157851	2521.993487
389.541965	2525.774353
389.926018	2525.025741
390.310008	2523.367202
390.693936	2526.618746
391.077802	2525.035824
391.461606	2527.279137
391.845348	2528.771319
392.229027	2528.287368
392.612645	2527.765608
392.996200	2528.920033
393.379694	2530.697039
393.763125	2530.586134
394.146494	2531.165867
394.529801	2530.513037
394.913047	2528.506658
395.296230	2530.770136
395.679351	2532.494211
396.062410	2533.076464
396.445408	2532.184180
396.828343	2533.477236
397.211217	2528.799045
397.594028	2530.573531
397.976778	2529.885414
398.359466	2532.763913
398.742092	2530.384488
399.124656	2536.953111
399.507158	2534.646783
399.889598	2536.219623
400.271977	2535.907072
400.654294	2537.656352
401.036549	2536.716177
401.418742	2537.926054
401.800874	2540.852444
402.182944	2538.712474
402.564952	2539.660211
402.946898	2540.623071
403.328783	2541.550644
403.710606	2547.312682
404.092367	2547.622713
404.474067	2552.162272
404.855705	2553.145297
405.237282	2560.996895
405.618797	2563.651062
406.000250	2569.342525
406.381642	2578.991293
406.762972	2586.411872
407.144240	2596.947883
407.525447	2606.412650
407.906593	2614.879267
408.287677	2629.533902
408.668700	2640.568987
409.049661	2655.634476
409.430560	2671.390602
409.811399	2684.416944
410.192176	2710.764534
410.572891	2722.374312
410.953545	2750.609814
411.334138	2760.815630
411.714669	2786.482665
412.095139	2797.169911
412.475547	2835.701971
412.855894	2855.027234
413.236180	2883.872716
413.616405	2900.901734
413.996568	2937.203083
414.376670	2957.846608
414.756711	2977.655822
415.136691	3014.478930
415.516609	3058.699932
415.896466	3101.169132
416.276262	3143.618168
416.655997	3171.253773
417.035670	3255.136053
417.415283	3322.380004
417.794834	3344.578725
418.174324	3369.552601
418.553753	3378.349415
418.933121	3483.218018
419.312428	3552.443142
419.691674	3577.089343
420.070859	3668.654341
420.449983	3678.837472
420.829045	3775.073099
421.208047	3776.298099
421.586988	3861.705328
421.965867	3911.655601
422.344686	4033.981719
422.723444	4005.221937
423.102141	3949.857464
423.480777	4155.745749
423.859352	4077.461671
424.237866	4275.236219
424.616319	4317.536541
424.994712	4429.833284
425.373044	4399.288933
425.751314	4542.676992
426.129524	4459.923931
426.507673	4636.548318
426.885762	4733.892999
427.263789	4735.289398
427.641756	4686.410371
428.019662	4819.108663
428.397508	4866.303946
428.775292	4871.415676
429.153016	4987.276514
429.530679	4964.246003
429.908282	5071.340275
430.285824	4995.170961
430.663305	5260.746508
431.040726	5074.158280
431.418086	5103.714565
431.795385	5218.234457
432.172624	5262.828504
432.549802	5281.639570
432.926920	5323.201363
433.303977	5354.980797
433.680974	5411.300567
434.057910	5450.220796
434.434786	5479.285568
434.811601	5471.020596
435.188355	5711.400456
435.565050	5613.443275
435.941683	5604.260813
436.318257	5833.487120
436.694770	5827.563764
437.071222	5877.123347
437.447614	5829.126522
437.823946	5757.297641
438.200218	5913.512916
438.576429	5793.798115
438.952580	5904.375825
439.328670	5956.899607
439.704700	5873.103027
440.080670	5865.871492
440.456580	6134.847297
440.832429	6028.456265
441.208218	5885.647938
441.583947	6042.609305
441.959616	6050.052568
442.335224	5983.307691
442.710773	6116.774760
443.086261	6146.434389
443.461689	5945.836795
443.837057	6098.603921
444.212365	6251.179483
444.587612	6150.323639
444.962800	6302.352236
445.337927	6285.658455
445.712995	5900.050515
446.088002	6475.470500
446.462949	6307.433719
446.837837	6241.235807
447.212664	6411.009266
447.587431	6555.085443
447.962139	7097.165757
448.336786	8019.386880
448.711374	7764.445648
449.085901	6838.315110
449.460369	6764.043790
449.834776	6697.137597
450.209124	7088.300888
450.583412	7242.189671
450.957640	7385.295426
451.331808	7154.571897
451.705917	6702.335026
452.079965	6626.170753
452.453954	6838.632703
452.827883	6716.881276
453.201752	6809.036088
453.575562	6613.109124
453.949311	6813.961296
454.323001	6702.037598
454.696632	6778.060719
455.070202	6915.853097
455.443713	7068.499236
455.817164	7170.874988
456.190556	7251.752740
456.563888	7331.433218
456.937160	7374.681276
457.310373	7032.780140
457.683526	7054.086577
458.056619	6947.264527
458.429653	6928.632422
458.802628	6867.037084
459.175542	6975.137067
459.548398	7333.759710
459.921194	7494.131417
460.293930	7493.259297
460.666607	8018.247579
461.039224	8326.688057
461.411782	8456.492727
461.784280	8467.396743
462.156719	8362.752471
462.529099	8243.556909
462.901419	7829.073240
463.273680	7726.773105
463.645882	7738.645022
464.018024	7605.268694
464.390106	7771.455372
464.762130	8160.103128
465.134094	8621.797203
465.505999	9649.549840
465.877845	10863.220232
466.249631	11511.321053
466.621358	11128.460541
466.993026	10498.422175
467.364634	10243.942208
467.736184	9882.804029
468.107674	9554.876971
468.479105	9587.954502
468.850477	9347.070527
469.221790	9121.650292
469.593043	8795.079305
469.964238	8650.259557
470.335373	8667.850664
470.706449	8727.469870
471.077467	8709.397333
471.448425	10014.733546
471.819324	11083.899262
472.190164	11095.083062
472.560945	9861.784938
472.931667	9071.231192
473.302330	8933.509389
473.672934	8588.041637
474.043479	8941.338301
474.413965	8882.109785
474.784393	8764.280375
475.154761	8917.503726
475.525070	9007.314402
475.895321	8836.283176
476.265513	9014.392182
476.635645	9184.097585
477.005719	9182.275208
477.375734	9297.677302
477.745691	9528.534422
478.115588	9662.311521
478.485427	9904.319673
478.855207	10448.071130
479.224928	11255.051476
479.594591	11882.581869
479.964194	11689.702281
480.333739	11633.642130
480.703226	11545.926053
481.072653	11634.017696
481.442022	11879.763864
481.811333	12062.810680
482.180584	11868.713654
482.549777	11580.100035
482.918912	11402.585885
483.287988	11421.757393
483.657005	11431.872468
484.025964	11115.240115
484.394864	11253.279511
484.763706	11226.367311
485.132489	10977.321708
485.501213	10944.009763
485.869879	11018.848213
486.238487	10861.904491
486.607036	10972.459515
486.975527	10748.476008
487.343959	10948.546802
487.712333	10991.396609
488.080648	10924.815570
488.448905	10967.614966
488.817104	10901.729606
489.185244	11168.535194
489.553326	11325.120994
489.921350	11863.296935
490.289315	12924.358996
490.657222	13262.214606
491.025070	13167.408147
491.392861	13045.928942
491.760593	12662.624809
492.128267	12318.487921
492.495883	11987.836120
492.863440	11652.785912
493.230939	11316.888790
493.598380	11253.957546
493.965763	11122.932916
494.333088	11020.849551
494.700354	10942.033631
495.067563	11003.044195
495.434713	10837.255769
495.801805	10956.602566
496.168839	10884.597245
496.535815	10819.004271
496.902733	10826.336630
497.269593	10756.642678
497.636395	10859.580519
498.003139	10839.491521
498.369825	10710.001922
498.736453	10872.488393
499.103023	10796.669439
499.469535	10821.660959
499.835989	10813.118724
500.202385	10774.901737
500.568723	10631.496033
500.935003	10851.658345
501.301226	10658.599797
501.667390	10912.820144
502.033497	11008.919660
502.399546	10872.087621
502.765537	10775.373085
503.131470	10850.009888
503.497345	11029.323730
503.863163	10637.439554
504.228923	10943.190576
504.594625	11014.621205
504.960269	10757.890363
505.325856	10978.730710
505.691385	10770.969637
506.056856	10926.143914
506.422270	10952.229365
506.787625	10836.708804
507.152924	10951.067379
507.518164	10927.923441
507.883347	10851.648263
508.248472	10777.548343
508.613540	11012.211534
508.978550	10898.904039
509.343503	10871.906140
509.708398	10991.104223
510.073236	11094.044584
510.438016	11104.502458
510.802738	11052.507997
511.167403	11109.949424
511.532010	11003.087045
511.896561	11241.009342
512.261053	11307.484517
512.625488	11179.663541
512.989866	11159.256950
513.354186	11145.033335
513.718449	11050.957842
514.082655	11238.521533
514.446803	11139.604012
514.810894	11258.270253
515.174927	11120.588780
515.538904	11146.916206
515.902822	11303.912860
516.266684	11181.276710
516.630488	11128.674790
516.994235	11184.399705
517.357925	11250.345559
517.721558	11337.746564
518.085133	11350.457833
518.448651	11363.181706
518.812112	11248.389591
519.175516	11258.232444
519.538863	11381.914633
519.902152	11294.198556
520.265385	11452.647063
520.628560	11371.839887
520.991678	11347.803666
521.354739	11409.744323
521.717743	11338.694301
522.080690	11322.615541
522.443580	11461.824483
522.806413	11410.404714
523.169189	11440.455032
523.531908	11505.569096
523.894569	11320.873822
524.257174	11328.307003
524.619722	11442.176586
524.982213	11391.679348
525.344647	11436.638879
525.707025	11392.669935
526.069345	11488.136786
526.431608	11408.388253
526.793815	11509.884324
527.155964	11301.664505
527.518057	11356.963442
527.880093	11303.668364
528.242072	11370.713189
528.603995	11275.974785
528.965860	11200.049967
529.327669	11254.696075
529.689421	11195.928824
530.051117	11165.608804
530.412755	11271.863724
530.774337	11164.824905
531.135862	11148.463840
531.497331	11167.443784
531.858743	11018.379385
532.220098	11182.849550
532.581396	11054.484129
532.942638	11047.292923
533.303824	11005.935297
533.664953	11017.746721
534.026025	10929.846642
534.387040	11034.783300
534.747999	11033.318845
535.108902	11095.705644
535.469748	10855.429128
535.830537	10950.321288
536.191270	10926.731208
536.551947	10956.905035
536.912567	10956.597524
537.273131	10878.658765
537.633638	10857.538851
537.994089	10849.591472
538.354483	10795.396548
538.714821	10949.239960
539.075103	10948.549322
539.435328	10913.873746
539.795497	10738.383618
540.155609	10899.226673
540.515665	10986.622637
540.875665	10722.904756
541.235609	10796.946703
541.595496	10786.030084
541.955328	10941.267376
542.315102	10821.872688
542.674821	10779.247212
543.034483	10773.439802
543.394090	10778.803590
543.753640	10706.871366
544.113134	10929.579460
544.472571	10786.176278
544.831953	10928.344378
545.191278	10731.094110
545.550548	10761.981260
545.909761	10902.364791
546.268918	10872.354803
546.628019	10958.785385
546.987064	10821.134159
547.346053	10746.595658
547.704986	10842.377581
548.063863	10829.583133
548.422684	10818.800105
548.781449	10735.129554
549.140158	10841.812972
549.498811	10717.437624
549.857408	10578.276572
550.215949	10800.941817
550.574434	10657.979735
550.932864	10758.228121
551.291237	10815.293982
551.649555	10760.957905
552.007817	10777.508013
552.366022	10739.177600
552.724173	10732.818185
553.082267	10710.127951
553.440305	10854.005003
553.798288	10649.006481
554.156215	10799.782352
554.514086	10785.767944
554.871902	10635.314708
555.229661	10666.211939
555.587365	10648.704012
555.945014	10538.854749
556.302606	10668.634214
556.660143	10553.441328
557.017625	10713.777747
557.375050	10607.595923
557.732421	10742.464433
558.089735	10660.888481
558.446994	10648.305761
558.804197	10692.824191
559.161345	10697.580519
559.518437	10547.563343
559.875474	10632.859666
560.232455	10666.910139
560.589381	10616.881728
560.946251	10608.518454
561.303065	10717.659435
561.659825	10652.318519
562.016528	10589.087327
562.373177	10462.138470
562.729770	10581.210524
563.086307	10493.217183
563.442789	10588.615979
563.799216	10459.287698
564.155587	10511.009936
564.511904	10471.328493
564.868164	10457.006575
565.224370	10470.869748
565.580520	10398.216639
565.936615	10404.863401
566.292654	10268.122102
566.648638	10404.623946
567.004567	10362.976453
567.360441	10348.944402
567.716260	10257.835628
568.072023	10349.866933
568.427732	10299.765425
568.783385	10213.455830
569.138982	10277.642322
569.494525	10298.671495
569.850013	10168.816413
570.205445	10250.883877
570.560823	10146.045521
570.916145	10070.110621
571.271412	10142.761209
571.626625	10082.431201
571.981782	10064.545187
572.336884	10036.281958
572.691931	10036.959993
573.046923	9984.305141
573.401860	9938.609602
573.756743	9879.923009
574.111570	9921.114277
574.466342	9905.393439
574.821059	9927.075442
575.175722	9832.652110
575.530330	9835.966668
575.884882	9824.752622
576.239380	9755.073793
576.593823	9731.793745
576.948211	9747.297813
577.302544	9626.743660
577.656823	9644.387699
578.011047	9646.479778
578.365216	9619.353329
578.719330	9546.276763
579.073389	9553.878823
579.427394	9500.936625
579.781344	9480.106577
580.135239	9429.669833
580.489080	9442.378582
580.842866	9336.957973
581.196597	9343.425773
581.550273	9379.969097
581.903895	9356.719296
582.257463	9415.206763
582.610975	9299.540008
582.964434	9322.923400
583.317837	9243.857943
583.671186	9230.042661
584.024481	9226.223987
584.377721	9142.649218
584.730906	9119.898491
585.084037	9154.289243
585.437113	9083.143438
585.790135	9108.850802
586.143103	9000.017332
586.496016	8978.768868
586.848874	9030.682671
587.201679	9022.929376
587.554428	8909.856295
587.907124	8961.825550
588.259765	8930.651055
588.612352	8933.857229
588.964884	8810.227972
589.317362	8817.628386
589.669786	8820.078387
590.022155	8871.881283
590.374470	8885.419302
590.726731	8822.936721
591.078937	8675.089761
591.431090	8785.163355
591.783188	8661.513933
592.135232	8651.741657
592.487222	8649.899115
592.839157	8703.771406
593.191038	8636.222465
593.542866	8583.343281
593.894639	8480.367632
594.246358	8535.573308
594.598022	8546.222745
594.949633	8450.208929
595.301190	8431.299561
595.652692	8450.642468
596.004141	8567.461126
596.355535	8339.913524
596.706876	8321.851070
597.058162	8253.246007
597.409395	8330.713418
597.760573	8393.606853
598.111698	8305.510169
598.462768	8293.504662
598.813785	8253.583764
599.164748	8224.382881
599.515657	8212.992393
599.866511	8120.283054
600.217312	8251.068228
600.568060	8108.038091
600.918753	8212.707568
601.269392	8188.257972
601.619978	8092.024866
601.970510	8163.359713
602.320988	8151.301273
602.671412	8207.903349
603.021783	8150.242631
603.372100	8116.267775
603.722363	8120.396480
604.072572	8100.030218
604.422728	8111.972712
604.772830	8039.637195
605.122878	8044.194398
605.472872	8043.695324
605.822813	8074.680776
606.172701	8007.953543
606.522534	8086.661078
606.872314	8094.132068
607.222041	8056.212509
607.571714	8114.243751
607.921333	8069.231289
608.270899	8078.481806
608.620411	8166.376844
608.969870	8069.679951
609.319276	8065.420176
609.668627	8080.717558
610.017926	8113.989173
610.367171	8168.058069
610.716362	8141.050087
611.065500	8129.881411
611.414585	8157.441399
611.763616	8147.212897
612.112594	8125.457798
612.461518	8141.836507
612.810389	8205.662556
613.159207	8144.190726
613.507971	8089.617715
613.856682	8211.590953
614.205340	8166.155033
614.553945	8249.195440
614.902496	8145.304821
615.250994	8195.255094
615.599439	8181.830501
615.947830	8185.782766
616.296169	8164.362903
616.644454	8180.497116
616.992686	8172.572422
617.340864	8230.384374
617.688990	8139.162175
618.037063	8229.129127
618.385082	8177.744646
618.733048	8268.301413
619.080961	8202.083337
619.428821	8219.316521
619.776628	8222.099238
620.124382	8171.123090
620.472083	8157.950555
620.819731	8188.613373
621.167326	8080.321827
621.514868	8085.899864
621.862357	7975.377607
622.209793	7990.788414
622.557176	7930.647449
622.904506	7893.148826
623.251783	7830.187335
623.599007	7784.577496
623.946179	7783.844008
624.293297	7743.613079
624.640363	7662.652149
624.987376	7648.541959
625.334336	7597.303671
625.681243	7542.140845
626.028097	7531.786315
626.374899	7508.712954
626.721647	7496.099987
627.068343	7436.667304
627.414987	7407.673108
627.761577	7355.902978
628.108115	7395.962507
628.454600	7290.413349
628.801032	7340.756832
629.147412	7305.254506
629.493739	7294.473998
629.840014	7229.773309
630.186236	7287.083667
630.532405	7170.413722
630.878521	7215.489200
631.224585	7179.170207
631.570597	7101.768331
631.916556	7136.809391
632.262462	7128.660366
632.608316	7093.551250
632.954117	7069.492343
633.299866	7057.214613
633.645562	7041.284567
633.991206	6966.579708
634.336797	6913.312356
634.682336	6869.587908
635.027823	6835.653381
635.373257	6827.983265
635.718639	6757.714622
636.063968	6774.748681
636.409245	6669.917886
636.754470	6667.266239
637.099642	6625.419621
637.444762	6566.196146
637.789829	6579.172076
638.134845	6513.702611
638.479808	6501.452607
638.824719	6509.906622
639.169577	6434.160765
639.514383	6453.899403
639.859137	6387.900617
640.203839	6389.849023
640.548489	6376.144646
640.893086	6353.061203
641.237632	6325.760834
641.582125	6346.941242
641.926566	6314.924874
642.270955	6326.007850
642.615292	6327.643705
642.959576	6340.886816
643.303809	6329.264436
643.647990	6334.837431
643.992118	6335.278532
644.336195	6265.761021
644.680219	6295.680269
645.024192	6291.309588
645.368112	6387.787191
645.711981	6406.862917
646.055797	6488.776626
646.399562	6444.338855
646.743274	6567.234624
647.086935	6620.144054
647.430544	6613.923270
647.774101	6633.543441
648.117606	6643.247662
648.461059	6635.317927
648.804460	6592.246308
649.147810	6503.280025
649.491108	6474.742053
649.834354	6453.004598
650.177548	6362.309199
650.520690	6284.932529
650.863781	6259.636019
651.206820	6281.045799
651.549807	6201.014961
651.892742	6137.912318
652.235626	6146.625952
652.578458	6135.830322
652.921238	6043.793976
653.263967	6079.550880
653.606644	6016.884297
653.949269	6025.348394
654.291843	5962.880936
654.634365	6013.158884
654.976836	5969.749508
655.319255	5966.021575
655.661622	5944.871414
656.003938	5939.457215
656.346203	5902.671915
656.688416	5934.683242
657.030577	5883.807917
657.372687	5857.125090
657.714746	5840.217060
658.056753	5890.542899
658.398708	5828.592159
658.740612	5821.111087
659.082465	5866.277305
659.424266	5859.847313
659.766016	5856.578125
660.107715	5831.110216
660.449362	5843.135888
660.790958	5842.548594
661.132503	5829.060987
661.473996	5866.385690
661.815438	5850.856415
662.156829	5847.360375
662.498168	5844.204613
662.839456	5818.872815
663.180693	5850.032187
663.521879	5853.520665
663.863013	5846.011866
664.204097	5860.563157
664.545129	5904.587553
664.886110	5899.178395
665.227040	5931.774496
665.567918	5896.073045
665.908746	5921.868629
666.249522	5929.495895
666.590248	5914.742958
666.930922	5943.873265
667.271545	5956.771058
667.612118	5962.081913
667.952639	5926.057828
668.293109	5953.809380
668.633528	5914.163225
668.973896	5912.991157
669.314213	5904.748870
669.654480	5888.344956
669.994695	5883.570983
670.334859	5870.108582
670.674973	5865.387541
671.015035	5870.413572
671.355047	5863.993662
671.695008	5849.548236
672.034918	5827.165513
672.374777	5833.025854
672.714585	5823.077137
673.054342	5824.317261
673.394049	5817.037835
673.733705	5851.579821
674.073310	5835.954764
674.412864	5797.987314
674.752368	5788.996416
675.091820	5789.112363
675.431223	5729.785544
675.770574	5737.521194
676.109875	5683.147309
676.449125	5683.074212
676.788324	5654.949615
677.127473	5594.967446
677.466571	5590.337146
677.805619	5576.567234
678.144616	5568.433333
678.483562	5540.177665
678.822458	5509.048540
679.161303	5505.101317
679.500098	5495.790306
679.838842	5482.834540
680.177535	5485.279500
680.516179	5499.268702
680.854771	5511.364951
681.193314	5587.035190
681.531805	5696.859247
681.870247	5849.366754
682.208638	5952.218896
682.546978	5965.272963
682.885268	5944.941990
683.223508	5851.741138
683.561697	5799.746677
683.899836	5769.736688
684.237925	5731.794444
684.575963	5689.194173
684.913951	5649.500128
685.251889	5712.144026
685.589776	5681.645045
685.927614	5655.025232
686.265401	5726.329833
686.603137	5702.795206
686.940824	5786.196055
687.278460	5808.331762
687.616046	5815.399460
687.953582	5888.012240
688.291068	5867.275453
688.628504	5930.176450
688.965889	5891.921654
689.303224	5834.321431
689.640510	5791.048166
689.977745	5713.424479
690.314930	5615.492504
690.652065	5560.611982
690.989150	5469.203260
691.326185	5388.847268
691.663170	5341.936811
692.000105	5262.420171
692.336990	5182.699364
692.673825	5156.359335
693.010610	5089.778296
693.347345	5021.584087
693.684030	5007.257128
694.020665	4964.944203
694.357251	4873.777456
694.693786	4887.819590
695.030272	4851.208210
695.366707	4814.901820
695.703093	4782.600627
696.039429	4804.834636
696.375716	4787.782933
696.711952	4764.112195
697.048139	4752.227675
697.384276	4728.753542
697.720363	4741.212754
698.056400	4750.067541
698.392388	4702.138771
698.728326	4682.052293
699.064214	4658.651257
699.400053	4654.124301
699.735842	4620.666163
700.071581	4594.086679
700.407270	4565.659613
700.742910	4550.841141
701.078501	4497.334334
701.414042	4493.503057
701.749533	4467.546156
702.084974	4394.562851
702.420366	4455.943940
702.755709	4400.912184
703.091002	4344.380685
703.426246	4393.174013
703.761440	4348.446376
704.096584	4310.557063
704.431679	4333.191844
704.766725	4319.071572
705.101721	4307.799552
705.436668	4335.208306
705.771565	4280.869708
706.106413	4310.632681
706.441212	4338.810210
706.775961	4352.368393
707.110661	4330.951051
707.445311	4359.229404
707.779913	4381.551633
708.114465	4394.681318
708.448967	4416.960697
708.783421	4479.178618
709.117825	4523.523128
709.452180	4522.900546
709.786485	4571.542639
710.120742	4654.547758
710.454949	4635.212412
710.789107	4705.254204
711.123216	4776.682312
711.457275	4769.140746
711.791286	4845.554556
712.125247	4861.724057
712.459159	4763.124129
712.793023	4838.070963
713.126837	4800.610149
713.460602	4792.408192
713.794318	4710.335687
714.127985	4718.666193
714.461602	4636.538236
714.795171	4604.174028
715.128691	4539.871590
715.462162	4481.817662
715.795584	4433.215898
716.128957	4419.418260
716.462281	4363.471535
716.795556	4338.790045
717.128782	4302.755878
717.461960	4230.990012
717.795088	4242.191455
718.128167	4202.497410
718.461198	4141.068430
718.794180	4137.350579
719.127113	4115.552630
719.459997	4096.570165
719.792833	4053.579205
720.125619	4043.602761
720.458357	4010.736959
720.791046	4013.096219
721.123686	3987.403978
721.456278	3946.588276
721.788821	3962.520843
722.121315	3938.421607
722.453761	3909.142585
722.786158	3921.783279
723.118506	3945.990899
723.450805	3896.176738
723.783056	3919.940737
724.115259	3935.270886
724.447412	3938.104014
724.779518	3932.488169
725.111574	3935.860701
725.443582	3967.009990
725.775542	3949.786888
726.107453	4004.405270
726.439315	4002.731607
726.771129	4016.599821
727.102895	4051.542579
727.434612	4104.096608
727.766281	4112.303606
728.097901	4115.454327
728.429473	4116.066827
728.760996	4126.285246
729.092471	4123.273157
729.423897	4107.927884
729.755276	4112.840489
730.086606	4109.054582
730.417887	4147.813494
730.749120	4212.504100
731.080305	4278.268473
731.411442	4305.490704
731.742530	4271.016773
732.073570	4275.352165
732.404562	4332.135722
732.735506	4319.472344
733.066401	4287.337509
733.397249	4222.828383
733.728048	4142.784943
734.058798	4061.695462
734.389501	3991.174761
734.720156	3929.113116
735.050762	3886.192732
735.381320	3876.541443
735.711831	3828.037982
736.042293	3797.740647
736.372707	3820.972805
736.703073	3789.432826
737.033391	3783.038122
737.363661	3797.453301
737.693883	3827.425482
738.024056	3836.464270
738.354182	3831.854135
738.684260	3892.773959
739.014290	3911.900097
739.344272	3906.488418
739.674207	3948.284624
740.004093	3957.406592
740.333931	3955.246458
740.663722	3952.118422
740.993464	3947.203297
741.323159	3927.421809
741.652806	3900.161770
741.982405	3867.036348
742.311956	3837.270855
742.641460	3828.900019
742.970915	3804.589055
743.300323	3761.633383
743.629683	3729.385122
743.958996	3718.425653
744.288260	3692.551931
744.617477	3658.650171
744.946647	3648.880415
745.275768	3622.749594
745.604842	3619.079634
745.933869	3568.673137
746.262847	3562.049061
746.591778	3601.854012
746.920662	3575.889549
747.249498	3541.077861
747.578286	3586.695262
747.907027	3605.224023
748.235720	3599.943414
748.564365	3625.726396
748.892963	3628.236890
749.221514	3612.130404
749.550017	3587.562340
749.878473	3584.356167
750.206881	3553.950447
750.535242	3555.142680
750.863555	3553.718554
751.191821	3547.888460
751.520039	3528.356509
751.848210	3504.789115
752.176334	3539.033673
752.504411	3545.193963
752.832440	3508.010412
753.160421	3489.222032
753.488356	3494.099348
753.816243	3509.832789
754.144082	3465.800831
754.471875	3453.946558
754.799620	3472.130000
755.127318	3466.504072
755.454969	3465.687405
755.782572	3470.226964
756.110129	3443.728139
756.437638	3435.841254
756.765100	3449.522945
757.092515	3459.816981
757.419882	3465.747899
757.747203	3435.889145
758.074477	3442.404836
758.401703	3461.450315
758.728882	3479.709374
759.056014	3485.226917
759.383099	3487.301352
759.710138	3487.581136
760.037129	3503.758199
760.364073	3531.222405
760.690970	3517.936444
761.017820	3496.778721
761.344623	3513.840507
761.671379	3562.689287
761.998088	3614.734160
762.324751	3735.169846
762.651366	3984.109584
762.977935	4458.716575
763.304456	4901.534049
763.630931	4995.231455
763.957359	4634.247031
764.283740	4290.503353
764.610074	4100.517388
764.936362	3908.368768
765.262602	3746.676279
765.588796	3635.854074
765.914943	3546.081206
766.241044	3458.022331
766.567097	3425.751384
766.893104	3380.040722
767.219064	3347.124508
767.544978	3324.446877
767.870845	3266.352620
768.196665	3245.769589
768.522438	3254.755446
768.848165	3251.007348
769.173846	3215.164744
769.499479	3202.178732
769.825066	3182.092254
770.150607	3163.855880
770.476101	3181.202491
770.801548	3175.808456
771.126949	3134.309678
771.452303	3113.464506
771.777611	3120.040692
772.102872	3125.291053
772.428087	3101.295161
772.753256	3088.946855
773.078378	3083.578026
773.403453	3048.206770
773.728482	3036.844009
774.053465	3061.785118
774.378401	3049.260371
774.703291	3013.891636
775.028135	3017.675022
775.352932	3010.826614
775.677683	3000.804800
776.002388	2995.932525
776.327046	2998.296826
776.651658	2988.232163
776.976224	2973.940491
777.300743	2976.942498
777.625216	2968.765747
777.949643	2960.102524
778.274024	2963.754840
778.598359	2952.558437
778.922647	2956.568675
779.246889	2955.966257
779.571086	2941.059565
779.895236	2932.328287
780.219339	2947.817232
780.543397	2959.142184
780.867409	2960.783080
781.191374	2955.815023
781.515294	2950.743622
781.839167	2953.228911
782.162995	2941.926644
782.486776	2951.343519
782.810511	2950.678087
783.134201	2935.655448
783.457844	2940.557971
783.781441	2932.323246
784.104993	2914.429670
784.428498	2917.598035
784.751958	2928.282761
785.075372	2921.086514
785.398739	2906.109246
785.722061	2923.677667
786.045337	2935.685695
786.368568	2917.577871
786.691752	2911.538568
787.014891	2957.667647
787.337983	2987.990187
787.661030	3015.708972
787.984031	3083.772110
788.306987	3128.401445
788.629897	3125.540590
788.952760	3108.080554
789.275579	3089.355188
789.598351	3035.445089
789.921078	2987.629745
790.243759	2982.185298
790.566395	2960.732668
790.888984	2936.547733
791.211529	2922.157759
791.534027	2913.224834
791.856480	2902.325860
792.178888	2884.248282
792.501249	2878.816439
792.823566	2874.216386
793.145836	2872.262939
793.468062	2868.799666
793.790241	2866.173225
794.112375	2874.125645
794.434464	2884.686863
794.756507	2888.692059
795.078505	2895.285888
795.400457	2908.821387
795.722364	2945.324382
796.044226	2968.392702
796.366042	2975.301603
796.687812	2962.933132
797.009538	2981.537510
797.331218	2968.443113
797.652852	2952.944086
797.974442	2934.133020
798.295986	2932.653441
798.617484	2926.490631
798.938938	2914.233065
799.260346	2895.704304
799.581709	2889.743140
799.903026	2886.010165
800.224299	2880.230483
800.545526	2870.876622
800.866708	2852.705782
801.187845	2841.973166
801.508936	2847.997345
801.829983	2852.506657
802.150984	2840.405367
802.471940	2827.192503
802.792851	2827.623522
803.113717	2829.821465
803.434538	2829.929849
803.755314	2822.955413
804.076045	2818.521718
804.396731	2820.003817
804.717372	2817.447952
805.037967	2813.586429
805.358518	2818.239414
805.679024	2830.625529
805.999485	2825.609581
806.319901	2831.376661
806.640272	2822.247131
806.960598	2831.069150
807.280879	2837.531909
807.601115	2845.738908
807.921306	2830.161742
808.241453	2827.038748
808.561554	2835.061744
808.881611	2837.466374
809.201623	2829.186279
809.521590	2829.271979
809.841513	2824.326607
810.161390	2829.829026
810.481223	2824.689570
810.801011	2814.370328
811.120755	2809.452682
811.440453	2814.698003
811.760107	2811.640543
812.079716	2812.358908
812.399281	2801.268369
812.718801	2794.664458
813.038276	2789.749333
813.357707	2798.848615
813.677093	2802.604275
813.996434	2798.440282
814.315731	2793.752009
814.634983	2789.068777
814.954191	2792.491720
815.273354	2803.272228
815.592473	2814.466110
815.911547	2813.916624
816.230577	2822.869713
816.549562	2831.477484
816.868502	2831.033862
817.187399	2839.150120
817.506250	2858.203161
817.825058	2851.493385
818.143821	2863.582072
818.462539	2878.211500
818.781213	2905.557239
819.099843	2940.361366
819.418429	2996.764315
819.736970	3062.745458
820.055466	3135.330511
820.373919	3239.697519
820.692327	3379.125752
821.010691	3548.372410
821.329011	3991.888085
821.647286	4896.281167
821.965517	6285.260204
822.283704	7029.896600
822.601847	7008.348188
822.919945	6376.973916
823.237999	5866.917531
823.556010	5279.819713
823.873976	4722.242892
824.191897	4313.581756
824.509775	4016.657794
824.827609	3746.396495
825.145398	3620.418061
825.463144	3610.670990
825.780845	3702.044424
826.098502	3806.996206
826.416116	4090.966922
826.733685	4410.303854
827.051210	4473.880366
827.368692	4359.972974
827.686129	4088.983228
828.003522	3759.561468
828.320872	3504.947911
828.638177	3304.849392
828.955439	3171.808300
829.272656	3086.771597
829.589830	3019.968747
829.906960	2968.301961
830.224046	2925.512647
830.541088	2890.801782
830.858086	2875.632950
831.175041	2857.542770
831.491952	2859.665095
831.808819	2871.108515
832.125642	2893.758419
832.442421	2941.132662
832.759157	3023.905888
833.075849	3205.846171
833.392497	3487.813029
833.709101	3686.275694
834.025662	3636.209475
834.342179	3477.639981
834.658653	3301.600368
834.975083	3154.005466
835.291469	3052.131308
835.607811	2970.250367
835.924110	2909.537230
836.240366	2857.484796
836.556578	2814.254382
836.872746	2795.047585
837.188871	2769.264604
837.504952	2754.867069
837.820990	2746.791140
838.136984	2732.446537
838.452935	2725.416648
838.768842	2720.320041
839.084706	2738.677403
839.400526	2819.943324
839.716303	2953.894343
840.032037	3030.913092
840.347727	3018.499250
840.663373	2957.657564
840.978977	2882.733415
841.294537	2809.787919
841.610054	2759.250352
841.925527	2739.985582
842.240957	2716.849207
842.556344	2695.106710
842.871687	2677.026612
843.186987	2669.595951
843.502244	2663.647390
843.817458	2660.625218
844.132629	2649.075935
844.447756	2639.414563
844.762840	2633.571866
845.077881	2637.362814
845.392879	2636.664614
845.707833	2629.601957
846.022745	2625.024590
846.337613	2628.886113
846.652438	2625.309415
846.967221	2625.211112
847.281960	2621.626852
847.596656	2620.646348
847.911309	2620.386728
848.225919	2619.723816
848.540485	2615.963116
848.855009	2613.765172
849.169490	2611.847013
849.483928	2613.495471
849.798323	2612.976232
850.112675	2611.547065
850.426984	2614.042436
850.741251	2613.044287
851.055474	2614.107971
851.369654	2613.873557
851.683792	2616.411778
851.997887	2615.590070
852.311938	2613.624020
852.625947	2614.390276
852.939914	2615.816922
853.253837	2615.053187
853.567718	2610.322064
853.881555	2611.126128
854.195350	2616.474793
854.509103	2614.362549
854.822812	2613.046808
855.136479	2611.869699
855.450103	2613.122425
855.763685	2614.748197
856.077224	2610.291817
856.390720	2610.145624
856.704173	2612.101592
857.017584	2617.082252
857.330953	2617.626696
857.644278	2621.301697
857.957561	2619.650720
858.270802	2616.779782
858.584000	2615.219545
858.897155	2618.234155
859.210268	2618.866820
859.523339	2614.730553
859.836367	2609.931375
860.149352	2611.723505
860.462295	2612.739298
860.775195	2609.611262
861.088054	2607.829214
861.400869	2606.763010
861.713642	2604.305447
862.026373	2606.369800
862.339062	2610.349791
862.651708	2616.104268
862.964312	2617.533435
863.276873	2613.981942
863.589392	2618.587036
863.901869	2621.778087
864.214303	2627.318315
864.526696	2627.247738
864.839045	2630.279992
865.151353	2631.809983
865.463619	2634.363327
865.775842	2629.254118
866.088023	2631.346197
866.400162	2630.564818
866.712258	2632.011629
867.024313	2632.152781
867.336325	2627.020887
867.648296	2628.036679
867.960224	2635.850467
868.272110	2634.680920
868.583954	2626.806637
868.895755	2629.927112
869.207515	2633.148409
869.519233	2638.557567
869.830909	2636.188225
870.142542	2631.363841
870.454134	2633.849129
870.765684	2637.657721
871.077191	2638.668472
871.388657	2645.320275
871.700081	2642.812301
872.011463	2641.846920
872.322803	2644.884215
872.634101	2647.893784
872.945357	2658.538180
873.256571	2660.441216
873.567744	2656.859476
873.878874	2656.315032
874.189963	2658.865855
874.501010	2659.236380
874.812015	2666.243584
875.122979	2665.900786
875.433900	2661.310815
875.744780	2654.520381
876.055618	2662.455157
876.366415	2670.420180
876.677169	2667.829027
876.987882	2663.105466
877.298554	2661.426762
877.609183	2672.726508
877.919771	2679.625327
878.230317	2687.270237
878.540822	2696.908923
878.851285	2709.471478
879.161707	2732.691033
879.472087	2773.305089
879.782425	2820.202943
880.092722	2935.983123
880.402977	3124.912967
880.713191	3388.729150
881.023363	3684.602031
881.333494	3876.816186
881.643583	4052.051735
881.953631	4048.291034
882.263637	3867.732027
882.573602	3649.354284
882.883526	3515.909900
883.193408	3403.887900
883.503248	3297.146508
883.813048	3182.016637
884.122806	3065.132444
884.432522	2980.186481
884.742197	2915.400092
885.051831	2878.909700
885.361424	2839.903772
885.670975	2806.795994
885.980485	2771.646549
886.289954	2756.586102
886.599382	2743.781571
886.908768	2731.708008
887.218113	2712.833928
887.527417	2697.486135
887.836680	2690.894826
888.145901	2684.479958
888.455082	2675.983093
888.764221	2665.883142
889.073319	2657.887872
889.382376	2658.200423
889.691392	2657.887872
890.000366	2661.499858
890.309300	2655.818478
890.618193	2657.930721
890.927044	2662.278717
891.235855	2661.837616
891.544625	2661.567914
891.853353	2662.109838
892.162041	2668.441527
892.470687	2690.899867
892.779293	2701.471167
893.087858	2709.562219
893.396381	2732.164232
893.704864	2773.156375
894.013306	2846.613548
894.321707	2938.516303
894.630068	2990.483038
894.938387	3010.372910
895.246665	3005.931654
895.554903	2959.457256
895.863100	2916.897315
896.171256	2856.859693
896.479371	2795.420631
896.787446	2759.615836
897.095480	2734.379819
897.403473	2727.367574
897.711425	2714.179916
898.019336	2697.249201
898.327207	2681.750173
898.635038	2682.309741
898.942827	2680.144566
899.250576	2670.210972
899.558284	2659.470794
899.865952	2651.974598
900.173579	2651.180616
900.481165	2647.427477
900.788711	2641.410860
901.096216	2633.970117
901.403681	2632.089767
901.711105	2633.435755
902.018489	2631.406690
902.325832	2635.336270
902.633135	2635.028759
902.940397	2651.505771
903.247619	2687.270237
903.554800	2758.854621
903.861941	2889.145763
904.169041	3014.506656
904.476101	3079.121646
904.783121	3070.660069
905.090100	3012.946419
905.397039	2937.586210
905.703938	2864.519727
906.010796	2798.319294
906.317614	2743.474061
906.624391	2709.267312
906.931129	2682.216480
907.237826	2658.921308
907.544483	2642.444297
907.851099	2630.242184
908.157675	2617.868672
908.464211	2613.414812
908.770707	2601.530292
909.077163	2595.054930
909.383578	2594.334045
909.689954	2592.443612
909.996289	2588.128385
910.302584	2588.521595
910.608839	2585.859865
910.915054	2585.350709
911.221229	2589.003025
911.527363	2588.110741
911.833458	2590.091914
912.139513	2588.854311
912.445527	2593.933273
912.751502	2597.973758
913.057436	2602.462906
913.363331	2609.124790
913.669186	2621.284053
913.975000	2633.612195
914.280775	2653.933086
914.586510	2668.494459
914.892205	2705.463761
915.197859	2774.890532
915.503475	2860.101155
915.809050	2926.084818
916.114585	2943.554937
916.420081	2953.780917
916.725536	2966.593010
917.030952	2939.769030
917.336328	2889.735578
917.641665	2844.581963
917.946961	2792.927780
918.252218	2758.345465
918.557435	2731.198851
918.862612	2706.164481
919.167750	2688.245700
919.472848	2674.611899
919.777906	2655.843684
920.082925	2644.647281
920.387904	2633.665127
920.692843	2629.354941
920.997743	2625.773201
921.302603	2618.662653
921.607423	2611.282404
921.912204	2606.589090
922.216946	2602.926692
922.521647	2600.600199
922.826310	2595.501072
923.130932	2590.406986
923.435516	2587.495720
923.740059	2583.344330
924.044564	2583.674525
924.349028	2581.368197
924.653454	2575.281004
924.957840	2570.043245
925.262186	2568.561146
925.566493	2568.775395
925.870761	2568.046948
926.174989	2564.157698
926.479178	2564.233315
926.783328	2562.315156
927.087438	2562.975547
927.391509	2559.648386
927.695541	2559.393808
927.999533	2560.795248
928.303486	2556.374157
928.607400	2558.917419
928.911275	2557.732748
929.215110	2556.646379
929.518906	2554.249310
929.822663	2555.635628
930.126381	2552.247972
930.430060	2557.032027
930.733699	2555.635628
931.037299	2555.817109
931.340861	2554.899619
931.644383	2556.348951
931.947866	2556.517829
932.251309	2555.801986
932.554714	2554.181255
932.858080	2556.427089
933.161407	2555.224773
933.464694	2556.525391
933.767943	2553.493137
934.071153	2554.924825
934.374323	2551.597663
934.677455	2554.556821
934.980548	2552.802499
935.283602	2554.259393
935.586617	2555.025648
935.889593	2552.144628
936.192530	2551.816953
936.495428	2552.986501
936.798287	2554.435833
937.101108	2556.515309
937.403890	2557.952038
937.706632	2558.531770
938.009336	2565.554098
938.312002	2568.636763
938.614628	2570.151630
938.917216	2577.733525
939.219765	2575.782599
939.522275	2575.797722
939.824747	2577.025243
940.127179	2568.472926
940.429573	2568.362020
940.731929	2565.511248
941.034246	2565.269272
941.336524	2566.572411
941.638763	2566.325394
941.940964	2567.283213
942.243126	2562.146278
942.545250	2561.730382
942.847335	2561.599312
943.149381	2559.608057
943.451389	2559.850032
943.753359	2560.069322
944.055290	2557.115206
944.357182	2559.038406
944.659036	2556.227963
944.960851	2558.645196
945.262628	2557.689898
945.564367	2558.264589
945.866067	2555.721327
946.167729	2556.268292
946.469352	2555.045812
946.770937	2556.837943
947.072484	2554.433312
947.373992	2555.628066
947.675462	2556.079249
947.976893	2555.824671
948.278286	2555.055895
948.579641	2555.101265
948.880958	2553.662016
949.182236	2552.822664
949.483476	2551.476676
949.784678	2554.118240
950.085841	2552.532797
950.386967	2554.385421
950.688054	2549.944165
950.989103	2552.941131
951.290114	2556.323745
951.591087	2556.729558
951.892021	2557.909188
952.192917	2559.897923
952.493776	2559.908005
952.794596	2559.509754
953.095378	2562.022769
953.396122	2561.558983
953.696828	2560.084446
953.997496	2557.309291
954.298126	2557.163097
954.598718	2556.278375
954.899272	2556.790052
955.199788	2550.526418
955.500266	2550.017262
955.800706	2551.166645
956.101108	2544.885367
956.401472	2543.002496
956.701798	2545.336550
957.002087	2540.635674
957.302337	2545.409647
957.602550	2543.660367
957.902724	2543.471323
958.202861	2542.924358
958.502960	2541.515356
958.803022	2544.305634
959.103045	2542.150541
959.403031	2543.239430
959.702979	2540.633154
960.002889	2539.967721
960.302762	2541.613658
960.602596	2538.780530
960.902393	2538.911600
961.202153	2537.928575
961.501875	2538.215920
961.801559	2539.922351
962.101205	2536.743903
962.400814	2537.759696
962.700385	2540.091230
962.999918	2540.310520
963.299414	2540.234903
963.598873	2537.863040
963.898293	2537.094264
964.197677	2538.218441
964.497022	2538.117618
964.796331	2538.820859
965.095601	2536.217103
965.394835	2537.492515
965.694030	2538.132741
965.993189	2540.681045
966.292309	2534.462781
966.591393	2536.703574
966.890439	2534.477905
967.189447	2535.934798
967.488419	2538.818338
967.787353	2535.715508
968.086249	2538.079809
968.385108	2540.920499
968.683930	2537.157278
968.982714	2538.420087
969.281462	2538.067206
969.580172	2538.833462
969.878844	2537.605941
970.177480	2536.532175
970.476078	2538.457896
970.774639	2537.878163
971.073162	2536.262473
971.371649	2539.498894
971.670098	2533.567977
971.968510	2536.512010
972.266885	2535.123172
972.565223	2539.367824
972.863524	2538.599048
973.161788	2540.199614
973.460014	2536.267514
973.758204	2540.060983
974.056356	2539.503935
974.354471	2540.144162
974.652550	2540.799512
974.950591	2536.391023
975.248595	2540.146682
975.546563	2539.146013
975.844493	2537.787422
976.142386	2540.648277
976.440243	2537.144675
976.738062	2541.182639
977.035845	2538.853626
977.333590	2540.827238
977.631299	2535.965045
977.928971	2537.300951
978.226606	2539.955118
978.524204	2537.800025
978.821765	2535.276928
979.119290	2533.903213
979.416777	2534.929088
979.714228	2537.520241
980.011642	2536.895138
980.309020	2540.237423
980.606360	2538.069727
980.903664	2539.234233
981.200931	2539.362783
981.498162	2539.297248
981.795356	2541.671631
982.092513	2542.969728
982.389633	2543.625078
982.686717	2549.485420
982.983764	2552.789896
983.280775	2553.518343
983.577749	2551.993394
983.874686	2553.175544
984.171587	2546.982487
984.468451	2546.685059
984.765279	2546.236396
985.062070	2544.114070
985.358824	2541.797660
985.655543	2541.248174
985.952224	2541.263298
986.248869	2534.379602
986.545478	2534.412370
986.842050	2535.977648
987.138586	2533.053779
987.435086	2534.601413
987.731549	2529.028417
988.027975	2535.602082
988.324366	2531.402801
988.620719	2535.728111
988.917037	2534.684592
989.213318	2536.829603
989.509563	2532.272400
989.805772	2531.155784
990.101944	2532.537061
990.398080	2534.871115
990.694180	2531.750641
990.990244	2534.535878
991.286271	2535.566794
991.582262	2532.635363
991.878217	2533.217616
992.174136	2532.910106
992.470019	2534.815662
992.765865	2538.420087
993.061676	2530.729807
993.357450	2532.854653
993.653188	2531.995137
993.948890	2535.904551
994.244556	2531.422966
994.540186	2533.187369
994.835780	2535.072761
995.131337	2536.154088
995.426859	2534.339273
995.722345	2534.634181
996.017795	2534.709798
996.313208	2537.031249
996.608586	2537.507638
996.903928	2536.943029
997.199234	2539.939995
997.494504	2537.134593
997.789738	2535.967566
998.084936	2538.657021
998.380099	2534.493028
998.675225	2535.776002
998.970316	2534.281300
999.265371	2531.662420
999.560390	2534.936650
999.855373	2533.280631
1000.150320	2531.669982
1000.445232	2534.397246
1000.740108	2530.931453
1001.034948	2533.787267
1001.329752	2532.479087
1001.624521	2534.397246
1001.919254	2529.719056
1002.213951	2529.192255
1002.508613	2528.388191
1002.803239	2532.000178
1003.097829	2530.593696
1003.392384	2531.657379
1003.686903	2534.505631
1003.981386	2534.021680
1004.275834	2532.103521
1004.570246	2532.809283
1004.864623	2533.441948
1005.158964	2533.734335
1005.453270	2527.740403
1005.747540	2531.428007
1006.041775	2531.569159
1006.335974	2533.212575
1006.630138	2534.039324
1006.924266	2530.755013
1007.218359	2532.710980
1007.512416	2532.186700
1007.806438	2532.894982
1008.100425	2532.325332
1008.394376	2528.748633
1008.688292	2530.881042
1008.982172	2530.649148
1009.276017	2532.295085
1009.569827	2532.151412
1009.863602	2531.755682
1010.157341	2530.240815
1010.451045	2531.556556
1010.744714	2532.209386
1011.038347	2529.240146
1011.331945	2531.173428
1011.625508	2531.599406
1011.919036	2533.464633
1012.212528	2530.384488
1012.505986	2531.796011
1012.799408	2531.695188
1013.092795	2531.506145
1013.386147	2530.248377
1013.679464	2531.196114
1013.972745	2530.676875
1014.265992	2530.964221
1014.559204	2532.718542
1014.852380	2530.578572
1015.145521	2529.572862
1015.438628	2530.550846
1015.731699	2531.518748
1016.024736	2528.909950
1016.317737	2527.571524
1016.610703	2531.065044
1016.903635	2529.782070
1017.196531	2528.768798
1017.489393	2529.678726
1017.782219	2527.715197
1018.075011	2529.933305
1018.367768	2530.986906
1018.660490	2533.056299
1018.953177	2533.056299
1019.245829	2533.056299
