Dividing Wavelength (nm)	Counts (n)	Blue Motor Position (mm): 37.200000	Red Motor Position (mm): 0.000000	
326.493990	2126.343569
326.888308	2126.343569
327.282561	2126.343569
327.676750	2094.317118
328.070874	2095.476584
328.464933	2100.852974
328.858929	2104.694334
329.252859	2115.610952
329.646726	2127.422376
330.040528	2138.180198
330.434265	2154.896664
330.827938	2171.845023
331.221547	2192.493590
331.615091	2208.365663
332.008571	2230.609754
332.401986	2249.854359
332.795338	2268.816659
333.188625	2287.131171
333.581847	2307.477268
333.975006	2324.985195
334.368100	2343.881960
334.761129	2361.581451
335.154095	2377.821528
335.546996	2397.620660
335.939833	2423.517067
336.332606	2436.757658
336.725315	2451.366922
337.117960	2460.617439
337.510540	2469.694037
337.903056	2480.020840
338.295508	2485.427478
338.687896	2495.797131
339.080220	2503.588235
339.472480	2510.061076
339.864676	2515.676922
340.256807	2519.097344
340.648875	2523.349558
341.040879	2524.985412
341.432818	2528.206709
341.824694	2528.879703
342.216506	2527.274096
342.608253	2527.448016
342.999937	2530.389529
343.391557	2529.431710
343.783113	2525.618077
344.174605	2526.817872
344.566033	2524.166225
344.957397	2524.806451
345.348697	2520.574403
345.739934	2520.145904
346.131106	2519.908970
346.522215	2516.826305
346.913260	2513.552075
347.304241	2514.875378
347.695159	2511.684328
348.086012	2509.897239
348.476802	2507.109481
348.867528	2506.842299
349.258191	2505.125787
349.648789	2507.094357
350.039324	2501.667555
350.429796	2503.552947
350.820203	2499.852740
351.210548	2502.461537
351.600828	2496.734786
351.991045	2496.525578
352.381198	2495.497183
352.771288	2495.141781
353.161314	2497.793428
353.551276	2496.283603
353.941175	2493.609271
354.331010	2495.908037
354.720782	2495.847543
355.110490	2494.693119
355.500135	2495.638335
355.889717	2496.981803
356.279235	2496.828047
356.668689	2498.365599
357.058080	2495.817296
357.447408	2493.321925
357.836672	2494.975423
358.225873	2492.911071
358.615010	2490.352685
359.004084	2497.972389
359.393095	2497.606906
359.782043	2501.685199
360.170927	2499.209993
360.559748	2500.039262
360.948505	2499.678820
361.337199	2503.189983
361.725830	2501.629746
362.114398	2502.549757
362.502903	2502.443893
362.891344	2504.208297
363.279722	2502.985817
363.668037	2502.736280
364.056289	2505.793739
364.444478	2508.997393
364.832603	2506.171826
365.220665	2507.570746
365.608665	2505.352638
365.996601	2506.222238
366.384474	2507.321209
366.772284	2507.790036
367.160031	2508.785664
367.547715	2507.149810
367.935336	2510.159379
368.322893	2510.625685
368.710388	2510.522342
369.097820	2511.001251
369.485189	2509.415808
369.872495	2509.408247
370.259738	2510.804646
370.646918	2511.510408
371.034035	2507.434635
371.421090	2513.037877
371.808081	2513.108454
372.195010	2513.569719
372.581875	2513.173989
372.968678	2514.227590
373.355418	2511.409585
373.742096	2513.244565
374.128710	2513.892353
374.515262	2515.379493
374.901751	2512.780779
375.288177	2513.123577
375.674540	2516.944772
376.060841	2512.637106
376.447079	2513.171468
376.833254	2513.902435
377.219367	2511.281035
377.605417	2513.176509
377.991404	2509.214162
378.377329	2514.063752
378.763191	2512.954698
379.148991	2516.410409
379.534727	2517.489216
379.920402	2518.298322
380.306013	2516.417971
380.691563	2521.398631
381.077049	2519.603980
381.462474	2520.818898
381.847835	2520.826460
382.233134	2518.978877
382.618371	2520.811337
383.003545	2523.064732
383.388657	2519.503157
383.773706	2521.839732
384.158693	2522.621111
384.543618	2520.700431
384.928480	2520.806296
385.313280	2523.931811
385.698017	2521.801923
386.082692	2525.461801
386.467305	2527.710156
386.851856	2525.834847
387.236344	2521.564989
387.620770	2525.292923
388.005133	2527.672347
388.389435	2525.033303
388.773674	2528.337779
389.157851	2526.230577
389.541965	2530.996988
389.926018	2527.115300
390.310008	2529.966072
390.693936	2531.017153
391.077802	2529.945908
391.461606	2528.990609
391.845348	2531.526309
392.229027	2531.067564
392.612645	2529.771988
392.996200	2532.032945
393.379694	2533.633512
393.763125	2535.599562
394.146494	2535.954963
394.529801	2535.571835
394.913047	2535.728111
395.296230	2536.385982
395.679351	2540.282793
396.062410	2542.337064
396.445408	2547.746222
396.828343	2549.845862
397.211217	2552.870555
397.594028	2557.054712
397.976778	2564.732390
398.359466	2570.688513
398.742092	2582.174782
399.124656	2590.739702
399.507158	2603.057762
399.889598	2620.323714
400.271977	2632.793008
400.654294	2648.075266
401.036549	2661.935918
401.418742	2674.470747
401.800874	2698.479242
402.182944	2724.829353
402.564952	2750.014958
402.946898	2770.746703
403.328783	2795.806279
403.710606	2804.824903
404.092367	2857.389014
404.474067	2881.044629
404.855705	2909.827097
405.237282	2922.230856
405.618797	2974.545430
406.000250	3008.946264
406.381642	3062.495920
406.762972	3088.288984
407.144240	3124.693677
407.525447	3161.337824
407.906593	3214.753890
408.287677	3263.151488
408.668700	3279.129425
409.049661	3335.252590
409.430560	3390.561610
409.811399	3404.228178
410.192176	3511.488808
410.572891	3522.460880
410.953545	3615.316413
411.334138	3598.882251
411.714669	3673.687933
412.095139	3660.086900
412.475547	3782.034932
412.855894	3812.057524
413.236180	3861.312118
413.616405	3877.158985
413.996568	3968.842450
414.376670	3969.853201
414.756711	3982.330057
415.136691	4041.432545
415.516609	4134.091473
415.896466	4188.926624
416.276262	4256.410030
416.655997	4279.427938
417.035670	4447.588228
417.415283	4555.363056
417.794834	4547.443403
418.174324	4545.192528
418.553753	4509.591899
418.933121	4688.310886
419.312428	4784.559115
419.691674	4768.039254
420.070859	4901.334924
420.449983	4852.675186
420.829045	4982.013550
421.208047	4926.694448
421.586988	5020.805229
421.965867	5053.532399
422.344686	5195.695458
422.723444	5086.100774
423.102141	4937.122075
423.480777	5230.668463
423.859352	5032.359553
424.237866	5292.465448
424.616319	5298.189678
424.994712	5419.915899
425.373044	5313.139220
425.751314	5465.803002
426.129524	5287.421773
426.507673	5483.719263
426.885762	5576.542029
427.263789	5516.854767
427.641756	5410.884672
428.019662	5532.512591
428.397508	5549.801228
428.775292	5505.469321
429.153016	5611.477225
429.530679	5540.265886
429.908282	5624.896776
430.285824	5502.469835
430.663305	5778.538543
431.040726	5518.861146
431.418086	5520.728894
431.795385	5624.382579
432.172624	5642.596267
432.549802	5634.157376
432.926920	5650.624305
433.303977	5656.222506
433.680974	5695.304052
434.057910	5719.723401
434.434786	5725.477878
434.811601	5692.755748
435.188355	5925.992293
435.565050	5806.199354
435.941683	5787.158916
436.318257	6000.535835
436.694770	5985.924050
437.071222	6018.585686
437.447614	5949.877280
437.823946	5866.569692
438.200218	6016.518813
438.576429	5885.534513
438.952580	5979.400797
439.328670	6030.439959
439.704700	5936.382111
440.080670	5922.637405
440.456580	6193.662438
440.832429	6075.661630
441.208218	5923.423825
441.583947	6076.243883
441.959616	6080.944759
442.335224	6009.166290
442.710773	6142.671167
443.086261	6174.498492
443.461689	5967.052491
443.837057	6121.818434
444.212365	6272.755622
444.587612	6166.324261
444.962800	6322.521892
445.337927	6294.049456
445.712995	5909.946300
446.088002	6486.402242
446.462949	6314.967723
446.837837	6250.347693
447.212664	6421.008395
447.587431	6557.273304
447.962139	7108.044567
448.336786	8025.768981
448.711374	7767.974455
449.085901	6841.720409
449.460369	6767.864985
449.834776	6701.256219
450.209124	7092.938750
450.583412	7241.952737
450.957640	7391.450675
451.331808	7157.364696
451.705917	6709.806016
452.079965	6625.742255
452.453954	6839.842580
452.827883	6718.007973
453.201752	6810.003990
453.575562	6611.095183
453.949311	6815.135885
454.323001	6704.414502
454.696632	6775.605677
455.070202	6918.482059
455.443713	7070.848413
455.817164	7172.354567
456.190556	7252.894561
456.563888	7330.235943
456.937160	7369.846810
457.310373	7029.571446
457.683526	7058.875673
458.056619	6944.799403
458.429653	6933.121570
458.802628	6868.292331
459.175542	6980.667212
459.548398	7332.252405
459.921194	7488.087073
460.293930	7491.293247
460.666607	8021.952827
461.039224	8324.346441
461.411782	8458.136143
461.784280	8480.576840
462.156719	8362.376905
462.529099	8243.231755
462.901419	7837.539858
463.273680	7727.718321
463.645882	7732.270483
464.018024	7608.084179
464.390106	7775.972246
464.762130	8162.485073
465.134094	8624.330383
465.505999	9646.394078
465.877845	10863.111847
466.249631	11514.234839
466.621358	11124.437701
466.993026	10497.267751
467.364634	10243.377599
467.736184	9882.302434
468.107674	9554.645078
468.479105	9583.135159
468.850477	9346.667235
469.221790	9115.179971
469.593043	8796.430334
469.964238	8660.490579
470.335373	8666.343359
470.706449	8723.177327
471.077467	8709.609062
471.448425	10017.027271
471.819324	11083.692575
472.190164	11104.096645
472.560945	9857.497437
472.931667	9071.810924
473.302330	8938.358979
473.672934	8584.452335
474.043479	8937.653218
474.413965	8882.107264
474.784393	8760.323069
475.154761	8922.824664
475.525070	9009.698868
475.895321	8835.831992
476.265513	9013.051235
476.635645	9180.760341
477.005719	9180.246144
477.375734	9296.590933
477.745691	9523.931848
478.115588	9665.600874
478.485427	9915.841231
478.855207	10440.733731
479.224928	11251.595765
479.594591	11883.922816
479.964194	11697.377438
480.333739	11624.018567
480.703226	11554.034749
481.072653	11641.902061
481.442022	11880.787218
481.811333	12070.042216
482.180584	11869.051412
482.549777	11578.565004
482.918912	11400.604711
483.287988	11428.232755
483.657005	11438.574682
484.025964	11122.895107
484.394864	11256.725139
484.763706	11221.195087
485.132489	10983.073664
485.501213	10950.197780
485.869879	11028.557475
486.238487	10869.985460
486.607036	10975.307767
486.975527	10751.967008
487.343959	10949.585279
487.712333	10992.583801
488.080648	10919.693758
488.448905	10970.551438
488.817104	10907.489124
489.185244	11173.911584
489.553326	11329.819349
489.921350	11860.816687
490.289315	12924.202720
490.657222	13268.316923
491.025070	13173.192871
491.392861	13049.515723
491.760593	12671.739215
492.128267	12320.269969
492.495883	11990.402067
492.863440	11655.813125
493.230939	11315.686475
493.598380	11252.505693
493.965763	11123.179933
494.333088	11021.933399
494.700354	10938.729155
495.067563	11010.149702
495.434713	10836.857518
495.801805	10959.034922
496.168839	10887.543799
496.535815	10826.684469
496.902733	10824.259674
497.269593	10755.011864
497.636395	10852.691782
498.003139	10840.527478
498.369825	10713.089629
498.736453	10866.144101
499.103023	10796.994594
499.469535	10827.848976
499.835989	10807.102107
500.202385	10775.667992
500.568723	10629.875303
500.935003	10851.388644
501.301226	10656.991669
501.667390	10916.233006
502.033497	11006.809937
502.399546	10871.475121
502.765537	10779.277458
503.131470	10853.803356
503.497345	11030.291632
503.863163	10636.169183
504.228923	10947.263828
504.594625	11011.039465
504.960269	10757.227452
505.325856	10982.052831
505.691385	10772.592888
506.056856	10924.165261
506.422270	10948.040166
506.787625	10840.565286
507.152924	10956.708430
507.518164	10930.665829
507.883347	10857.813594
508.248472	10776.840061
508.613540	11016.088181
508.978550	10895.803730
509.343503	10871.351613
509.708398	10996.495737
510.073236	11102.675039
510.438016	11110.377922
510.802738	11056.084696
511.167403	11107.811975
511.532010	11009.542243
511.896561	11237.009187
512.261053	11312.634056
512.625488	11182.630260
512.989866	11160.912969
513.354186	11145.325722
513.718449	11049.614375
514.082655	11242.720814
514.446803	11144.151133
514.810894	11265.544638
515.174927	11133.118568
515.538904	11156.817032
515.902822	11302.239197
516.266684	11186.148985
516.630488	11131.134873
516.994235	11187.782319
517.357925	11243.224929
517.721558	11334.633651
518.085133	11352.232319
518.448651	11362.307065
518.812112	11248.127451
519.175516	11255.227917
519.538863	11383.023687
519.902152	11298.221397
520.265385	11463.609052
520.628560	11367.786800
520.991678	11345.419200
521.354739	11415.276989
521.717743	11346.805517
522.080690	11329.595018
522.443580	11460.276849
522.806413	11414.243553
523.169189	11450.297885
523.531908	11506.728561
523.894569	11325.224338
524.257174	11329.370687
524.619722	11447.464757
524.982213	11386.335725
525.344647	11446.988368
525.707025	11393.383258
526.069345	11483.564459
526.431608	11405.913046
526.793815	11516.783143
527.155964	11305.077366
527.518057	11358.266581
527.880093	11306.032665
528.242072	11376.472708
528.603995	11288.406271
528.965860	11202.883096
529.327669	11253.153482
529.689421	11203.077180
530.051117	11172.129537
530.412755	11283.198759
530.774337	11173.150370
531.135862	11146.986782
531.497331	11170.730616
531.858743	11026.483040
532.220098	11182.438696
532.581396	11063.003679
532.942638	11045.301668
533.303824	11009.509475
533.664953	11020.678152
534.026025	10930.275140
534.387040	11033.139884
534.747999	11038.087776
535.108902	11096.033319
535.469748	10851.529796
535.830537	10951.669797
536.191270	10938.318301
536.551947	10960.653133
536.912567	10953.885384
537.273131	10876.186079
537.633638	10864.450273
537.994089	10849.851092
538.354483	10796.034254
538.714821	10943.414907
539.075103	10957.111722
539.435328	10920.772565
539.795497	10745.637839
540.155609	10903.166335
540.515665	10999.785089
540.875665	10724.706968
541.235609	10798.451487
541.595496	10798.978288
541.955328	10941.373240
542.315102	10831.017341
542.674821	10775.917529
543.034483	10782.806266
543.394090	10784.457244
543.753640	10716.895700
544.113134	10936.569020
544.472571	10795.310848
544.831953	10931.059039
545.191278	10731.935983
545.550548	10770.407548
545.909761	10901.611139
546.268918	10876.740606
546.628019	10961.227824
546.987064	10825.308234
547.346053	10744.402756
547.704986	10844.210041
548.063863	10833.253093
548.422684	10833.779893
548.781449	10743.938970
549.140158	10841.959165
549.498811	10722.395599
549.857408	10589.041956
550.215949	10801.791252
550.574434	10655.131483
550.932864	10759.206104
551.291237	10821.078706
551.649555	10764.688359
552.007817	10777.671851
552.366022	10741.554504
552.724173	10733.453370
553.082267	10716.441996
553.440305	10855.343429
553.798288	10659.461834
554.156215	10811.190483
554.514086	10790.284818
554.871902	10633.946034
555.229661	10677.489001
555.587365	10655.696092
555.945014	10545.438496
556.302606	10669.408031
556.660143	10556.445856
557.017625	10718.425690
557.375050	10612.516089
557.732421	10745.569783
558.089735	10664.747484
558.446994	10661.596763
558.804197	10699.894409
559.161345	10701.305932
559.518437	10555.165403
559.875474	10638.225974
560.232455	10666.093472
560.589381	10618.142017
560.946251	10618.646132
561.303065	10720.553057
561.659825	10661.654736
562.016528	10583.398385
562.373177	10466.617535
562.729770	10581.263456
563.086307	10497.834880
563.442789	10590.067831
563.799216	10465.208533
564.155587	10515.473878
564.511904	10475.956273
564.868164	10459.597728
565.224370	10474.063319
565.580520	10401.821064
565.936615	10406.736189
566.292654	10278.363207
566.648638	10408.689636
567.004567	10371.710252
567.360441	10350.837355
567.716260	10258.213715
568.072023	10352.024547
568.427732	10302.245673
568.783385	10212.838289
569.138982	10286.025760
569.494525	10301.222319
569.850013	10180.272435
570.205445	10252.464279
570.560823	10154.033229
570.916145	10073.399973
571.271412	10136.578234
571.626625	10088.304145
571.981782	10062.894209
572.336884	10041.570128
572.691931	10044.166322
573.046923	9989.043826
573.401860	9943.181928
573.756743	9885.783351
574.111570	9924.234752
574.466342	9911.510879
574.821059	9932.782028
575.175722	9827.137088
575.530330	9839.770219
575.884882	9832.135392
576.239380	9754.431046
576.593823	9733.248118
576.948211	9757.410368
577.302544	9629.037385
577.656823	9644.972473
578.011047	9649.113781
578.365216	9623.560172
578.719330	9555.244975
579.073389	9551.237258
579.427394	9506.222275
579.781344	9486.009768
580.135239	9433.871635
580.489080	9446.141803
580.842866	9343.014919
581.196597	9345.583387
581.550273	9386.416733
581.903895	9357.646868
582.257463	9425.493237
582.610975	9301.402715
582.964434	9322.247886
583.317837	9252.866485
583.671186	9226.607115
584.024481	9225.112413
584.377721	9146.339343
584.730906	9126.026013
585.084037	9147.612234
585.437113	9083.135877
585.790135	9109.564126
586.143103	9010.439917
586.496016	8984.218356
586.848874	9038.453609
587.201679	9031.706025
587.554428	8913.848889
587.907124	8953.878171
588.259765	8938.132127
588.612352	8928.218698
588.964884	8809.539854
589.317362	8830.788318
589.669786	8819.768356
590.022155	8869.816931
590.374470	8886.450218
590.726731	8823.808840
591.078937	8673.191766
591.431090	8788.969426
591.783188	8660.901433
592.135232	8653.884147
592.487222	8655.036051
592.839157	8708.570584
593.191038	8639.017784
593.542866	8589.806041
593.894639	8485.186975
594.246358	8539.260912
594.598022	8553.487048
594.949633	8453.034496
595.301190	8423.183303
595.652692	8457.523643
596.004141	8567.249398
596.355535	8343.041560
596.706876	8323.842325
597.058162	8262.771267
597.409395	8334.585024
597.760573	8395.719097
598.111698	8305.530334
598.462768	8288.834033
598.813785	8255.438909
599.164748	8222.590750
599.515657	8216.473310
599.866511	8126.501317
600.217312	8252.394052
600.568060	8112.401210
600.918753	8215.487765
601.269392	8187.012807
601.619978	8098.119621
601.970510	8156.080287
602.320988	8161.953231
602.671412	8211.525418
603.021783	8150.512333
603.372100	8126.047613
603.722363	8124.048796
604.072572	8100.057944
604.422728	8111.317362
604.772830	8040.043008
605.122878	8049.878299
605.472872	8043.201291
605.822813	8072.369407
606.172701	8014.418823
606.522534	8094.676513
606.872314	8089.743744
607.222041	8061.374650
607.571714	8114.619317
607.921333	8074.965601
608.270899	8081.753515
608.620411	8168.428593
608.969870	8076.157834
609.319276	8071.013337
609.668627	8086.905574
610.017926	8121.182900
610.367171	8161.118920
610.716362	8145.539234
611.065500	8132.986761
611.414585	8162.457347
611.763616	8148.992425
612.112594	8132.989282
612.461518	8148.929410
612.810389	8206.459058
613.159207	8148.022003
613.507971	8093.585103
613.856682	8215.190337
614.205340	8169.179725
614.553945	8247.466324
614.902496	8146.239955
615.250994	8200.873460
615.599439	8183.206736
615.947830	8194.428344
616.296169	8166.054210
616.644454	8180.746653
616.992686	8175.508894
617.340864	8238.810663
617.688990	8146.406313
618.037063	8236.403512
618.385082	8181.349071
618.733048	8265.261597
619.080961	8202.363121
619.428821	8217.836942
619.776628	8223.147798
620.124382	8177.676590
620.472083	8158.752099
620.819731	8186.591871
621.167326	8078.920386
621.514868	8091.787932
621.862357	7978.190571
622.209793	7995.441399
622.557176	7926.264166
622.904506	7901.978407
623.251783	7831.372006
623.599007	7786.530943
623.946179	7793.795245
624.293297	7748.192968
624.640363	7670.347470
624.987376	7648.768811
625.334336	7596.171932
625.681243	7542.899539
626.028097	7534.006944
626.374899	7508.360073
626.721647	7503.003848
627.068343	7439.704599
627.414987	7405.656646
627.761577	7362.620316
628.108115	7397.421921
628.454600	7290.378061
628.801032	7339.743560
629.147412	7301.201418
629.493739	7290.632639
629.840014	7224.777526
630.186236	7280.764580
630.532405	7171.646285
630.878521	7216.245373
631.224585	7178.555186
631.570597	7099.976200
631.916556	7130.777650
632.262462	7132.461396
632.608316	7095.532423
632.954117	7070.888743
633.299866	7054.658748
633.645562	7048.813530
633.991206	6974.587581
634.336797	6913.524084
634.682336	6868.499019
635.027823	6834.398133
635.373257	6823.436144
635.718639	6760.325939
636.063968	6770.559482
636.409245	6667.319172
636.754470	6662.424211
637.099642	6626.387523
637.444762	6564.376289
637.789829	6579.088897
638.134845	6517.944742
638.479808	6506.347567
638.824719	6508.880747
639.169577	6435.622700
639.514383	6456.488035
639.859137	6388.681996
640.203839	6394.716257
640.548489	6385.538836
640.893086	6358.238467
641.237632	6325.803684
641.582125	6348.617425
641.926566	6320.117262
642.270955	6329.846689
642.615292	6326.829558
642.959576	6341.718606
643.303809	6333.438511
643.647990	6337.650395
643.992118	6326.832079
644.336195	6273.703359
644.680219	6295.619775
645.024192	6292.340504
645.368112	6391.084105
645.711981	6407.394759
646.055797	6482.404607
646.399562	6440.719306
646.743274	6569.006589
647.086935	6619.702953
647.430544	6611.107786
647.774101	6637.130222
648.117606	6641.921838
648.461059	6631.632843
648.804460	6599.460200
649.147810	6500.618296
649.491108	6476.471169
649.834354	6449.329597
650.177548	6367.103337
650.520690	6285.834895
650.863781	6257.803559
651.206820	6278.860459
651.549807	6201.466145
651.892742	6145.133771
652.235626	6155.936964
652.578458	6131.333612
652.921238	6041.603594
653.263967	6082.220171
653.606644	6022.719432
653.949269	6027.309403
654.291843	5963.022088
654.634365	6013.559656
654.976836	5972.368388
655.319255	5968.693386
655.661622	5945.962824
656.003938	5947.157577
656.346203	5900.042953
656.688416	5934.254744
657.030577	5885.189193
657.372687	5859.348239
657.714746	5846.755437
658.056753	5886.676334
658.398708	5831.851265
658.740612	5817.035314
659.082465	5869.365012
659.424266	5857.684658
659.766016	5859.590214
660.107715	5830.487633
660.449362	5846.820972
660.790958	5837.000804
661.132503	5827.248692
661.473996	5864.744794
661.815438	5853.702147
662.156829	5848.555128
662.498168	5844.882648
662.839456	5815.157484
663.180693	5855.693402
663.521879	5856.656263
663.863013	5843.151012
664.204097	5860.429566
664.545129	5901.202419
664.886110	5903.551596
665.227040	5934.995793
665.567918	5897.202263
665.908746	5928.706954
666.249522	5934.388334
666.590248	5918.269245
666.930922	5942.746567
667.271545	5960.410771
667.612118	5959.742818
667.952639	5929.248878
668.293109	5953.587569
668.633528	5913.437299
668.973896	5915.836888
669.314213	5905.610908
669.654480	5894.386779
669.994695	5882.270365
670.334859	5875.585795
670.674973	5865.669846
671.015035	5867.638416
671.355047	5866.395772
671.695008	5855.186766
672.034918	5821.945398
672.374777	5835.904353
672.714585	5817.720911
673.054342	5827.329350
673.394049	5822.593186
673.733705	5845.911043
674.073310	5838.629097
674.412864	5793.142765
674.752368	5785.117248
675.091820	5792.709226
675.431223	5729.258743
675.770574	5727.428804
676.109875	5682.980951
676.449125	5683.772412
676.788324	5654.581611
677.127473	5600.429536
677.466571	5587.375468
677.805619	5576.857101
678.144616	5564.891922
678.483562	5544.984406
678.822458	5510.838150
679.161303	5508.118447
679.500098	5499.218290
679.838842	5482.070806
680.177535	5483.802442
680.516179	5499.177961
680.854771	5509.514847
681.193314	5590.009471
681.531805	5702.777562
681.870247	5851.050500
682.208638	5949.905006
682.546978	5963.448066
682.885268	5940.145332
683.223508	5856.522672
683.561697	5801.165762
683.899836	5775.251710
684.237925	5726.591973
684.575963	5690.567887
684.913951	5654.188401
685.251889	5709.958686
685.589776	5680.369633
685.927614	5656.416591
686.265401	5724.149534
686.603137	5709.273089
686.940824	5785.684378
687.278460	5800.344054
687.616046	5817.862063
687.953582	5884.100304
688.291068	5867.222521
688.628504	5932.122336
688.965889	5892.214041
689.303224	5836.554662
689.640510	5786.546416
689.977745	5716.660900
690.314930	5614.713646
690.652065	5556.652156
690.989150	5468.409279
691.326185	5390.004213
691.663170	5339.867417
692.000105	5262.515953
692.336990	5186.833110
692.673825	5162.189429
693.010610	5092.971867
693.347345	5022.027708
693.684030	5007.408362
694.020665	4966.522084
694.357251	4876.829875
694.693786	4888.036360
695.030272	4855.525959
695.366707	4816.643539
695.703093	4783.064413
696.039429	4805.527795
696.375716	4790.127070
696.711952	4762.551958
697.048139	4748.819855
697.384276	4730.709510
697.720363	4744.991099
698.056400	4754.274384
698.392388	4701.591805
698.728326	4681.906100
699.064214	4652.687572
699.400053	4650.900483
699.735842	4619.418477
700.071581	4597.081124
700.407270	4568.258327
700.742910	4551.405750
701.078501	4498.158562
701.414042	4496.994056
701.749533	4465.864931
702.084974	4399.064601
702.420366	4457.877223
702.755709	4399.949324
703.091002	4342.661652
703.426246	4392.932038
703.761440	4348.322867
704.096584	4309.884069
704.431679	4331.868541
704.766725	4319.011078
705.101721	4304.361485
705.436668	4332.181093
705.771565	4283.972538
706.106413	4311.381292
706.441212	4343.596786
706.775961	4350.387220
707.110661	4328.553982
707.445311	4358.483313
707.779913	4383.149679
708.114465	4390.590422
708.448967	4419.882046
708.783421	4479.380264
709.117825	4518.640771
709.452180	4526.053787
709.786485	4570.095828
710.120742	4654.363756
710.454949	4635.025889
710.789107	4702.106003
711.123216	4780.248929
711.457275	4769.717958
711.791286	4841.967775
712.125247	4861.182133
712.459159	4765.087659
712.793023	4835.479810
713.126837	4801.978822
713.460602	4791.089930
713.794318	4709.937436
714.127985	4719.394640
714.461602	4634.884737
714.795171	4602.412145
715.128691	4539.478380
715.462162	4483.582066
715.795584	4432.900826
716.128957	4415.612189
716.462281	4362.271740
716.795556	4334.893233
717.128782	4297.003921
717.461960	4229.533118
717.795088	4241.528544
718.128167	4199.011452
718.461198	4140.559273
718.794180	4136.964931
719.127113	4117.599338
719.459997	4097.054116
719.792833	4054.592477
720.125619	4044.144685
720.458357	4008.801156
720.791046	4014.316178
721.123686	3987.459431
721.456278	3944.677679
721.788821	3959.619659
722.121315	3938.575362
722.453761	3908.721649
722.786158	3923.487189
723.118506	3945.784212
723.450805	3897.926018
723.783056	3918.342691
724.115259	3932.425154
724.447412	3940.281793
724.779518	3931.984053
725.111574	3937.869601
725.443582	3965.001091
725.775542	3951.541210
726.107453	4002.509796
726.439315	4003.162625
726.771129	4016.851878
727.102895	4053.985018
727.434612	4099.819188
727.766281	4110.014922
728.097901	4112.505252
728.429473	4117.062455
728.760996	4127.217860
729.092471	4120.583701
729.423897	4105.606433
729.755276	4111.013071
730.086606	4108.835292
730.417887	4147.100170
730.749120	4214.477712
731.080305	4277.194707
731.411442	4303.673368
731.742530	4275.195890
732.073570	4277.035911
732.404562	4331.838294
732.735506	4323.346471
733.066401	4286.853558
733.397249	4224.620514
733.728048	4144.483812
734.058798	4061.377870
734.389501	3989.599401
734.720156	3930.317952
735.050762	3885.451683
735.381320	3876.065054
735.711831	3826.213084
736.042293	3797.090338
736.372707	3819.105057
736.703073	3791.373670
737.033391	3779.859674
737.363661	3798.925318
737.693883	3823.009431
738.024056	3836.176925
738.354182	3829.890606
738.684260	3891.962333
739.014290	3911.958070
739.344272	3909.099736
739.674207	3951.836117
740.004093	3957.646047
740.333931	3951.183288
740.663722	3949.383596
740.993464	3950.593473
741.323159	3926.978188
741.652806	3897.197571
741.982405	3868.024414
742.311956	3838.198427
742.641460	3824.650326
742.970915	3802.648210
743.300323	3760.690687
743.629683	3727.897981
743.958996	3721.772979
744.288260	3693.003114
744.617477	3658.178823
744.946647	3643.965290
745.275768	3622.197588
745.604842	3616.954788
745.933869	3567.105338
746.262847	3563.634504
746.591778	3597.193465
746.920662	3568.360585
747.249498	3541.077861
747.578286	3584.925817
747.907027	3604.488014
748.235720	3601.828806
748.564365	3626.437198
748.892963	3628.320069
749.221514	3612.954632
749.550017	3585.808019
749.878473	3584.083944
750.206881	3553.174109
750.535242	3548.972308
750.863555	3554.217628
751.191821	3547.263357
751.520039	3530.748537
751.848210	3506.293899
752.176334	3539.079043
752.504411	3545.219169
752.832440	3507.229033
753.160421	3488.758246
753.488356	3497.487003
753.816243	3509.242974
754.144082	3466.060450
754.471875	3454.034778
754.799620	3472.026656
755.127318	3464.837971
755.454969	3462.864359
755.782572	3467.504741
756.110129	3441.925926
756.437638	3434.522992
756.765100	3449.013789
757.092515	3456.230200
757.419882	3464.091880
757.747203	3441.515072
758.074477	3439.455761
758.401703	3456.827577
758.728882	3478.769199
759.056014	3482.824808
759.383099	3489.332937
759.710138	3483.349087
760.037129	3504.441275
760.364073	3531.923125
760.690970	3516.872761
761.017820	3493.658247
761.344623	3515.521731
761.671379	3557.015469
761.998088	3607.835341
762.324751	3737.297213
762.651366	3981.193277
762.977935	4459.586174
763.304456	4898.761415
763.630931	4997.699100
763.957359	4632.860714
764.283740	4291.435967
764.610074	4104.368830
764.936362	3900.963313
765.262602	3748.962442
765.588796	3632.337869
765.914943	3545.075496
766.241044	3458.478555
766.567097	3426.653751
766.893104	3382.258829
767.219064	3346.131400
767.544978	3322.480827
767.870845	3264.515120
768.196665	3247.707913
768.522438	3255.947679
768.848165	3251.836618
769.173846	3216.351936
769.499479	3196.530119
769.825066	3183.095444
770.150607	3163.971827
770.476101	3178.697037
770.801548	3177.184691
771.126949	3132.477218
771.452303	3113.938375
771.777611	3119.801237
772.102872	3125.235601
772.428087	3100.133175
772.753256	3090.602874
773.078378	3083.192377
773.403453	3047.894218
773.728482	3036.019780
774.053465	3055.581978
774.378401	3043.097560
774.703291	3012.822911
775.028135	3013.967253
775.352932	3011.444155
775.677683	2998.574090
776.002388	2993.064108
776.327046	2997.691888
776.651658	2986.850886
776.976224	2974.255563
777.300743	2973.164154
777.625216	2965.799028
777.949643	2960.541104
778.274024	2963.601085
778.598359	2952.886112
778.922647	2958.335600
779.246889	2955.928449
779.571086	2942.035029
779.895236	2935.806683
780.219339	2944.951336
780.543397	2956.886268
780.867409	2965.128554
781.191374	2954.373253
781.515294	2948.749846
781.839167	2949.939558
782.162995	2945.102571
782.486776	2950.461317
782.810511	2950.504167
783.134201	2936.953546
783.457844	2941.120059
783.781441	2933.308791
784.104993	2912.561923
784.428498	2914.112078
784.751958	2928.123965
785.075372	2920.756318
785.398739	2905.595048
785.722061	2921.139446
786.045337	2935.179059
786.368568	2916.836821
786.691752	2910.280801
787.014891	2958.023048
787.337983	2988.262409
787.661030	3014.292407
787.984031	3084.130032
788.306987	3128.761888
788.629897	3123.700569
788.952760	3106.394288
789.275579	3090.877617
789.598351	3032.695139
789.921078	2985.678818
790.243759	2976.420739
790.566395	2959.701752
790.888984	2936.240222
791.211529	2918.830598
791.534027	2910.084196
791.856480	2900.445509
792.178888	2885.538818
792.501249	2877.931716
792.823566	2877.044473
793.145836	2871.567260
793.468062	2866.974768
793.790241	2866.969727
794.112375	2871.650439
794.434464	2883.809702
794.756507	2887.358674
795.078505	2896.760426
795.400457	2907.528331
795.722364	2944.023764
796.044226	2969.443782
796.366042	2974.749597
796.687812	2958.484314
797.009538	2981.061121
797.331218	2968.017136
797.652852	2952.157666
797.974442	2934.138061
798.295986	2933.487752
798.617484	2926.982143
798.938938	2910.356418
799.260346	2896.697412
799.581709	2889.105434
799.903026	2884.744836
800.224299	2877.740153
800.545526	2868.514841
800.866708	2854.611339
801.187845	2842.094154
801.508936	2845.144052
801.829983	2853.436750
802.150984	2838.305727
802.471940	2826.242245
802.792851	2827.011021
803.113717	2826.504385
803.434538	2829.607216
803.755314	2822.620176
804.076045	2818.078097
804.396731	2817.332006
804.717372	2816.164979
805.037967	2813.488126
805.358518	2816.056594
805.679024	2829.362720
805.999485	2828.830878
806.319901	2831.686692
806.640272	2821.375011
806.960598	2828.538491
807.280879	2840.354956
807.601115	2843.319154
807.921306	2830.892710
808.241453	2826.111175
808.561554	2834.550067
808.881611	2838.149451
809.201623	2829.334993
809.521590	2830.680981
809.841513	2824.992039
810.161390	2828.364571
810.481223	2823.698983
810.801011	2814.012406
811.120755	2806.755665
811.440453	2814.219093
811.760107	2813.651964
812.079716	2810.299596
812.399281	2802.150571
812.718801	2794.039355
813.038276	2790.699590
813.357707	2796.900209
813.677093	2801.331384
813.996434	2794.830816
814.315731	2795.387863
814.634983	2788.141205
814.954191	2790.596247
815.273354	2802.823565
815.592473	2813.193219
815.911547	2812.769762
816.230577	2822.675629
816.549562	2833.020077
816.868502	2828.727534
817.187399	2842.194977
817.506250	2853.862727
817.825058	2849.855010
818.143821	2862.778008
818.462539	2876.661346
818.781213	2903.555901
819.099843	2940.298351
819.418429	2999.163905
819.736970	3062.669840
820.055466	3134.775984
820.373919	3238.958990
820.692327	3378.538458
821.010691	3549.378121
821.329011	3994.796830
821.647286	4895.245210
821.965517	6275.167814
822.283704	7028.477515
822.601847	7006.626634
822.919945	6379.365943
823.237999	5860.699268
823.556010	5282.307523
823.873976	4722.288262
824.191897	4313.589317
824.509775	4020.191643
824.827609	3749.433790
825.145398	3626.293525
825.463144	3608.914147
825.780845	3701.580638
826.098502	3806.855053
826.416116	4090.520780
826.733685	4415.198814
827.051210	4477.588134
827.368692	4358.906770
827.686129	4093.411882
828.003522	3764.201851
828.320872	3505.691481
828.638177	3307.506080
828.955439	3171.306706
829.272656	3088.024323
829.589830	3018.441277
829.906960	2968.556539
830.224046	2925.855445
830.541088	2892.364540
830.858086	2875.191849
831.175041	2855.894312
831.491952	2857.101669
831.808819	2871.267311
832.125642	2892.422513
832.442421	2941.341870
832.759157	3023.384128
833.075849	3202.476160
833.392497	3483.134838
833.709101	3688.297197
834.025662	3639.110659
834.342179	3479.338850
834.658653	3300.549287
834.975083	3150.461534
835.291469	3053.094168
835.607811	2967.268524
835.924110	2909.607807
836.240366	2855.997656
836.556578	2816.648930
836.872746	2791.659930
837.188871	2770.093874
837.504952	2753.596698
837.820990	2744.915831
838.136984	2730.606516
838.452935	2723.866493
838.768842	2722.321379
839.084706	2739.741087
839.400526	2818.597336
839.716303	2952.059363
840.032037	3033.990716
840.347727	3018.642923
840.663373	2956.177986
840.978977	2881.548744
841.294537	2808.346149
841.610054	2758.204312
841.925527	2737.548185
842.240957	2716.834083
842.556344	2695.636032
842.871687	2679.143897
843.186987	2669.132165
843.502244	2666.387257
843.817458	2659.223777
844.132629	2648.730616
844.447756	2641.335243
844.762840	2634.605302
845.077881	2632.666979
845.392879	2636.531023
845.707833	2631.285703
846.022745	2622.246914
846.337613	2624.548201
846.652438	2623.242542
846.967221	2625.747995
847.281960	2621.523508
847.596656	2620.432098
847.911309	2618.947479
848.225919	2618.057715
848.540485	2611.940275
848.855009	2617.341871
849.169490	2614.186109
849.483928	2614.027312
849.798323	2613.755090
850.112675	2611.642847
850.426984	2612.930862
850.741251	2610.422887
851.055474	2611.186622
851.369654	2618.145935
851.683792	2615.217025
851.997887	2611.365583
852.311938	2609.870881
852.625947	2614.980091
852.939914	2613.923969
853.253837	2615.355657
853.567718	2611.874740
853.881555	2613.069493
854.195350	2614.544031
854.509103	2612.862806
854.822812	2608.166971
855.136479	2607.120932
855.450103	2612.025974
855.763685	2614.985132
856.077224	2612.698968
856.390720	2605.505242
856.704173	2612.499843
857.017584	2617.556120
857.330953	2618.851697
857.644278	2618.455966
857.957561	2619.582664
858.270802	2613.180399
858.584000	2613.364401
858.897155	2620.207767
859.210268	2619.270112
859.523339	2614.523866
859.836367	2609.424739
860.149352	2611.337857
860.462295	2608.968515
860.775195	2609.076899
861.088054	2605.454830
861.400869	2608.540017
861.713642	2604.297886
862.026373	2606.904162
862.339062	2608.943309
862.651708	2614.239041
862.964312	2614.904473
863.276873	2612.333485
863.589392	2615.668208
863.901869	2621.473097
864.214303	2626.720938
864.526696	2628.782770
864.839045	2630.660600
865.151353	2632.732514
865.463619	2633.191259
865.775842	2631.371402
866.088023	2632.581279
866.400162	2632.001547
866.712258	2632.551032
867.024313	2630.395939
867.336325	2625.760598
867.648296	2631.441978
867.960224	2634.693523
868.272110	2631.174797
868.583954	2628.578603
868.895755	2627.739251
869.207515	2629.889303
869.519233	2639.543113
869.830909	2636.115128
870.142542	2630.043058
870.454134	2635.421969
870.765684	2636.815848
871.077191	2641.055459
871.388657	2645.322796
871.700081	2643.104688
872.011463	2641.068062
872.322803	2642.837507
872.634101	2650.114412
872.945357	2653.189516
873.256571	2662.072029
873.567744	2656.047850
873.878874	2654.527942
874.189963	2657.489620
874.501010	2660.579848
874.812015	2665.452123
875.122979	2666.311640
875.433900	2657.545073
875.744780	2658.596154
876.055618	2662.056906
876.366415	2668.000426
876.677169	2665.663851
876.987882	2660.990702
877.298554	2659.039775
877.609183	2669.784995
877.919771	2680.137004
878.230317	2684.958868
878.540822	2693.541432
878.851285	2708.740511
879.161707	2734.442834
879.472087	2770.156888
879.782425	2821.208653
880.092722	2938.632250
880.402977	3126.695015
880.713191	3390.606980
881.023363	3686.439532
881.333494	3879.228378
881.643583	4048.701888
881.953631	4048.313720
882.263637	3871.757388
882.573602	3647.441166
882.883526	3517.812936
883.193408	3399.421438
883.503248	3297.731282
883.813048	3181.499919
884.122806	3065.845767
884.432522	2980.841831
884.742197	2915.642068
885.051831	2877.770399
885.361424	2843.263701
885.670975	2806.112918
885.980485	2772.705192
886.289954	2756.497882
886.599382	2742.478433
886.908768	2732.363358
887.218113	2712.939792
887.527417	2698.005374
887.836680	2691.766946
888.145901	2686.193950
888.455082	2677.560974
888.764221	2666.588903
889.073319	2659.682522
889.382376	2658.442398
889.691392	2658.104641
890.000366	2658.210505
890.309300	2655.543735
890.618193	2659.921977
890.927044	2659.800989
891.235855	2660.582368
891.544625	2661.015907
891.853353	2662.152688
892.162041	2668.227278
892.470687	2690.882223
892.779293	2697.135775
893.087858	2710.625902
893.396381	2733.943760
893.704864	2774.094029
894.013306	2844.639936
894.321707	2940.389092
894.630068	2992.292812
894.938387	3011.461799
895.246665	3004.827641
895.554903	2958.610343
895.863100	2916.801533
896.171256	2857.585619
896.479371	2796.035652
896.787446	2758.005187
897.095480	2735.234295
897.403473	2731.153481
897.711425	2714.189998
898.019336	2697.231557
898.327207	2682.115657
898.635038	2682.667663
898.942827	2679.930317
899.250576	2668.355827
899.558284	2658.444919
899.865952	2652.738333
900.173579	2653.789413
900.481165	2651.354536
900.788711	2643.903711
901.096216	2636.558750
901.403681	2628.732358
901.711105	2633.715539
902.018489	2631.242853
902.325832	2634.010446
902.633135	2634.897689
902.940397	2649.509474
903.247619	2687.063549
903.554800	2757.445619
903.861941	2884.918756
904.169041	3015.000689
904.476101	3079.421594
904.783121	3069.742579
905.090100	3014.531862
905.397039	2936.043617
905.703938	2863.602237
906.010796	2798.231074
906.317614	2747.917838
906.624391	2708.450645
906.931129	2682.440811
907.237826	2660.330311
907.544483	2641.355407
907.851099	2627.363685
908.157675	2618.085441
908.464211	2608.983638
908.770707	2599.569283
909.077163	2595.594333
909.383578	2592.809096
909.689954	2593.408993
909.996289	2587.861203
910.302584	2589.633169
910.608839	2585.317941
910.915054	2587.115113
911.221229	2588.423292
911.527363	2591.758015
911.833458	2591.707604
912.139513	2589.441605
912.445527	2592.325145
912.751502	2596.239601
913.057436	2601.805035
913.363331	2609.961622
913.669186	2620.280864
913.975000	2631.726804
914.280775	2651.316727
914.586510	2671.168791
914.892205	2705.970397
915.197859	2775.984462
915.503475	2857.162162
915.809050	2927.612288
916.114585	2943.774227
916.420081	2956.329220
916.725536	2967.399594
917.030952	2939.809359
917.336328	2890.118706
917.641665	2841.471571
917.946961	2791.226391
918.252218	2754.725916
918.557435	2729.653738
918.862612	2706.212372
919.167750	2688.873324
919.472848	2672.613082
919.777906	2657.487100
920.082925	2644.057466
920.387904	2632.863584
920.692843	2629.856536
920.997743	2623.681122
921.302603	2616.704165
921.607423	2609.994389
921.912204	2603.917278
922.216946	2599.395363
922.521647	2599.957452
922.826310	2596.829416
923.130932	2593.434199
923.435516	2586.522777
923.740059	2585.499423
924.044564	2579.956674
924.349028	2580.183526
924.653454	2574.844944
924.957840	2570.476784
925.262186	2564.303892
925.566493	2569.455951
925.870761	2562.942780
926.174989	2566.244736
926.479178	2563.227605
926.783328	2560.457491
927.087438	2559.262738
927.391509	2559.323232
927.695541	2558.309960
927.999533	2558.272151
928.303486	2554.695452
928.607400	2555.474311
928.911275	2556.124619
929.215110	2554.125802
929.518906	2555.043292
929.822663	2554.350133
930.126381	2556.323745
930.430060	2554.042623
930.733699	2554.002294
931.037299	2554.592109
931.340861	2555.338199
931.644383	2557.001780
931.947866	2554.604712
932.251309	2556.248128
932.554714	2553.104968
932.858080	2559.247614
933.161407	2554.042623
933.464694	2554.937428
933.767943	2551.837118
934.071153	2553.392314
934.374323	2550.294525
934.677455	2551.199412
934.980548	2552.563044
935.283602	2552.459701
935.586617	2553.092365
935.889593	2552.920966
936.192530	2551.159083
936.495428	2552.144628
936.798287	2554.191337
937.101108	2554.849207
937.403890	2558.224260
937.706632	2558.171328
938.009336	2563.517472
938.312002	2568.412432
938.614628	2571.243040
938.917216	2572.977197
939.219765	2573.594738
939.522275	2576.710171
939.824747	2574.212279
940.127179	2571.248081
940.429573	2565.811197
940.731929	2566.602658
941.034246	2562.962945
941.336524	2564.397153
941.638763	2566.756413
941.940964	2562.773901
942.243126	2564.331618
942.545250	2561.702656
942.847335	2559.393808
943.149381	2562.363047
943.451389	2557.578992
943.753359	2558.995557
944.055290	2558.551935
944.357182	2555.025648
944.659036	2557.536142
944.960851	2556.379198
945.262628	2554.574465
945.564367	2557.268961
945.866067	2554.957592
946.167729	2555.333158
946.469352	2555.703683
946.770937	2558.720814
947.072484	2553.243600
947.373992	2558.050340
947.675462	2556.573282
947.976893	2550.438198
948.278286	2553.488096
948.579641	2553.140256
948.880958	2553.188147
949.182236	2553.120092
949.483476	2551.224618
949.784678	2551.184289
950.085841	2552.043805
950.386967	2549.422405
950.688054	2550.647406
950.989103	2554.904660
951.290114	2553.563713
951.591087	2554.428271
951.892021	2557.722665
952.192917	2558.723334
952.493776	2558.829198
952.794596	2559.829868
953.095378	2559.295505
953.396122	2561.135526
953.696828	2558.917419
953.997496	2557.364743
954.298126	2554.513971
954.598718	2556.043961
954.899272	2555.663354
955.199788	2552.467262
955.500266	2549.702189
955.800706	2548.056253
956.101108	2541.452341
956.401472	2545.502908
956.701798	2543.562064
957.002087	2542.478216
957.302337	2545.689431
957.602550	2543.501570
957.902724	2541.343956
958.202861	2542.868905
958.502960	2542.052238
958.803022	2541.898483
959.103045	2538.135262
959.403031	2540.731456
959.702979	2538.072247
960.002889	2541.439738
960.302762	2537.908410
960.602596	2539.153575
960.902393	2538.127700
961.202153	2538.846065
961.501875	2538.289017
961.801559	2537.847916
962.101205	2538.079809
962.400814	2538.316743
962.700385	2535.927237
962.999918	2535.922195
963.299414	2537.553009
963.598873	2538.198276
963.898293	2535.554191
964.197677	2535.034952
964.497022	2538.215920
964.796331	2541.596014
965.095601	2537.734490
965.394835	2537.847916
965.694030	2537.505118
965.993189	2536.290200
966.292309	2535.433203
966.591393	2535.072761
966.890439	2531.934643
967.189447	2535.319778
967.488419	2534.631660
967.787353	2533.421783
968.086249	2533.167205
968.385108	2538.082330
968.683930	2534.939170
968.982714	2538.248688
969.281462	2536.582587
969.580172	2535.866743
969.878844	2535.954963
970.177480	2536.736342
970.476078	2537.676517
970.774639	2538.919161
971.073162	2535.123173
971.371649	2535.077802
971.670098	2534.351876
971.968510	2535.413039
972.266885	2532.330373
972.565223	2535.833975
972.863524	2536.895138
973.161788	2539.685417
973.460014	2539.682896
973.758204	2536.413708
974.056356	2538.420087
974.354471	2540.131559
974.652550	2538.099974
974.950591	2536.534696
975.248595	2538.931764
975.546563	2537.525282
975.844493	2538.253729
976.142386	2534.419932
976.440243	2538.367155
976.738062	2536.252391
977.035845	2537.898328
977.333590	2537.248019
977.631299	2538.427649
977.928971	2536.519572
978.226606	2538.089892
978.524204	2534.850950
978.821765	2535.685261
979.119290	2533.013450
979.416777	2533.043697
979.714228	2537.570653
980.011642	2536.065868
980.309020	2535.914634
980.606360	2535.166022
980.903664	2535.564273
981.200931	2537.351362
981.498162	2537.535365
981.795356	2540.721374
982.092513	2540.373534
982.389633	2547.219421
982.686717	2545.737322
982.983764	2550.102961
983.280775	2551.887530
983.577749	2553.833415
983.874686	2549.503064
984.171587	2545.835624
984.468451	2545.765048
984.765279	2540.277752
985.062070	2541.147351
985.358824	2538.178112
985.655543	2537.001002
985.952224	2538.319264
986.248869	2536.194418
986.545478	2529.290557
986.842050	2534.921526
987.138586	2531.047400
987.435086	2533.600744
987.731549	2530.901206
988.027975	2533.890610
988.324366	2533.366330
988.620719	2534.064530
988.917037	2532.605116
989.213318	2532.121165
989.509563	2532.872297
989.805772	2530.891124
990.101944	2533.048738
990.398080	2535.216434
990.694180	2531.765764
990.990244	2531.468336
991.286271	2531.178470
991.582262	2530.084539
991.878217	2534.409849
992.174136	2534.490508
992.470019	2533.068902
992.765865	2534.750127
993.061676	2531.256607
993.357450	2532.342976
993.653188	2530.049251
993.948890	2533.018491
994.244556	2534.402288
994.540186	2531.485980
994.835780	2532.249715
995.131337	2535.707946
995.426859	2536.491846
995.722345	2534.828265
996.017795	2534.815662
996.313208	2537.026208
996.608586	2536.703574
996.903928	2534.924047
997.199234	2536.998482
997.494504	2536.151568
997.789738	2534.167874
998.084936	2534.825744
998.380099	2533.076464
998.675225	2533.820034
998.970316	2531.697708
999.265371	2531.508665
999.560390	2534.180477
999.855373	2534.354397
1000.150320	2529.996319
1000.445232	2534.009078
1000.740108	2531.291896
1001.034948	2531.450692
1001.329752	2533.731814
1001.624521	2531.390198
1001.919254	2526.873324
1002.213951	2528.806607
1002.508613	2525.986081
1002.803239	2528.259642
1003.097829	2526.717048
1003.392384	2533.202493
1003.686903	2532.138809
1003.981386	2534.251053
1004.275834	2529.303160
1004.570246	2528.859539
1004.864623	2530.785260
1005.158964	2530.467667
1005.453270	2531.014632
1005.747540	2529.030938
1006.041775	2532.894982
1006.335974	2531.843902
1006.630138	2530.603778
1006.924266	2531.405322
1007.218359	2529.890455
1007.512416	2532.103521
1007.806438	2529.676206
1008.100425	2529.411545
1008.394376	2531.339787
1008.688292	2530.593696
1008.982172	2529.766947
1009.276017	2532.398429
1009.569827	2529.638397
1009.863602	2533.530168
1010.157341	2531.251566
1010.451045	2527.521113
1010.744714	2529.955990
1011.038347	2530.087060
1011.331945	2531.594365
1011.625508	2527.947090
1011.919036	2528.373067
1012.212528	2531.173428
1012.505986	2529.214940
1012.799408	2530.939015
1013.092795	2530.865918
1013.386147	2529.018335
1013.679464	2531.690147
1013.972745	2530.676875
1014.265992	2530.563449
1014.559204	2529.025897
1014.852380	2529.461957
1015.145521	2529.514889
1015.438628	2528.725948
1015.731699	2528.355423
1016.024736	2530.807945
1016.317737	2529.890455
1016.610703	2530.772657
1016.903635	2526.611184
1017.196531	2528.002543
1017.489393	2528.995650
1017.782219	2525.734023
1018.075011	2527.163191
1018.367768	2530.553367
1018.660490	2531.730476
1018.953177	2531.730476
1019.245829	2531.730476
