Dividing Wavelength (nm)	Counts (n)	Blue Motor Position (mm): 18.000000	Red Motor Position (mm): 0.000000	
326.493990	2133.849847
326.888308	2133.849847
327.282561	2133.849847
327.676750	2102.443458
328.070874	2100.023705
328.464933	2106.516711
328.858929	2109.186002
329.252859	2120.659668
329.646726	2131.321708
330.040528	2144.327885
330.434265	2162.241625
330.827938	2177.768379
331.221547	2197.927953
331.615091	2213.926055
332.008571	2234.196535
332.401986	2254.134298
332.795338	2273.167175
333.188625	2293.888838
333.581847	2310.983390
333.975006	2329.290340
334.368100	2348.978567
334.761129	2366.156298
335.154095	2383.253372
335.546996	2404.816907
335.939833	2422.791141
336.332606	2436.853440
336.725315	2452.198712
337.117960	2461.207254
337.510540	2468.040538
337.903056	2478.092599
338.295508	2490.660196
338.687896	2496.621360
339.080220	2502.879953
339.472480	2508.621827
339.864676	2515.553413
340.256807	2519.576254
340.648875	2521.083559
341.040879	2523.316790
341.432818	2524.713190
341.824694	2525.280320
342.216506	2526.953983
342.608253	2527.412728
342.999937	2528.310053
343.391557	2528.000022
343.783113	2523.241173
344.174605	2522.641276
344.566033	2522.999197
344.957397	2521.401152
345.348697	2520.889475
345.739934	2518.512571
346.131106	2516.980060
346.522215	2515.331602
346.913260	2514.177178
347.304241	2513.789009
347.695159	2509.662825
348.086012	2507.611075
348.476802	2505.022443
348.867528	2503.038749
349.258191	2504.041938
349.648789	2500.866012
350.039324	2501.475991
350.429796	2496.896103
350.820203	2497.995074
351.210548	2496.739827
351.600828	2494.816627
351.991045	2497.848881
352.381198	2493.316884
352.771288	2494.612460
353.161314	2492.180103
353.551276	2493.228663
353.941175	2494.405773
354.331010	2495.189672
354.720782	2494.735968
355.110490	2493.936946
355.500135	2495.124137
355.889717	2492.124651
356.279235	2491.567603
356.668689	2493.957110
357.058080	2493.944507
357.447408	2492.482573
357.836672	2493.047182
358.225873	2493.009373
358.615010	2493.052223
359.004084	2495.872749
359.393095	2496.013901
359.782043	2498.640342
360.170927	2496.669251
360.559748	2500.114880
360.948505	2500.351814
361.337199	2498.655466
361.725830	2500.061948
362.114398	2501.024808
362.502903	2500.150168
362.891344	2501.279386
363.279722	2499.797287
363.668037	2501.879283
364.056289	2503.089160
364.444478	2503.618482
364.832603	2503.563029
365.220665	2503.923471
365.608665	2503.764675
365.996601	2503.963801
366.384474	2505.929851
366.772284	2505.284583
367.160031	2505.458503
367.547715	2508.284069
367.935336	2504.873729
368.322893	2507.996724
368.710388	2506.864985
369.097820	2510.154338
369.485189	2508.566374
369.872495	2508.407578
370.259738	2510.219872
370.646918	2508.657115
371.034035	2508.858761
371.421090	2507.764831
371.808081	2509.554440
372.195010	2506.602845
372.581875	2507.656446
372.968678	2508.241220
373.355418	2511.200377
373.742096	2507.815242
374.128710	2513.297497
374.515262	2512.402692
374.901751	2511.311282
375.288177	2510.572753
375.674540	2510.582836
376.060841	2511.870850
376.447079	2511.525531
376.833254	2512.392610
377.219367	2507.563184
377.605417	2511.273474
377.991404	2507.782475
378.377329	2509.768689
378.763191	2509.234327
379.148991	2509.052845
379.534727	2513.582322
379.920402	2512.722805
380.306013	2515.500481
380.691563	2512.301869
381.077049	2515.598784
381.462474	2512.241375
381.847835	2515.263547
382.233134	2515.850841
382.618371	2514.179699
383.003545	2516.687673
383.388657	2513.889833
383.773706	2517.766480
384.158693	2516.125584
384.543618	2516.014679
384.928480	2518.242869
385.313280	2515.959226
385.698017	2516.415451
386.082692	2515.994514
386.467305	2517.348064
386.851856	2518.482324
387.236344	2519.379649
387.620770	2516.629700
388.005133	2519.777900
388.389435	2519.044412
388.773674	2518.005935
389.157851	2519.145235
389.541965	2518.542817
389.926018	2518.315966
390.310008	2516.344874
390.693936	2521.070956
391.077802	2518.966274
391.461606	2520.403003
391.845348	2516.806140
392.229027	2520.140863
392.612645	2518.880575
392.996200	2519.087262
393.379694	2520.433250
393.763125	2522.870648
394.146494	2520.745802
394.529801	2522.568179
394.913047	2522.500123
395.296230	2523.213447
395.679351	2520.362674
396.062410	2522.651358
396.445408	2524.937521
396.828343	2523.599095
397.211217	2519.311593
397.594028	2519.944258
397.976778	2519.672036
398.359466	2523.589012
398.742092	2520.120699
399.124656	2522.570699
399.507158	2522.815195
399.889598	2523.697397
400.271977	2522.391738
400.654294	2525.507172
401.036549	2523.556245
401.418742	2525.600433
401.800874	2524.750998
402.182944	2525.257634
402.564952	2524.826616
402.946898	2526.487676
403.328783	2525.807120
403.710606	2525.620598
404.092367	2526.638911
404.474067	2525.466842
404.855705	2528.284847
405.237282	2527.478263
405.618797	2523.987264
406.000250	2526.769981
406.381642	2527.826102
406.762972	2526.679240
407.144240	2526.187727
407.525447	2530.054292
407.906593	2527.072450
408.287677	2526.109589
408.668700	2526.240659
409.049661	2526.656555
409.430560	2529.812317
409.811399	2529.023376
410.192176	2528.047913
410.572891	2527.339631
410.953545	2527.818541
411.334138	2527.813499
411.714669	2528.506658
412.095139	2528.670496
412.475547	2530.855836
412.855894	2530.051772
413.236180	2530.702081
413.616405	2530.001360
413.996568	2528.841895
414.376670	2528.236956
414.756711	2532.499252
415.136691	2531.117976
415.516609	2530.082019
415.896466	2531.299457
416.276262	2530.760054
416.655997	2528.922553
417.035670	2527.334590
417.415283	2530.666792
417.794834	2523.846111
418.174324	2528.864580
418.553753	2530.533202
418.933121	2531.740558
419.312428	2529.489683
419.691674	2529.799714
420.070859	2531.478418
420.449983	2531.415404
420.829045	2532.733666
421.208047	2532.315250
421.586988	2533.668800
421.965867	2533.091587
422.344686	2531.324663
422.723444	2533.971269
423.102141	2531.422966
423.480777	2533.358769
423.859352	2533.794828
424.237866	2533.986392
424.616319	2532.247194
424.994712	2533.880528
425.373044	2534.699716
425.751314	2536.312885
426.129524	2535.604603
426.507673	2534.482946
426.885762	2534.160312
427.263789	2534.656866
427.641756	2532.136289
428.019662	2535.193749
428.397508	2534.404808
428.775292	2536.093595
429.153016	2534.576207
429.530679	2534.087215
429.908282	2536.204500
430.285824	2534.515713
430.663305	2531.100332
431.040726	2537.631147
431.418086	2533.658717
431.795385	2536.746424
432.172624	2534.863553
432.549802	2536.005374
432.926920	2533.988913
433.303977	2538.941847
433.680974	2536.902700
434.057910	2537.603420
434.434786	2535.796167
434.811601	2537.429500
435.188355	2536.537216
435.565050	2538.533513
435.941683	2538.626774
436.318257	2535.256763
436.694770	2534.929088
437.071222	2536.224665
437.447614	2532.471526
437.823946	2533.976310
438.200218	2537.903369
438.576429	2539.975283
438.952580	2539.710622
439.328670	2538.079809
439.704700	2538.488143
440.080670	2536.501928
440.456580	2536.975797
440.832429	2541.837989
441.208218	2535.302133
441.583947	2539.219110
441.959616	2538.810777
442.335224	2538.185673
442.710773	2538.553678
443.086261	2538.762886
443.461689	2540.123997
443.837057	2543.423432
444.212365	2539.473688
444.587612	2538.735159
444.962800	2541.356559
445.337927	2542.326981
445.712995	2540.113915
446.088002	2541.195242
446.462949	2541.396888
446.837837	2539.635005
447.212664	2542.266487
447.587431	2539.698020
447.962139	2539.803884
448.336786	2543.607434
448.711374	2539.728267
449.085901	2541.081816
449.460369	2541.195242
449.834776	2542.037115
450.209124	2540.088709
450.583412	2542.122815
450.957640	2542.752959
451.331808	2540.915458
451.705917	2542.382434
452.079965	2541.099460
452.453954	2541.280942
452.827883	2544.535007
453.201752	2543.488967
453.575562	2543.136087
453.949311	2542.664739
454.323001	2543.604914
454.696632	2544.666077
455.070202	2543.887218
455.443713	2542.710109
455.817164	2541.064172
456.190556	2537.416897
456.563888	2541.412012
456.937160	2539.481250
457.310373	2541.288504
457.683526	2543.652805
458.056619	2544.693803
458.429653	2543.312527
458.802628	2544.098947
459.175542	2543.080634
459.548398	2546.054915
459.921194	2543.763710
460.293930	2544.451828
460.666607	2544.161961
461.039224	2545.923845
461.411782	2545.434853
461.784280	2546.493495
462.156719	2546.886705
462.529099	2544.114070
462.901419	2545.235727
463.273680	2545.381921
463.645882	2545.880995
464.018024	2546.279246
464.390106	2545.583567
464.762130	2545.301262
465.134094	2547.254709
465.505999	2547.108516
465.877845	2550.085317
466.249631	2547.133722
466.621358	2547.781510
466.993026	2549.666901
467.364634	2550.672612
467.736184	2547.431150
468.107674	2545.941489
468.479105	2547.189174
468.850477	2548.144473
469.221790	2547.554658
469.593043	2545.737322
469.964238	2547.912580
470.335373	2547.375697
470.706449	2548.520039
471.077467	2548.976263
471.448425	2552.313507
471.819324	2550.987684
472.190164	2550.430636
472.560945	2549.009031
472.931667	2549.881150
473.302330	2547.836962
473.672934	2544.721529
474.043479	2549.377035
474.413965	2551.443908
474.784393	2543.874616
475.154761	2547.320244
475.525070	2544.915614
475.895321	2546.879143
476.265513	2545.802857
476.635645	2553.364588
477.005719	2549.107333
477.375734	2546.382590
477.745691	2548.212528
478.115588	2551.726213
478.485427	2548.341078
478.855207	2551.625390
479.224928	2548.585574
479.594591	2554.556821
479.964194	2551.789227
480.333739	2550.700338
480.703226	2551.794268
481.072653	2551.718651
481.442022	2553.276368
481.811333	2555.887685
482.180584	2552.028682
482.549777	2554.042623
482.918912	2555.189485
483.287988	2554.302242
483.657005	2553.863662
484.025964	2552.522715
484.394864	2553.097407
484.763706	2555.991029
485.132489	2555.678477
485.501213	2553.510781
485.869879	2555.093703
486.238487	2552.353836
486.607036	2552.313507
486.975527	2555.779300
487.343959	2552.956254
487.712333	2555.587737
488.080648	2555.433981
488.448905	2556.144784
488.817104	2557.372305
489.185244	2557.513457
489.553326	2556.868190
489.921350	2559.056050
490.289315	2557.107644
490.657222	2560.265927
491.025070	2559.809703
491.392861	2556.333827
491.760593	2558.599826
492.128267	2560.961607
492.495883	2556.399362
492.863440	2560.371792
493.230939	2557.568910
493.598380	2557.210988
493.965763	2551.469114
494.333088	2556.411965
494.700354	2554.148487
495.067563	2556.444733
495.434713	2551.703527
495.801805	2559.330793
496.168839	2558.070505
496.535815	2561.241391
496.902733	2561.279199
497.269593	2560.863304
497.636395	2560.621329
498.003139	2561.380022
498.369825	2558.554456
498.736453	2561.848850
499.103023	2564.376988
499.469535	2560.918757
499.835989	2563.661144
500.202385	2564.553429
500.568723	2561.969837
500.935003	2564.931515
501.301226	2565.533933
501.667390	2569.113152
502.033497	2566.713563
502.399546	2568.606516
502.765537	2567.517627
503.131470	2568.956877
503.497345	2571.790005
503.863163	2571.205231
504.228923	2570.628019
504.594625	2575.974163
504.960269	2575.971642
505.325856	2578.696386
505.691385	2580.546489
506.056856	2583.213260
506.422270	2582.497416
506.787625	2584.158476
507.152924	2585.867427
507.518164	2589.605443
507.883347	2591.377408
508.248472	2595.312029
508.613540	2599.715477
508.978550	2600.857298
509.343503	2601.711774
509.708398	2610.289297
510.073236	2612.877929
510.438016	2616.315996
510.802738	2621.130298
511.167403	2625.992491
511.532010	2627.613222
511.896561	2635.522792
512.261053	2641.627630
512.625488	2642.618217
512.989866	2643.850779
513.354186	2650.016110
513.718449	2654.722027
514.082655	2668.774243
514.446803	2672.613082
514.810894	2680.878054
515.174927	2687.522294
515.538904	2692.858356
515.902822	2704.659697
516.266684	2709.663042
516.630488	2716.488764
516.994235	2726.424879
517.357925	2740.202352
517.721558	2747.718712
518.085133	2756.243304
518.448651	2768.223606
518.812112	2774.250305
519.175516	2785.673560
519.538863	2798.394912
519.902152	2809.908907
520.265385	2828.861125
520.628560	2834.945797
520.991678	2851.155628
521.354739	2860.159128
521.717743	2868.729090
522.080690	2883.242572
522.443580	2908.279463
522.806413	2921.472162
523.169189	2938.538988
523.531908	2957.302163
523.894569	2966.832464
524.257174	2980.572129
524.619722	3006.879391
524.982213	3017.445649
525.344647	3046.162582
525.707025	3059.975343
526.069345	3083.497367
526.431608	3104.128289
526.793815	3131.806745
527.155964	3137.684730
527.518057	3159.830519
527.880093	3179.377593
528.242072	3208.412118
528.603995	3228.886765
528.965860	3244.123652
529.327669	3271.439144
529.689421	3291.008904
530.051117	3314.225938
530.412755	3351.381762
530.774337	3364.670244
531.135862	3398.377919
531.497331	3417.496495
531.858743	3434.578445
532.220098	3483.104592
532.581396	3495.110099
532.942638	3519.194212
533.303824	3548.206052
533.664953	3590.377825
534.026025	3602.733693
534.387040	3655.438956
534.747999	3683.419881
535.108902	3729.813620
535.469748	3725.405131
535.830537	3771.889610
536.191270	3808.627019
536.551947	3850.022454
536.912567	3883.016806
537.273131	3904.043458
537.633638	3942.958645
537.994089	3980.243019
538.354483	4007.026670
538.714821	4065.176379
539.075103	4104.890589
539.435328	4141.348214
539.795497	4137.781598
540.155609	4221.946182
540.515665	4269.983337
540.875665	4260.279115
541.235609	4321.771110
541.595496	4357.018858
541.955328	4435.905354
542.315102	4448.256181
542.674821	4477.313391
543.034483	4518.590359
543.394090	4564.200198
543.753640	4589.973098
544.113134	4693.556206
544.472571	4700.467628
544.831953	4785.950474
545.191278	4780.735400
545.550548	4830.310107
545.909761	4903.845418
546.268918	4949.498108
546.628019	5017.021843
546.987064	5029.599522
547.346053	5043.225760
547.704986	5126.911435
548.063863	5162.938041
548.422684	5199.763670
548.781449	5228.329368
549.140158	5306.933559
549.498811	5317.414118
549.857408	5307.566224
550.215949	5445.078819
550.574434	5439.528508
550.932864	5530.609555
551.291237	5581.961269
551.649555	5632.405575
552.007817	5678.393501
552.366022	5703.934507
552.724173	5756.561633
553.082267	5794.571933
553.440305	5914.823616
553.798288	5861.221028
554.156215	5993.427808
554.514086	6034.465321
554.871902	6011.568400
555.229661	6078.560293
555.587365	6112.890551
555.945014	6105.900991
556.302606	6228.456482
556.660143	6216.251849
557.017625	6350.769998
557.375050	6342.739440
557.732421	6459.895855
558.089735	6473.398586
558.446994	6508.631210
558.804197	6583.073929
559.161345	6630.715353
559.518437	6593.347801
559.875474	6700.679007
560.232455	6761.903821
560.589381	6776.286233
560.946251	6840.185378
561.303065	6918.608088
561.659825	6954.780887
562.016528	6955.136289
562.373177	6922.860301
562.729770	7050.325876
563.086307	7040.528394
563.442789	7128.816642
563.799216	7133.522559
564.155587	7192.912392
564.511904	7211.932666
564.868164	7246.467090
565.224370	7297.423073
565.580520	7311.008983
565.936615	7334.251223
566.292654	7320.191444
566.648638	7431.963908
567.004567	7457.451981
567.360441	7493.881880
567.716260	7478.385373
568.072023	7579.488234
568.427732	7597.860719
568.783385	7562.670944
569.138982	7668.043663
569.494525	7714.913791
569.850013	7672.633633
570.205445	7772.025022
570.560823	7725.926191
570.916145	7722.856128
571.271412	7808.656567
571.626625	7812.913821
571.981782	7823.936304
572.336884	7856.963424
572.691931	7883.802527
573.046923	7901.764158
573.401860	7897.433807
573.756743	7890.824854
574.111570	7954.600491
574.466342	7976.610169
574.821059	8032.771143
575.175722	7980.219635
575.530330	8029.401132
575.884882	8052.663537
576.239380	8030.522789
576.593823	8045.421919
576.948211	8088.468332
577.302544	8024.183538
577.656823	8074.234634
578.011047	8100.743541
578.365216	8114.667208
578.719330	8086.814833
579.073389	8120.615770
579.427394	8105.280580
579.781344	8106.210673
580.135239	8092.087880
580.489080	8132.263356
580.842866	8081.355264
581.196597	8103.674972
581.550273	8159.047006
581.903895	8162.722007
582.257463	8239.181188
582.610975	8164.136051
582.964434	8204.644243
583.317837	8163.866349
583.671186	8162.434662
584.024481	8185.404679
584.377721	8136.765106
584.730906	8142.927917
585.084037	8188.666306
585.437113	8146.854976
585.790135	8191.940535
586.143103	8128.185062
586.496016	8121.044268
586.848874	8188.704114
587.201679	8197.410187
587.554428	8116.103937
587.907124	8176.776744
588.259765	8165.063623
588.612352	8188.585647
588.964884	8085.045388
589.317362	8120.285574
589.669786	8127.501986
590.022155	8185.180348
590.374470	8222.875576
590.726731	8175.798760
591.078937	8059.287613
591.431090	8182.571551
591.783188	8080.175634
592.135232	8093.592665
592.487222	8101.101463
592.839157	8166.659148
593.191038	8109.918441
593.542866	8074.398471
593.894639	7992.641038
594.246358	8055.652941
594.598022	8081.609842
594.949633	8001.798294
595.301190	7989.906212
595.652692	8028.536574
596.004141	8146.602918
596.355535	7944.324099
596.706876	7935.796987
597.058162	7885.259420
597.409395	7966.550547
597.760573	8034.134776
598.111698	7955.175183
598.462768	7949.675284
598.813785	7933.475536
599.164748	7908.113491
599.515657	7903.957060
599.866511	7830.479722
600.217312	7953.317518
600.568060	7824.841191
600.918753	7935.645753
601.269392	7915.675222
601.619978	7834.681524
601.970510	7902.182574
602.320988	7902.106956
602.671412	7967.430228
603.021783	7910.835714
603.372100	7887.636324
603.722363	7901.915392
604.072572	7883.552990
604.422728	7895.699650
604.772830	7830.736821
605.122878	7845.003286
605.472872	7846.697114
605.822813	7879.464614
606.172701	7834.187491
606.522534	7906.008809
606.872314	7913.459635
607.222041	7886.854945
607.571714	7946.486754
607.921333	7911.274295
608.270899	7918.951972
608.620411	8007.240220
608.969870	7917.782424
609.319276	7915.912156
609.668627	7929.855988
610.017926	7969.310578
610.367171	8022.129268
610.716362	8002.935074
611.065500	7998.579517
611.414585	8025.975668
611.763616	8022.446860
612.112594	7999.129003
612.461518	8015.487547
612.810389	8084.357271
613.159207	8024.581789
613.507971	7972.559602
613.856682	8098.016277
614.205340	8057.752581
614.553945	8135.109087
614.902496	8034.840537
615.250994	8086.799710
615.599439	8074.932834
615.947830	8096.319929
616.296169	8060.958755
616.644454	8078.207063
616.992686	8076.235972
617.340864	8129.029456
617.688990	8046.364615
618.037063	8133.916854
618.385082	8084.102692
618.733048	8170.959253
619.080961	8109.623534
619.428821	8131.161864
619.776628	8134.168912
620.124382	8087.717200
620.472083	8068.356648
620.819731	8102.344108
621.167326	7997.535999
621.514868	8004.018922
621.862357	7900.944970
622.209793	7914.795541
622.557176	7853.870676
622.904506	7827.802869
623.251783	7758.693691
623.599007	7719.007208
623.946179	7720.259934
624.293297	7681.284253
624.640363	7604.757017
624.987376	7580.655261
625.334336	7531.889659
625.681243	7482.009962
626.028097	7468.232489
626.374899	7452.546939
626.721647	7443.460259
627.068343	7375.984415
627.414987	7349.185641
627.761577	7302.980945
628.108115	7345.740012
628.454600	7238.965853
628.801032	7292.397043
629.147412	7252.594612
629.493739	7238.693631
629.840014	7175.195257
630.186236	7235.943681
630.532405	7118.305836
630.878521	7167.051273
631.224585	7123.954449
631.570597	7048.768160
631.916556	7087.315342
632.262462	7076.376039
632.608316	7041.614762
632.954117	7025.301588
633.299866	7005.651171
633.645562	6998.578432
633.991206	6917.577172
634.336797	6864.161106
634.682336	6822.657286
635.027823	6793.133769
635.373257	6783.394259
635.718639	6710.368105
636.063968	6727.782771
636.409245	6623.307378
636.754470	6625.134796
637.099642	6581.458239
637.444762	6530.119128
637.789829	6537.156579
638.134845	6481.164483
638.479808	6465.831814
638.824719	6465.627647
639.169577	6399.689355
639.514383	6424.295227
639.859137	6348.435944
640.203839	6352.776377
640.548489	6341.824471
640.893086	6317.924360
641.237632	6291.400329
641.582125	6312.926056
641.926566	6284.004957
642.270955	6293.073992
642.615292	6297.875691
642.959576	6303.804088
643.303809	6296.065917
643.647990	6304.918183
643.992118	6293.915865
644.336195	6240.719089
644.680219	6263.976452
645.024192	6253.705101
645.368112	6348.904771
645.711981	6374.337392
646.055797	6449.226253
646.399562	6405.053143
646.743274	6533.138780
647.086935	6583.774649
647.430544	6579.038485
647.774101	6601.219562
648.117606	6602.658812
648.461059	6602.179902
648.804460	6559.962759
649.147810	6467.903728
649.491108	6438.942299
649.834354	6410.003556
650.177548	6331.248130
650.520690	6242.508699
650.863781	6225.620833
651.206820	6246.534060
651.549807	6168.837276
651.892742	6111.703359
652.235626	6116.414317
652.578458	6103.398058
652.921238	6006.996073
653.263967	6051.396036
653.606644	5989.984700
653.949269	5995.993755
654.291843	5934.249703
654.634365	5983.698381
654.976836	5941.887051
655.319255	5934.587460
655.661622	5919.322846
656.003938	5910.034520
656.346203	5872.304004
656.688416	5906.483027
657.030577	5854.201221
657.372687	5827.714998
657.714746	5814.970962
658.056753	5854.453278
658.398708	5799.819774
658.740612	5791.295183
659.082465	5837.590619
659.424266	5829.728939
659.766016	5828.599721
660.107715	5805.080218
660.449362	5821.350542
660.790958	5812.820909
661.132503	5801.916894
661.473996	5836.549621
661.815438	5824.907076
662.156829	5823.661911
662.498168	5813.428368
662.839456	5788.918278
663.180693	5826.323640
663.521879	5826.003527
663.863013	5814.003060
664.204097	5832.282284
664.545129	5872.830805
664.886110	5865.579105
665.227040	5903.377677
665.567918	5862.902252
665.908746	5894.895935
666.249522	5899.382562
666.590248	5889.242281
666.930922	5912.270272
667.271545	5922.211427
667.612118	5933.942192
667.952639	5902.359363
668.293109	5922.715543
668.633528	5881.572166
668.973896	5888.304627
669.314213	5874.484303
669.654480	5860.933682
669.994695	5848.532443
670.334859	5845.031362
670.674973	5834.278581
671.015035	5839.488613
671.355047	5834.505433
671.695008	5824.387837
672.034918	5799.595442
672.374777	5805.997708
672.714585	5792.573115
673.054342	5792.868022
673.394049	5784.479543
673.733705	5826.048897
674.073310	5803.255320
674.412864	5767.571513
674.752368	5755.225727
675.091820	5759.770327
675.431223	5698.928641
675.770574	5701.963416
676.109875	5652.794522
676.449125	5657.520603
676.788324	5626.847703
677.127473	5564.879319
677.466571	5559.765069
677.805619	5548.301485
678.144616	5534.463517
678.483562	5515.294530
678.822458	5486.640612
679.161303	5477.642152
679.500098	5467.078414
679.838842	5453.938647
680.177535	5456.605417
680.516179	5471.847346
680.854771	5481.475949
681.193314	5565.209515
681.531805	5672.081976
681.870247	5828.264484
682.208638	5925.871305
682.546978	5934.320279
682.885268	5913.381846
683.223508	5823.765254
683.561697	5770.409682
683.899836	5746.285240
684.237925	5703.074990
684.575963	5662.962529
684.913951	5622.920644
685.251889	5683.926167
685.589776	5654.846271
685.927614	5624.700171
686.265401	5696.975194
686.603137	5676.800496
686.940824	5755.210603
687.278460	5783.282268
687.616046	5789.563546
687.953582	5855.159040
688.291068	5838.384601
688.628504	5902.497995
688.965889	5863.184557
689.303224	5805.153314
689.640510	5762.323671
689.977745	5684.861301
690.314930	5586.044604
690.652065	5530.496129
690.989150	5441.650834
691.326185	5367.671901
691.663170	5309.096214
692.000105	5235.031582
692.336990	5159.189943
692.673825	5137.986850
693.010610	5065.568154
693.347345	4999.191282
693.684030	4984.060258
694.020665	4944.157005
694.357251	4852.846585
694.693786	4861.408985
695.030272	4832.951672
695.366707	4796.146207
695.703093	4764.583543
696.039429	4784.410401
696.375716	4768.245942
696.711952	4741.351386
697.048139	4733.376280
697.384276	4709.014904
697.720363	4724.715578
698.056400	4734.530705
698.392388	4675.100542
698.728326	4660.047657
699.064214	4643.898320
699.400053	4631.865086
699.735842	4598.853090
700.071581	4574.768977
700.407270	4549.908527
700.742910	4534.384294
701.078501	4478.813135
701.414042	4479.453361
701.749533	4443.439358
702.084974	4382.330491
702.420366	4441.788380
702.755709	4379.005850
703.091002	4325.526770
703.426246	4376.654152
703.761440	4333.690918
704.096584	4294.833704
704.431679	4314.191735
704.766725	4301.291423
705.101721	4286.644350
705.436668	4320.173064
705.771565	4264.717851
706.106413	4289.926141
706.441212	4324.662212
706.775961	4335.813244
707.110661	4314.330367
707.445311	4345.948484
707.779913	4360.005741
708.114465	4374.131054
708.448967	4398.651227
708.783421	4458.285556
709.117825	4501.394983
709.452180	4503.615612
709.786485	4548.887694
710.120742	4631.935662
710.454949	4616.870174
710.789107	4681.782591
711.123216	4759.227317
711.457275	4747.872118
711.791286	4822.425742
712.125247	4837.798741
712.459159	4739.836519
712.793023	4813.654135
713.126837	4776.422693
713.460602	4769.067650
713.794318	4690.216442
714.127985	4696.832956
714.461602	4614.556284
714.795171	4585.733487
715.128691	4515.764792
715.462162	4461.050629
715.795584	4413.482301
716.128957	4395.369436
716.462281	4343.836240
716.795556	4318.874967
717.128782	4278.878453
717.461960	4214.354204
717.795088	4225.495154
718.128167	4182.383206
718.461198	4126.418837
718.794180	4121.634782
719.127113	4100.227522
719.459997	4078.288420
719.792833	4036.199827
720.125619	4027.685318
720.458357	3991.691480
720.791046	3998.761698
721.123686	3968.169456
721.456278	3933.753498
721.788821	3949.113894
722.121315	3921.548865
722.453761	3895.667581
722.786158	3905.344076
723.118506	3933.955145
723.450805	3883.485633
723.783056	3902.092532
724.115259	3916.608534
724.447412	3922.199174
724.779518	3916.704316
725.111574	3920.780089
725.443582	3951.944502
725.775542	3935.132254
726.107453	3985.226200
726.439315	3987.729133
726.771129	3999.714476
727.102895	4037.064385
727.434612	4086.560954
727.766281	4096.396245
728.097901	4097.417079
728.429473	4100.217440
728.760996	4107.461578
729.092471	4103.733644
729.423897	4086.576077
729.755276	4095.650154
730.086606	4095.062860
730.417887	4132.259013
730.749120	4195.401986
731.080305	4258.010596
731.411442	4284.426242
731.742530	4249.478443
732.073570	4257.070421
732.404562	4311.600582
732.735506	4302.874345
733.066401	4264.375053
733.397249	4204.317267
733.728048	4125.440853
734.058798	4044.084192
734.389501	3975.408553
734.720156	3916.038884
735.050762	3867.212788
735.381320	3862.456460
735.711831	3812.170950
736.042293	3782.473513
736.372707	3807.023932
736.703073	3777.044190
737.033391	3767.460957
737.363661	3784.449645
737.693883	3806.701298
738.024056	3819.523473
738.354182	3817.325530
738.684260	3878.058831
739.014290	3894.669433
739.344272	3892.600039
739.674207	3936.942028
740.004093	3938.532512
740.333931	3933.264507
740.663722	3937.315074
740.993464	3933.410700
741.323159	3911.892535
741.652806	3878.447000
741.982405	3851.242413
742.311956	3818.545489
742.641460	3812.458296
742.970915	3784.550468
743.300323	3747.923965
743.629683	3713.873491
743.958996	3705.076678
744.288260	3678.908048
744.617477	3645.984272
744.946647	3635.786018
745.275768	3607.820217
745.604842	3606.312912
745.933869	3558.943710
746.262847	3551.505487
746.591778	3584.835076
746.920662	3557.973288
747.249498	3527.416334
747.578286	3574.024322
747.907027	3592.482507
748.235720	3589.679625
748.564365	3611.858181
748.892963	3614.792133
749.221514	3597.233794
749.550017	3576.633119
749.878473	3569.373857
750.206881	3540.853529
750.535242	3536.399670
750.863555	3539.691543
751.191821	3535.300698
751.520039	3517.129859
751.848210	3494.195130
752.176334	3524.981457
752.504411	3535.393960
752.832440	3495.795696
753.160421	3475.991523
753.488356	3486.920745
753.816243	3497.983557
754.144082	3452.729119
754.471875	3439.818724
754.799620	3460.800006
755.127318	3451.594859
755.454969	3452.540076
755.782572	3458.841518
756.110129	3432.645162
756.437638	3426.041251
756.765100	3437.817386
757.092515	3448.771813
757.419882	3450.952112
757.747203	3429.507044
758.074477	3429.048299
758.401703	3444.350721
758.728882	3464.545584
759.056014	3472.326605
759.383099	3475.305927
759.710138	3471.217551
760.037129	3490.714213
760.364073	3522.818802
760.690970	3504.224506
761.017820	3485.065600
761.344623	3499.097652
761.671379	3545.637584
761.998088	3592.608535
762.324751	3725.120305
762.651366	3968.933191
762.977935	4431.529632
763.304456	4869.794945
763.630931	4956.570846
763.957359	4601.749233
764.283740	4263.596195
764.610074	4077.781784
764.936362	3880.118142
765.262602	3724.497723
765.588796	3615.155096
765.914943	3530.614946
766.241044	3441.933488
766.567097	3414.809560
766.893104	3370.674258
767.219064	3337.584124
767.544978	3312.617810
767.870845	3257.081938
768.196665	3240.088209
768.522438	3250.165475
768.848165	3242.762541
769.173846	3205.014381
769.499479	3190.775642
769.825066	3171.994823
770.150607	3157.483862
770.476101	3171.853671
770.801548	3169.509534
771.126949	3121.043881
771.452303	3104.060234
771.777611	3112.645319
772.102872	3118.215794
772.428087	3091.177565
772.753256	3085.755804
773.078378	3077.659711
773.403453	3042.293496
773.728482	3029.798997
774.053465	3052.388407
774.378401	3041.698640
774.703291	3006.022394
775.028135	3010.017509
775.352932	3004.941067
775.677683	2994.740292
776.002388	2989.033706
776.327046	2988.277533
776.651658	2980.965339
776.976224	2966.668627
777.300743	2968.254070
777.625216	2958.741413
777.949643	2954.942903
778.274024	2959.326186
778.598359	2948.137345
778.922647	2949.669856
779.246889	2948.485185
779.571086	2936.020932
779.895236	2927.902154
780.219339	2941.669545
780.543397	2952.513067
780.867409	2957.811320
781.191374	2948.797737
781.515294	2945.848662
781.839167	2945.558795
782.162995	2938.130655
782.486776	2947.827314
782.810511	2947.255143
783.134201	2931.166301
783.457844	2937.659307
783.781441	2928.055909
784.104993	2908.748290
784.428498	2911.619227
784.751958	2923.453336
785.075372	2917.784558
785.398739	2901.909965
785.722061	2918.568458
786.045337	2925.623552
786.368568	2911.823394
786.691752	2904.402815
787.014891	2952.185392
787.337983	2982.190340
787.661030	3009.657066
787.984031	3074.851788
788.306987	3118.588839
788.629897	3112.070627
788.952760	3096.359871
789.275579	3080.941502
789.598351	3025.294726
789.921078	2980.887201
790.243759	2971.581231
790.566395	2953.334775
790.888984	2931.010025
791.211529	2913.595359
791.534027	2906.847775
791.856480	2893.108110
792.178888	2880.190153
792.501249	2870.659852
792.823566	2869.969214
793.145836	2868.870242
793.468062	2866.573997
793.790241	2862.266331
794.112375	2867.705736
794.434464	2877.200749
794.756507	2880.540513
795.078505	2887.517470
795.400457	2900.800911
795.722364	2937.588731
796.044226	2959.830302
796.366042	2965.468832
796.687812	2953.780917
797.009538	2973.126345
797.331218	2960.031948
797.652852	2948.396965
797.974442	2928.416352
798.295986	2929.235539
798.617484	2921.769590
798.938938	2906.389030
799.260346	2888.951679
799.581709	2886.703324
799.903026	2878.856768
800.224299	2872.940974
800.545526	2864.371013
800.866708	2847.178157
801.187845	2838.184739
801.508936	2839.818073
801.829983	2848.458610
802.150984	2833.703153
802.471940	2822.216884
802.792851	2822.569765
803.113717	2821.375011
803.434538	2828.384736
803.755314	2818.534321
804.076045	2813.168013
804.396731	2813.818322
804.717372	2811.587611
805.037967	2806.556540
805.358518	2816.049032
805.679024	2825.128150
805.999485	2825.891885
806.319901	2825.486072
806.640272	2820.233190
806.960598	2825.261741
807.280879	2833.904799
807.601115	2838.562825
807.921306	2826.459015
808.241453	2821.077583
808.561554	2830.086125
808.881611	2831.369099
809.201623	2824.624035
809.521590	2825.896926
809.841513	2820.492809
810.161390	2821.717810
810.481223	2818.662871
810.801011	2807.768937
811.120755	2807.292548
811.440453	2807.688279
811.760107	2808.512507
812.079716	2805.762558
812.399281	2797.394242
812.718801	2793.268058
813.038276	2786.273457
813.357707	2794.679581
813.677093	2798.974644
813.996434	2791.695218
814.315731	2788.388221
814.634983	2784.320010
814.954191	2783.687345
815.273354	2799.763585
815.592473	2808.857826
815.911547	2808.114256
816.230577	2817.805874
816.549562	2827.310970
816.868502	2823.855259
817.187399	2833.826661
817.506250	2850.530525
817.825058	2844.808815
818.143821	2855.725434
818.462539	2874.072713
818.781213	2896.891496
819.099843	2933.727207
819.418429	2988.824498
819.736970	3050.104764
820.055466	3118.508181
820.373919	3223.618759
820.692327	3359.329141
821.010691	3525.730068
821.329011	3958.727375
821.647286	4838.812013
821.965517	6196.614034
822.283704	6910.945534
822.601847	6885.215485
822.919945	6262.199446
823.237999	5764.393065
823.556010	5197.921128
823.873976	4664.017565
824.191897	4265.935290
824.509775	3977.525837
824.827609	3712.837534
825.145398	3593.823453
825.463144	3583.388265
825.780845	3675.084333
826.098502	3776.897997
826.416116	4052.795305
826.733685	4358.473231
827.051210	4417.424484
827.368692	4309.533709
827.686129	4048.253226
828.003522	3729.579206
828.320872	3477.158551
828.638177	3285.849283
828.955439	3155.444715
829.272656	3073.387333
829.589830	3010.201511
829.906960	2961.496403
830.224046	2914.384300
830.541088	2882.067983
830.858086	2868.310674
831.175041	2851.069928
831.491952	2851.294259
831.808819	2864.464274
832.125642	2887.588047
832.442421	2930.281578
832.759157	3010.446007
833.075849	3184.537214
833.392497	3458.443267
833.709101	3656.147238
834.025662	3606.489352
834.342179	3451.892288
834.658653	3277.710340
834.975083	3134.075264
835.291469	3035.460212
835.607811	2956.848459
835.924110	2899.220509
836.240366	2851.886595
836.556578	2811.343115
836.872746	2787.052315
837.188871	2763.046341
837.504952	2748.913466
837.820990	2745.432549
838.136984	2730.230950
838.452935	2720.405741
838.768842	2717.126470
839.084706	2736.575242
839.400526	2813.657005
839.716303	2947.361008
840.032037	3019.424302
840.347727	3006.564318
840.663373	2946.498970
840.978977	2874.044987
841.294537	2800.877680
841.610054	2758.058119
841.925527	2738.014491
842.240957	2712.536500
842.556344	2689.090093
842.871687	2676.477126
843.186987	2666.901455
843.502244	2661.635969
843.817458	2660.214364
844.132629	2646.262971
844.447756	2640.178298
844.762840	2632.571197
845.077881	2636.702422
845.392879	2634.567494
845.707833	2631.411732
846.022745	2624.316307
846.337613	2626.224384
846.652438	2623.073663
846.967221	2624.056688
847.281960	2623.277830
847.596656	2622.186420
847.911309	2619.643158
848.225919	2617.858589
848.540485	2615.257354
848.855009	2614.896912
849.169490	2614.584360
849.483928	2614.886829
849.798323	2615.033023
850.112675	2614.370111
850.426984	2611.942795
850.741251	2612.441870
851.055474	2610.748042
851.369654	2614.803650
851.683792	2614.506222
851.997887	2610.886674
852.311938	2611.630244
852.625947	2612.063783
852.939914	2616.671398
853.253837	2615.390945
853.567718	2612.961108
853.881555	2610.977414
854.195350	2615.494288
854.509103	2614.856582
854.822812	2609.510439
855.136479	2611.640326
855.450103	2614.178547
855.763685	2617.268774
856.077224	2611.441201
856.390720	2609.742332
856.704173	2611.035388
857.017584	2617.404886
857.330953	2621.178189
857.644278	2619.721296
857.957561	2619.728857
858.270802	2614.919597
858.584000	2615.569906
858.897155	2618.624845
859.210268	2620.263220
859.523339	2614.894391
859.836367	2611.930192
860.149352	2610.495984
860.462295	2614.105450
860.775195	2610.629575
861.088054	2607.685541
861.400869	2607.345263
861.713642	2604.260077
862.026373	2607.735952
862.339062	2609.051694
862.651708	2613.384565
862.964312	2613.276181
863.276873	2614.034874
863.589392	2617.127622
863.901869	2620.154835
864.214303	2626.030300
864.526696	2628.760085
864.839045	2629.717904
865.151353	2632.175466
865.463619	2632.896351
865.775842	2631.073974
866.088023	2628.795373
866.400162	2630.842081
866.712258	2631.179838
867.024313	2629.871659
867.336325	2626.998201
867.648296	2628.533233
867.960224	2634.111269
868.272110	2633.367699
868.583954	2625.465691
868.895755	2628.593727
869.207515	2632.578759
869.519233	2637.914820
869.830909	2632.147740
870.142542	2629.191103
870.454134	2632.246042
870.765684	2637.917341
871.077191	2638.441621
871.388657	2641.874646
871.700081	2641.862043
872.011463	2640.994965
872.322803	2644.349853
872.634101	2644.654843
872.945357	2653.091214
873.256571	2658.379384
873.567744	2653.809578
873.878874	2654.326296
874.189963	2654.159938
874.501010	2660.055568
874.812015	2663.775939
875.122979	2664.186793
875.433900	2656.867038
875.744780	2655.642037
876.055618	2659.725372
876.366415	2666.384736
876.677169	2663.634787
876.987882	2657.313180
877.298554	2657.718993
877.609183	2666.828358
877.919771	2674.679955
878.230317	2679.786644
878.540822	2690.496575
878.851285	2704.460571
879.161707	2729.648697
879.472087	2761.120620
879.782425	2810.370172
880.092722	2918.429826
880.402977	3101.927826
880.713191	3356.153214
881.023363	3631.737972
881.333494	3815.089778
881.643583	3985.816015
881.953631	3984.850634
882.263637	3810.066268
882.573602	3594.612394
882.883526	3467.960965
883.193408	3361.169162
883.503248	3263.892537
883.813048	3149.856596
884.122806	3042.124618
884.432522	2961.377936
884.742197	2895.689181
885.051831	2861.275744
885.361424	2826.983295
885.670975	2794.984571
885.980485	2764.104983
886.289954	2750.350195
886.599382	2735.652711
886.908768	2725.272975
887.218113	2705.773792
887.527417	2692.825588
887.836680	2686.062880
888.145901	2679.811850
888.455082	2673.689368
888.764221	2662.913902
889.073319	2654.084321
889.382376	2652.322438
889.691392	2651.576347
890.000366	2657.214877
890.309300	2652.332520
890.618193	2654.633807
890.927044	2655.558858
891.235855	2658.472645
891.544625	2654.790082
891.853353	2657.643376
892.162041	2663.959941
892.470687	2684.351409
892.779293	2695.154601
893.087858	2702.832279
893.396381	2724.741133
893.704864	2764.306629
894.013306	2834.335818
894.321707	2920.211874
894.630068	2966.275417
894.938387	2986.137563
895.246665	2980.189002
895.554903	2937.717280
895.863100	2897.188924
896.171256	2843.011644
896.479371	2782.968981
896.787446	2741.545820
897.095480	2727.465877
897.403473	2723.445557
897.711425	2707.157589
898.019336	2690.610001
898.327207	2677.351767
898.635038	2674.642146
898.942827	2675.559636
899.250576	2665.187462
899.558284	2653.618014
899.865952	2650.164824
900.173579	2650.195071
900.481165	2645.186684
900.788711	2637.975314
901.096216	2632.304016
901.403681	2629.682616
901.711105	2628.767646
902.018489	2624.719600
902.325832	2632.989613
902.633135	2630.496762
902.940397	2647.455204
903.247619	2684.071625
903.554800	2747.123856
903.861941	2868.711446
904.169041	2988.348109
904.476101	3046.835576
904.783121	3040.214020
905.090100	2983.553972
905.397039	2915.067376
905.703938	2846.651357
906.010796	2785.252623
906.317614	2735.710684
906.624391	2701.753472
906.931129	2676.535100
907.237826	2655.808396
907.544483	2638.499594
907.851099	2624.596092
908.157675	2616.189967
908.464211	2607.740994
908.770707	2596.811772
909.077163	2591.783221
909.383578	2591.828592
909.689954	2592.564600
909.996289	2589.580237
910.302584	2587.931780
910.608839	2586.162335
910.915054	2587.954465
911.221229	2588.592171
911.527363	2592.012594
911.833458	2587.669640
912.139513	2592.400762
912.445527	2591.921853
912.751502	2595.601895
913.057436	2603.178749
913.363331	2609.628906
913.669186	2618.113168
913.975000	2631.900723
914.280775	2647.092241
914.586510	2665.333656
914.892205	2698.857329
915.197859	2763.205137
915.503475	2844.554237
915.809050	2901.252094
916.114585	2916.123498
916.420081	2926.125147
916.725536	2936.144440
917.030952	2914.255750
917.336328	2870.992568
917.641665	2823.028510
917.946961	2775.810542
918.252218	2743.141345
918.557435	2720.012531
918.862612	2697.211392
919.167750	2681.288908
919.472848	2665.159736
919.777906	2650.704227
920.082925	2638.063534
920.387904	2631.187400
920.692843	2626.685650
920.997743	2622.924949
921.302603	2614.377673
921.607423	2608.590428
921.912204	2603.781167
922.216946	2601.726897
922.521647	2599.231526
922.826310	2594.908737
923.130932	2589.968406
923.435516	2585.116295
923.740059	2582.484813
924.044564	2581.269895
924.349028	2580.695203
924.653454	2572.949470
924.957840	2569.609706
925.262186	2569.783626
925.566493	2570.663307
925.870761	2566.645507
926.174989	2567.429407
926.479178	2563.293140
926.783328	2564.039231
927.087438	2563.058727
927.391509	2564.150136
927.695541	2557.205947
927.999533	2560.843139
928.303486	2558.030176
928.607400	2556.069167
928.911275	2556.376677
929.215110	2556.033879
929.518906	2558.188972
929.822663	2555.973385
930.126381	2558.768705
930.430060	2556.064126
930.733699	2556.790052
931.037299	2557.246276
931.340861	2559.799621
931.644383	2558.703170
931.947866	2557.616801
932.251309	2559.411452
932.554714	2557.074877
932.858080	2559.923129
933.161407	2558.375495
933.464694	2554.927345
933.767943	2557.352140
934.071153	2556.207798
934.374323	2555.948179
934.677455	2553.679660
934.980548	2553.757798
935.283602	2554.198899
935.586617	2554.655123
935.889593	2553.697304
936.192530	2557.067315
936.495428	2555.239897
936.798287	2553.089845
937.101108	2557.299208
937.403890	2559.701318
937.706632	2559.529919
938.009336	2568.477967
938.312002	2567.920919
938.614628	2572.004254
938.917216	2574.204718
939.219765	2574.557598
939.522275	2575.870819
939.824747	2576.334605
940.127179	2569.818914
940.429573	2567.399160
940.731929	2566.703481
941.034246	2565.082750
941.336524	2566.020404
941.638763	2569.138358
941.940964	2568.543502
942.243126	2565.914540
942.545250	2565.634756
942.847335	2562.589899
943.149381	2561.299364
943.451389	2562.284909
943.753359	2557.826009
944.055290	2558.889692
944.357182	2559.890361
944.659036	2558.443550
944.960851	2556.411965
945.262628	2556.033879
945.564367	2557.558828
945.866067	2556.921122
946.167729	2555.794424
946.469352	2558.398180
946.770937	2557.377346
947.072484	2559.366081
947.373992	2559.663509
947.675462	2559.572769
947.976893	2555.680998
948.278286	2556.091852
948.579641	2555.554969
948.880958	2551.519525
949.182236	2554.645041
949.483476	2553.374670
949.784678	2554.965154
950.085841	2555.378529
950.386967	2554.876934
950.688054	2553.435164
950.989103	2557.286605
951.290114	2555.610422
951.591087	2558.408262
951.892021	2557.200906
952.192917	2560.979251
952.493776	2560.265927
952.794596	2560.949004
953.095378	2561.574107
953.396122	2562.889848
953.696828	2560.550753
953.997496	2560.533108
954.298126	2558.015052
954.598718	2559.212326
954.899272	2557.384908
955.199788	2556.016235
955.500266	2555.207129
955.800706	2549.588763
956.101108	2547.408464
956.401472	2550.997766
956.701798	2549.586243
957.002087	2544.623227
957.302337	2549.349309
957.602550	2546.163299
957.902724	2545.175233
958.202861	2545.649102
958.502960	2546.427960
958.803022	2544.003165
959.103045	2546.022147
959.403031	2544.439225
959.702979	2541.800181
960.002889	2545.543237
960.302762	2544.950902
960.602596	2543.914945
960.902393	2542.631971
961.202153	2545.044163
961.501875	2543.002496
961.801559	2542.402599
962.101205	2542.548792
962.400814	2542.095088
962.700385	2541.807742
962.999918	2544.451828
963.299414	2542.195911
963.598873	2541.389327
963.898293	2541.593493
964.197677	2541.144831
964.497022	2544.454348
964.796331	2542.011909
965.095601	2540.103832
965.394835	2541.207845
965.694030	2539.002340
965.993189	2540.129038
966.292309	2538.246167
966.591393	2541.094419
966.890439	2539.745911
967.189447	2542.689944
967.488419	2539.503935
967.787353	2540.305479
968.086249	2541.028884
968.385108	2539.599717
968.683930	2541.089378
968.982714	2542.329502
969.281462	2540.519728
969.580172	2543.753628
969.878844	2539.990407
970.177480	2542.480737
970.476078	2543.620037
970.774639	2541.404450
971.073162	2542.500901
971.371649	2541.437218
971.670098	2539.382948
971.968510	2541.704399
972.266885	2538.765406
972.565223	2540.272711
972.863524	2542.447969
973.161788	2543.761190
973.460014	2537.817669
973.758204	2543.304965
974.056356	2542.458051
974.354471	2542.576518
974.652550	2540.416384
974.950591	2543.867054
975.248595	2542.004348
975.546563	2542.349667
975.844493	2541.197763
976.142386	2541.883360
976.440243	2540.227341
976.738062	2540.287835
977.035845	2541.601055
977.333590	2541.192722
977.631299	2539.844213
977.928971	2539.945036
978.226606	2540.323123
978.524204	2539.355221
978.821765	2539.854295
979.119290	2538.848585
979.416777	2543.496529
979.714228	2540.141641
980.011642	2540.832279
980.309020	2542.929399
980.606360	2541.107022
980.903664	2540.691127
981.200931	2541.845551
981.498162	2540.300437
981.795356	2544.313196
982.092513	2547.055584
982.389633	2547.690769
982.686717	2551.020451
982.983764	2551.685883
983.280775	2554.531615
983.577749	2555.320555
983.874686	2552.757129
984.171587	2551.393497
984.468451	2546.864020
984.765279	2547.927703
985.062070	2545.636499
985.358824	2544.003165
985.655543	2540.471837
985.952224	2540.769265
986.248869	2541.054090
986.545478	2537.477391
986.842050	2538.016795
987.138586	2540.376055
987.435086	2537.106867
987.731549	2532.539581
988.027975	2539.143493
988.324366	2538.525951
988.620719	2537.991589
988.917037	2536.839685
989.213318	2539.952598
989.509563	2534.976979
989.805772	2538.296579
990.101944	2536.491846
990.398080	2534.150230
990.694180	2539.025026
990.990244	2536.378420
991.286271	2536.542257
991.582262	2535.055117
991.878217	2535.960004
992.174136	2539.839172
992.470019	2540.028215
992.765865	2539.027546
993.061676	2537.333718
993.357450	2538.251208
993.653188	2540.597866
993.948890	2537.840354
994.244556	2538.682227
994.540186	2539.826569
994.835780	2538.843544
995.131337	2536.348173
995.426859	2540.015612
995.722345	2537.036290
996.017795	2539.047711
996.313208	2540.403781
996.608586	2541.036446
996.903928	2542.631971
997.199234	2539.992927
997.494504	2541.938812
997.789738	2540.592824
998.084936	2540.023174
998.380099	2537.742052
998.675225	2539.662732
998.970316	2539.977804
999.265371	2540.129038
999.560390	2538.921682
999.855373	2540.426466
1000.150320	2537.190046
1000.445232	2535.440765
1000.740108	2536.786753
1001.034948	2535.145858
1001.329752	2536.496887
1001.624521	2540.928061
1001.919254	2533.444468
1002.213951	2534.548481
1002.508613	2534.069571
1002.803239	2532.005219
1003.097829	2528.166380
1003.392384	2536.290200
1003.686903	2538.304141
1003.981386	2534.803059
1004.275834	2536.726259
1004.570246	2534.929088
1004.864623	2536.746424
1005.158964	2536.403626
1005.453270	2535.019829
1005.747540	2536.469161
1006.041775	2536.446475
1006.335974	2535.912113
1006.630138	2536.330529
1006.924266	2537.139634
1007.218359	2534.727442
1007.512416	2534.936650
1007.806438	2538.616692
1008.100425	2536.534696
1008.394376	2533.565456
1008.688292	2533.595703
1008.982172	2535.803728
1009.276017	2539.589635
1009.569827	2534.641742
1009.863602	2537.623585
1010.157341	2533.464633
1010.451045	2535.309695
1010.744714	2533.736855
1011.038347	2535.566794
1011.331945	2534.805580
1011.625508	2537.489994
1011.919036	2532.589993
1012.212528	2536.713657
1012.505986	2532.743748
1012.799408	2536.174253
1013.092795	2533.872966
1013.386147	2534.412370
1013.679464	2536.053265
1013.972745	2535.385313
1014.265992	2532.781557
1014.559204	2533.404139
1014.852380	2535.932278
1015.145521	2535.675179
1015.438628	2535.251722
1015.731699	2536.582587
1016.024736	2537.074099
1016.317737	2537.414377
1016.610703	2537.222813
1016.903635	2535.173584
1017.196531	2530.628984
1017.489393	2534.959335
1017.782219	2530.139992
1018.075011	2533.328522
1018.367768	2534.982020
1018.660490	2536.564942
1018.953177	2536.564942
1019.245829	2536.564942
