Dividing Wavelength (nm)	Counts (n)	Blue Motor Position (mm): 37.000000	Red Motor Position (mm): 0.000000	
326.493990	2127.906327
326.888308	2127.906327
327.282561	2127.906327
327.676750	2097.616554
328.070874	2094.319639
328.464933	2099.443972
328.858929	2104.472523
329.252859	2114.486775
329.646726	2126.341048
330.040528	2140.617596
330.434265	2157.802889
330.827938	2173.642195
331.221547	2189.844463
331.615091	2210.528318
332.008571	2229.367109
332.401986	2248.798237
332.795338	2266.623757
333.188625	2288.005811
333.581847	2305.992648
333.975006	2324.886893
334.368100	2343.380365
334.761129	2362.060361
335.154095	2376.029398
335.546996	2396.499003
335.939833	2423.441450
336.332606	2436.830755
336.725315	2451.157714
337.117960	2464.897379
337.510540	2467.387709
337.903056	2481.490337
338.295508	2489.178096
338.687896	2496.394508
339.080220	2504.059583
339.472480	2507.595952
339.864676	2516.690193
340.256807	2518.560462
340.648875	2521.101203
341.040879	2524.935001
341.432818	2525.681091
341.824694	2526.212933
342.216506	2527.863911
342.608253	2528.085722
342.999937	2524.264527
343.391557	2527.463139
343.783113	2526.843077
344.174605	2526.364168
344.566033	2523.178158
344.957397	2524.826616
345.348697	2522.701769
345.739934	2517.721109
346.131106	2517.983249
346.522215	2515.692045
346.913260	2511.843124
347.304241	2511.149965
347.695159	2510.751714
348.086012	2509.100736
348.476802	2508.019409
348.867528	2504.871208
349.258191	2502.827020
349.648789	2504.543533
350.039324	2501.206289
350.429796	2501.818790
350.820203	2496.812924
351.210548	2496.666730
351.600828	2497.995074
351.991045	2496.276041
352.381198	2496.623881
352.771288	2494.783859
353.161314	2497.861484
353.551276	2494.977944
353.941175	2499.139416
354.331010	2495.509786
354.720782	2495.545074
355.110490	2495.696308
355.500135	2494.151195
355.889717	2496.165136
356.279235	2493.944507
356.668689	2495.552635
357.058080	2498.153871
357.447408	2493.851246
357.836672	2493.750423
358.225873	2497.314519
358.615010	2493.410145
359.004084	2500.044303
359.393095	2499.698984
359.782043	2500.228306
360.170927	2495.388798
360.559748	2500.107318
360.948505	2499.819972
361.337199	2503.169819
361.725830	2500.913903
362.114398	2499.714108
362.502903	2502.448934
362.891344	2503.106804
363.279722	2502.159068
363.668037	2503.825169
364.056289	2501.922133
364.444478	2507.298524
364.832603	2503.913389
365.220665	2506.401198
365.608665	2505.375324
365.996601	2504.523369
366.384474	2506.509583
366.772284	2506.822135
367.160031	2509.746004
367.547715	2507.573267
367.935336	2507.540499
368.322893	2508.268946
368.710388	2509.504029
369.097820	2511.896056
369.485189	2508.291631
369.872495	2507.089316
370.259738	2507.641322
370.646918	2510.620644
371.034035	2508.110150
371.421090	2512.879081
371.808081	2508.790705
372.195010	2512.576612
372.581875	2509.970335
372.968678	2512.579133
373.355418	2511.399502
373.742096	2516.828825
374.128710	2516.002076
374.515262	2512.853875
374.901751	2512.589215
375.288177	2515.389576
375.674540	2513.831859
376.060841	2515.445028
376.447079	2513.728516
376.833254	2514.305728
377.219367	2510.953360
377.605417	2515.802950
377.991404	2511.616272
378.377329	2513.226921
378.763191	2513.841942
379.148991	2516.433095
379.534727	2517.832015
379.920402	2519.745133
380.306013	2518.908301
380.691563	2518.137005
381.077049	2517.607683
381.462474	2518.961233
381.847835	2519.631707
382.233134	2520.120699
382.618371	2519.155318
383.003545	2520.695390
383.388657	2520.758405
383.773706	2523.231091
384.158693	2520.188754
384.543618	2522.288395
384.928480	2522.379136
385.313280	2521.479290
385.698017	2521.529701
386.082692	2524.687984
386.467305	2523.553724
386.851856	2526.903571
387.236344	2525.124044
387.620770	2524.451050
388.005133	2525.847449
388.389435	2526.706966
388.773674	2524.171266
389.157851	2528.030269
389.541965	2528.693181
389.926018	2528.700742
390.310008	2527.112779
390.693936	2530.480270
391.077802	2527.667306
391.461606	2530.583613
391.845348	2528.917512
392.229027	2530.339117
392.612645	2529.930784
392.996200	2529.829961
393.379694	2531.627132
393.763125	2534.102339
394.146494	2534.634181
394.529801	2534.954294
394.913047	2533.353728
395.296230	2537.918492
395.679351	2534.417411
396.062410	2539.072917
396.445408	2540.860006
396.828343	2542.611807
397.211217	2541.752290
397.594028	2546.397713
397.976778	2551.453990
398.359466	2563.746844
398.742092	2564.550908
399.124656	2576.803433
399.507158	2587.825915
399.889598	2598.878645
400.271977	2609.956581
400.654294	2623.103910
401.036549	2637.882052
401.418742	2648.435708
401.800874	2668.839778
402.182944	2689.866431
402.564952	2715.921635
402.946898	2732.244891
403.328783	2750.375401
403.710606	2763.033738
404.092367	2810.188691
404.474067	2827.051351
404.855705	2853.255268
405.237282	2867.002495
405.618797	2915.936975
406.000250	2953.594394
406.381642	2997.202896
406.762972	3021.536545
407.144240	3055.191288
407.525447	3086.625403
407.906593	3137.808238
408.287677	3182.296421
408.668700	3198.675130
409.049661	3251.236720
409.430560	3306.139927
409.811399	3321.575940
410.192176	3417.370466
410.572891	3432.793876
410.953545	3521.155221
411.334138	3508.882532
411.714669	3577.399374
412.095139	3571.962490
412.475547	3680.594314
412.855894	3712.643450
413.236180	3765.464660
413.616405	3783.653143
413.996568	3870.048437
414.376670	3879.072103
414.756711	3890.674318
415.136691	3947.306641
415.516609	4040.134447
415.896466	4099.620063
416.276262	4166.213705
416.655997	4188.641799
417.035670	4355.476265
417.415283	4460.662460
417.794834	4460.047439
418.174324	4461.902584
418.553753	4429.472841
418.933121	4605.235191
419.312428	4698.970405
419.691674	4685.944064
420.070859	4823.229807
420.449983	4777.105769
420.829045	4912.125513
421.208047	4858.684242
421.586988	4949.306544
421.965867	4985.461699
422.344686	5134.369822
422.723444	5024.044170
423.102141	4885.984610
423.480777	5174.494886
423.859352	4984.750896
424.237866	5246.716977
424.616319	5253.830045
424.994712	5371.011666
425.373044	5275.479280
425.751314	5428.032157
426.129524	5257.610910
426.507673	5456.582732
426.885762	5544.311412
427.263789	5488.089943
427.641756	5384.494232
428.019662	5507.342110
428.397508	5527.952867
428.775292	5484.863605
429.153016	5587.357824
429.530679	5522.664697
429.908282	5609.891782
430.285824	5490.555067
430.663305	5764.791316
431.040726	5507.135422
431.418086	5512.612636
431.795385	5622.799656
432.172624	5629.655626
432.549802	5626.247806
432.926920	5642.732379
433.303977	5648.101207
433.680974	5693.779102
434.057910	5713.487493
434.434786	5720.575356
434.811601	5691.805491
435.188355	5923.154123
435.565050	5798.660308
435.941683	5782.415190
436.318257	5995.865206
436.694770	5980.449357
437.071222	6013.350448
437.447614	5947.989368
437.823946	5863.809660
438.200218	6015.031673
438.576429	5879.056630
438.952580	5983.910109
439.328670	6029.877871
439.704700	5928.414567
440.080670	5921.482981
440.456580	6191.777047
440.832429	6073.448563
441.208218	5922.130769
441.583947	6075.956537
441.959616	6079.208082
442.335224	6005.760991
442.710773	6145.340458
443.086261	6169.825343
443.461689	5964.350432
443.837057	6116.626046
444.212365	6266.285301
444.587612	6166.840979
444.962800	6312.023690
445.337927	6294.142717
445.712995	5907.713069
446.088002	6479.952086
446.462949	6311.895140
446.837837	6247.693525
447.212664	6416.511685
447.587431	6562.553912
447.962139	7103.036181
448.336786	8026.043724
448.711374	7767.130062
449.085901	6844.117478
449.460369	6763.401043
449.834776	6702.012392
450.209124	7090.274500
450.583412	7245.526915
450.957640	7387.763071
451.331808	7152.517626
451.705917	6704.112033
452.079965	6624.282841
452.453954	6836.860737
452.827883	6715.474794
453.201752	6806.558361
453.575562	6610.303722
453.949311	6811.090359
454.323001	6699.685900
454.696632	6776.276150
455.070202	6911.754639
455.443713	7067.296921
455.817164	7163.915675
456.190556	7247.162769
456.563888	7328.559760
456.937160	7371.636419
457.310373	7026.032556
457.683526	7048.082563
458.056619	6936.423526
458.429653	6927.692247
458.802628	6864.513987
459.175542	6970.305121
459.548398	7327.473391
459.921194	7488.422310
460.293930	7492.104873
460.666607	8013.957557
461.039224	8326.539343
461.411782	8447.065769
461.784280	8462.723593
462.156719	8362.881021
462.529099	8233.151968
462.901419	7828.138106
463.273680	7721.633649
463.645882	7732.499856
464.018024	7600.245185
464.390106	7765.075792
464.762130	8155.492993
465.134094	8619.954661
465.505999	9640.964755
465.877845	10863.326096
466.249631	11506.398366
466.621358	11124.735129
466.993026	10491.987142
467.364634	10238.417103
467.736184	9877.120128
468.107674	9548.227689
468.479105	9579.513090
468.850477	9340.789250
469.221790	9112.117470
469.593043	8787.361298
469.964238	8645.016757
470.335373	8662.774222
470.706449	8722.569868
471.077467	8700.603040
471.448425	10006.894551
471.819324	11080.778788
472.190164	11096.449214
472.560945	9848.778761
472.931667	9066.358917
473.302330	8928.841281
473.672934	8580.946213
474.043479	8935.775388
474.413965	8878.404537
474.784393	8757.172348
475.154761	8917.133201
475.525070	9003.702415
475.895321	8833.145057
476.265513	9006.626285
476.635645	9176.805556
477.005719	9174.509311
477.375734	9291.355695
477.745691	9523.127784
478.115588	9658.182816
478.485427	9901.229446
478.855207	10438.442526
479.224928	11249.105435
479.594591	11873.472504
479.964194	11685.326560
480.333739	11628.285904
480.703226	11543.229036
481.072653	11633.969805
481.442022	11872.358409
481.811333	12057.595607
482.180584	11864.952954
482.549777	11572.845815
482.918912	11399.674618
483.287988	11416.912844
483.657005	11436.049064
484.025964	11117.435538
484.394864	11247.996381
484.763706	11213.794673
485.132489	10977.356996
485.501213	10935.270923
485.869879	11010.812613
486.238487	10858.302586
486.607036	10972.802313
486.975527	10749.547254
487.343959	10937.801582
487.712333	10990.181691
488.080648	10922.390775
488.448905	10959.483585
488.817104	10897.847917
489.185244	11166.455718
489.553326	11326.262815
489.921350	11857.522293
490.289315	12913.276019
490.657222	13262.844751
491.025070	13166.490657
491.392861	13040.424002
491.760593	12666.685458
492.128267	12309.681025
492.495883	11981.292702
492.863440	11655.213227
493.230939	11312.923922
493.598380	11250.224571
493.965763	11116.661721
494.333088	11011.369661
494.700354	10936.682446
495.067563	10997.244348
495.434713	10831.821405
495.801805	10952.216762
496.168839	10881.711184
496.535815	10810.295678
496.902733	10810.008332
497.269593	10746.704043
497.636395	10846.274393
498.003139	10832.754018
498.369825	10711.811697
498.736453	10856.908707
499.103023	10789.624427
499.469535	10821.431587
499.835989	10807.011366
500.202385	10772.098855
500.568723	10620.450865
500.935003	10845.049393
501.301226	10651.746348
501.667390	10909.475339
502.033497	11010.066523
502.399546	10874.018383
502.765537	10765.941086
503.131470	10840.827426
503.497345	11015.382419
503.863163	10627.899170
504.228923	10944.667634
504.594625	11008.644917
504.960269	10749.874929
505.325856	10965.512805
505.691385	10771.418300
506.056856	10919.562688
506.422270	10947.820876
506.787625	10834.682260
507.152924	10949.237440
507.518164	10933.355285
507.883347	10853.200938
508.248472	10772.469380
508.613540	11002.832467
508.978550	10884.856864
509.343503	10866.433967
509.708398	10978.755916
510.073236	11091.118194
510.438016	11102.463311
510.802738	11045.301668
511.167403	11102.478434
511.532010	11004.012097
511.896561	11234.680173
512.261053	11302.692901
512.625488	11172.903354
512.989866	11157.041363
513.354186	11146.540640
513.718449	11047.739065
514.082655	11237.404917
514.446803	11127.054059
514.810894	11249.397822
515.174927	11116.432348
515.538904	11138.925977
515.902822	11297.656788
516.266684	11178.844353
516.630488	11122.438883
516.994235	11189.413132
517.357925	11242.345248
517.721558	11331.087200
518.085133	11344.897441
518.448651	11357.898576
518.812112	11237.294012
519.175516	11256.939388
519.538863	11368.656399
519.902152	11293.911211
520.265385	11454.413987
520.628560	11364.729340
520.991678	11343.599343
521.354739	11409.535115
521.717743	11344.468942
522.080690	11317.130765
522.443580	11457.778958
522.806413	11412.443861
523.169189	11434.919845
523.531908	11501.326965
523.894569	11320.742752
524.257174	11326.628299
524.619722	11444.092225
524.982213	11386.978472
525.344647	11433.893971
525.707025	11392.362425
526.069345	11483.229223
526.431608	11401.118909
526.793815	11505.165804
527.155964	11300.452108
527.518057	11356.928154
527.880093	11295.446242
528.242072	11368.459794
528.603995	11281.230188
528.965860	11189.892042
529.327669	11239.552449
529.689421	11194.542507
530.051117	11164.257775
530.412755	11266.409196
530.774337	11159.778710
531.135862	11136.722993
531.497331	11164.535038
531.858743	11014.283448
532.220098	11185.440703
532.581396	11054.688296
532.942638	11040.535257
533.303824	10994.489357
533.664953	11010.996616
534.026025	10928.465365
534.387040	11025.686538
534.747999	11029.437156
535.108902	11087.735580
535.469748	10845.729948
535.830537	10957.328492
536.191270	10924.440004
536.551947	10954.533172
536.912567	10952.831782
537.273131	10883.785619
537.633638	10855.035918
537.994089	10841.540750
538.354483	10785.389858
538.714821	10938.739237
539.075103	10949.703747
539.435328	10912.255535
539.795497	10736.979657
540.155609	10892.768955
540.515665	10981.548715
540.875665	10719.738911
541.235609	10790.340271
541.595496	10784.545464
541.955328	10942.378950
542.315102	10821.252626
542.674821	10779.983220
543.034483	10771.186407
543.394090	10784.275763
543.753640	10699.783503
544.113134	10924.687021
544.472571	10787.721391
544.831953	10920.616289
545.191278	10731.928421
545.550548	10759.773234
545.909761	10901.311190
546.268918	10875.828158
546.628019	10955.692637
546.987064	10815.437655
547.346053	10740.737837
547.704986	10847.038128
548.063863	10828.680766
548.422684	10820.118366
548.781449	10737.748433
549.140158	10834.722589
549.498811	10716.056348
549.857408	10569.598226
550.215949	10800.929214
550.574434	10654.418160
550.932864	10749.353169
551.291237	10811.414814
551.649555	10764.627865
552.007817	10772.691191
552.366022	10737.771118
552.724173	10728.513039
553.082267	10707.158712
553.440305	10847.781698
553.798288	10648.830041
554.156215	10800.253700
554.514086	10781.611513
554.871902	10628.302462
555.229661	10669.171097
555.587365	10647.897427
555.945014	10534.912567
556.302606	10670.658237
556.660143	10558.704292
557.017625	10708.088804
557.375050	10611.036511
557.732421	10740.790769
558.089735	10654.334981
558.446994	10658.990487
558.804197	10689.542399
559.161345	10691.662205
559.518437	10545.514113
559.875474	10631.186003
560.232455	10658.120888
560.589381	10613.937695
560.946251	10613.385688
561.303065	10716.184898
561.659825	10658.625003
562.016528	10581.699516
562.373177	10461.437750
562.729770	10577.817827
563.086307	10486.252829
563.442789	10584.641029
563.799216	10461.283994
564.155587	10507.549184
564.511904	10465.299273
564.868164	10453.676893
565.224370	10466.448657
565.580520	10395.544828
565.936615	10409.508824
566.292654	10269.221074
566.648638	10398.720755
567.004567	10355.041677
567.360441	10347.174957
567.716260	10253.666594
568.072023	10354.567809
568.427732	10301.229880
568.783385	10211.925840
569.138982	10277.027301
569.494525	10294.699066
569.850013	10169.446557
570.205445	10251.440924
570.560823	10147.078958
570.916145	10064.777080
571.271412	10130.357450
571.626625	10075.439120
571.981782	10056.474299
572.336884	10030.361123
572.691931	10032.359940
573.046923	9982.810439
573.401860	9939.743862
573.756743	9873.929077
574.111570	9919.334750
574.466342	9900.574096
574.821059	9929.205329
575.175722	9816.248195
575.530330	9834.403911
575.884882	9831.127161
576.239380	9753.246375
576.593823	9733.590916
576.948211	9750.370397
577.302544	9628.404721
577.656823	9637.015011
578.011047	9643.598758
578.365216	9621.556313
578.719330	9542.203510
579.073389	9553.394872
579.427394	9499.565431
579.781344	9472.096184
580.135239	9421.719933
580.489080	9438.282644
580.842866	9334.928908
581.196597	9341.366462
581.550273	9381.670487
581.903895	9350.390127
582.257463	9416.487216
582.610975	9295.237383
582.964434	9318.643461
583.317837	9239.134382
583.671186	9220.101506
584.024481	9220.313234
584.377721	9135.382395
584.730906	9119.157441
585.084037	9145.472264
585.437113	9083.980270
585.790135	9103.905430
586.143103	9000.508844
586.496016	8973.684865
586.848874	9030.937249
587.201679	9022.616825
587.554428	8907.431500
587.907124	8953.003531
588.259765	8926.897916
588.612352	8929.554604
588.964884	8805.123804
589.317362	8813.756780
589.669786	8821.353798
590.022155	8865.083287
590.374470	8881.073828
590.726731	8822.762801
591.078937	8667.195314
591.431090	8786.436246
591.783188	8656.470259
592.135232	8655.585537
592.487222	8656.119899
592.839157	8703.945325
593.191038	8635.705746
593.542866	8577.354391
593.894639	8478.580543
594.246358	8530.156588
594.598022	8543.316520
594.949633	8443.370604
595.301190	8422.379239
595.652692	8449.399824
596.004141	8561.943583
596.355535	8339.185077
596.706876	8319.327972
597.058162	8255.688446
597.409395	8325.967172
597.760573	8393.500989
598.111698	8299.874159
598.462768	8284.039895
598.813785	8252.210050
599.164748	8222.973878
599.515657	8214.857620
599.866511	8125.992160
600.217312	8248.978670
600.568060	8103.697657
600.918753	8208.190694
601.269392	8179.078031
601.619978	8094.585772
601.970510	8156.705390
602.320988	8152.604412
602.671412	8206.632978
603.021783	8137.659911
603.372100	8122.402859
603.722363	8123.769012
604.072572	8089.625277
604.422728	8110.530942
604.772830	8036.073099
605.122878	8041.875467
605.472872	8037.955970
605.822813	8063.577635
606.172701	8003.446752
606.522534	8091.503106
606.872314	8080.190757
607.222041	8057.364412
607.571714	8106.757638
607.921333	8064.331287
608.270899	8077.009789
608.620411	8162.926174
608.969870	8067.464364
609.319276	8065.238695
609.668627	8077.924758
610.017926	8112.600335
610.367171	8156.972571
610.716362	8134.799056
611.065500	8127.428889
611.414585	8157.965679
611.763616	8145.196436
612.112594	8123.017880
612.461518	8142.638050
612.810389	8199.840023
613.159207	8143.164851
613.507971	8089.519412
613.856682	8206.080972
614.205340	8166.165115
614.553945	8241.900890
614.902496	8136.747462
615.250994	8192.177469
615.599439	8179.700613
615.947830	8189.903909
616.296169	8158.668920
616.644454	8173.421856
616.992686	8171.609562
617.340864	8227.720124
617.688990	8134.675548
618.037063	8228.287254
618.385082	8169.250302
618.733048	8262.257069
619.080961	8196.028911
619.428821	8218.857776
619.776628	8223.019248
620.124382	8171.259201
620.472083	8149.683063
620.819731	8183.599946
621.167326	8078.993483
621.514868	8087.276099
621.862357	7972.471382
622.209793	7990.594330
622.557176	7925.195441
622.904506	7892.248980
623.251783	7829.836975
623.599007	7783.372660
623.946179	7785.830222
624.293297	7745.286742
624.640363	7660.310533
624.987376	7643.460476
625.334336	7588.922753
625.681243	7538.828807
626.028097	7533.674228
626.374899	7508.995259
626.721647	7502.149372
627.068343	7434.151768
627.414987	7399.549288
627.761577	7357.450612
628.108115	7393.073926
628.454600	7287.101311
628.801032	7341.424784
629.147412	7299.739483
629.493739	7284.311032
629.840014	7225.185859
630.186236	7286.587113
630.532405	7164.268556
630.878521	7216.956175
631.224585	7173.420771
631.570597	7099.598114
631.916556	7131.755634
632.262462	7127.286651
632.608316	7088.333656
632.954117	7067.594349
633.299866	7050.497275
633.645562	7044.387397
633.991206	6965.004347
634.336797	6910.287663
634.682336	6865.703699
635.027823	6831.214645
635.373257	6823.088305
635.718639	6755.688078
636.063968	6772.926303
636.409245	6667.137690
636.754470	6661.670559
637.099642	6621.124558
637.444762	6567.095992
637.789829	6574.909780
638.134845	6511.650861
638.479808	6500.958574
638.824719	6505.399831
639.169577	6428.829745
639.514383	6455.731862
639.859137	6385.783332
640.203839	6394.318006
640.548489	6378.670264
640.893086	6353.706470
641.237632	6326.544733
641.582125	6340.312124
641.926566	6319.025852
642.270955	6329.042625
642.615292	6327.210166
642.959576	6339.097206
643.303809	6324.377037
643.647990	6335.104612
643.992118	6329.599672
644.336195	6273.549603
644.680219	6298.480630
645.024192	6288.879752
645.368112	6379.129009
645.711981	6407.205715
646.055797	6479.301777
646.399562	6434.990035
646.743274	6566.208749
647.086935	6616.007787
647.430544	6615.803620
647.774101	6635.585108
648.117606	6639.640716
648.461059	6632.197453
648.804460	6592.271514
649.147810	6508.225397
649.491108	6473.146528
649.834354	6449.044772
650.177548	6362.994796
650.520690	6278.058916
650.863781	6256.770123
651.206820	6277.597650
651.549807	6197.029929
651.892742	6138.529859
652.235626	6143.623945
652.578458	6133.503829
652.921238	6038.825919
653.263967	6086.011119
653.606644	6020.057703
653.949269	6023.377303
654.291843	5964.637778
654.634365	6013.491600
654.976836	5964.110978
655.319255	5966.240865
655.661622	5940.253717
656.003938	5942.481907
656.346203	5901.562861
656.688416	5937.065187
657.030577	5888.181118
657.372687	5854.244071
657.714746	5845.081773
658.056753	5888.763372
658.398708	5826.590821
658.740612	5815.913657
659.082465	5865.490885
659.424266	5856.142065
659.766016	5854.886818
660.107715	5833.807233
660.449362	5845.434654
660.790958	5841.646227
661.132503	5826.041335
661.473996	5861.604155
661.815438	5852.605696
662.156829	5845.018759
662.498168	5840.219581
662.839456	5815.096990
663.180693	5853.878587
663.521879	5854.082754
663.863013	5841.915929
664.204097	5863.267736
664.545129	5903.612090
664.886110	5895.752931
665.227040	5930.305000
665.567918	5894.795112
665.908746	5928.747283
666.249522	5928.684269
666.590248	5917.495428
666.930922	5941.846722
667.271545	5959.248785
667.612118	5962.429753
667.952639	5930.993117
668.293109	5953.282579
668.633528	5911.612401
668.973896	5908.935549
669.314213	5908.877575
669.654480	5886.411673
669.994695	5879.094438
670.334859	5868.344178
670.674973	5863.726481
671.015035	5869.339806
671.355047	5863.008117
671.695008	5852.202403
672.034918	5830.598538
672.374777	5834.805381
672.714585	5823.510676
673.054342	5824.463454
673.394049	5815.646476
673.733705	5847.463719
674.073310	5837.298232
674.412864	5798.947654
674.752368	5786.972393
675.091820	5796.230472
675.431223	5730.027519
675.770574	5729.253702
676.109875	5680.702349
676.449125	5687.517989
676.788324	5654.705119
677.127473	5597.525832
677.466571	5588.650880
677.805619	5578.009004
678.144616	5564.344957
678.483562	5542.622625
678.822458	5507.105176
679.161303	5508.468808
679.500098	5496.909442
679.838842	5481.168439
680.177535	5479.772039
680.516179	5499.278784
680.854771	5510.195403
681.193314	5593.424853
681.531805	5698.369073
681.870247	5853.155181
682.208638	5945.937618
682.546978	5959.654598
682.885268	5940.800682
683.223508	5854.959914
683.561697	5802.559641
683.899836	5769.567809
684.237925	5726.836469
684.575963	5693.713567
684.913951	5650.649511
685.251889	5712.474222
685.589776	5682.076064
685.927614	5653.525489
686.265401	5724.189863
686.603137	5709.358788
686.940824	5785.596158
687.278460	5808.689684
687.616046	5818.320808
687.953582	5887.477877
688.291068	5864.454928
688.628504	5930.519249
688.965889	5890.870574
689.303224	5835.745557
689.640510	5789.180418
689.977745	5714.301640
690.314930	5614.706084
690.652065	5558.860182
690.989150	5465.334175
691.326185	5394.427825
691.663170	5337.465307
692.000105	5258.762814
692.336990	5185.686248
692.673825	5159.177340
693.010610	5094.184264
693.347345	5019.857492
693.684030	5007.504144
694.020665	4969.105675
694.357251	4872.076067
694.693786	4888.850506
695.030272	4851.427501
695.366707	4816.585566
695.703093	4782.961070
696.039429	4803.501251
696.375716	4786.676400
696.711952	4760.820322
697.048139	4749.825565
697.384276	4729.431577
697.720363	4743.035131
698.056400	4752.532665
698.392388	4700.185323
698.728326	4681.825441
699.064214	4659.530938
699.400053	4652.743025
699.735842	4624.807471
700.071581	4594.505095
700.407270	4567.860076
700.742910	4551.188980
701.078501	4493.205629
701.414042	4497.185620
701.749533	4465.237307
702.084974	4401.043254
702.420366	4458.071307
702.755709	4398.076535
703.091002	4342.848174
703.426246	4392.019589
703.761440	4350.041901
704.096584	4312.228206
704.431679	4331.472811
704.766725	4314.761386
705.101721	4305.276455
705.436668	4332.559179
705.771565	4283.380203
706.106413	4310.050427
706.441212	4339.553780
706.775961	4350.450234
707.110661	4332.380218
707.445311	4355.819063
707.779913	4383.061458
708.114465	4392.995052
708.448967	4412.453906
708.783421	4477.126869
709.117825	4516.329402
709.452180	4522.716543
709.786485	4568.061722
710.120742	4657.741329
710.454949	4639.111745
710.789107	4705.440726
711.123216	4780.427890
711.457275	4771.845325
711.791286	4846.734186
712.125247	4865.250344
712.459159	4764.601187
712.793023	4839.444678
713.126837	4799.138132
713.460602	4792.730826
713.794318	4713.073033
714.127985	4719.203076
714.461602	4636.114779
714.795171	4603.276702
715.128691	4536.645252
715.462162	4484.459227
715.795584	4433.490641
716.128957	4412.700922
716.462281	4363.806771
716.795556	4335.435158
717.128782	4299.965599
717.461960	4230.513623
717.795088	4241.606682
718.128167	4201.254766
718.461198	4142.840395
718.794180	4137.748830
719.127113	4116.933906
719.459997	4094.208384
719.792833	4054.791602
720.125619	4040.787277
720.458357	4007.734952
720.791046	4012.405581
721.123686	3983.671004
721.456278	3947.533492
721.788821	3960.786686
722.121315	3931.590843
722.453761	3909.669386
722.786158	3917.735232
723.118506	3944.985189
723.450805	3896.169176
723.783056	3918.148607
724.115259	3933.279630
724.447412	3937.000002
724.779518	3932.518416
725.111574	3936.140485
725.443582	3968.043427
725.775542	3950.351497
726.107453	4002.398890
726.439315	4002.834950
726.771129	4015.949512
727.102895	4052.366807
727.434612	4101.936473
727.766281	4109.440231
728.097901	4114.877115
728.429473	4118.305100
728.760996	4125.352633
729.092471	4120.056901
729.423897	4103.040486
729.755276	4109.533492
730.086606	4108.525261
730.417887	4144.927433
730.749120	4211.374882
731.080305	4276.123462
731.411442	4302.009787
731.742530	4275.485756
732.073570	4277.194707
732.404562	4334.331145
732.735506	4322.098785
733.066401	4286.440183
733.397249	4225.820308
733.728048	4142.696723
734.058798	4055.373856
734.389501	3989.428002
734.720156	3930.509516
735.050762	3880.551681
735.381320	3876.904407
735.711831	3823.029595
736.042293	3795.945996
736.372707	3820.582115
736.703073	3792.293680
737.033391	3782.770941
737.363661	3797.614618
737.693883	3825.822395
738.024056	3832.547294
738.354182	3829.255420
738.684260	3891.866551
739.014290	3910.939757
739.344272	3909.003954
739.674207	3949.570119
740.004093	3955.705203
740.333931	3950.938792
740.663722	3951.745377
740.993464	3947.583904
741.323159	3924.180347
741.652806	3895.619690
741.982405	3869.196482
742.311956	3837.593489
742.641460	3826.296263
742.970915	3800.961944
743.300323	3766.548508
743.629683	3726.957806
743.958996	3721.107547
744.288260	3693.262734
744.617477	3659.459277
744.946647	3647.541989
745.275768	3619.220787
745.604842	3616.914459
745.933869	3570.130030
746.262847	3564.027714
746.591778	3601.977520
746.920662	3571.705391
747.249498	3536.949156
747.578286	3583.350456
747.907027	3601.649845
748.235720	3601.027262
748.564365	3630.835605
748.892963	3625.398721
749.221514	3608.581431
749.550017	3584.225097
749.878473	3584.323399
750.206881	3556.899522
750.535242	3550.358625
750.863555	3550.754356
751.191821	3543.953839
751.520039	3527.529760
751.848210	3503.861543
752.176334	3535.915719
752.504411	3547.044066
752.832440	3506.251049
753.160421	3484.969818
753.488356	3498.104545
753.816243	3510.594003
754.144082	3464.409473
754.471875	3451.947740
754.799620	3469.710246
755.127318	3462.103145
755.454969	3462.360243
755.782572	3467.842498
756.110129	3444.842234
756.437638	3434.948969
756.765100	3445.815177
757.092515	3456.638534
757.419882	3466.509113
757.747203	3438.283693
758.074477	3441.066410
758.401703	3454.496043
758.728882	3476.286431
759.056014	3484.153152
759.383099	3485.854541
759.710138	3484.163234
760.037129	3501.524968
760.364073	3534.322715
760.690970	3516.204808
761.017820	3495.064729
761.344623	3516.993748
761.671379	3558.389183
761.998088	3608.906586
762.324751	3736.082294
762.651366	3985.805932
762.977935	4456.664825
763.304456	4902.380963
763.630931	4998.745139
763.957359	4634.652844
764.283740	4294.851348
764.610074	4102.039817
764.936362	3903.476328
765.262602	3746.958584
765.588796	3633.759474
765.914943	3540.793036
766.241044	3453.961681
766.567097	3425.945469
766.893104	3377.631050
767.219064	3346.534693
767.544978	3321.074345
767.870845	3265.548556
768.196665	3246.893766
768.522438	3257.984305
768.848165	3249.996597
769.173846	3213.541492
769.499479	3198.183617
769.825066	3179.236441
770.150607	3163.477794
770.476101	3180.103519
770.801548	3175.574042
771.126949	3129.341620
771.452303	3113.139352
771.777611	3119.899539
772.102872	3126.662247
772.428087	3100.339862
772.753256	3089.634972
773.078378	3084.140114
773.403453	3047.594270
773.728482	3037.358207
774.053465	3055.866803
774.378401	3046.207952
774.703291	3009.886439
775.028135	3017.218797
775.352932	3011.219824
775.677683	2998.619460
776.002388	2995.473780
776.327046	2997.182731
776.651658	2986.114878
776.976224	2972.715491
777.300743	2972.954946
777.625216	2964.538739
777.949643	2955.827626
778.274024	2962.144191
778.598359	2951.154476
778.922647	2958.073460
779.246889	2954.476596
779.571086	2937.364400
779.895236	2934.301899
780.219339	2943.842282
780.543397	2960.024386
780.867409	2962.318111
781.191374	2950.897377
781.515294	2948.984259
781.839167	2950.584826
782.162995	2941.868671
782.486776	2951.557768
782.810511	2949.876543
783.134201	2935.839451
783.457844	2944.106943
783.781441	2935.204265
784.104993	2912.251892
784.428498	2914.860689
784.751958	2927.166145
785.075372	2922.155238
785.398739	2904.927095
785.722061	2920.809250
786.045337	2933.243256
786.368568	2918.117274
786.691752	2910.416912
787.014891	2959.260651
787.337983	2987.022286
787.661030	3016.717202
787.984031	3083.041143
788.306987	3127.821712
788.629897	3120.756535
788.952760	3105.469236
789.275579	3090.877617
789.598351	3033.537012
789.921078	2986.618993
790.243759	2976.917293
790.566395	2962.741568
790.888984	2934.881631
791.211529	2920.587440
791.534027	2907.624113
791.856480	2898.978534
792.178888	2884.323899
792.501249	2876.575646
792.823566	2876.159751
793.145836	2871.443751
793.468062	2868.272866
793.790241	2864.295395
794.112375	2871.194214
794.434464	2883.476986
794.756507	2888.382028
795.078505	2894.978378
795.400457	2907.939185
795.722364	2947.315637
796.044226	2969.335397
796.366042	2972.725573
796.687812	2961.241825
797.009538	2982.195381
797.331218	2967.323977
797.652852	2952.439970
797.974442	2934.611930
798.295986	2932.010694
798.617484	2928.121444
798.938938	2910.817683
799.260346	2897.304871
799.581709	2891.636093
799.903026	2880.306100
800.224299	2876.799977
800.545526	2866.495859
800.866708	2853.542614
801.187845	2842.734380
801.508936	2844.642457
801.829983	2850.424660
802.150984	2837.549553
802.471940	2826.325424
802.792851	2825.836432
803.113717	2823.318376
803.434538	2830.020590
803.755314	2824.490444
804.076045	2817.374856
804.396731	2817.941986
804.717372	2819.361070
805.037967	2815.035760
805.358518	2819.073725
805.679024	2833.899758
805.999485	2824.729899
806.319901	2832.168122
806.640272	2820.502892
806.960598	2829.682833
807.280879	2837.375634
807.601115	2843.321675
807.921306	2830.829695
808.241453	2827.721824
808.561554	2833.975375
808.881611	2835.500324
809.201623	2830.529747
809.521590	2827.489931
809.841513	2821.022131
810.161390	2829.760971
810.481223	2822.657985
810.801011	2812.807570
811.120755	2808.567960
811.440453	2811.940492
811.760107	2811.232210
812.079716	2811.159113
812.399281	2801.855664
812.718801	2791.110444
813.038276	2791.100362
813.357707	2793.905764
813.677093	2802.566466
813.996434	2794.858542
814.315731	2790.026596
814.634983	2786.303704
814.954191	2788.673046
815.273354	2802.876497
815.592473	2812.681542
815.911547	2811.403609
816.230577	2819.356029
816.549562	2832.944459
816.868502	2828.183090
817.187399	2841.191787
817.506250	2856.577389
817.825058	2847.830987
818.143821	2862.594006
818.462539	2878.372817
818.781213	2903.984399
819.099843	2941.236006
819.418429	2999.650376
819.736970	3060.976013
820.055466	3133.777836
820.373919	3239.022005
820.692327	3375.473436
821.010691	3551.424829
821.329011	3995.046367
821.647286	4895.852669
821.965517	6281.166787
822.283704	7030.196549
822.601847	7012.136615
822.919945	6376.111878
823.237999	5862.836717
823.556010	5281.911792
823.873976	4725.136514
824.191897	4314.700892
824.509775	4016.393133
824.827609	3745.332812
825.145398	3621.809419
825.463144	3612.528655
825.780845	3701.411759
826.098502	3806.968479
826.416116	4091.922221
826.733685	4408.912495
827.051210	4473.015808
827.368692	4356.759238
827.686129	4090.049432
828.003522	3762.634052
828.320872	3505.827593
828.638177	3308.199238
828.955439	3170.888290
829.272656	3089.282091
829.589830	3018.988242
829.906960	2968.690130
830.224046	2923.380239
830.541088	2891.525188
830.858086	2874.705378
831.175041	2858.205681
831.491952	2855.180989
831.808819	2871.073227
832.125642	2894.484345
832.442421	2941.157868
832.759157	3023.394211
833.075849	3200.646221
833.392497	3484.445538
833.709101	3689.620500
834.025662	3636.905154
834.342179	3478.033191
834.658653	3300.836633
834.975083	3148.757624
835.291469	3051.128118
835.607811	2966.751806
835.924110	2907.838362
836.240366	2855.410362
836.556578	2813.780513
836.872746	2792.711011
837.188871	2769.405756
837.504952	2752.114599
837.820990	2743.806777
838.136984	2731.587020
838.452935	2724.453787
838.768842	2721.625700
839.084706	2738.710171
839.400526	2817.001810
839.716303	2951.850155
840.032037	3032.458205
840.347727	3019.794827
840.663373	2956.886268
840.978977	2882.342726
841.294537	2807.015285
841.610054	2761.604571
841.925527	2737.903586
842.240957	2718.008672
842.556344	2693.344827
842.871687	2677.092147
843.186987	2668.746517
843.502244	2663.944818
843.817458	2660.189158
844.132629	2647.561068
844.447756	2639.444810
844.762840	2632.535909
845.077881	2637.748462
845.392879	2636.175622
845.707833	2629.949797
846.022745	2622.892182
846.337613	2624.326390
846.652438	2621.430247
846.967221	2625.085083
847.281960	2621.679784
847.596656	2621.329424
847.911309	2619.968312
848.225919	2618.776079
848.540485	2615.257354
848.855009	2615.360698
849.169490	2612.109153
849.483928	2612.827518
849.798323	2612.986314
850.112675	2611.685697
850.426984	2611.352980
850.741251	2608.449276
851.055474	2609.797784
851.369654	2615.209463
851.683792	2614.324741
851.997887	2609.848196
852.311938	2610.417846
852.625947	2612.341047
852.939914	2612.754421
853.253837	2616.300873
853.567718	2610.566560
853.881555	2609.805346
854.195350	2614.286932
854.509103	2610.803495
854.822812	2608.781992
855.136479	2604.330653
855.450103	2609.843155
855.763685	2614.034874
856.077224	2612.066304
856.390720	2606.861312
856.704173	2610.707713
857.017584	2615.733743
857.330953	2617.460338
857.644278	2621.389918
857.957561	2618.569392
858.270802	2615.219545
858.584000	2613.477827
858.897155	2616.963785
859.210268	2620.898405
859.523339	2613.825666
859.836367	2608.250150
860.149352	2609.775099
860.462295	2611.171499
860.775195	2609.886005
861.088054	2608.265274
861.400869	2606.710078
861.713642	2603.065323
862.026373	2608.040942
862.339062	2608.053545
862.651708	2614.402878
862.964312	2615.892539
863.276873	2615.242231
863.589392	2614.251644
863.901869	2622.380504
864.214303	2626.574744
864.526696	2627.983747
864.839045	2627.688839
865.151353	2629.523819
865.463619	2633.037504
865.775842	2632.629170
866.088023	2631.837709
866.400162	2632.409880
866.712258	2631.767133
867.024313	2631.535240
867.336325	2626.292440
867.648296	2630.315281
867.960224	2633.092956
868.272110	2632.324180
868.583954	2624.727162
868.895755	2628.172790
869.207515	2633.032462
869.519233	2637.451034
869.830909	2635.815179
870.142542	2630.837040
870.454134	2631.598254
870.765684	2638.232413
871.077191	2639.996817
871.388657	2641.977990
871.700081	2640.188380
872.011463	2641.650315
872.322803	2645.826911
872.634101	2646.888074
872.945357	2654.243117
873.256571	2659.906854
873.567744	2658.906185
873.878874	2653.658343
874.189963	2656.070536
874.501010	2661.608243
874.812015	2666.392298
875.122979	2667.372802
875.433900	2656.373005
875.744780	2657.166987
876.055618	2664.892555
876.366415	2667.582010
876.677169	2666.034376
876.987882	2664.620332
877.298554	2660.983140
877.609183	2669.197700
877.919771	2675.118535
878.230317	2682.382838
878.540822	2695.066381
878.851285	2708.768237
879.161707	2733.638770
879.472087	2771.712084
879.782425	2819.739157
880.092722	2936.673762
880.402977	3125.167545
880.713191	3387.952813
881.023363	3686.333668
881.333494	3878.421794
881.643583	4049.886560
881.953631	4051.298083
882.263637	3870.600444
882.573602	3647.582318
882.883526	3517.954088
883.193408	3403.280441
883.503248	3296.304636
883.813048	3181.381452
884.122806	3065.873493
884.432522	2981.073724
884.742197	2916.037798
885.051831	2873.523227
885.361424	2841.771520
885.670975	2805.351704
885.980485	2773.363062
886.289954	2754.224322
886.599382	2741.989441
886.908768	2729.313460
887.218113	2709.715974
887.527417	2701.261959
887.836680	2690.236956
888.145901	2683.229752
888.455082	2677.044256
888.764221	2661.986330
889.073319	2655.636996
889.382376	2657.182110
889.691392	2656.582213
890.000366	2655.876451
890.309300	2655.221101
890.618193	2658.613798
890.927044	2659.095228
891.235855	2659.695125
891.544625	2658.278561
891.853353	2659.990033
892.162041	2669.679130
892.470687	2686.009948
892.779293	2701.607278
893.087858	2707.308823
893.396381	2731.881928
893.704864	2773.400871
894.013306	2845.973322
894.321707	2939.360697
894.630068	2991.710559
894.938387	3011.560102
895.246665	3002.647342
895.554903	2962.393728
895.863100	2913.260123
896.171256	2854.719723
896.479371	2794.079684
896.787446	2756.999477
897.095480	2738.324522
897.403473	2733.308574
897.711425	2716.014896
898.019336	2696.883717
898.327207	2681.982066
898.635038	2679.048115
898.942827	2678.312106
899.250576	2670.233657
899.558284	2658.757471
899.865952	2653.852428
900.173579	2653.585247
900.481165	2646.149545
900.788711	2639.908596
901.096216	2634.053296
901.403681	2630.436268
901.711105	2633.125724
902.018489	2629.183542
902.325832	2630.295116
902.633135	2633.879376
902.940397	2651.561223
903.247619	2686.209074
903.554800	2756.931421
903.861941	2888.122409
904.169041	3015.492202
904.476101	3077.936975
904.783121	3073.266346
905.090100	3013.861389
905.397039	2936.477157
905.703938	2863.960158
906.010796	2799.526651
906.317614	2748.048908
906.624391	2710.038608
906.931129	2683.146573
907.237826	2656.698159
907.544483	2640.747948
907.851099	2625.793366
908.157675	2617.876233
908.464211	2612.121756
908.770707	2598.397215
909.077163	2596.920157
909.383578	2590.091914
909.689954	2591.057295
909.996289	2589.547469
910.302584	2588.135946
910.608839	2584.539083
910.915054	2585.330544
911.221229	2588.556883
911.527363	2590.016297
911.833458	2588.287181
912.139513	2592.453695
912.445527	2590.611153
912.751502	2597.116762
913.057436	2602.747731
913.363331	2611.605038
913.669186	2620.437140
913.975000	2632.440127
914.280775	2650.053918
914.586510	2669.633760
914.892205	2706.298072
915.197859	2775.641664
915.503475	2861.472349
915.809050	2928.648245
916.114585	2943.459155
916.420081	2957.276957
916.725536	2967.639049
917.030952	2939.698454
917.336328	2895.840415
917.641665	2841.464009
917.946961	2791.183541
918.252218	2754.846904
918.557435	2730.866135
918.862612	2707.639019
919.167750	2690.695701
919.472848	2671.950170
919.777906	2653.890237
920.082925	2642.232568
920.387904	2631.381485
920.692843	2629.037348
920.997743	2623.643313
921.302603	2616.988990
921.607423	2607.955243
921.912204	2604.323091
922.216946	2602.543564
922.521647	2599.823862
922.826310	2597.567945
923.130932	2591.957141
923.435516	2585.610328
923.740059	2584.851635
924.044564	2583.707293
924.349028	2580.138156
924.653454	2573.687999
924.957840	2569.534089
925.262186	2570.857392
925.566493	2566.307750
925.870761	2562.511761
926.174989	2563.991340
926.479178	2565.952349
926.783328	2561.745506
927.087438	2559.416493
927.391509	2558.360371
927.695541	2555.650751
927.999533	2557.160577
928.303486	2556.444733
928.607400	2555.635627
928.911275	2555.151677
929.215110	2555.486913
929.518906	2552.815102
929.822663	2556.570762
930.126381	2552.958775
930.430060	2556.517829
930.733699	2553.508261
931.037299	2554.224104
931.340861	2555.141594
931.644383	2556.351471
931.947866	2555.940617
932.251309	2553.712427
932.554714	2554.917263
932.858080	2555.935576
933.161407	2554.415668
933.464694	2557.367264
933.767943	2552.021120
934.071153	2556.485062
934.374323	2551.882488
934.677455	2555.877603
934.980548	2550.133208
935.283602	2552.114382
935.586617	2553.674619
935.889593	2549.492982
936.192530	2551.925338
936.495428	2552.570606
936.798287	2553.296532
937.101108	2553.961964
937.403890	2558.357851
937.706632	2561.405228
938.009336	2565.140723
938.312002	2567.525189
938.614628	2571.358986
938.917216	2574.429049
939.219765	2573.209090
939.522275	2574.693710
939.824747	2574.454255
940.127179	2571.301013
940.429573	2568.440158
940.731929	2568.636763
941.034246	2560.467573
941.336524	2567.822617
941.638763	2566.310271
941.940964	2565.791032
942.243126	2561.460681
942.545250	2560.432285
942.847335	2562.662996
943.149381	2557.916750
943.451389	2559.199723
943.753359	2558.935063
944.055290	2556.590926
944.357182	2554.455998
944.659036	2554.203940
944.960851	2555.363405
945.262628	2554.713096
945.564367	2555.257541
945.866067	2555.307953
946.167729	2557.319373
946.469352	2556.727037
946.770937	2555.358364
947.072484	2556.250648
947.373992	2555.184444
947.675462	2558.143602
947.976893	2553.941800
948.278286	2551.572458
948.579641	2548.454504
948.880958	2550.208825
949.182236	2550.042467
949.483476	2550.579350
949.784678	2551.035575
950.085841	2551.688404
950.386967	2553.931718
950.688054	2552.739485
950.989103	2553.909032
951.290114	2552.918446
951.591087	2555.388611
951.892021	2557.326935
952.192917	2555.849877
952.493776	2557.261400
952.794596	2554.831563
953.095378	2557.954558
953.396122	2561.253993
953.696828	2561.022100
953.997496	2555.663354
954.298126	2553.402396
954.598718	2556.424568
954.899272	2554.461039
955.199788	2553.425082
955.500266	2549.666901
955.800706	2544.252702
956.101108	2545.099616
956.401472	2543.604914
956.701798	2542.810932
957.002087	2540.161806
957.302337	2542.127856
957.602550	2545.765048
957.902724	2542.006868
958.202861	2541.898483
958.502960	2541.069213
958.803022	2539.287166
959.103045	2538.329346
959.403031	2538.120138
959.702979	2540.053421
960.002889	2538.392361
960.302762	2541.386806
960.602596	2539.110725
960.902393	2541.112063
961.202153	2536.375899
961.501875	2537.164840
961.801559	2537.457227
962.101205	2537.583256
962.400814	2539.844213
962.700385	2535.954963
962.999918	2539.241795
963.299414	2535.075282
963.598873	2538.485622
963.898293	2537.106867
964.197677	2537.106867
964.497022	2535.881866
964.796331	2537.709284
965.095601	2538.263811
965.394835	2537.326157
965.694030	2535.211393
965.993189	2534.893800
966.292309	2537.535365
966.591393	2538.329346
966.890439	2534.858512
967.189447	2535.211393
967.488419	2537.719367
967.787353	2536.350693
968.086249	2536.950591
968.385108	2536.169212
968.683930	2535.657535
968.982714	2532.925229
969.281462	2534.893800
969.580172	2536.214582
969.878844	2535.483615
970.177480	2534.919006
970.476078	2537.321116
970.774639	2538.720036
971.073162	2534.235929
971.371649	2534.246012
971.670098	2533.298275
971.968510	2534.583769
972.266885	2532.915147
972.565223	2536.075951
972.863524	2536.993441
973.161788	2536.927906
973.460014	2536.486805
973.758204	2537.752134
974.056356	2534.707277
974.354471	2537.696682
974.652550	2537.973945
974.950591	2539.503935
975.248595	2535.667617
975.546563	2536.494366
975.844493	2538.341949
976.142386	2536.640560
976.440243	2537.447144
976.738062	2536.214582
977.035845	2533.504962
977.333590	2534.364479
977.631299	2536.529654
977.928971	2534.465302
978.226606	2536.247350
978.524204	2535.513862
978.821765	2534.576207
979.119290	2534.238450
979.416777	2535.574356
979.714228	2539.335057
980.011642	2534.210724
980.309020	2538.470499
980.606360	2534.911444
980.903664	2535.125693
981.200931	2536.451517
981.498162	2535.592000
981.795356	2540.199614
982.092513	2543.526776
982.389633	2545.129863
982.686717	2548.212528
982.983764	2550.339895
983.280775	2554.231666
983.577749	2551.620348
983.874686	2551.738816
984.171587	2544.822353
984.468451	2543.637681
984.765279	2542.775644
985.062070	2539.579553
985.358824	2540.670962
985.655543	2535.970086
985.952224	2538.805735
986.248869	2535.705426
986.545478	2530.243336
986.842050	2534.417411
987.138586	2531.080167
987.435086	2529.497245
987.731549	2533.005888
988.027975	2532.766433
988.324366	2533.656197
988.620719	2533.706608
988.917037	2535.392874
989.213318	2532.658048
989.509563	2530.681916
989.805772	2530.460105
990.101944	2532.852133
990.398080	2532.058151
990.694180	2531.448171
990.990244	2533.283151
991.286271	2529.313243
991.582262	2532.474046
991.878217	2532.007739
992.174136	2532.186700
992.470019	2531.140661
992.765865	2533.789787
993.061676	2532.312729
993.357450	2533.721732
993.653188	2533.973789
993.948890	2531.732997
994.244556	2532.837009
994.540186	2534.936650
994.835780	2531.899355
995.131337	2535.176105
995.426859	2535.095446
995.722345	2533.184849
996.017795	2534.994623
996.313208	2536.328008
996.608586	2538.384799
996.903928	2538.442772
997.199234	2536.259953
997.494504	2536.504449
997.789738	2535.355066
998.084936	2536.590148
998.380099	2533.391536
998.675225	2530.981865
998.970316	2533.252904
999.265371	2537.245498
999.560390	2532.721063
999.855373	2533.633512
1000.150320	2534.941691
1000.445232	2534.853471
1000.740108	2533.731814
1001.034948	2530.452543
1001.329752	2530.825589
1001.624521	2529.267872
1001.919254	2526.921215
1002.213951	2529.908099
1002.508613	2529.328366
1002.803239	2531.115455
1003.097829	2525.126564
1003.392384	2530.649148
1003.686903	2530.802904
1003.981386	2532.025383
1004.275834	2530.429858
1004.570246	2527.899199
1004.864623	2530.268541
1005.158964	2530.419776
1005.453270	2529.565300
1005.747540	2532.647966
1006.041775	2533.114273
1006.335974	2530.939015
1006.630138	2531.128058
1006.924266	2529.615712
1007.218359	2532.204344
1007.512416	2529.199817
1007.806438	2530.780218
1008.100425	2531.952287
1008.394376	2531.629653
1008.688292	2530.452543
1008.982172	2531.022194
1009.276017	2532.156453
1009.569827	2529.225023
1009.863602	2532.685775
1010.157341	2530.739889
1010.451045	2529.527492
1010.744714	2529.835002
1011.038347	2530.346679
1011.331945	2529.456916
1011.625508	2531.087729
1011.919036	2527.571524
1012.212528	2529.348531
1012.505986	2531.034797
1012.799408	2528.897348
1013.092795	2529.794673
1013.386147	2529.061185
1013.679464	2528.935156
1013.972745	2528.055475
1014.265992	2530.412214
1014.559204	2533.043697
1014.852380	2532.196783
1015.145521	2530.064375
1015.438628	2530.384488
1015.731699	2530.596216
1016.024736	2528.675537
1016.317737	2530.634025
1016.610703	2531.062523
1016.903635	2527.745444
1017.196531	2522.515247
1017.489393	2527.906761
1017.782219	2523.591533
1018.075011	2527.632018
1018.367768	2526.689322
1018.660490	2530.389529
1018.953177	2530.389529
1019.245829	2530.389529
