Dividing Wavelength (nm)	Counts (n)	Blue Motor Position (mm): 17.100000	Red Motor Position (mm): 0.000000	
326.493990	2136.138531
326.888308	2136.138531
327.282561	2136.138531
327.676750	2106.577205
328.070874	2103.048397
328.464933	2108.381938
328.858929	2111.426795
329.252859	2122.146808
329.646726	2133.323046
330.040528	2144.806795
330.434265	2161.160298
330.827938	2180.994718
331.221547	2197.673375
331.615091	2217.180120
332.008571	2237.271639
332.401986	2256.768301
332.795338	2275.060128
333.188625	2294.077881
333.581847	2315.026396
333.975006	2334.152533
334.368100	2350.541324
334.761129	2368.571011
335.154095	2387.538353
335.546996	2405.189953
335.939833	2424.222829
336.332606	2439.721857
336.725315	2452.995215
337.117960	2461.910495
337.510540	2472.438945
337.903056	2479.912456
338.295508	2487.338075
338.687896	2498.594972
339.080220	2503.497494
339.472480	2513.486540
339.864676	2514.991325
340.256807	2518.300842
340.648875	2522.515247
341.040879	2526.396935
341.432818	2528.473891
341.824694	2528.005063
342.216506	2529.845084
342.608253	2529.217461
342.999937	2530.732327
343.391557	2527.238808
343.783113	2528.189065
344.174605	2527.687471
344.566033	2527.127903
344.957397	2525.081194
345.348697	2521.549866
345.739934	2523.591533
346.131106	2519.856038
346.522215	2519.122550
346.913260	2515.339164
347.304241	2513.385717
347.695159	2511.833042
348.086012	2510.645850
348.476802	2508.294152
348.867528	2505.244254
349.258191	2505.629902
349.648789	2503.494973
350.039324	2502.942967
350.429796	2500.946670
350.820203	2500.457678
351.210548	2499.250322
351.600828	2498.108500
351.991045	2497.140599
352.381198	2497.059940
352.771288	2496.646566
353.161314	2496.364261
353.551276	2496.820486
353.941175	2496.336535
354.331010	2495.373674
354.720782	2493.584065
355.110490	2497.465753
355.500135	2495.668582
355.889717	2495.701349
356.279235	2498.300064
356.668689	2495.320742
357.058080	2494.499034
357.447408	2495.325783
357.836672	2492.190186
358.225873	2495.169508
358.615010	2493.805876
359.004084	2496.384426
359.393095	2500.218223
359.782043	2498.181597
360.170927	2499.726711
360.559748	2501.344921
360.948505	2505.314830
361.337199	2501.173522
361.725830	2498.864673
362.114398	2504.719974
362.502903	2502.017915
362.891344	2504.725015
363.279722	2502.721156
363.668037	2504.208297
364.056289	2504.301558
364.444478	2504.414984
364.832603	2505.939933
365.220665	2504.999758
365.608665	2506.433966
365.996601	2507.348935
366.384474	2504.944305
366.772284	2506.229799
367.160031	2508.213493
367.547715	2508.321878
367.935336	2508.591580
368.322893	2505.937412
368.710388	2509.461179
369.097820	2512.735408
369.485189	2509.173833
369.872495	2509.183915
370.259738	2510.666015
370.646918	2509.143586
371.034035	2509.488905
371.421090	2512.448063
371.808081	2511.888494
372.195010	2507.926147
372.581875	2509.304903
372.968678	2513.468896
373.355418	2511.742301
373.742096	2511.681807
374.128710	2509.317506
374.515262	2513.627693
374.901751	2511.427229
375.288177	2513.778927
375.674540	2514.887981
376.060841	2516.135667
376.447079	2513.617610
376.833254	2513.920079
377.219367	2509.652743
377.605417	2514.214987
377.991404	2510.146776
378.377329	2510.691220
378.763191	2511.540655
379.148991	2515.732374
379.534727	2514.212466
379.920402	2513.274812
380.306013	2516.576768
380.691563	2515.495440
381.077049	2514.630882
381.462474	2517.630369
381.847835	2515.853362
382.233134	2517.035512
382.618371	2518.633558
383.003545	2518.353774
383.388657	2518.058867
383.773706	2518.545338
384.158693	2518.051305
384.543618	2520.879392
384.928480	2517.547190
385.313280	2517.572395
385.698017	2519.936697
386.082692	2519.717406
386.467305	2516.707838
386.851856	2521.141532
387.236344	2519.772859
387.620770	2518.953672
388.005133	2518.809999
388.389435	2523.309228
388.773674	2519.359484
389.157851	2516.969978
389.541965	2519.235976
389.926018	2517.607683
390.310008	2519.306552
390.693936	2520.098013
391.077802	2520.773528
391.461606	2521.766635
391.845348	2519.971985
392.229027	2523.452901
392.612645	2520.914680
392.996200	2523.039527
393.379694	2519.220853
393.763125	2523.178158
394.146494	2521.771677
394.529801	2523.452901
394.913047	2521.648168
395.296230	2523.773015
395.679351	2524.080525
396.062410	2524.929959
396.445408	2523.452901
396.828343	2525.055988
397.211217	2519.238497
397.594028	2524.892151
397.976778	2521.459125
398.359466	2522.283354
398.742092	2519.808147
399.124656	2526.202851
399.507158	2525.587830
399.889598	2525.623118
400.271977	2525.618077
400.654294	2530.807945
401.036549	2523.692356
401.418742	2527.480783
401.800874	2524.803931
402.182944	2527.216123
402.564952	2525.141688
402.946898	2528.015146
403.328783	2523.432737
403.710606	2528.864580
404.092367	2524.662778
404.474067	2530.497914
404.855705	2529.461957
405.237282	2527.616894
405.618797	2528.788963
406.000250	2527.500948
406.381642	2531.191072
406.762972	2526.706966
407.144240	2526.245701
407.525447	2530.931453
407.906593	2528.241997
408.287677	2531.654859
408.668700	2530.276103
409.049661	2528.983047
409.430560	2526.873324
409.811399	2531.796011
410.192176	2528.274765
410.572891	2528.506658
410.953545	2530.255938
411.334138	2531.974972
411.714669	2532.542102
412.095139	2533.545291
412.475547	2530.054292
412.855894	2530.248377
413.236180	2530.036648
413.616405	2532.776515
413.996568	2531.501103
414.376670	2532.040507
414.756711	2532.267359
415.136691	2532.998326
415.516609	2534.798018
415.896466	2534.009078
416.276262	2534.225847
416.655997	2529.817358
417.035670	2529.030938
417.415283	2531.732997
417.794834	2525.287881
418.174324	2531.301978
418.553753	2534.840868
418.933121	2533.315919
419.312428	2532.320291
419.691674	2535.967566
420.070859	2534.886238
420.449983	2534.901362
420.829045	2535.478574
421.208047	2534.359438
421.586988	2533.608306
421.965867	2535.544109
422.344686	2534.664428
422.723444	2535.864222
423.102141	2535.786084
423.480777	2535.644932
423.859352	2534.868594
424.237866	2535.208872
424.616319	2536.091074
424.994712	2532.605116
425.373044	2536.106197
425.751314	2536.917823
426.129524	2533.797349
426.507673	2534.256094
426.885762	2536.257432
427.263789	2534.160312
427.641756	2535.488656
428.019662	2536.030580
428.397508	2535.823893
428.775292	2537.540406
429.153016	2536.093595
429.530679	2537.658873
429.908282	2534.664428
430.285824	2537.953780
430.663305	2534.674510
431.040726	2536.257432
431.418086	2538.150385
431.795385	2537.351363
432.172624	2537.119469
432.549802	2536.363296
432.926920	2537.810108
433.303977	2537.792463
433.680974	2538.069727
434.057910	2538.624254
434.434786	2539.599717
434.811601	2538.473019
435.188355	2538.024357
435.565050	2538.921682
435.941683	2539.337577
436.318257	2538.634336
436.694770	2536.285158
437.071222	2537.767258
437.447614	2534.069571
437.823946	2536.249870
438.200218	2536.237267
438.576429	2538.962011
438.952580	2540.197094
439.328670	2538.906558
439.704700	2540.207176
440.080670	2538.246167
440.456580	2540.590304
440.832429	2541.283463
441.208218	2538.382278
441.583947	2541.696837
441.959616	2539.221631
442.335224	2543.501570
442.710773	2538.233564
443.086261	2539.244316
443.461689	2542.198432
443.837057	2541.837989
444.212365	2539.589635
444.587612	2540.645757
444.962800	2540.307999
445.337927	2543.083154
445.712995	2542.412681
446.088002	2540.242464
446.462949	2543.083154
446.837837	2542.795809
447.212664	2542.011909
447.587431	2543.315048
447.962139	2543.126004
448.336786	2543.640202
448.711374	2541.412012
449.085901	2545.361756
449.460369	2541.447300
449.834776	2543.506611
450.209124	2542.989893
450.583412	2542.573998
450.957640	2544.935778
451.331808	2546.032229
451.705917	2543.541899
452.079965	2540.791950
452.453954	2543.113401
452.827883	2544.235058
453.201752	2541.691796
453.575562	2545.187836
453.949311	2540.658359
454.323001	2545.364277
454.696632	2543.786395
455.070202	2542.954605
455.443713	2543.761190
455.817164	2543.942671
456.190556	2542.079965
456.563888	2540.590304
456.937160	2539.453524
457.310373	2545.185316
457.683526	2544.819832
458.056619	2544.373690
458.429653	2545.029040
458.802628	2544.151879
459.175542	2545.618855
459.548398	2546.349822
459.921194	2546.574153
460.293930	2548.172199
460.666607	2545.460058
461.039224	2545.553320
461.411782	2547.403423
461.784280	2546.032229
462.156719	2547.660522
462.529099	2548.709082
462.901419	2546.987528
463.273680	2548.285625
463.645882	2549.800492
464.018024	2547.476520
464.390106	2549.505584
464.762130	2544.910573
465.134094	2546.163299
465.505999	2548.676315
465.877845	2547.743701
466.249631	2550.445760
466.621358	2546.725388
466.993026	2551.985832
467.364634	2552.442057
467.736184	2551.166645
468.107674	2547.635316
468.479105	2545.795295
468.850477	2548.900646
469.221790	2547.559699
469.593043	2548.068856
469.964238	2548.527601
470.335373	2549.160265
470.706449	2546.014585
471.077467	2549.555996
471.448425	2548.943496
471.819324	2552.242931
472.190164	2552.830225
472.560945	2553.233518
472.931667	2547.486602
473.302330	2547.998279
473.672934	2545.633978
474.043479	2550.042467
474.413965	2550.775955
474.784393	2546.710265
475.154761	2549.631613
475.525070	2543.907383
475.895321	2544.774462
476.265513	2546.261602
476.635645	2551.396017
477.005719	2549.626572
477.375734	2551.030533
477.745691	2550.304607
478.115588	2551.953065
478.485427	2552.726882
478.855207	2551.748898
479.224928	2551.252344
479.594591	2554.070349
479.964194	2552.747046
480.333739	2554.193857
480.703226	2553.127653
481.072653	2555.181924
481.442022	2552.958775
481.811333	2551.864844
482.180584	2551.227138
482.549777	2553.808209
482.918912	2553.321738
483.287988	2554.415668
483.657005	2553.044474
484.025964	2551.116233
484.394864	2556.043961
484.763706	2554.410627
485.132489	2555.071018
485.501213	2556.984136
485.869879	2553.467931
486.238487	2551.592622
486.607036	2554.017417
486.975527	2554.884496
487.343959	2554.156049
487.712333	2555.302911
488.080648	2553.964485
488.448905	2554.037582
488.817104	2553.001625
489.185244	2554.483724
489.553326	2555.587737
489.921350	2557.717624
490.289315	2558.372974
490.657222	2559.653427
491.025070	2557.447922
491.392861	2556.154866
491.760593	2556.996739
492.128267	2559.461863
492.495883	2556.278375
492.863440	2556.727037
493.230939	2557.087480
493.598380	2557.248797
493.965763	2552.189999
494.333088	2556.227963
494.700354	2552.656306
495.067563	2552.880637
495.434713	2551.113713
495.801805	2558.743499
496.168839	2557.304249
496.535815	2556.744681
496.902733	2558.181410
497.269593	2558.128478
497.636395	2554.879454
498.003139	2558.897254
498.369825	2556.285936
498.736453	2559.114024
499.103023	2557.838612
499.469535	2560.956565
499.835989	2556.792572
500.202385	2561.957234
500.568723	2558.403221
500.935003	2559.880279
501.301226	2561.006977
501.667390	2560.142419
502.033497	2565.770867
502.399546	2562.108469
502.765537	2564.122410
503.131470	2562.912533
503.497345	2561.775753
503.863163	2562.799107
504.228923	2562.491597
504.594625	2562.610064
504.960269	2563.726679
505.325856	2564.114848
505.691385	2564.303892
506.056856	2566.088460
506.422270	2563.736762
506.787625	2569.435786
507.152924	2569.395457
507.518164	2567.270611
507.883347	2566.650549
508.248472	2566.688357
508.613540	2566.040569
508.978550	2567.593244
509.343503	2569.387895
509.708398	2570.943091
510.073236	2570.108780
510.438016	2572.553740
510.802738	2571.711867
511.167403	2573.630026
511.532010	2571.169943
511.896561	2575.946436
512.261053	2576.561457
512.625488	2573.007444
512.989866	2574.698751
513.354186	2578.318299
513.718449	2577.370562
514.082655	2579.591191
514.446803	2584.327355
514.810894	2586.232911
515.174927	2590.250710
515.538904	2590.588468
515.902822	2593.217429
516.266684	2593.930753
516.630488	2594.248345
516.994235	2595.876638
517.357925	2599.418049
517.721558	2605.361569
518.085133	2609.830552
518.448651	2612.557816
518.812112	2612.635954
519.175516	2616.537807
519.538863	2617.697272
519.902152	2623.134157
520.265385	2627.250259
520.628560	2631.646145
520.991678	2634.232257
521.354739	2640.896662
521.717743	2643.487816
522.080690	2646.310862
522.443580	2656.229332
522.806413	2660.857111
523.169189	2663.148316
523.531908	2670.662155
523.894569	2675.897394
524.257174	2680.578105
524.619722	2685.795699
524.982213	2692.709642
525.344647	2701.037628
525.707025	2707.696992
526.069345	2718.326265
526.431608	2722.316338
526.793815	2729.779767
527.155964	2734.813359
527.518057	2744.447004
527.880093	2751.499578
528.242072	2760.656834
528.603995	2772.664862
528.965860	2777.022940
529.327669	2788.640279
529.689421	2796.842236
530.051117	2806.007054
530.412755	2819.484579
530.774337	2828.664520
531.135862	2837.635253
531.497331	2852.395752
531.858743	2857.636031
532.220098	2876.898280
532.581396	2880.323744
532.942638	2892.019221
533.303824	2906.862898
533.664953	2926.382246
534.026025	2934.201076
534.387040	2956.954323
534.747999	2969.378247
535.108902	2988.665702
535.469748	2992.025631
535.830537	3014.153776
536.191270	3032.387629
536.551947	3048.010165
536.912567	3065.031621
537.273131	3077.992427
537.633638	3098.686364
537.994089	3112.431070
538.354483	3131.985706
538.714821	3155.265754
539.075103	3179.148220
539.435328	3197.339224
539.795497	3202.156047
540.155609	3237.784401
540.515665	3263.027979
540.875665	3271.539968
541.235609	3296.455870
541.595496	3314.016730
541.955328	3355.172710
542.315102	3366.313660
542.674821	3388.557751
543.034483	3411.777306
543.394090	3436.564659
543.753640	3460.056436
544.113134	3512.010568
544.472571	3523.148997
544.831953	3569.184814
545.191278	3577.613623
545.550548	3605.904579
545.909761	3650.130621
546.268918	3680.574149
546.628019	3719.355746
546.987064	3736.969537
547.346053	3750.673914
547.704986	3803.563180
548.063863	3828.169052
548.422684	3850.708051
548.781449	3881.937999
549.140158	3926.733692
549.498811	3943.465281
549.857408	3947.168009
550.215949	4027.123229
550.574434	4029.013662
550.932864	4091.539093
551.291237	4127.119557
551.649555	4167.481555
552.007817	4196.599260
552.366022	4224.786872
552.724173	4266.784724
553.082267	4292.454280
553.440305	4378.146333
553.798288	4357.160010
554.156215	4444.261066
554.514086	4473.419100
554.871902	4476.670644
555.229661	4525.305176
555.587365	4555.126122
555.945014	4567.436619
556.302606	4648.384947
556.660143	4646.189525
557.017625	4740.948093
557.375050	4747.123507
557.732421	4825.778110
558.089735	4845.667982
558.446994	4888.033839
558.804197	4938.649544
559.161345	4981.683354
559.518437	4964.929079
559.875474	5050.119538
560.232455	5097.418164
560.589381	5116.350218
560.946251	5179.621739
561.303065	5226.449018
561.659825	5265.744812
562.016528	5277.137819
562.373177	5271.216984
562.729770	5371.057036
563.086307	5375.213467
563.442789	5442.903561
563.799216	5465.724864
564.155587	5514.714797
564.511904	5546.705960
564.868164	5584.323050
565.224370	5624.690089
565.580520	5661.303989
565.936615	5681.087998
566.292654	5691.014030
566.648638	5774.601402
567.004567	5809.158511
567.360441	5840.663202
567.716260	5854.992682
568.072023	5931.033447
568.427732	5959.899093
568.783385	5946.111538
569.138982	6037.187544
569.494525	6080.896868
569.850013	6065.344908
570.205445	6158.775133
570.560823	6136.427698
570.916145	6148.513865
571.271412	6226.258539
571.626625	6241.870993
571.981782	6265.435866
572.336884	6302.304345
572.691931	6332.868861
573.046923	6361.918510
573.401860	6379.396190
573.756743	6386.300050
574.111570	6450.405883
574.466342	6470.172247
574.821059	6532.599376
575.175722	6515.119175
575.530330	6566.375107
575.884882	6593.002482
576.239380	6597.879798
576.593823	6613.822447
576.948211	6665.698441
577.302544	6622.004240
577.656823	6686.228540
578.011047	6718.779270
578.365216	6746.286326
578.719330	6728.574232
579.073389	6782.875021
579.427394	6775.943434
579.781344	6795.155271
580.135239	6807.695142
580.489080	6840.301325
580.842866	6822.566545
581.196597	6856.319591
581.550273	6914.789414
581.903895	6932.690551
582.257463	6996.113308
582.610975	6957.084695
582.964434	6999.974832
583.317837	6987.223233
583.671186	6998.759913
584.024481	7035.136880
584.377721	7012.870103
584.730906	7025.218409
585.084037	7078.034578
585.437113	7054.953655
585.790135	7112.354754
586.143103	7063.979841
586.496016	7073.011068
586.848874	7145.838097
587.201679	7160.868298
587.554428	7111.260823
587.907124	7171.956316
588.259765	7168.109915
588.612352	7205.550565
588.964884	7132.458875
589.317362	7174.192067
589.669786	7205.477468
590.022155	7262.893690
590.374470	7307.661657
590.726731	7275.438601
591.078937	7198.311468
591.431090	7317.905281
591.783188	7232.316571
592.135232	7262.248422
592.487222	7275.083200
592.839157	7345.649271
593.191038	7317.275137
593.542866	7299.852909
593.894639	7239.621203
594.246358	7308.856410
594.598022	7342.047367
594.949633	7279.227028
595.301190	7283.552338
595.652692	7322.719583
596.004141	7440.332223
596.355535	7276.068745
596.706876	7278.649816
597.058162	7250.729386
597.409395	7326.976838
597.760573	7401.457365
598.111698	7338.382448
598.462768	7344.512491
598.813785	7331.319792
599.164748	7326.112280
599.515657	7334.798188
599.866511	7281.936648
600.217312	7397.190028
600.568060	7298.892569
600.918753	7397.689103
601.269392	7388.862042
601.619978	7335.042684
601.970510	7403.846872
602.320988	7408.681338
602.671412	7482.884603
603.021783	7442.459590
603.372100	7430.670852
603.722363	7448.536701
604.072572	7441.844569
604.422728	7465.742159
604.772830	7413.087307
605.122878	7435.457427
605.472872	7443.011596
605.822813	7473.427398
606.172701	7441.098478
606.522534	7513.043305
606.872314	7534.316975
607.222041	7522.490428
607.571714	7580.020075
607.921333	7552.195427
608.270899	7568.674959
608.620411	7660.373547
608.969870	7590.097342
609.319276	7593.616067
609.668627	7616.354192
610.017926	7657.978999
610.367171	7714.568472
610.716362	7695.646501
611.065500	7699.828138
611.414585	7740.406906
611.763616	7730.488435
612.112594	7719.604584
612.461518	7744.603666
612.810389	7810.794016
613.159207	7763.956656
613.507971	7722.248669
613.856682	7840.143614
614.205340	7801.730022
614.553945	7890.834936
614.902496	7804.253119
615.250994	7858.926953
615.599439	7839.919282
615.947830	7864.177315
616.296169	7839.193356
616.644454	7865.256122
616.992686	7864.449537
617.340864	7924.492200
617.688990	7843.695107
618.037063	7929.402284
618.385082	7886.411324
618.733048	7976.932803
619.080961	7920.108917
619.428821	7944.392155
619.776628	7952.798279
620.124382	7916.736385
620.472083	7904.609889
620.819731	7936.994262
621.167326	7835.306627
621.514868	7850.543514
621.862357	7748.722289
622.209793	7772.864375
622.557176	7717.232721
622.904506	7690.350768
623.251783	7630.824824
623.599007	7594.009277
623.946179	7602.007068
624.293297	7570.971204
624.640363	7491.799883
624.987376	7483.741599
625.334336	7433.579597
625.681243	7387.823564
626.028097	7375.460135
626.374899	7360.306426
626.721647	7358.443720
627.068343	7287.262627
627.414987	7268.882581
627.761577	7227.703915
628.108115	7267.188753
628.454600	7165.032291
628.801032	7221.760395
629.147412	7181.632810
629.493739	7168.490522
629.840014	7115.197964
630.186236	7166.683269
630.532405	7053.184210
630.878521	7107.487520
631.224585	7070.296407
631.570597	6993.701116
631.916556	7031.199738
632.262462	7024.963831
632.608316	6990.638615
632.954117	6970.947868
633.299866	6959.310364
633.645562	6955.489169
633.991206	6878.477983
634.336797	6826.453275
634.682336	6783.318642
635.027823	6752.663386
635.373257	6744.350523
635.718639	6679.680081
636.063968	6692.910589
636.409245	6591.429642
636.754470	6595.455003
637.099642	6550.283744
637.444762	6497.041597
637.789829	6505.188102
638.134845	6452.651717
638.479808	6438.352484
638.824719	6447.192148
639.169577	6376.089193
639.514383	6396.367235
639.859137	6326.106153
640.203839	6337.529407
640.548489	6324.329146
640.893086	6300.391227
641.237632	6275.019100
641.582125	6293.583149
641.926566	6261.155927
642.270955	6278.968844
642.615292	6275.205623
642.959576	6288.746162
643.303809	6279.692249
643.647990	6291.284383
643.992118	6278.936076
644.336195	6225.338529
644.680219	6250.146047
645.024192	6236.913018
645.368112	6341.721127
645.711981	6357.817531
646.055797	6431.947698
646.399562	6392.871194
646.743274	6516.606316
647.086935	6568.999027
647.430544	6559.738428
647.774101	6588.798159
648.117606	6590.481905
648.461059	6585.934784
648.804460	6544.672940
649.147810	6455.429393
649.491108	6428.101298
649.834354	6399.167596
650.177548	6315.983516
650.520690	6228.834569
650.863781	6212.564245
651.206820	6236.303038
651.549807	6163.143293
651.892742	6099.735660
652.235626	6107.773780
652.578458	6096.121153
652.921238	6001.712944
653.263967	6041.573347
653.606644	5984.870449
653.949269	5982.516230
654.291843	5927.854999
654.634365	5974.858718
654.976836	5933.392707
655.319255	5925.712509
655.661622	5905.875568
656.003938	5907.100569
656.346203	5867.857707
656.688416	5901.134363
657.030577	5850.248956
657.372687	5824.667621
657.714746	5810.517102
658.056753	5853.077043
658.398708	5792.931037
658.740612	5787.809225
659.082465	5831.788251
659.424266	5821.784081
659.766016	5825.007899
660.107715	5801.531245
660.449362	5813.456095
660.790958	5804.636596
661.132503	5795.237365
661.473996	5835.095248
661.815438	5816.664789
662.156829	5816.861394
662.498168	5808.787986
662.839456	5793.596469
663.180693	5819.220654
663.521879	5821.884904
663.863013	5812.311753
664.204097	5832.299928
664.545129	5869.690166
664.886110	5868.485330
665.227040	5900.612604
665.567918	5865.327047
665.908746	5896.141100
666.249522	5896.932561
666.590248	5891.213372
666.930922	5911.138533
667.271545	5928.643940
667.612118	5928.250730
667.952639	5901.542697
668.293109	5921.288896
668.633528	5878.073605
668.973896	5882.136775
669.314213	5872.475403
669.654480	5857.278845
669.994695	5847.448595
670.334859	5846.962124
670.674973	5832.957798
671.015035	5833.456873
671.355047	5834.659188
671.695008	5818.698895
672.034918	5794.892046
672.374777	5809.264375
672.714585	5794.755935
673.054342	5794.052694
673.394049	5786.639677
673.733705	5822.840203
674.073310	5802.998221
674.412864	5767.720227
674.752368	5757.040542
675.091820	5764.695534
675.431223	5697.151634
675.770574	5698.641295
676.109875	5646.684643
676.449125	5652.300489
676.788324	5619.918637
677.127473	5567.853600
677.466571	5556.884049
677.805619	5547.421803
678.144616	5535.587695
678.483562	5516.723697
678.822458	5486.748996
679.161303	5478.809179
679.500098	5464.005831
679.838842	5453.401764
680.177535	5457.369152
680.516179	5473.233663
680.854771	5486.141537
681.193314	5561.542075
681.531805	5674.400907
681.870247	5825.360780
682.208638	5924.381644
682.546978	5932.500422
682.885268	5907.271968
683.223508	5830.903528
683.561697	5770.828098
683.899836	5745.221557
684.237925	5696.771027
684.575963	5660.719216
684.913951	5625.108505
685.251889	5687.328946
685.589776	5652.723946
685.927614	5624.705212
686.265401	5697.171799
686.603137	5674.479045
686.940824	5751.318832
687.278460	5774.263644
687.616046	5787.562208
687.953582	5855.332960
688.291068	5834.654147
688.628504	5898.575978
688.965889	5860.749680
689.303224	5804.954189
689.640510	5759.253609
689.977745	5679.517678
690.314930	5586.039562
690.652065	5528.134349
690.989150	5435.868631
691.326185	5367.717272
691.663170	5309.018076
692.000105	5231.583433
692.336990	5158.166589
692.673825	5137.288650
693.010610	5067.332558
693.347345	4999.680273
693.684030	4983.062110
694.020665	4944.527530
694.357251	4855.674673
694.693786	4861.005693
695.030272	4832.187937
695.366707	4798.507988
695.703093	4762.274695
696.039429	4782.923261
696.375716	4770.869862
696.711952	4742.473043
697.048139	4725.229776
697.384276	4707.673957
697.720363	4724.188777
698.056400	4734.931476
698.392388	4680.635729
698.728326	4660.934900
699.064214	4642.461591
699.400053	4635.847597
699.735842	4600.420889
700.071581	4581.554371
700.407270	4550.911717
700.742910	4533.542421
701.078501	4480.287672
701.414042	4476.768947
701.749533	4449.392961
702.084974	4383.575656
702.420366	4435.960806
702.755709	4378.131210
703.091002	4324.755473
703.426246	4375.134244
703.761440	4330.000794
704.096584	4292.643323
704.431679	4316.445131
704.766725	4298.002070
705.101721	4290.737767
705.436668	4316.697189
705.771565	4265.776494
706.106413	4298.856545
706.441212	4325.456193
706.775961	4331.820650
707.110661	4312.560922
707.445311	4343.226261
707.779913	4363.731154
708.114465	4376.389491
708.448967	4397.655599
708.783421	4459.387048
709.117825	4500.346423
709.452180	4504.898585
709.786485	4547.156057
710.120742	4634.781393
710.454949	4619.829331
710.789107	4690.365156
711.123216	4758.221607
711.457275	4747.627622
711.791286	4820.784847
712.125247	4837.740768
712.459159	4742.752827
712.793023	4815.128672
713.126837	4773.803814
713.460602	4768.142598
713.794318	4687.640412
714.127985	4697.654664
714.461602	4614.392447
714.795171	4584.934464
715.128691	4519.464999
715.462162	4464.201350
715.795584	4413.656221
716.128957	4398.215167
716.462281	4340.372968
716.795556	4319.742046
717.128782	4283.985141
717.461960	4214.139955
717.795088	4222.926686
718.128167	4181.198535
718.461198	4122.869864
718.794180	4118.163947
719.127113	4101.886062
719.459997	4078.515272
719.792833	4032.272768
720.125619	4029.106923
720.458357	3990.930265
720.791046	3998.665916
721.123686	3971.176504
721.456278	3932.818364
721.788821	3948.357721
722.121315	3917.881426
722.453761	3895.234042
722.786158	3912.202566
723.118506	3929.917180
723.450805	3880.665107
723.783056	3903.811565
724.115259	3920.916200
724.447412	3924.984411
724.779518	3916.696754
725.111574	3923.605656
725.443582	3952.952733
725.775542	3941.234571
726.107453	3990.221983
726.439315	3985.763083
726.771129	4001.342769
727.102895	4039.612688
727.434612	4086.767641
727.766281	4098.180813
728.097901	4096.701235
728.429473	4100.991257
728.760996	4108.895786
729.092471	4102.397739
729.423897	4089.792333
729.755276	4095.067901
730.086606	4090.452725
730.417887	4130.260196
730.749120	4194.113971
731.080305	4257.514043
731.411442	4283.803660
731.742530	4254.988424
732.073570	4259.331378
732.404562	4309.548833
732.735506	4302.816372
733.066401	4266.890589
733.397249	4205.237277
733.728048	4128.137870
734.058798	4044.817679
734.389501	3975.385867
734.720156	3913.780447
735.050762	3870.943242
735.381320	3866.411245
735.711831	3810.162050
736.042293	3782.198770
736.372707	3807.235660
736.703073	3777.323974
737.033391	3769.033797
737.363661	3788.671611
737.693883	3814.578101
738.024056	3822.901046
738.354182	3817.043225
738.684260	3879.566136
739.014290	3896.849732
739.344272	3890.633989
739.674207	3936.470680
740.004093	3940.581741
740.333931	3931.880710
740.663722	3935.689302
740.993464	3935.777522
741.323159	3910.786002
741.652806	3879.974469
741.982405	3850.607227
742.311956	3822.712003
742.641460	3816.970128
742.970915	3786.367804
743.300323	3749.116198
743.629683	3715.433728
743.958996	3703.418138
744.288260	3678.159437
744.617477	3648.109119
744.946647	3634.893734
745.275768	3608.354579
745.604842	3608.518417
745.933869	3556.712999
746.262847	3552.803585
746.591778	3590.304728
746.920662	3559.316755
747.249498	3528.227960
747.578286	3574.591452
747.907027	3591.801951
748.235720	3589.311621
748.564365	3613.385651
748.892963	3612.868933
749.221514	3596.827981
749.550017	3574.662028
749.878473	3569.746903
750.206881	3545.357800
750.535242	3539.913354
750.863555	3541.065258
751.191821	3535.893034
751.520039	3516.645909
751.848210	3492.173627
752.176334	3528.787528
752.504411	3533.395142
752.832440	3493.824605
753.160421	3477.839106
753.488356	3488.400324
753.816243	3500.748630
754.144082	3457.760191
754.471875	3443.481122
754.799620	3458.937300
755.127318	3452.635858
755.454969	3455.670632
755.782572	3457.583750
756.110129	3432.541818
756.437638	3424.173503
756.765100	3440.322839
757.092515	3446.384827
757.419882	3455.131229
757.747203	3425.585026
758.074477	3431.218516
758.401703	3445.152265
758.728882	3469.138075
759.056014	3472.520689
759.383099	3478.781802
759.710138	3474.905155
760.037129	3487.271105
760.364073	3521.727392
760.690970	3503.811131
761.017820	3480.122749
761.344623	3503.264166
761.671379	3546.660939
761.998088	3597.135492
762.324751	3722.183833
762.651366	3969.777584
762.977935	4436.409469
763.304456	4868.655644
763.630931	4957.576557
763.957359	4597.865024
764.283740	4264.397738
764.610074	4072.506217
764.936362	3881.035632
765.262602	3727.310687
765.588796	3615.775158
765.914943	3532.258362
766.241044	3443.778550
766.567097	3412.578849
766.893104	3367.883979
767.219064	3340.016481
767.544978	3313.152172
767.870845	3257.528080
768.196665	3240.030235
768.522438	3249.736977
768.848165	3243.806060
769.173846	3206.625029
769.499479	3189.348995
769.825066	3174.926254
770.150607	3157.625014
770.476101	3173.121521
770.801548	3170.008608
771.126949	3121.454735
771.452303	3107.699947
771.777611	3116.148921
772.102872	3119.095475
772.428087	3092.599171
772.753256	3083.872933
773.078378	3079.020823
773.403453	3043.019422
773.728482	3034.812424
774.053465	3051.977553
774.378401	3041.302910
774.703291	3007.461644
775.028135	3011.015657
775.352932	3005.384688
775.677683	2993.928666
776.002388	2991.592092
776.327046	2989.774756
776.651658	2983.138077
776.976224	2972.155923
777.300743	2970.898155
777.625216	2964.379943
777.949643	2956.946762
778.274024	2956.782924
778.598359	2945.841100
778.922647	2954.806792
779.246889	2952.906277
779.571086	2934.901796
779.895236	2932.426589
780.219339	2941.440173
780.543397	2955.754529
780.867409	2959.626135
781.191374	2950.146245
781.515294	2946.284721
781.839167	2944.359001
782.162995	2939.489246
782.486776	2945.808332
782.810511	2944.217848
783.134201	2932.439192
783.457844	2940.265584
783.781441	2929.512803
784.104993	2912.201480
784.428498	2909.373393
784.751958	2923.838984
785.075372	2916.191553
785.398739	2900.316960
785.722061	2919.304466
786.045337	2929.749737
786.368568	2911.805750
786.691752	2908.483629
787.014891	2954.789148
787.337983	2982.268478
787.661030	3009.904083
787.984031	3077.964701
788.306987	3119.561782
788.629897	3115.869137
788.952760	3099.339193
789.275579	3083.411668
789.598351	3023.369005
789.921078	2980.330154
790.243759	2972.730614
790.566395	2957.904581
790.888984	2930.896599
791.211529	2914.182654
791.534027	2908.281983
791.856480	2897.627504
792.178888	2878.829042
792.501249	2871.307640
792.823566	2873.167826
793.145836	2867.683051
793.468062	2862.851105
793.790241	2866.185828
794.112375	2867.756147
794.434464	2879.761655
794.756507	2884.596122
795.078505	2889.135681
795.400457	2904.659914
795.722364	2939.506890
796.044226	2963.704428
796.366042	2967.323977
796.687812	2958.018007
797.009538	2974.273208
797.331218	2963.646455
797.652852	2949.997531
797.974442	2933.094542
798.295986	2927.055240
798.617484	2920.645413
798.938938	2909.706109
799.260346	2892.362019
799.581709	2888.538304
799.903026	2881.805843
800.224299	2876.673948
800.545526	2863.519057
800.866708	2847.904083
801.187845	2838.232630
801.508936	2845.108764
801.829983	2848.660257
802.150984	2835.291117
802.471940	2821.806030
802.792851	2824.802996
803.113717	2822.078252
803.434538	2828.573779
803.755314	2819.230000
804.076045	2815.723878
804.396731	2816.661532
804.717372	2817.314362
805.037967	2811.070893
805.358518	2817.447952
805.679024	2827.822647
805.999485	2824.288798
806.319901	2829.337514
806.640272	2820.666729
806.960598	2826.350630
807.280879	2837.902434
807.601115	2842.036180
807.921306	2827.517657
808.241453	2824.223263
808.561554	2832.679799
808.881611	2835.321363
809.201623	2826.879951
809.521590	2826.007832
809.841513	2823.351144
810.161390	2826.771567
810.481223	2819.827377
810.801011	2810.995276
811.120755	2811.282621
811.440453	2809.117446
811.760107	2809.687096
812.079716	2809.999648
812.399281	2800.003040
812.718801	2793.981381
813.038276	2786.810340
813.357707	2795.902061
813.677093	2802.218627
813.996434	2794.372071
814.315731	2791.806123
814.634983	2786.018879
814.954191	2786.253292
815.273354	2799.703091
815.592473	2808.885553
815.911547	2810.937302
816.230577	2816.704382
816.549562	2829.208964
816.868502	2825.241576
817.187399	2839.124914
817.506250	2852.657892
817.825058	2847.006758
818.143821	2856.552183
818.462539	2872.451982
818.781213	2897.446023
819.099843	2935.920109
819.418429	2991.834067
819.736970	3053.338664
820.055466	3121.648820
820.373919	3224.899212
820.692327	3364.098073
821.010691	3524.164790
821.329011	3959.556644
821.647286	4845.231922
821.965517	6200.082348
822.283704	6912.407469
822.601847	6886.029631
822.919945	6269.090703
823.237999	5770.429847
823.556010	5199.488927
823.873976	4665.298018
824.191897	4260.795834
824.509775	3979.363338
824.827609	3714.657391
825.145398	3593.500820
825.463144	3588.154676
825.780845	3675.376720
826.098502	3778.440590
826.416116	4058.368301
826.733685	4361.530690
827.051210	4421.215431
827.368692	4310.642763
827.686129	4048.240623
828.003522	3731.986357
828.320872	3479.495125
828.638177	3287.273409
828.955439	3154.852379
829.272656	3073.238619
829.589830	3009.571367
829.906960	2961.985395
830.224046	2917.734147
830.541088	2884.233159
830.858086	2868.512320
831.175041	2853.338447
831.491952	2854.114785
831.808819	2867.100797
832.125642	2889.632234
832.442421	2932.948349
832.759157	3011.847448
833.075849	3184.532173
833.392497	3461.972075
833.709101	3658.186385
834.025662	3607.684106
834.342179	3452.701393
834.658653	3278.763941
834.975083	3132.822537
835.291469	3037.080943
835.607811	2957.806278
835.924110	2901.897362
836.240366	2852.451204
836.556578	2811.239772
836.872746	2787.412758
837.188871	2768.405087
837.504952	2751.275247
837.820990	2743.532034
838.136984	2729.447050
838.452935	2724.988150
838.768842	2718.941286
839.084706	2736.154306
839.400526	2815.802016
839.716303	2945.692386
840.032037	3024.044519
840.347727	3002.571725
840.663373	2946.274639
840.978977	2874.377703
841.294537	2803.320119
841.610054	2755.963520
841.925527	2736.121538
842.240957	2717.295349
842.556344	2696.445137
842.871687	2680.825122
843.186987	2669.061589
843.502244	2666.397339
843.817458	2663.312153
844.132629	2648.022333
844.447756	2641.690644
844.762840	2634.484315
845.077881	2636.205869
845.392879	2636.652011
845.707833	2632.455250
846.022745	2623.882768
846.337613	2626.383181
846.652438	2626.441154
846.967221	2624.162552
847.281960	2625.805968
847.596656	2623.050978
847.911309	2623.295474
848.225919	2622.589712
848.540485	2618.246758
848.855009	2618.518981
849.169490	2617.324227
849.483928	2615.025461
849.798323	2617.513270
850.112675	2613.974380
850.426984	2613.089658
850.741251	2613.540841
851.055474	2612.958588
851.369654	2618.672736
851.683792	2617.626696
851.997887	2614.322220
852.311938	2613.356839
852.625947	2616.124432
852.939914	2616.729371
853.253837	2619.444032
853.567718	2613.631582
853.881555	2612.822477
854.195350	2620.293467
854.509103	2616.507560
854.822812	2610.692589
855.136479	2614.574278
855.450103	2613.061932
855.763685	2615.610235
856.077224	2613.624020
856.390720	2609.880963
856.704173	2614.163424
857.017584	2620.994187
857.330953	2619.418827
857.644278	2623.144239
857.957561	2620.812706
858.270802	2617.515791
858.584000	2617.394803
858.897155	2622.375463
859.210268	2621.215998
859.523339	2617.104937
859.836367	2611.899946
860.149352	2613.114864
860.462295	2613.825666
860.775195	2611.191663
861.088054	2608.789554
861.400869	2609.747373
861.713642	2605.734614
862.026373	2606.546240
862.339062	2611.486571
862.651708	2616.764659
862.964312	2618.382869
863.276873	2618.077880
863.589392	2618.289608
863.901869	2624.913684
864.214303	2629.606998
864.526696	2631.394087
864.839045	2628.966772
865.151353	2633.763430
865.463619	2633.450878
865.775842	2633.095477
866.088023	2632.535909
866.400162	2634.998512
866.712258	2632.036835
867.024313	2631.971300
867.336325	2627.618263
867.648296	2629.775877
867.960224	2634.375930
868.272110	2633.745786
868.583954	2628.969292
868.895755	2629.163377
869.207515	2632.646814
869.519233	2640.778195
869.830909	2637.375417
870.142542	2633.466002
870.454134	2635.064047
870.765684	2640.216107
871.077191	2639.679224
871.388657	2645.373207
871.700081	2642.134266
872.011463	2643.906231
872.322803	2645.526962
872.634101	2646.348670
872.945357	2652.945020
873.256571	2661.018428
873.567744	2654.439722
873.878874	2657.166987
874.189963	2657.328303
874.501010	2661.520023
874.812015	2665.066475
875.122979	2666.268790
875.433900	2654.626245
875.744780	2657.469456
876.055618	2662.727379
876.366415	2665.870539
876.677169	2666.014212
876.987882	2661.893068
877.298554	2659.952224
877.609183	2668.164264
877.919771	2674.385047
878.230317	2683.713703
878.540822	2691.983716
878.851285	2705.710777
879.161707	2728.254817
879.472087	2766.953235
879.782425	2808.734318
880.092722	2920.970567
880.402977	3104.145933
880.713191	3359.271168
881.023363	3636.007829
881.333494	3823.707631
881.643583	3986.695696
881.953631	3986.093278
882.263637	3808.952173
882.573602	3597.437961
882.883526	3470.962973
883.193408	3362.532794
883.503248	3265.296498
883.813048	3154.595281
884.122806	3042.583363
884.432522	2958.766618
884.742197	2898.890313
885.051831	2863.014942
885.361424	2827.830209
885.670975	2796.801907
885.980485	2768.211003
886.289954	2749.120153
886.599382	2735.695561
886.908768	2727.861607
887.218113	2708.183463
887.527417	2695.230219
887.836680	2686.335103
888.145901	2682.783610
888.455082	2670.200890
888.764221	2662.745023
889.073319	2655.634476
889.382376	2654.117088
889.691392	2653.572644
890.000366	2655.780669
890.309300	2654.394352
890.618193	2655.720175
890.927044	2659.206133
891.235855	2657.895433
891.544625	2658.202944
891.853353	2658.722182
892.162041	2667.574449
892.470687	2684.263188
892.779293	2695.923377
893.087858	2703.008719
893.396381	2725.411607
893.704864	2766.812083
894.013306	2832.218533
894.321707	2923.642379
894.630068	2969.025366
894.938387	2987.360043
895.246665	2982.991883
895.554903	2940.079061
895.863100	2900.168246
896.171256	2845.184381
896.479371	2784.009979
896.787446	2746.995307
897.095480	2727.601988
897.403473	2723.664847
897.711425	2710.676314
898.019336	2691.025896
898.327207	2679.945440
898.635038	2679.569874
898.942827	2676.827487
899.250576	2666.193172
899.558284	2654.538025
899.865952	2653.033240
900.173579	2651.926707
900.481165	2649.302787
900.788711	2641.483957
901.096216	2633.904582
901.403681	2632.629170
901.711105	2632.903913
902.018489	2628.477780
902.325832	2633.655045
902.633135	2633.604633
902.940397	2647.409833
903.247619	2682.730678
903.554800	2749.498240
903.861941	2873.576159
904.169041	2991.690394
904.476101	3046.699465
904.783121	3043.901624
905.090100	2989.648727
905.397039	2917.217428
905.703938	2845.522138
906.010796	2787.067439
906.317614	2737.757392
906.624391	2704.770602
906.931129	2680.784792
907.237826	2656.846873
907.544483	2640.203504
907.851099	2625.553911
908.157675	2616.477313
908.464211	2610.506067
908.770707	2600.128851
909.077163	2596.448809
909.383578	2589.928077
909.689954	2592.708273
909.996289	2588.819023
910.302584	2588.473704
910.608839	2582.920873
910.915054	2588.312387
911.221229	2588.425813
911.527363	2592.579723
911.833458	2593.179621
912.139513	2592.655341
912.445527	2593.562748
912.751502	2601.893255
913.057436	2601.447113
913.363331	2609.036570
913.669186	2620.769856
913.975000	2634.421300
914.280775	2647.472848
914.586510	2662.586227
914.892205	2700.258770
915.197859	2763.721855
915.503475	2843.001561
915.809050	2908.322312
916.114585	2918.873447
916.420081	2929.323759
916.725536	2940.628547
917.030952	2915.715164
917.336328	2871.892414
917.641665	2824.747543
917.946961	2779.367076
918.252218	2744.827611
918.557435	2722.240721
918.862612	2700.646938
919.167750	2683.592715
919.472848	2671.582166
919.777906	2653.799496
920.082925	2641.037815
920.387904	2632.447689
920.692843	2628.371916
920.997743	2622.809002
921.302603	2616.026130
921.607423	2608.403905
921.912204	2603.282093
922.216946	2601.268152
922.521647	2602.692278
922.826310	2598.644232
923.130932	2592.884713
923.435516	2588.882037
923.740059	2587.626790
924.044564	2583.467838
924.349028	2584.851635
924.653454	2576.004410
924.957840	2571.298492
925.262186	2571.069120
925.566493	2572.568863
925.870761	2569.289593
926.174989	2567.867987
926.479178	2564.364385
926.783328	2564.145095
927.087438	2562.292471
927.391509	2567.202555
927.695541	2563.068809
927.999533	2562.365568
928.303486	2559.373643
928.607400	2561.800959
928.911275	2558.740978
929.215110	2559.787018
929.518906	2560.366750
929.822663	2560.331462
930.126381	2558.378015
930.430060	2558.705690
930.733699	2560.190310
931.037299	2561.185938
931.340861	2560.550753
931.644383	2559.237532
931.947866	2562.917574
932.251309	2558.635114
932.554714	2560.414641
932.858080	2559.035886
933.161407	2558.897254
933.464694	2557.294167
933.767943	2558.632593
934.071153	2557.962120
934.374323	2556.290978
934.677455	2556.457336
934.980548	2558.491441
935.283602	2557.233673
935.586617	2556.727037
935.889593	2554.453477
936.192530	2555.907850
936.495428	2557.077397
936.798287	2556.437171
937.101108	2558.982954
937.403890	2560.432285
937.706632	2563.572924
938.009336	2568.367062
938.312002	2573.952660
938.614628	2571.853019
938.917216	2578.615727
939.219765	2576.238823
939.522275	2579.422312
939.824747	2575.903587
940.127179	2572.944429
940.429573	2570.282700
940.731929	2572.810839
941.034246	2568.825807
941.336524	2567.966290
941.638763	2567.953687
941.940964	2566.874880
942.243126	2568.057031
942.545250	2568.603996
942.847335	2565.039900
943.149381	2562.592420
943.451389	2562.778943
943.753359	2560.714590
944.055290	2564.583676
944.357182	2561.064950
944.659036	2557.032027
944.960851	2561.112841
945.262628	2559.295505
945.564367	2560.689384
945.866067	2558.045299
946.167729	2559.850032
946.469352	2561.707697
946.770937	2559.905485
947.072484	2560.321380
947.373992	2561.201061
947.675462	2558.536812
947.976893	2559.532439
948.278286	2558.060422
948.579641	2556.343910
948.880958	2555.335679
949.182236	2557.437840
949.483476	2557.190823
949.784678	2557.901626
950.085841	2554.476162
950.386967	2555.965823
950.688054	2556.288457
950.989103	2559.499672
951.290114	2558.861966
951.591087	2562.864642
951.892021	2560.018911
952.192917	2563.661144
952.493776	2562.088304
952.794596	2562.529405
953.095378	2564.863460
953.396122	2564.848336
953.696828	2563.293140
953.997496	2560.510423
954.298126	2559.965979
954.598718	2558.226781
954.899272	2558.657799
955.199788	2557.810885
955.500266	2554.849208
955.800706	2549.772766
956.101108	2548.288146
956.401472	2551.423743
956.701798	2549.858465
957.002087	2548.782179
957.302337	2549.175389
957.602550	2551.189330
957.902724	2546.082641
958.202861	2546.964843
958.502960	2545.278577
958.803022	2549.225800
959.103045	2544.149358
959.403031	2547.526932
959.702979	2543.400747
960.002889	2546.707744
960.302762	2545.669266
960.602596	2547.237065
960.902393	2542.493339
961.202153	2544.174564
961.501875	2543.375541
961.801559	2544.771941
962.101205	2544.643392
962.400814	2543.894780
962.700385	2545.550799
962.999918	2542.725233
963.299414	2541.285983
963.598873	2543.373021
963.898293	2540.943185
964.197677	2543.070552
964.497022	2540.527289
964.796331	2541.948895
965.095601	2540.421425
965.394835	2543.637681
965.694030	2541.384286
965.993189	2542.707588
966.292309	2539.498894
966.591393	2544.504760
966.890439	2541.379244
967.189447	2543.579708
967.488419	2538.442772
967.787353	2543.728422
968.086249	2542.838658
968.385108	2544.184647
968.683930	2543.554502
968.982714	2540.237423
969.281462	2541.933771
969.580172	2542.205994
969.878844	2543.526776
970.177480	2544.976108
970.476078	2542.851261
970.774639	2543.554502
971.073162	2541.575849
971.371649	2539.171219
971.670098	2539.907227
971.968510	2539.561908
972.266885	2539.355221
972.565223	2546.274205
972.863524	2542.934440
973.161788	2544.567774
973.460014	2542.105171
973.758204	2541.071734
974.056356	2544.852599
974.354471	2540.867567
974.652550	2543.317568
974.950591	2543.932589
975.248595	2546.077600
975.546563	2541.890922
975.844493	2540.204656
976.142386	2544.318237
976.440243	2541.348998
976.738062	2541.263298
977.035845	2541.023843
977.333590	2540.411343
977.631299	2541.601055
977.928971	2541.079296
978.226606	2541.036446
978.524204	2542.508463
978.821765	2542.009389
979.119290	2542.460572
979.416777	2542.813453
979.714228	2542.072403
980.011642	2541.880839
980.309020	2543.264636
980.606360	2541.621220
980.903664	2544.676159
981.200931	2542.659698
981.498162	2542.947043
981.795356	2546.334699
982.092513	2548.514998
982.389633	2549.026675
982.686717	2555.103786
982.983764	2555.943138
983.280775	2558.839281
983.577749	2554.657644
983.874686	2554.982798
984.171587	2553.914073
984.468451	2552.492468
984.765279	2551.237221
985.062070	2549.654298
985.358824	2544.419060
985.655543	2544.580377
985.952224	2541.747249
986.248869	2543.778834
986.545478	2536.980838
986.842050	2543.879657
987.138586	2538.757844
987.435086	2538.732639
987.731549	2536.365817
988.027975	2540.378575
988.324366	2541.885880
988.620719	2540.169368
988.917037	2539.103163
989.213318	2539.151054
989.509563	2538.399923
989.805772	2539.267001
990.101944	2538.410005
990.398080	2539.801363
990.694180	2540.227341
990.990244	2543.299924
991.286271	2538.735159
991.582262	2540.716333
991.878217	2539.640046
992.174136	2540.038297
992.470019	2537.336239
992.765865	2541.956457
993.061676	2540.098791
993.357450	2540.232382
993.653188	2539.360262
993.948890	2535.869263
994.244556	2541.979142
994.540186	2540.300437
994.835780	2540.713812
995.131337	2541.843031
995.426859	2541.739687
995.722345	2540.683565
996.017795	2543.120963
996.313208	2543.456200
996.608586	2544.043494
996.903928	2544.890408
997.199234	2541.263298
997.494504	2543.967877
997.789738	2541.011240
998.084936	2542.672300
998.380099	2541.280942
998.675225	2541.994265
998.970316	2539.443441
999.265371	2539.645088
999.560390	2538.901517
999.855373	2538.500746
1000.150320	2541.699358
1000.445232	2541.447300
1000.740108	2536.736342
1001.034948	2538.737680
1001.329752	2539.370345
1001.624521	2541.371683
1001.919254	2533.686444
1002.213951	2535.760878
1002.508613	2531.770805
1002.803239	2538.097453
1003.097829	2531.564118
1003.392384	2539.632485
1003.686903	2538.105015
1003.981386	2540.025695
1004.275834	2538.122659
1004.570246	2538.470499
1004.864623	2535.100487
1005.158964	2540.499563
1005.453270	2534.961856
1005.747540	2539.261960
1006.041775	2537.764737
1006.335974	2537.111908
1006.630138	2537.487474
1006.924266	2538.488143
1007.218359	2536.360776
1007.512416	2540.552495
1007.806438	2538.553678
1008.100425	2535.788605
1008.394376	2536.133924
1008.688292	2541.099460
1008.982172	2536.252391
1009.276017	2539.057793
1009.569827	2535.546629
1009.863602	2540.209697
1010.157341	2536.927906
1010.451045	2536.937988
1010.744714	2538.576363
1011.038347	2538.450334
1011.331945	2539.335057
1011.625508	2535.813811
1011.919036	2539.173740
1012.212528	2536.620395
1012.505986	2536.917823
1012.799408	2536.242309
1013.092795	2537.737011
1013.386147	2538.798174
1013.679464	2539.193904
1013.972745	2536.481763
1014.265992	2535.836496
1014.559204	2535.476053
1014.852380	2537.820190
1015.145521	2532.857174
1015.438628	2536.244829
1015.731699	2537.696682
1016.024736	2536.443955
1016.317737	2536.375899
1016.610703	2541.192722
1016.903635	2536.416228
1017.196531	2533.290713
1017.489393	2534.298944
1017.782219	2534.346835
1018.075011	2534.097298
1018.367768	2537.270704
1018.660490	2535.833975
1018.953177	2535.833975
1019.245829	2535.833975
