Dividing Wavelength (nm)	Counts (n)	Blue Motor Position (mm): 17.300000	Red Motor Position (mm): 0.000000	
326.493990	2135.273973
326.888308	2135.273973
327.282561	2135.273973
327.676750	2101.810794
328.070874	2100.628643
328.464933	2105.815990
328.858929	2112.520725
329.252859	2119.069184
329.646726	2129.141409
330.040528	2145.472227
330.434265	2161.979485
330.827938	2178.534635
331.221547	2199.488191
331.615091	2216.161807
332.008571	2234.073027
332.401986	2255.994484
332.795338	2274.014088
333.188625	2293.344393
333.581847	2310.338123
333.975006	2331.286637
334.368100	2346.883967
334.761129	2366.821731
335.154095	2385.353012
335.546996	2401.998902
335.939833	2425.140319
336.332606	2437.927206
336.725315	2450.144442
337.117960	2460.347737
337.510540	2466.523151
337.903056	2480.398927
338.295508	2484.855307
338.687896	2495.227481
339.080220	2503.472288
339.472480	2511.144924
339.864676	2515.525687
340.256807	2517.259844
340.648875	2522.275792
341.040879	2523.767973
341.432818	2522.467356
341.824694	2527.475742
342.216506	2525.764270
342.608253	2532.514375
342.999937	2526.971627
343.391557	2528.433561
343.783113	2523.949455
344.174605	2524.231760
344.566033	2522.948786
344.957397	2521.529701
345.348697	2519.157838
345.739934	2518.106758
346.131106	2515.543331
346.522215	2515.145080
346.913260	2509.514111
347.304241	2512.616941
347.695159	2512.722805
348.086012	2510.766838
348.476802	2507.008657
348.867528	2505.231651
349.258191	2504.581342
349.648789	2501.496156
350.039324	2500.457678
350.429796	2498.257214
350.820203	2496.631442
351.210548	2497.569097
351.600828	2495.456853
351.991045	2496.593634
352.381198	2492.311173
352.771288	2495.897954
353.161314	2492.830412
353.551276	2496.828047
353.941175	2495.393839
354.331010	2494.733448
354.720782	2491.507109
355.110490	2494.609940
355.500135	2492.540546
355.889717	2492.565752
356.279235	2495.272851
356.668689	2494.738489
357.058080	2494.451143
357.447408	2491.020638
357.836672	2492.946359
358.225873	2496.341576
358.615010	2491.907881
359.004084	2494.677995
359.393095	2497.160763
359.782043	2498.395846
360.170927	2497.087667
360.559748	2499.204951
360.948505	2498.995743
361.337199	2499.593120
361.725830	2496.371823
362.114398	2500.185456
362.502903	2500.245950
362.891344	2498.796618
363.279722	2502.143944
363.668037	2502.945487
364.056289	2502.549757
364.444478	2504.374655
364.832603	2502.869870
365.220665	2503.164778
365.608665	2507.918586
365.996601	2506.076044
366.384474	2505.435818
366.772284	2504.813235
367.160031	2505.140910
367.547715	2506.701147
367.935336	2505.687875
368.322893	2505.740807
368.710388	2507.333812
369.097820	2509.821621
369.485189	2508.367248
369.872495	2508.604183
370.259738	2508.664677
370.646918	2505.665190
371.034035	2507.316168
371.421090	2510.383710
371.808081	2508.011847
372.195010	2510.265243
372.581875	2509.700634
372.968678	2508.793226
373.355418	2510.686179
373.742096	2513.277332
374.128710	2510.444204
374.515262	2508.473113
374.901751	2511.752383
375.288177	2514.199863
375.674540	2511.601149
376.060841	2514.164575
376.447079	2511.470079
376.833254	2511.190295
377.219367	2507.800119
377.605417	2510.968484
377.991404	2509.778772
378.377329	2507.666528
378.763191	2509.715757
379.148991	2514.754390
379.534727	2512.770696
379.920402	2512.949657
380.306013	2515.311438
380.691563	2514.724143
381.077049	2513.799092
381.462474	2518.313445
381.847835	2516.269257
382.233134	2518.729340
382.618371	2516.274298
383.003545	2517.143897
383.388657	2517.443846
383.773706	2515.540810
384.158693	2516.067611
384.543618	2518.230266
384.928480	2514.308248
385.313280	2518.522653
385.698017	2515.588701
386.082692	2518.376459
386.467305	2514.043588
386.851856	2519.601460
387.236344	2516.843949
387.620770	2518.313445
388.005133	2518.149608
388.389435	2519.379649
388.773674	2519.208250
389.157851	2517.469052
389.541965	2517.584998
389.926018	2521.310411
390.310008	2516.975019
390.693936	2520.571882
391.077802	2519.636748
391.461606	2517.080883
391.845348	2520.995339
392.229027	2521.693539
392.612645	2523.462984
392.996200	2520.506347
393.379694	2521.451563
393.763125	2522.593385
394.146494	2520.516429
394.529801	2522.764784
394.913047	2519.243538
395.296230	2522.311080
395.679351	2520.697911
396.062410	2521.181862
396.445408	2521.761594
396.828343	2523.813344
397.211217	2519.440143
397.594028	2520.662623
397.976778	2520.652540
398.359466	2519.815709
398.742092	2518.620955
399.124656	2524.294774
399.507158	2524.519105
399.889598	2526.359127
400.271977	2524.161183
400.654294	2523.228570
401.036549	2523.289064
401.418742	2524.211595
401.800874	2523.359640
402.182944	2526.306194
402.564952	2525.779394
402.946898	2524.400638
403.328783	2528.241998
403.710606	2523.268899
404.092367	2524.095648
404.474067	2530.228212
404.855705	2524.730834
405.237282	2528.057995
405.618797	2524.551873
406.000250	2526.777542
406.381642	2523.500792
406.762972	2528.388191
407.144240	2525.174455
407.525447	2528.171421
407.906593	2529.429189
408.287677	2525.970958
408.668700	2528.035310
409.049661	2529.398942
409.430560	2525.875176
409.811399	2529.363654
410.192176	2529.282996
410.572891	2528.448685
410.953545	2526.505320
411.334138	2528.090763
411.714669	2531.869108
412.095139	2530.487832
412.475547	2529.557739
412.855894	2529.313243
413.236180	2530.613860
413.616405	2528.758716
413.996568	2531.208717
414.376670	2530.301309
414.756711	2529.792152
415.136691	2530.785260
415.516609	2532.892462
415.896466	2530.737369
416.276262	2533.575538
416.655997	2528.496576
417.035670	2527.155629
417.415283	2529.630835
417.794834	2527.105217
418.174324	2526.855680
418.553753	2531.102852
418.933121	2530.283665
419.312428	2531.798532
419.691674	2529.451874
420.070859	2531.654859
420.449983	2531.112935
420.829045	2529.474560
421.208047	2530.593696
421.586988	2534.082174
421.965867	2534.649304
422.344686	2535.251722
422.723444	2532.761392
423.102141	2534.596372
423.480777	2533.920857
423.859352	2532.952956
424.237866	2535.299613
424.616319	2533.741896
424.994712	2535.176105
425.373044	2533.575538
425.751314	2532.557225
426.129524	2533.608306
426.507673	2533.429345
426.885762	2532.559746
427.263789	2533.404139
427.641756	2534.745086
428.019662	2534.185518
428.397508	2537.984027
428.775292	2532.942873
429.153016	2534.442617
429.530679	2535.133255
429.908282	2537.167360
430.285824	2536.842206
430.663305	2535.574356
431.040726	2536.607792
431.418086	2537.457227
431.795385	2537.343801
432.172624	2534.898841
432.549802	2534.578728
432.926920	2537.104346
433.303977	2538.563760
433.680974	2537.989068
434.057910	2539.108205
434.434786	2537.585776
434.811601	2537.560570
435.188355	2539.297248
435.565050	2537.426980
435.941683	2538.362114
436.318257	2535.672658
436.694770	2535.879346
437.071222	2534.654345
437.447614	2537.656352
437.823946	2534.402288
438.200218	2536.517052
438.576429	2539.445962
438.952580	2536.217103
439.328670	2539.854295
439.704700	2538.024357
440.080670	2538.064686
440.456580	2537.883204
440.832429	2541.477547
441.208218	2537.305992
441.583947	2538.649460
441.959616	2540.557536
442.335224	2541.585932
442.710773	2538.694830
443.086261	2539.188863
443.461689	2538.762886
443.837057	2538.097453
444.212365	2539.985365
444.587612	2539.869419
444.962800	2540.756662
445.337927	2539.448482
445.712995	2536.847247
446.088002	2540.050900
446.462949	2540.244985
446.837837	2541.124666
447.212664	2538.210879
447.587431	2541.502753
447.962139	2539.834131
448.336786	2544.000644
448.711374	2541.270860
449.085901	2543.262115
449.460369	2541.883360
449.834776	2540.277752
450.209124	2538.092412
450.583412	2541.381765
450.957640	2540.928061
451.331808	2543.985521
451.705917	2542.228679
452.079965	2542.891591
452.453954	2541.951415
452.827883	2541.394368
453.201752	2541.157434
453.575562	2542.115253
453.949311	2543.229348
454.323001	2541.331353
454.696632	2545.520552
455.070202	2542.523586
455.443713	2544.184647
455.817164	2541.575849
456.190556	2539.279604
456.563888	2542.135417
456.937160	2538.346990
457.310373	2546.080120
457.683526	2543.831766
458.056619	2544.008206
458.429653	2544.111550
458.802628	2542.316899
459.175542	2543.438556
459.548398	2544.658515
459.921194	2541.911086
460.293930	2545.704554
460.666607	2542.982331
461.039224	2546.793444
461.411782	2543.499050
461.784280	2545.301262
462.156719	2544.245140
462.529099	2546.329658
462.901419	2545.265974
463.273680	2545.843186
463.645882	2544.179605
464.018024	2547.494164
464.390106	2544.156920
464.762130	2544.973587
465.134094	2546.259081
465.505999	2545.369318
465.877845	2547.756304
466.249631	2547.809236
466.621358	2548.935934
466.993026	2550.110523
467.364634	2551.176727
467.736184	2547.448794
468.107674	2545.694472
468.479105	2547.433670
468.850477	2545.916283
469.221790	2544.771941
469.593043	2547.479041
469.964238	2545.570964
470.335373	2545.921324
470.706449	2548.119267
471.077467	2547.395862
471.448425	2549.371994
471.819324	2548.567930
472.190164	2548.635985
472.560945	2552.212684
472.931667	2546.647250
473.302330	2548.197405
473.672934	2547.766386
474.043479	2549.286294
474.413965	2549.964329
474.784393	2544.887887
475.154761	2546.518701
475.525070	2546.135573
475.895321	2545.470141
476.265513	2542.838658
476.635645	2549.157745
477.005719	2549.135060
477.375734	2551.327962
477.745691	2549.921480
478.115588	2550.160934
478.485427	2552.099258
478.855207	2550.561706
479.224928	2553.324258
479.594591	2552.565565
479.964194	2548.872920
480.333739	2552.734443
480.703226	2550.997766
481.072653	2549.830739
481.442022	2550.400389
481.811333	2551.958106
482.180584	2551.491799
482.549777	2552.500030
482.918912	2551.055739
483.287988	2551.408620
483.657005	2551.048177
484.025964	2552.374001
484.394864	2553.662016
484.763706	2557.006821
485.132489	2552.406768
485.501213	2554.297201
485.869879	2553.241079
486.238487	2550.609597
486.607036	2552.018600
486.975527	2554.236707
487.343959	2550.528939
487.712333	2552.626059
488.080648	2550.244113
488.448905	2554.443395
488.817104	2555.718807
489.185244	2553.737633
489.553326	2554.871893
489.921350	2557.062274
490.289315	2555.076059
490.657222	2559.219888
491.025070	2557.780638
491.392861	2557.112686
491.760593	2557.039589
492.128267	2556.396842
492.495883	2551.766542
492.863440	2557.090000
493.230939	2556.810216
493.598380	2558.834240
493.965763	2550.531459
494.333088	2555.312994
494.700354	2553.611604
495.067563	2555.247459
495.434713	2551.353167
495.801805	2556.905998
496.168839	2555.668395
496.535815	2556.467418
496.902733	2558.105793
497.269593	2558.093190
497.636395	2554.725699
498.003139	2557.762994
498.369825	2554.168652
498.736453	2557.742830
499.103023	2558.902295
499.469535	2559.686195
499.835989	2557.400031
500.202385	2558.846842
500.568723	2557.621842
500.935003	2558.279713
501.301226	2559.570248
501.667390	2559.136709
502.033497	2562.509241
502.399546	2562.811710
502.765537	2563.552760
503.131470	2562.229457
503.497345	2559.940773
503.863163	2562.259704
504.228923	2563.348593
504.594625	2564.291289
504.960269	2562.791545
505.325856	2564.440003
505.691385	2562.058057
506.056856	2566.017884
506.422270	2565.118038
506.787625	2564.956721
507.152924	2566.900086
507.518164	2567.885631
507.883347	2566.486711
508.248472	2569.788667
508.613540	2570.012998
508.978550	2567.205076
509.343503	2569.332442
509.708398	2574.393761
510.073236	2575.838052
510.438016	2574.285376
510.802738	2576.412743
511.167403	2579.928948
511.532010	2578.083886
511.896561	2578.971129
512.261053	2581.101016
512.625488	2580.405337
512.989866	2580.866602
513.354186	2583.024216
513.718449	2580.561613
514.082655	2588.622418
514.446803	2591.967223
514.810894	2594.530650
515.174927	2596.395877
515.538904	2596.017790
515.902822	2601.313522
516.266684	2601.976434
516.630488	2607.027670
516.994235	2612.676283
517.357925	2616.860441
517.721558	2621.213477
518.085133	2622.682974
518.448651	2625.984929
518.812112	2627.356123
519.175516	2631.731845
519.538863	2640.306847
519.902152	2644.435552
520.265385	2648.120636
520.628560	2653.464259
520.991678	2660.287461
521.354739	2666.036897
521.717743	2668.978410
522.080690	2673.225582
522.443580	2685.130267
522.806413	2687.106399
523.169189	2696.094777
523.531908	2705.403267
523.894569	2710.247816
524.257174	2714.626058
524.619722	2728.186762
524.982213	2729.588203
525.344647	2745.046901
525.707025	2750.503950
526.069345	2762.345620
526.431608	2771.318874
526.793815	2782.633744
527.155964	2786.850669
527.518057	2795.163532
527.880093	2808.260450
528.242072	2820.495330
528.603995	2831.122082
528.965860	2838.000737
529.327669	2852.007583
529.689421	2862.999819
530.051117	2874.831407
530.412755	2893.317318
530.774337	2898.723955
531.135862	2915.352201
531.497331	2927.783687
531.858743	2939.322888
532.220098	2960.483131
532.581396	2969.242136
532.942638	2984.224445
533.303824	2998.768174
533.664953	3025.372863
534.026025	3034.472146
534.387040	3057.290929
534.747999	3073.871284
535.108902	3099.104780
535.469748	3101.040583
535.830537	3125.412041
536.191270	3141.924340
536.551947	3162.633400
536.912567	3186.455373
537.273131	3201.828372
537.633638	3221.854355
537.994089	3243.967377
538.354483	3264.195006
538.714821	3295.843370
539.075103	3321.913697
539.435328	3345.667614
539.795497	3351.437215
540.155609	3394.019841
540.515665	3426.205088
540.875665	3433.146757
541.235609	3464.676654
541.595496	3493.804441
541.955328	3541.579456
542.315102	3547.984242
542.674821	3573.641194
543.034483	3601.657407
543.394090	3631.352323
543.753640	3654.196312
544.113134	3718.365159
544.472571	3728.865883
544.831953	3782.120632
545.191278	3789.465593
545.550548	3823.067404
545.909761	3873.166391
546.268918	3908.293151
546.628019	3955.566571
546.987064	3972.535095
547.346053	3980.820231
547.704986	4045.349521
548.063863	4071.929005
548.422684	4103.836988
548.781449	4130.623159
549.140158	4185.730532
549.498811	4200.861556
549.857408	4205.181824
550.215949	4296.527532
550.574434	4302.962565
550.932864	4368.071588
551.291237	4404.806476
551.649555	4452.883960
552.007817	4487.085668
552.366022	4512.278834
552.724173	4562.360177
553.082267	4586.023353
553.440305	4675.687836
553.798288	4651.102129
554.156215	4744.549998
554.514086	4779.923774
554.871902	4778.234988
555.229661	4830.363039
555.587365	4863.715313
555.945014	4871.889544
556.302606	4957.689983
556.660143	4958.123522
557.017625	5057.025919
557.375050	5063.776024
557.732421	5144.608405
558.089735	5172.377601
558.446994	5207.519485
558.804197	5268.938383
559.161345	5311.279034
559.518437	5292.644409
559.875474	5382.361824
560.232455	5438.835350
560.589381	5451.591989
560.946251	5519.342577
561.303065	5574.013890
561.659825	5611.376402
562.016528	5621.317557
562.373177	5612.714828
562.729770	5719.980500
563.086307	5723.768927
563.442789	5796.895904
563.799216	5813.100693
564.155587	5870.753849
564.511904	5896.100771
564.868164	5937.939827
565.224370	5979.599923
565.580520	6013.055540
565.936615	6036.126381
566.292654	6039.231732
566.648638	6133.269415
567.004567	6162.792933
567.360441	6194.201842
567.716260	6206.756836
568.072023	6286.107118
568.427732	6310.889430
568.783385	6297.608510
569.138982	6398.711371
569.494525	6436.822494
569.850013	6421.061327
570.205445	6510.887127
570.560823	6492.192007
570.916145	6499.000086
571.271412	6575.376087
571.626625	6587.971410
571.981782	6610.631397
572.336884	6651.419372
572.691931	6674.099523
573.046923	6705.427774
573.401860	6715.174845
573.756743	6726.522482
574.111570	6788.720238
574.466342	6809.502395
574.821059	6871.110336
575.175722	6847.127047
575.530330	6898.367855
575.884882	6926.870539
576.239380	6927.961949
576.593823	6949.906092
576.948211	6994.464850
577.302544	6948.736544
577.656823	7010.581419
578.011047	7036.160234
578.365216	7057.774181
578.719330	7043.633744
579.073389	7091.378513
579.427394	7082.521205
579.781344	7106.716223
580.135239	7113.136132
580.489080	7143.042778
580.842866	7116.261648
581.196597	7153.432596
581.550273	7209.928807
581.903895	7225.079995
582.257463	7296.442569
582.610975	7246.676298
582.964434	7284.084180
583.317837	7274.364835
583.671186	7281.024200
584.024481	7315.203223
584.377721	7279.201822
584.730906	7294.113556
585.084037	7347.632965
585.437113	7322.396949
585.790135	7371.462500
586.143103	7325.812331
586.496016	7334.336922
586.848874	7409.561020
587.201679	7423.335973
587.554428	7364.931685
587.907124	7428.029287
588.259765	7425.672547
588.612352	7461.247970
588.964884	7378.991463
589.317362	7421.117865
589.669786	7443.142666
590.022155	7501.567119
590.374470	7550.446146
590.726731	7513.348295
591.078937	7428.213289
591.431090	7547.880199
591.783188	7459.304605
592.135232	7479.612894
592.487222	7492.321642
592.839157	7561.902168
593.191038	7528.633074
593.542866	7505.484095
593.894639	7440.957326
594.246358	7503.407140
594.598022	7539.733694
594.949633	7470.705175
595.301190	7472.426729
595.652692	7516.136053
596.004141	7631.008826
596.355535	7456.310160
596.706876	7455.259079
597.058162	7421.755571
597.409395	7497.735842
597.760573	7578.991680
598.111698	7511.896443
598.462768	7518.258379
598.813785	7503.449990
599.164748	7492.692167
599.515657	7501.083168
599.866511	7439.623941
600.217312	7557.844040
600.568060	7449.267668
600.918753	7556.316570
601.269392	7540.386524
601.619978	7477.299004
601.970510	7546.708131
602.320988	7561.236736
602.671412	7625.082950
603.021783	7578.595949
603.372100	7564.820997
603.722363	7585.353616
604.072572	7569.216883
604.422728	7594.488187
604.772830	7539.408540
605.122878	7557.372692
605.472872	7557.957466
605.822813	7599.857016
606.172701	7558.363278
606.522534	7645.797051
606.872314	7655.206364
607.222041	7631.157540
607.571714	7694.560132
607.921333	7666.289341
608.270899	7678.637648
608.620411	7773.434025
608.969870	7690.355810
609.319276	7692.273969
609.668627	7717.396559
610.017926	7756.425172
610.367171	7806.511556
610.716362	7792.819782
611.065500	7796.003271
611.414585	7828.246491
611.763616	7823.122158
612.112594	7816.540932
612.461518	7828.982499
612.810389	7897.660659
613.159207	7846.523194
613.507971	7806.524159
613.856682	7919.156139
614.205340	7888.208495
614.553945	7969.033315
614.902496	7876.061835
615.250994	7933.107532
615.599439	7921.570851
615.947830	7939.693799
616.296169	7919.456087
616.644454	7934.115763
616.992686	7939.434180
617.340864	8001.289138
617.688990	7912.489213
618.037063	7995.940473
618.385082	7955.674257
618.733048	8039.067545
619.080961	7982.352043
619.428821	8003.335846
619.776628	8016.619287
620.124382	7973.109088
620.472083	7963.087274
620.819731	7991.834454
621.167326	7891.689412
621.514868	7900.899600
621.862357	7798.972510
622.209793	7822.688619
622.557176	7766.111749
622.904506	7740.855568
623.251783	7677.289139
623.599007	7636.428066
623.946179	7641.663305
624.293297	7610.667770
624.640363	7530.130296
624.987376	7517.968513
625.334336	7464.542364
625.681243	7418.748523
626.028097	7413.039416
626.374899	7387.064871
626.721647	7383.089921
627.068343	7318.260682
627.414987	7294.398381
627.761577	7250.860456
628.108115	7289.720190
628.454600	7193.779471
628.801032	7242.655978
629.147412	7205.144752
629.493739	7193.209820
629.840014	7135.644884
630.186236	7190.341404
630.532405	7072.943013
630.878521	7128.168853
631.224585	7084.328459
631.570597	7011.340113
631.916556	7049.002573
632.262462	7040.793054
632.608316	7005.777200
632.954117	6988.100394
633.299866	6973.571788
633.645562	6965.702547
633.991206	6890.738069
634.336797	6836.497774
634.682336	6797.043183
635.027823	6763.958091
635.373257	6755.367965
635.718639	6691.690630
636.063968	6700.900818
636.409245	6597.879798
636.754470	6596.133038
637.099642	6558.682306
637.444762	6503.781620
637.789829	6510.224215
638.134845	6458.716225
638.479808	6443.864986
638.824719	6448.056706
639.169577	6372.915787
639.514383	6402.875364
639.859137	6331.240568
640.203839	6337.917576
640.548489	6323.058775
640.893086	6298.631864
641.237632	6272.997597
641.582125	6290.450072
641.926566	6262.948057
642.270955	6275.482886
642.615292	6268.337050
642.959576	6287.848836
643.303809	6276.843997
643.647990	6285.963445
643.992118	6275.094717
644.336195	6223.185956
644.680219	6249.838536
645.024192	6240.177165
645.368112	6333.501526
645.711981	6357.252922
646.055797	6435.312669
646.399562	6390.317850
646.743274	6515.081367
647.086935	6568.174799
647.430544	6562.329581
647.774101	6587.187511
648.117606	6591.107008
648.461059	6585.039979
648.804460	6545.293002
649.147810	6453.818744
649.491108	6424.408653
649.834354	6399.205404
650.177548	6319.396377
650.520690	6232.295321
650.863781	6215.041972
651.206820	6230.500670
651.549807	6155.516027
651.892742	6098.051915
652.235626	6101.570640
652.578458	6086.227888
652.921238	5997.697665
653.263967	6036.658223
653.606644	5982.637218
653.949269	5983.191745
654.291843	5926.188898
654.634365	5974.127750
654.976836	5926.685451
655.319255	5925.939361
655.661622	5904.295167
656.003938	5901.336009
656.346203	5863.111460
656.688416	5894.290997
657.030577	5846.513461
657.372687	5816.110262
657.714746	5802.559641
658.056753	5847.446075
658.398708	5790.133197
658.740612	5777.500065
659.082465	5826.805070
659.424266	5821.065717
659.766016	5821.385830
660.107715	5792.071520
660.449362	5806.925280
660.790958	5802.481503
661.132503	5790.279390
661.473996	5829.562581
661.815438	5815.926260
662.156829	5809.990302
662.498168	5807.323531
662.839456	5780.043327
663.180693	5817.070602
663.521879	5817.478936
663.863013	5805.549045
664.204097	5824.254246
664.545129	5866.017685
664.886110	5860.807653
665.227040	5895.687396
665.567918	5864.197829
665.908746	5887.205655
666.249522	5895.029526
666.590248	5879.853132
666.930922	5906.709879
667.271545	5921.422487
667.612118	5923.985913
667.952639	5895.145472
668.293109	5916.847640
668.633528	5873.561772
668.973896	5876.939345
669.314213	5869.238983
669.654480	5848.202248
669.994695	5843.340055
670.334859	5831.737839
670.674973	5823.669473
671.015035	5825.312889
671.355047	5827.445297
671.695008	5811.643800
672.034918	5788.653618
672.374777	5802.794054
672.714585	5784.592968
673.054342	5788.444410
673.394049	5781.328821
673.733705	5815.437268
674.073310	5797.596625
674.412864	5760.032467
674.752368	5751.570890
675.091820	5756.727991
675.431223	5692.410429
675.770574	5692.433114
676.109875	5647.067771
676.449125	5652.245036
676.788324	5618.305468
677.127473	5565.128856
677.466571	5551.399274
677.805619	5543.913160
678.144616	5531.005286
678.483562	5503.392366
678.822458	5477.977389
679.161303	5473.889013
679.500098	5462.402744
679.838842	5445.126710
680.177535	5452.617864
680.516179	5466.392817
680.854771	5480.858408
681.193314	5554.486981
681.531805	5668.381769
681.870247	5816.601775
682.208638	5911.715745
682.546978	5925.780564
682.885268	5904.411113
683.223508	5819.886087
683.561697	5765.849958
683.899836	5735.303087
684.237925	5693.138876
684.575963	5656.219986
684.913951	5615.570642
685.251889	5678.476680
685.589776	5646.399818
685.927614	5618.542402
686.265401	5690.008319
686.603137	5672.523077
686.940824	5747.187607
687.278460	5772.809271
687.616046	5780.250014
687.953582	5843.244273
688.291068	5830.406975
688.628504	5888.090378
688.965889	5850.112845
689.303224	5799.562675
689.640510	5751.822948
689.977745	5676.014076
690.314930	5580.484211
690.652065	5523.869533
690.989150	5430.199853
691.326185	5354.670766
691.663170	5302.822498
692.000105	5228.921703
692.336990	5151.585362
692.673825	5127.017299
693.010610	5056.438625
693.347345	4989.998738
693.684030	4979.654290
694.020665	4935.365233
694.357251	4848.874156
694.693786	4858.099468
695.030272	4826.680476
695.366707	4789.481802
695.703093	4757.238582
696.039429	4778.585348
696.375716	4761.054736
696.711952	4735.869131
697.048139	4725.285228
697.384276	4706.075912
697.720363	4715.369279
698.056400	4727.067276
698.392388	4676.257487
698.728326	4654.235206
699.064214	4634.778873
699.400053	4630.577071
699.735842	4595.472996
700.071581	4569.921908
700.407270	4544.373340
700.742910	4528.481103
701.078501	4475.188545
701.414042	4476.801714
701.749533	4445.433134
702.084974	4378.103484
702.420366	4436.036424
702.755709	4377.367475
703.091002	4321.279598
703.426246	4370.531671
703.761440	4325.829239
704.096584	4291.115853
704.431679	4307.252587
704.766725	4294.790855
705.101721	4283.506232
705.436668	4311.610664
705.771565	4260.006893
706.106413	4286.437663
706.441212	4323.535514
706.775961	4326.240093
707.110661	4307.003050
707.445311	4337.340714
707.779913	4358.808467
708.114465	4367.791803
708.448967	4395.750043
708.783421	4454.171975
709.117825	4498.529087
709.452180	4495.345599
709.786485	4543.392836
710.120742	4631.968430
710.454949	4615.110811
710.789107	4676.063402
711.123216	4752.837655
711.457275	4740.128906
711.791286	4817.006502
712.125247	4835.187423
712.459159	4737.089090
712.793023	4809.837981
713.126837	4773.019914
713.460602	4764.911218
713.794318	4683.562119
714.127985	4694.259447
714.461602	4605.313329
714.795171	4581.332560
715.128691	4510.585007
715.462162	4457.733550
715.795584	4410.573556
716.128957	4389.493971
716.462281	4338.280889
716.795556	4316.011592
717.128782	4280.536992
717.461960	4209.055951
717.795088	4218.994586
718.128167	4178.433462
718.461198	4116.689410
718.794180	4114.582208
719.127113	4092.391048
719.459997	4070.809869
719.792833	4031.627500
720.125619	4023.198691
720.458357	3988.510512
720.791046	3991.202488
721.123686	3967.544353
721.456278	3925.463321
721.788821	3943.094757
722.121315	3914.178698
722.453761	3889.063670
722.786158	3904.913057
723.118506	3926.892488
723.450805	3878.746948
723.783056	3899.642531
724.115259	3916.366559
724.447412	3922.625151
724.779518	3914.985283
725.111574	3918.907300
725.443582	3947.021815
725.775542	3933.438426
726.107453	3981.301662
726.439315	3986.287363
726.771129	4000.810927
727.102895	4033.636400
727.434612	4081.834872
727.766281	4094.019341
728.097901	4090.200667
728.429473	4095.196450
728.760996	4102.811113
729.092471	4100.403962
729.423897	4084.458793
729.755276	4087.233948
730.086606	4087.574226
730.417887	4125.806337
730.749120	4185.712888
731.080305	4255.684104
731.411442	4281.159575
731.742530	4247.893000
732.073570	4253.380296
732.404562	4310.635201
732.735506	4297.192964
733.066401	4260.992439
733.397249	4198.434240
733.728048	4123.260554
734.058798	4043.254922
734.389501	3971.917554
734.720156	3908.262904
735.050762	3865.438302
735.381320	3857.448073
735.711831	3806.275321
736.042293	3780.391516
736.372707	3801.811379
736.703073	3774.044703
737.033391	3765.802417
737.363661	3783.900159
737.693883	3806.666010
738.024056	3818.059018
738.354182	3810.429231
738.684260	3877.453892
739.014290	3890.326479
739.344272	3889.320768
739.674207	3930.577572
740.004093	3938.409004
740.333931	3933.249383
740.663722	3932.352058
740.993464	3930.842232
741.323159	3903.924991
741.652806	3878.061351
741.982405	3849.014223
742.311956	3817.877536
742.641460	3808.798418
742.970915	3781.858492
743.300323	3743.215527
743.629683	3707.675392
743.958996	3700.537119
744.288260	3675.071730
744.617477	3643.751041
744.946647	3628.713279
745.275768	3603.038683
745.604842	3603.399125
745.933869	3554.225190
746.262847	3544.301679
746.591778	3585.513111
746.920662	3555.672001
747.249498	3526.650078
747.578286	3570.452664
747.907027	3589.115016
748.235720	3585.263574
748.564365	3611.376751
748.892963	3613.753655
749.221514	3592.971498
749.550017	3571.279413
749.878473	3568.020308
750.206881	3538.857233
750.535242	3536.533261
750.863555	3539.537788
751.191821	3532.994371
751.520039	3515.209180
751.848210	3489.474089
752.176334	3525.074718
752.504411	3533.188455
752.832440	3491.379646
753.160421	3471.817448
753.488356	3486.761949
753.816243	3494.542970
754.144082	3454.788430
754.471875	3440.332922
754.799620	3458.526446
755.127318	3450.886577
755.454969	3450.327009
755.782572	3454.818677
756.110129	3432.524174
756.437638	3423.296342
756.765100	3434.316305
757.092515	3445.951288
757.419882	3452.809778
757.747203	3425.668205
758.074477	3425.378339
758.401703	3444.368365
758.728882	3465.778146
759.056014	3470.768888
759.383099	3476.616627
759.710138	3470.952890
760.037129	3485.383193
760.364073	3516.877802
760.690970	3504.562263
761.017820	3479.865650
761.344623	3498.585975
761.671379	3545.483829
761.998088	3597.632045
762.324751	3720.482444
762.651366	3963.317345
762.977935	4429.508129
763.304456	4864.998287
763.630931	4952.837872
763.957359	4597.335703
764.283740	4258.970936
764.610074	4073.154005
764.936362	3877.693347
765.262602	3721.168041
765.588796	3616.662401
765.914943	3526.087990
766.241044	3439.785957
766.567097	3412.593973
766.893104	3365.320553
767.219064	3337.838702
767.544978	3307.720329
767.870845	3256.338368
768.196665	3235.531006
768.522438	3245.426791
768.848165	3239.876480
769.173846	3204.429607
769.499479	3188.257585
769.825066	3172.345183
770.150607	3155.863131
770.476101	3172.496418
770.801548	3166.406704
771.126949	3118.853500
771.452303	3104.438320
771.777611	3113.439301
772.102872	3117.487347
772.428087	3090.139087
772.753256	3083.482244
773.078378	3075.038311
773.403453	3040.864329
773.728482	3031.475180
774.053465	3051.057542
774.378401	3039.684699
774.703291	3005.104904
775.028135	3007.428876
775.352932	3001.913854
775.677683	2991.723162
776.002388	2988.832060
776.327046	2989.396669
776.651658	2980.574650
776.976224	2968.347331
777.300743	2970.837661
777.625216	2958.070939
777.949643	2957.241669
778.274024	2958.000363
778.598359	2946.420833
778.922647	2950.970474
779.246889	2946.176337
779.571086	2933.283586
779.895236	2929.321239
780.219339	2938.985131
780.543397	2951.688838
780.867409	2954.199333
781.191374	2946.781275
781.515294	2944.311110
781.839167	2947.451748
782.162995	2937.392126
782.486776	2945.518466
782.810511	2941.888835
783.134201	2928.431475
783.457844	2938.065120
783.781441	2925.968871
784.104993	2907.059503
784.428498	2908.425656
784.751958	2922.482913
785.075372	2913.287849
785.398739	2903.097156
785.722061	2919.291863
786.045337	2929.948862
786.368568	2912.503949
786.691752	2905.383320
787.014891	2953.695218
787.337983	2982.933910
787.661030	3007.355780
787.984031	3075.481933
788.306987	3117.633541
788.629897	3111.362345
788.952760	3095.684357
789.275579	3082.562233
789.598351	3018.519415
789.921078	2978.452324
790.243759	2973.058289
790.566395	2953.816205
790.888984	2931.824172
791.211529	2913.391193
791.534027	2904.206210
791.856480	2895.979047
792.178888	2878.178733
792.501249	2871.350490
792.823566	2871.002650
793.145836	2869.470140
793.468062	2861.837833
793.790241	2858.525795
794.112375	2867.360417
794.434464	2876.931047
794.756507	2883.550082
795.078505	2890.721124
795.400457	2904.516241
795.722364	2939.383382
796.044226	2963.843060
796.366042	2961.415745
796.687812	2952.613890
797.009538	2975.117601
797.331218	2960.392390
797.652852	2947.164403
797.974442	2930.984819
798.295986	2928.315528
798.617484	2922.160280
798.938938	2908.375244
799.260346	2890.527039
799.581709	2883.870196
799.903026	2877.503218
800.224299	2872.966180
800.545526	2864.343286
800.866708	2847.762931
801.187845	2839.714729
801.508936	2840.417970
801.829983	2846.709330
802.150984	2834.035869
802.471940	2824.019097
802.792851	2823.426761
803.113717	2822.032882
803.434538	2827.845332
803.755314	2820.583550
804.076045	2814.322437
804.396731	2813.377221
804.717372	2814.929896
805.037967	2808.610810
805.358518	2815.998621
805.679024	2827.119406
805.999485	2822.935248
806.319901	2825.763336
806.640272	2815.491985
806.960598	2824.311483
807.280879	2832.208451
807.601115	2840.269256
807.921306	2826.784169
808.241453	2820.575988
808.561554	2829.932370
808.881611	2830.708708
809.201623	2826.809375
809.521590	2823.610763
809.841513	2822.176555
810.161390	2824.452636
810.481223	2821.196050
810.801011	2808.865388
811.120755	2804.386323
811.440453	2809.631643
811.760107	2808.066365
812.079716	2807.927733
812.399281	2798.919192
812.718801	2790.813016
813.038276	2785.139197
813.357707	2791.417955
813.677093	2801.895993
813.996434	2792.905095
814.315731	2788.441153
814.634983	2785.262706
814.954191	2784.897222
815.273354	2800.297947
815.592473	2809.825728
815.911547	2806.644760
816.230577	2815.991059
816.549562	2825.869200
816.868502	2823.724189
817.187399	2834.703822
817.506250	2851.750484
817.825058	2842.875532
818.143821	2854.394569
818.462539	2872.081457
818.781213	2899.633884
819.099843	2933.863318
819.418429	2987.967502
819.736970	3050.792882
820.055466	3117.346195
820.373919	3224.110272
820.692327	3359.901312
821.010691	3526.289636
821.329011	3958.613949
821.647286	4840.548691
821.965517	6197.208890
822.283704	6911.190030
822.601847	6880.310442
822.919945	6256.878508
823.237999	5765.703765
823.556010	5196.756621
823.873976	4658.000948
824.191897	4259.059156
824.509775	3971.234477
824.827609	3708.797049
825.145398	3591.348247
825.463144	3583.373142
825.780845	3672.339425
826.098502	3777.649128
826.416116	4053.243968
826.733685	4360.668653
827.051210	4419.448507
827.368692	4306.975323
827.686129	4043.660735
828.003522	3726.093248
828.320872	3473.871718
828.638177	3287.583440
828.955439	3149.919610
829.272656	3070.927250
829.589830	3007.875018
829.906960	2959.850466
830.224046	2914.563261
830.541088	2883.419012
830.858086	2869.888555
831.175041	2849.688652
831.491952	2850.669156
831.808819	2862.699870
832.125642	2887.794734
832.442421	2930.639500
832.759157	3012.608662
833.075849	3185.696679
833.392497	3462.345120
833.709101	3657.286539
834.025662	3606.688478
834.342179	3451.335240
834.658653	3281.145886
834.975083	3133.238432
835.291469	3034.247815
835.607811	2957.483645
835.924110	2900.972310
836.240366	2850.243179
836.556578	2810.034936
836.872746	2786.596091
837.188871	2768.216044
837.504952	2748.527818
837.820990	2741.321488
838.136984	2726.250959
838.452935	2722.719631
838.768842	2717.640668
839.084706	2739.489029
839.400526	2813.939309
839.716303	2944.190122
840.032037	3023.215250
840.347727	3004.174812
840.663373	2945.384875
840.978977	2872.903165
841.294537	2802.266518
841.610054	2755.096441
841.925527	2737.306209
842.240957	2712.425594
842.556344	2692.102183
842.871687	2677.860923
843.186987	2668.764161
843.502244	2665.162257
843.817458	2658.878458
844.132629	2648.745739
844.447756	2638.615540
844.762840	2633.529016
845.077881	2635.497587
845.392879	2632.498100
845.707833	2631.499952
846.022745	2620.396810
846.337613	2625.594240
846.652438	2626.108438
846.967221	2625.745475
847.281960	2622.526698
847.596656	2623.260186
847.911309	2619.186933
848.225919	2618.017386
848.540485	2613.137549
848.855009	2616.217694
849.169490	2616.699124
849.483928	2614.145780
849.798323	2614.120574
850.112675	2612.320882
850.426984	2613.031685
850.741251	2613.064452
851.055474	2612.462034
851.369654	2614.755759
851.683792	2618.806326
851.997887	2612.779627
852.311938	2612.545213
852.625947	2613.008999
852.939914	2614.052518
853.253837	2617.394803
853.567718	2614.047477
853.881555	2611.952878
854.195350	2614.410440
854.509103	2617.109978
854.822812	2611.196705
855.136479	2611.128649
855.450103	2614.049998
855.763685	2616.827673
856.077224	2611.708382
856.390720	2607.723350
856.704173	2614.307097
857.017584	2617.304062
857.330953	2619.232304
857.644278	2620.888323
857.957561	2618.314814
858.270802	2614.080245
858.584000	2614.599483
858.897155	2619.847325
859.210268	2619.149125
859.523339	2612.441870
859.836367	2609.838114
860.149352	2612.114195
860.462295	2611.100923
860.775195	2606.974738
861.088054	2607.078082
861.400869	2607.488936
861.713642	2604.290324
862.026373	2606.568925
862.339062	2608.247630
862.651708	2617.498147
862.964312	2617.392283
863.276873	2616.303393
863.589392	2615.562344
863.901869	2620.104423
864.214303	2625.710187
864.526696	2628.697070
864.839045	2630.169087
865.151353	2632.828296
865.463619	2632.780405
865.775842	2633.564304
866.088023	2633.682771
866.400162	2633.992802
866.712258	2633.259314
867.024313	2629.639766
867.336325	2626.229425
867.648296	2628.175311
867.960224	2631.381485
868.272110	2633.667648
868.583954	2623.736575
868.895755	2629.218830
869.207515	2629.271762
869.519233	2638.030767
869.830909	2637.647639
870.142542	2629.526340
870.454134	2634.426342
870.765684	2641.443628
871.077191	2641.831797
871.388657	2643.250881
871.700081	2640.674852
872.011463	2640.969759
872.322803	2642.572846
872.634101	2645.539565
872.945357	2650.978970
873.256571	2657.865186
873.567744	2654.568272
873.878874	2653.108858
874.189963	2654.555669
874.501010	2659.619508
874.812015	2661.363747
875.122979	2665.502534
875.433900	2656.705721
875.744780	2655.347130
876.055618	2659.339724
876.366415	2664.055723
876.677169	2662.808038
876.987882	2658.747388
877.298554	2657.696308
877.609183	2664.385919
877.919771	2673.323885
878.230317	2678.831345
878.540822	2688.580937
878.851285	2706.010726
879.161707	2728.285064
879.472087	2765.098090
879.782425	2810.244144
880.092722	2920.186668
880.402977	3101.186776
880.713191	3351.255733
881.023363	3631.327118
881.333494	3818.779903
881.643583	3983.466837
881.953631	3981.984738
882.263637	3803.888334
882.573602	3588.638627
882.883526	3467.071202
883.193408	3359.843339
883.503248	3260.487238
883.813048	3151.197543
884.122806	3038.346273
884.432522	2956.828295
884.742197	2896.589027
885.051831	2859.864221
885.361424	2827.747030
885.670975	2795.037503
885.980485	2766.822165
886.289954	2748.172416
886.599382	2736.063565
886.908768	2722.903633
887.218113	2705.829245
887.527417	2692.157635
887.836680	2686.355267
888.145901	2680.346212
888.455082	2673.212979
888.764221	2662.465239
889.073319	2655.357212
889.382376	2655.039620
889.691392	2654.621204
890.000366	2653.164310
890.309300	2652.269506
890.618193	2655.488282
890.927044	2657.678664
891.235855	2659.007008
891.544625	2657.776966
891.853353	2657.419044
892.162041	2663.723007
892.470687	2684.386697
892.779293	2692.790300
893.087858	2704.256405
893.396381	2725.865311
893.704864	2764.145312
894.013306	2832.783142
894.321707	2920.872265
894.630068	2967.918833
894.938387	2987.816267
895.246665	2981.862665
895.554903	2936.971190
895.863100	2898.769326
896.171256	2841.622806
896.479371	2782.550565
896.787446	2745.488002
897.095480	2724.801627
897.403473	2723.054867
897.711425	2708.170861
898.019336	2690.294929
898.327207	2677.482837
898.635038	2675.831859
898.942827	2676.613237
899.250576	2666.591424
899.558284	2653.731440
899.865952	2650.616007
900.173579	2647.498053
900.481165	2647.172899
900.788711	2637.796353
901.096216	2631.447020
901.403681	2628.311422
901.711105	2631.323511
902.018489	2629.226391
902.325832	2629.768315
902.633135	2630.816875
902.940397	2646.807415
903.247619	2684.202695
903.554800	2747.948085
903.861941	2868.938298
904.169041	2987.816267
904.476101	3046.538148
904.783121	3041.948177
905.090100	2982.165134
905.397039	2913.373548
905.703938	2845.000379
906.010796	2785.159362
906.317614	2734.019377
906.624391	2699.149716
906.931129	2676.850172
907.237826	2654.883344
907.544483	2638.454223
907.851099	2627.293109
908.157675	2615.776593
908.464211	2608.086313
908.770707	2596.867225
909.077163	2595.715321
909.383578	2587.682243
909.689954	2591.392532
909.996289	2586.943713
910.302584	2588.813982
910.608839	2588.700556
910.915054	2587.604105
911.221229	2589.638210
911.527363	2589.915474
911.833458	2589.575196
912.139513	2589.733992
912.445527	2591.732810
912.751502	2596.715990
913.057436	2602.707402
913.363331	2606.447938
913.669186	2620.129629
913.975000	2629.007101
914.280775	2644.916983
914.586510	2663.869201
914.892205	2697.629808
915.197859	2761.791093
915.503475	2840.516272
915.809050	2905.189235
916.114585	2920.262285
916.420081	2928.103800
916.725536	2937.379523
917.030952	2913.159299
917.336328	2869.989378
917.641665	2823.353664
917.946961	2776.105450
918.252218	2742.498598
918.557435	2716.677808
918.862612	2696.679550
919.167750	2682.133301
919.472848	2666.052020
919.777906	2652.829074
920.082925	2638.968421
920.387904	2629.251597
920.692843	2626.557100
920.997743	2621.440329
921.302603	2614.687704
921.607423	2606.929368
921.912204	2601.825200
922.216946	2601.799994
922.521647	2599.571804
922.826310	2595.838829
923.130932	2594.074426
923.435516	2584.798702
923.740059	2583.440112
924.044564	2584.246696
924.349028	2582.593198
924.653454	2570.559963
924.957840	2572.682289
925.262186	2568.518296
925.566493	2570.113821
925.870761	2565.843964
926.174989	2568.873697
926.479178	2564.734910
926.783328	2561.231308
927.087438	2560.795248
927.391509	2563.182235
927.695541	2559.424055
927.999533	2560.845660
928.303486	2558.927501
928.607400	2556.485062
928.911275	2557.445402
929.215110	2556.008673
929.518906	2558.055381
929.822663	2555.484393
930.126381	2556.941286
930.430060	2558.327604
930.733699	2557.173179
931.037299	2558.211657
931.340861	2561.576627
931.644383	2559.892882
931.947866	2563.693912
932.251309	2557.082439
932.554714	2557.924311
932.858080	2558.776266
933.161407	2557.493293
933.464694	2556.293498
933.767943	2556.734599
934.071153	2554.544218
934.374323	2555.751574
934.677455	2556.359033
934.980548	2555.471790
935.283602	2558.481359
935.586617	2554.950031
935.889593	2555.154197
936.192530	2555.126471
936.495428	2553.021789
936.798287	2556.444733
937.101108	2556.515309
937.403890	2559.681153
937.706632	2564.319015
938.009336	2565.823799
938.312002	2568.485529
938.614628	2572.069789
938.917216	2577.922569
939.219765	2575.522979
939.522275	2576.843762
939.824747	2575.543144
940.127179	2569.060220
940.429573	2566.990827
940.731929	2571.064079
941.034246	2564.835733
941.336524	2567.522668
941.638763	2566.103583
941.940964	2566.695919
942.243126	2564.326577
942.545250	2565.463357
942.847335	2564.220712
943.149381	2559.648386
943.451389	2561.959755
943.753359	2557.571431
944.055290	2557.306770
944.357182	2558.809034
944.659036	2559.028324
944.960851	2553.982129
945.262628	2556.089331
945.564367	2559.207285
945.866067	2562.468912
946.167729	2561.470763
946.469352	2557.195865
946.770937	2557.644527
947.072484	2555.418858
947.373992	2558.040258
947.675462	2556.606050
947.976893	2555.096224
948.278286	2553.389793
948.579641	2555.290308
948.880958	2556.474980
949.182236	2554.609753
949.483476	2554.327448
949.784678	2554.498847
950.085841	2553.606563
950.386967	2556.172510
950.688054	2554.163611
950.989103	2557.226112
951.290114	2556.580844
951.591087	2559.048489
951.892021	2556.790052
952.192917	2560.273489
952.493776	2561.584189
952.794596	2559.401369
953.095378	2564.671896
953.396122	2561.566545
953.696828	2560.787687
953.997496	2559.255176
954.298126	2559.076215
954.598718	2556.379198
954.899272	2557.001780
955.199788	2555.093703
955.500266	2555.544887
955.800706	2552.527756
956.101108	2541.366642
956.401472	2549.699669
956.701798	2545.586087
957.002087	2548.056253
957.302337	2547.282436
957.602550	2544.436704
957.902724	2545.283618
958.202861	2547.390820
958.502960	2544.146838
958.803022	2545.235727
959.103045	2544.179605
959.403031	2545.918803
959.702979	2545.276056
960.002889	2545.976777
960.302762	2543.241951
960.602596	2545.699513
960.902393	2544.834955
961.202153	2545.397044
961.501875	2542.087527
961.801559	2542.611807
962.101205	2544.953422
962.400814	2541.288504
962.700385	2544.240099
962.999918	2543.602393
963.299414	2543.267157
963.598873	2543.438556
963.898293	2543.073072
964.197677	2541.452341
964.497022	2542.944523
964.796331	2540.239944
965.095601	2542.795809
965.394835	2543.652805
965.694030	2542.052238
965.993189	2542.538710
966.292309	2542.062321
966.591393	2542.321940
966.890439	2540.640715
967.189447	2541.175078
967.488419	2541.056611
967.787353	2541.197763
968.086249	2540.955787
968.385108	2539.259439
968.683930	2542.067362
968.982714	2539.493853
969.281462	2541.830428
969.580172	2538.387320
969.878844	2540.053421
970.177480	2542.163144
970.476078	2541.291024
970.774639	2542.198432
971.073162	2542.021992
971.371649	2541.719522
971.670098	2536.932947
971.968510	2539.604758
972.266885	2537.598379
972.565223	2540.060983
972.863524	2540.920499
973.161788	2541.550644
973.460014	2541.480068
973.758204	2540.670962
974.056356	2541.845551
974.354471	2545.079451
974.652550	2539.282124
974.950591	2542.568957
975.248595	2543.330171
975.546563	2542.490819
975.844493	2541.916127
976.142386	2543.887218
976.440243	2541.538041
976.738062	2540.055942
977.035845	2539.904707
977.333590	2542.432846
977.631299	2541.810263
977.928971	2540.247505
978.226606	2539.478729
978.524204	2540.875129
978.821765	2541.076775
979.119290	2539.206507
979.416777	2539.667773
979.714228	2541.089378
980.011642	2539.695499
980.309020	2541.469985
980.606360	2541.001158
980.903664	2539.682896
981.200931	2542.135418
981.498162	2540.184491
981.795356	2541.568288
982.092513	2547.368135
982.389633	2547.226983
982.686717	2548.391489
982.983764	2555.159238
983.280775	2554.453477
983.577749	2553.238559
983.874686	2554.042623
984.171587	2551.635472
984.468451	2547.824360
984.765279	2547.506767
985.062070	2545.064328
985.358824	2545.165151
985.655543	2543.494008
985.952224	2541.928730
986.248869	2540.330684
986.545478	2538.563760
986.842050	2537.714326
987.138586	2536.418749
987.435086	2535.067720
987.731549	2535.226516
988.027975	2540.741538
988.324366	2538.341949
988.620719	2543.357897
988.917037	2537.812628
989.213318	2538.268852
989.509563	2537.250539
989.805772	2539.448482
990.101944	2539.876981
990.398080	2538.198276
990.694180	2539.178781
990.990244	2535.942360
991.286271	2536.060827
991.582262	2537.522762
991.878217	2538.263811
992.174136	2540.655839
992.470019	2537.565612
992.765865	2540.101312
993.061676	2538.331867
993.357450	2537.933616
993.653188	2538.825900
993.948890	2539.362783
994.244556	2538.541075
994.540186	2538.697351
994.835780	2536.993441
995.131337	2541.245654
995.426859	2541.044008
995.722345	2540.038298
996.017795	2543.335212
996.313208	2539.382948
996.608586	2539.178781
996.903928	2543.307486
997.199234	2541.389327
997.494504	2541.555685
997.789738	2539.743390
998.084936	2539.755993
998.380099	2538.909079
998.675225	2537.729449
998.970316	2539.019984
999.265371	2539.524100
999.560390	2536.189377
999.855373	2539.158616
1000.150320	2540.716333
1000.445232	2537.900848
1000.740108	2536.761547
1001.034948	2538.490663
1001.329752	2536.295241
1001.624521	2535.697864
1001.919254	2529.552697
1002.213951	2538.246167
1002.508613	2534.200641
1002.803239	2533.257946
1003.097829	2530.369364
1003.392384	2537.633667
1003.686903	2534.379602
1003.981386	2538.964532
1004.275834	2537.570653
1004.570246	2534.581248
1004.864623	2535.886907
1005.158964	2535.859181
1005.453270	2534.772812
1005.747540	2534.535878
1006.041775	2535.511341
1006.335974	2535.269366
1006.630138	2535.844058
1006.924266	2536.519572
1007.218359	2536.539737
1007.512416	2535.899510
1007.806438	2536.060827
1008.100425	2535.609644
1008.394376	2535.050076
1008.688292	2535.382792
1008.982172	2535.902031
1009.276017	2537.978986
1009.569827	2535.405477
1009.863602	2536.900179
1010.157341	2535.571835
1010.451045	2532.479087
1010.744714	2537.497556
1011.038347	2537.414377
1011.331945	2534.220806
1011.625508	2535.128214
1011.919036	2535.977648
1012.212528	2534.581248
1012.505986	2534.445137
1012.799408	2535.183666
1013.092795	2534.160312
1013.386147	2536.461599
1013.679464	2536.789274
1013.972745	2534.535878
1014.265992	2536.028060
1014.559204	2534.916485
1014.852380	2537.074099
1015.145521	2536.922864
1015.438628	2532.988244
1015.731699	2537.172402
1016.024736	2537.099305
1016.317737	2536.607792
1016.610703	2534.684592
1016.903635	2529.799714
1017.196531	2533.807431
1017.489393	2530.873480
1017.782219	2532.829447
1018.075011	2533.608306
1018.367768	2533.729293
1018.660490	2534.508152
1018.953177	2534.508152
1019.245829	2534.508152
