Dividing Wavelength (nm)	Counts (n)	Blue Motor Position (mm): 21.300000	Red Motor Position (mm): 0.000000	
326.493990	2133.754065
326.888308	2133.754065
327.282561	2133.754065
327.676750	2100.812645
328.070874	2099.340628
328.464933	2104.510332
328.858929	2110.219438
329.252859	2119.779987
329.646726	2130.384054
330.040528	2144.839562
330.434265	2159.713487
330.827938	2175.411640
331.221547	2194.724300
331.615091	2215.088041
332.008571	2234.753582
332.401986	2254.764443
332.795338	2273.164654
333.188625	2291.181738
333.581847	2312.210911
333.975006	2329.313026
334.368100	2348.383711
334.761129	2366.194107
335.154095	2384.236397
335.546996	2402.082081
335.939833	2423.756522
336.332606	2438.297731
336.725315	2450.764504
337.117960	2459.344548
337.510540	2469.757051
337.903056	2481.918835
338.295508	2488.578199
338.687896	2495.328304
339.080220	2505.874398
339.472480	2513.504184
339.864676	2516.455780
340.256807	2517.690862
340.648875	2523.846111
341.040879	2524.791328
341.432818	2526.669157
341.824694	2529.522451
342.216506	2528.247039
342.608253	2529.751823
342.999937	2528.980527
343.391557	2527.551359
343.783113	2525.905423
344.174605	2525.093797
344.566033	2527.758047
344.957397	2525.290402
345.348697	2520.944927
345.739934	2521.139012
346.131106	2517.837056
346.522215	2520.607170
346.913260	2514.532580
347.304241	2513.259688
347.695159	2511.260871
348.086012	2508.677279
348.476802	2505.241733
348.867528	2506.224758
349.258191	2504.992196
349.648789	2506.000427
350.039324	2499.751917
350.429796	2502.025477
350.820203	2498.166474
351.210548	2500.258552
351.600828	2496.200424
351.991045	2496.959117
352.381198	2494.499034
352.771288	2498.400887
353.161314	2495.875269
353.551276	2497.261587
353.941175	2493.692450
354.331010	2493.526092
354.720782	2496.094559
355.110490	2494.988026
355.500135	2495.802173
355.889717	2493.193375
356.279235	2494.120948
356.668689	2495.086329
357.058080	2498.756289
357.447408	2494.559528
357.836672	2495.487100
358.225873	2494.219250
358.615010	2493.082470
359.004084	2500.056906
359.393095	2502.020436
359.782043	2497.934581
360.170927	2499.215034
360.559748	2501.044972
360.948505	2502.305261
361.337199	2502.048162
361.725830	2501.869201
362.114398	2501.148316
362.502903	2501.047493
362.891344	2502.978255
363.279722	2503.373986
363.668037	2504.369613
364.056289	2506.907834
364.444478	2502.980776
364.832603	2503.603358
365.220665	2505.403050
365.608665	2507.689213
365.996601	2507.343894
366.384474	2506.680982
366.772284	2508.382372
367.160031	2508.175685
367.547715	2504.387257
367.935336	2507.260715
368.322893	2506.464213
368.710388	2509.143586
369.097820	2511.001251
369.485189	2508.563853
369.872495	2509.526714
370.259738	2510.245078
370.646918	2510.144255
371.034035	2507.951353
371.421090	2510.106447
371.808081	2509.418329
372.195010	2511.845645
372.581875	2510.799605
372.968678	2509.864471
373.355418	2510.958402
373.742096	2511.631396
374.128710	2514.189781
374.515262	2511.946468
374.901751	2513.995697
375.288177	2512.911849
375.674540	2511.084430
376.060841	2510.832373
376.447079	2513.390758
376.833254	2516.052488
377.219367	2508.934378
377.605417	2512.884122
377.991404	2510.784482
378.377329	2512.420336
378.763191	2510.222393
379.148991	2515.618948
379.534727	2514.146931
379.920402	2515.361849
380.306013	2511.528052
380.691563	2515.709689
381.077049	2513.668022
381.462474	2515.865965
381.847835	2514.280522
382.233134	2514.850172
382.618371	2515.591222
383.003545	2517.456449
383.388657	2517.814371
383.773706	2517.126253
384.158693	2517.683301
384.543618	2518.462159
384.928480	2519.871162
385.313280	2516.632220
385.698017	2516.213804
386.082692	2517.353105
386.467305	2518.378980
386.851856	2520.045081
387.236344	2519.462828
387.620770	2523.536080
388.005133	2521.678415
388.389435	2518.038702
388.773674	2521.169259
389.157851	2518.641120
389.541965	2519.780421
389.926018	2518.109278
390.310008	2519.404855
390.693936	2520.337468
391.077802	2522.147242
391.461606	2523.072294
391.845348	2521.968282
392.229027	2522.626152
392.612645	2524.050278
392.996200	2522.061543
393.379694	2526.245701
393.763125	2522.933663
394.146494	2525.124044
394.529801	2524.214116
394.913047	2520.493744
395.296230	2524.982892
395.679351	2522.807634
396.062410	2525.219826
396.445408	2524.075484
396.828343	2525.791997
397.211217	2521.708662
397.594028	2525.872655
397.976778	2520.115657
398.359466	2521.343178
398.742092	2520.710514
399.124656	2522.651358
399.507158	2525.940711
399.889598	2526.064219
400.271977	2526.175124
400.654294	2526.323838
401.036549	2525.734023
401.418742	2525.918026
401.800874	2527.821061
402.182944	2527.067409
402.564952	2528.115969
402.946898	2527.695032
403.328783	2530.528161
403.710606	2528.592358
404.092367	2529.550177
404.474067	2527.576565
404.855705	2527.599250
405.237282	2528.899868
405.618797	2525.741585
406.000250	2529.981196
406.381642	2531.561597
406.762972	2528.826771
407.144240	2527.513551
407.525447	2532.665610
407.906593	2529.847605
408.287677	2526.152439
408.668700	2528.486493
409.049661	2531.727955
409.430560	2530.379447
409.811399	2532.877338
410.192176	2530.669313
410.572891	2531.201155
410.953545	2528.647810
411.334138	2531.808614
411.714669	2530.434899
412.095139	2531.614529
412.475547	2531.299457
412.855894	2531.412883
413.236180	2532.650487
413.616405	2532.353058
413.996568	2532.655528
414.376670	2532.078316
414.756711	2532.458923
415.136691	2533.411701
415.516609	2534.125024
415.896466	2531.516227
416.276262	2534.982020
416.655997	2528.184024
417.035670	2529.388860
417.415283	2530.790301
417.794834	2528.816689
418.174324	2533.401618
418.553753	2531.586803
418.933121	2534.631660
419.312428	2535.009747
419.691674	2531.808614
420.070859	2535.624767
420.449983	2535.082843
420.829045	2537.237937
421.208047	2533.482277
421.586988	2531.861546
421.965867	2536.678368
422.344686	2535.223996
422.723444	2537.588297
423.102141	2535.690302
423.480777	2537.101825
423.859352	2536.345652
424.237866	2535.876825
424.616319	2535.551671
424.994712	2539.856816
425.373044	2534.883718
425.751314	2537.109387
426.129524	2539.105684
426.507673	2537.268183
426.885762	2535.433203
427.263789	2535.566794
427.641756	2536.905220
428.019662	2536.627957
428.397508	2538.760365
428.775292	2533.883049
429.153016	2536.648122
429.530679	2539.546785
429.908282	2538.931764
430.285824	2537.157278
430.663305	2536.832124
431.040726	2538.407484
431.418086	2538.750283
431.795385	2542.468134
432.172624	2540.290355
432.549802	2540.297917
432.926920	2538.354552
433.303977	2542.962167
433.680974	2536.572504
434.057910	2538.982176
434.434786	2541.653987
434.811601	2541.069213
435.188355	2541.525438
435.565050	2541.538041
435.941683	2540.560057
436.318257	2540.928061
436.694770	2538.243647
437.071222	2539.755993
437.447614	2535.725590
437.823946	2538.069727
438.200218	2542.977290
438.576429	2542.818494
438.952580	2541.459903
439.328670	2544.008206
439.704700	2543.322609
440.080670	2542.188350
440.456580	2540.940664
440.832429	2542.097609
441.208218	2542.969728
441.583947	2542.410160
441.959616	2541.018802
442.335224	2542.337064
442.710773	2543.299924
443.086261	2545.455017
443.461689	2541.248174
443.837057	2540.358411
444.212365	2544.421581
444.587612	2541.051569
444.962800	2543.204142
445.337927	2543.365459
445.712995	2541.674152
446.088002	2544.958464
446.462949	2543.010058
446.837837	2541.991745
447.212664	2544.540048
447.587431	2545.331509
447.962139	2543.403268
448.336786	2548.063814
448.711374	2545.064328
449.085901	2546.236396
449.460369	2544.063659
449.834776	2545.089534
450.209124	2545.339071
450.583412	2545.371838
450.957640	2547.111036
451.331808	2547.088351
451.705917	2543.514173
452.079965	2543.612476
452.453954	2545.560882
452.827883	2545.223124
453.201752	2546.511139
453.575562	2546.521221
453.949311	2546.647250
454.323001	2545.787733
454.696632	2548.648588
455.070202	2548.394010
455.443713	2547.970553
455.817164	2545.644061
456.190556	2545.087013
456.563888	2543.841848
456.937160	2542.122815
457.310373	2546.881664
457.683526	2550.080276
458.056619	2547.955430
458.429653	2549.326623
458.802628	2548.739329
459.175542	2547.461397
459.548398	2548.288146
459.921194	2548.603218
460.293930	2547.678166
460.666607	2548.489792
461.039224	2551.030533
461.411782	2549.860986
461.784280	2550.952396
462.156719	2552.752087
462.529099	2550.216387
462.901419	2550.239072
463.273680	2547.353012
463.645882	2550.662529
464.018024	2551.499361
464.390106	2553.041954
464.762130	2550.793599
465.134094	2555.161759
465.505999	2556.132181
465.877845	2556.835422
466.249631	2557.306770
466.621358	2555.638148
466.993026	2559.993705
467.364634	2560.800290
467.736184	2556.263251
468.107674	2556.016235
468.479105	2556.303580
468.850477	2556.706873
469.221790	2558.191492
469.593043	2554.201419
469.964238	2557.536142
470.335373	2554.158569
470.706449	2558.786349
471.077467	2558.564538
471.448425	2562.332800
471.819324	2564.250959
472.190164	2563.764488
472.560945	2563.802297
472.931667	2561.561504
473.302330	2562.219374
473.672934	2562.766340
474.043479	2565.012174
474.413965	2563.509910
474.784393	2560.321380
475.154761	2565.733059
475.525070	2566.012843
475.895321	2567.348748
476.265513	2564.692060
476.635645	2575.964080
477.005719	2576.831159
477.375734	2582.399113
477.745691	2581.721078
478.115588	2587.062181
478.485427	2591.682398
478.855207	2601.721856
479.224928	2610.551437
479.594591	2620.706841
479.964194	2619.605349
480.333739	2625.390073
480.703226	2628.016514
481.072653	2642.277939
481.442022	2650.873106
481.811333	2660.990702
482.180584	2665.789880
482.549777	2671.483863
482.918912	2674.836231
483.287988	2685.735205
483.657005	2693.400280
484.025964	2697.682740
484.394864	2708.488453
484.763706	2718.573282
485.132489	2723.715258
485.501213	2731.894531
485.869879	2742.690162
486.238487	2754.877151
486.607036	2767.631270
486.975527	2778.061417
487.343959	2792.821916
487.712333	2810.294555
488.080648	2823.734271
488.448905	2843.722446
488.817104	2854.407172
489.185244	2882.388096
489.553326	2911.835997
489.921350	2957.891978
490.289315	3034.784698
490.657222	3070.816345
491.025070	3095.492793
491.392861	3114.719754
491.760593	3114.548354
492.128267	3120.025568
492.495883	3121.560599
492.863440	3128.335910
493.230939	3137.780512
493.598380	3160.959737
493.965763	3181.331040
494.333088	3196.930891
494.700354	3222.129098
495.067563	3252.847369
495.434713	3273.654732
495.801805	3317.613593
496.168839	3343.368848
496.535815	3378.556102
496.902733	3402.650297
497.269593	3439.317129
497.636395	3476.165443
498.003139	3525.062115
498.369825	3539.467212
498.736453	3604.185545
499.103023	3630.273516
499.469535	3678.834951
499.835989	3714.770817
500.202385	3754.860592
500.568723	3783.612813
500.935003	3852.359028
501.301226	3892.063156
501.667390	3958.215697
502.033497	4031.423334
502.399546	4052.676838
502.765537	4087.241510
503.131470	4152.083351
503.497345	4233.356833
503.863163	4213.159450
504.228923	4330.509950
504.594625	4390.028333
504.960269	4397.330444
505.325856	4500.419520
505.691385	4516.190770
506.056856	4603.438019
506.422270	4675.642466
506.787625	4695.688614
507.152924	4793.519766
507.518164	4841.216643
507.883347	4883.680803
508.248472	4917.292696
508.613540	5043.893713
508.978550	5084.855609
509.343503	5132.638186
509.708398	5231.011262
510.073236	5331.350388
510.438016	5397.858331
510.802738	5451.153409
511.167403	5535.202047
511.532010	5577.976237
511.896561	5704.978026
512.261053	5805.423016
512.625488	5826.835317
512.989866	5893.539865
513.354186	5961.449248
513.718449	5995.719012
514.082655	6130.874867
514.446803	6168.388614
514.810894	6280.211488
515.174927	6312.190048
515.538904	6377.601539
515.902822	6517.821234
516.266684	6528.992431
516.630488	6584.964362
516.994235	6667.341857
517.357925	6775.000738
517.721558	6894.357617
518.085133	6968.717157
518.448651	7041.705503
518.812112	7052.498613
519.175516	7133.225131
519.538863	7268.358301
519.902152	7284.500075
520.265385	7459.702857
520.628560	7470.634599
520.991678	7538.191101
521.354739	7632.344732
521.717743	7664.550143
522.080690	7722.929225
522.443580	7879.797330
522.806413	7923.756192
523.169189	8006.552102
523.531908	8105.641022
523.894569	8071.693892
524.257174	8143.205180
524.619722	8285.222046
524.982213	8303.213924
525.344647	8408.251405
525.707025	8441.127290
526.069345	8567.859377
526.431608	8584.578364
526.793815	8709.273825
527.155964	8629.784911
527.518057	8715.991162
527.880093	8753.719158
528.242072	8851.441925
528.603995	8848.691976
528.965860	8854.136422
529.327669	8940.267056
529.689421	8953.863048
530.051117	8994.658585
530.412755	9128.443247
530.774337	9086.770548
531.135862	9138.051686
531.497331	9197.842291
531.858743	9133.597827
532.220098	9312.304210
532.581396	9258.255479
532.942638	9295.650758
533.303824	9308.099888
533.664953	9375.172439
534.026025	9350.034726
534.387040	9471.902099
534.747999	9513.794088
535.108902	9600.262479
535.469748	9444.808418
535.830537	9572.095032
536.191270	9596.504299
536.551947	9664.625411
536.912567	9689.165748
537.273131	9657.025872
537.633638	9680.978914
537.994089	9710.371362
538.354483	9699.517757
538.714821	9852.383186
539.075103	9898.691225
539.435328	9899.699456
539.795497	9776.420559
540.155609	9951.106622
540.515665	10054.031860
540.875665	9854.613897
541.235609	9941.397360
541.595496	9957.521491
541.955328	10135.930446
542.315102	10058.775586
542.674821	10035.414879
543.034483	10057.545545
543.394090	10090.537376
543.753640	10038.636177
544.113134	10268.263255
544.472571	10157.216718
544.831953	10316.232354
545.191278	10159.515484
545.550548	10200.931083
545.909761	10352.798364
546.268918	10340.999543
546.628019	10444.005440
546.987064	10331.595271
547.346053	10276.409759
547.704986	10391.101051
548.063863	10395.885106
548.422684	10404.389532
548.781449	10336.946455
549.140158	10450.881573
549.498811	10345.372744
549.857408	10227.160207
550.215949	10453.654208
550.574434	10325.611421
550.932864	10429.744015
551.291237	10504.889975
551.649555	10464.412030
552.007817	10485.728549
552.366022	10457.051946
552.724173	10463.197112
553.082267	10460.202667
553.440305	10599.477145
553.798288	10414.139124
554.156215	10573.207692
554.514086	10558.752183
554.871902	10426.457183
555.229661	10462.468666
555.587365	10439.959914
555.945014	10340.248411
556.302606	10480.367282
556.660143	10377.187466
557.017625	10535.409121
557.375050	10441.131982
557.732421	10574.606612
558.089735	10500.894861
558.446994	10506.127578
558.804197	10544.470595
559.161345	10555.926617
559.518437	10408.130068
559.875474	10498.679274
560.232455	10531.603049
560.589381	10487.621503
560.946251	10480.818466
561.303065	10589.178067
561.659825	10530.312514
562.016528	10471.482249
562.373177	10347.399288
562.729770	10470.423606
563.086307	10387.887315
563.442789	10479.139761
563.799216	10361.829591
564.155587	10414.310523
564.511904	10369.920643
564.868164	10358.877995
565.224370	10371.881652
565.580520	10306.339090
565.936615	10310.805552
566.292654	10179.909472
566.648638	10316.519700
567.004567	10272.185272
567.360441	10256.945864
567.716260	10170.222895
568.072023	10264.051371
568.427732	10219.117046
568.783385	10129.704621
569.138982	10206.456188
569.494525	10222.192150
569.850013	10096.720351
570.205445	10176.123565
570.560823	10081.405326
570.916145	10001.122430
571.271412	10068.157173
571.626625	10016.997024
571.981782	9989.759669
572.336884	9965.804106
572.691931	9969.000198
573.046923	9921.154607
573.401860	9882.322599
573.756743	9813.583945
574.111570	9853.484678
574.466342	9834.048509
574.821059	9868.472028
575.175722	9761.889433
575.530330	9774.325960
575.884882	9767.379250
576.239380	9692.979381
576.593823	9678.927164
576.948211	9688.966622
577.302544	9570.111338
577.656823	9583.450231
578.011047	9589.267723
578.365216	9560.218074
578.719330	9485.709820
579.073389	9495.653496
579.427394	9446.484602
579.781344	9427.103886
580.135239	9372.793015
580.489080	9389.345643
580.842866	9288.174727
581.196597	9287.146332
581.550273	9335.095266
581.903895	9301.359865
582.257463	9364.916212
582.610975	9241.201255
582.964434	9271.617057
583.317837	9195.225932
583.671186	9173.117952
584.024481	9174.398405
584.377721	9093.510571
584.730906	9068.473681
585.084037	9095.814378
585.437113	9037.329432
585.790135	9059.744923
586.143103	8955.672822
586.496016	8931.540819
586.848874	8983.850352
587.201679	8976.399526
587.554428	8864.649748
587.907124	8913.029702
588.259765	8884.673211
588.612352	8887.034992
588.964884	8763.836754
589.317362	8775.743959
589.669786	8774.776057
590.022155	8826.490734
590.374470	8839.474226
590.726731	8780.833004
591.078937	8628.252400
591.431090	8746.666584
591.783188	8620.877192
592.135232	8613.103733
592.487222	8611.394782
592.839157	8660.528388
593.191038	8598.401208
593.542866	8541.607569
593.894639	8441.520500
594.246358	8490.709559
594.598022	8506.407712
594.949633	8410.456910
595.301190	8388.606029
595.652692	8414.636027
596.004141	8521.402624
596.355535	8298.296278
596.706876	8280.896736
597.058162	8213.940130
597.409395	8288.581975
597.760573	8349.453908
598.111698	8258.675330
598.462768	8247.612518
598.813785	8214.071200
599.164748	8183.032816
599.515657	8171.271804
599.866511	8080.193278
600.217312	8209.133390
600.568060	8071.036022
600.918753	8168.133686
601.269392	8144.989749
601.619978	8057.437509
601.970510	8121.054350
602.320988	8115.151159
602.671412	8168.942791
603.021783	8112.179399
603.372100	8087.278619
603.722363	8084.342147
604.072572	8058.231491
604.422728	8069.301865
604.772830	8002.738469
605.122878	8009.097885
605.472872	8001.599169
605.822813	8035.150568
606.172701	7977.686455
606.522534	8051.239411
606.872314	8051.952734
607.222041	8022.656068
607.571714	8080.773010
607.921333	8035.521093
608.270899	8046.157927
608.620411	8131.948284
608.969870	8039.924541
609.319276	8031.906586
609.668627	8047.405613
610.017926	8085.305008
610.367171	8125.820761
610.716362	8101.091381
611.065500	8097.060978
611.414585	8123.280020
611.763616	8112.202084
612.112594	8090.436902
612.461518	8108.254861
612.810389	8164.519179
613.159207	8107.324768
613.507971	8056.215029
613.856682	8175.219028
614.205340	8133.231257
614.553945	8215.417188
614.902496	8105.441897
615.250994	8160.778643
615.599439	8141.793657
615.947830	8150.426633
616.296169	8129.342007
616.644454	8140.583780
616.992686	8142.728791
617.340864	8198.239457
617.688990	8097.101308
618.037063	8196.817851
618.385082	8142.887587
618.733048	8228.998057
619.080961	8166.926330
619.428821	8187.927777
619.776628	8191.128909
620.124382	8136.767627
620.472083	8123.310267
620.819731	8151.641551
621.167326	8044.280098
621.514868	8056.512457
621.862357	7940.129859
622.209793	7958.446892
622.557176	7891.747385
622.904506	7865.503138
623.251783	7796.978734
623.599007	7752.122547
623.946179	7757.740913
624.293297	7717.804892
624.640363	7629.897252
624.987376	7617.032227
625.334336	7566.305616
625.681243	7510.268150
626.028097	7500.037128
626.374899	7479.499468
626.721647	7474.223900
627.068343	7403.869557
627.414987	7376.110443
627.761577	7333.182498
628.108115	7368.573918
628.454600	7267.997858
628.801032	7315.276319
629.147412	7271.700586
629.493739	7261.731704
629.840014	7200.993362
630.186236	7253.433965
630.532405	7137.797457
630.878521	7192.819131
631.224585	7148.013355
631.570597	7070.946716
631.916556	7105.145904
632.262462	7103.981397
632.608316	7063.574028
632.954117	7040.442694
633.299866	7025.162957
633.645562	7018.944693
633.991206	6941.152128
634.336797	6883.529219
634.682336	6840.535738
635.027823	6809.605739
635.373257	6802.306148
635.718639	6730.315951
636.063968	6743.491006
636.409245	6645.722868
636.754470	6634.120653
637.099642	6595.114725
637.444762	6540.065325
637.789829	6551.304578
638.134845	6491.677810
638.479808	6476.090562
638.824719	6482.399566
639.169577	6412.362816
639.514383	6431.375527
639.859137	6357.194949
640.203839	6365.230548
640.548489	6356.290062
640.893086	6329.718140
641.237632	6303.705786
641.582125	6322.418549
641.926566	6293.182377
642.270955	6307.589995
642.615292	6300.421474
642.959576	6317.175749
643.303809	6303.665457
643.647990	6314.241797
643.992118	6304.779552
644.336195	6254.050420
644.680219	6280.415655
645.024192	6263.966370
645.368112	6366.604262
645.711981	6379.562548
646.055797	6458.133972
646.399562	6420.985709
646.743274	6542.810233
647.086935	6595.351659
647.430544	6590.398726
647.774101	6608.778773
648.117606	6622.374764
648.461059	6614.268589
648.804460	6569.301497
649.147810	6476.677857
649.491108	6448.817920
649.834354	6417.608136
650.177548	6342.545356
650.520690	6254.158805
650.863781	6237.059211
651.206820	6250.342652
651.549807	6179.385891
651.892742	6116.184945
652.235626	6125.410257
652.578458	6114.808710
652.921238	6020.488722
653.263967	6060.270987
653.606644	5998.658005
653.949269	5999.504919
654.291843	5942.159273
654.634365	5991.655842
654.976836	5948.768226
655.319255	5946.272855
655.661622	5921.306540
656.003938	5916.893010
656.346203	5884.170880
656.688416	5909.369088
657.030577	5867.635896
657.372687	5840.756463
657.714746	5820.080171
658.056753	5861.399988
658.398708	5805.680115
658.740612	5800.170134
659.082465	5847.367937
659.424266	5837.905691
659.766016	5835.430484
660.107715	5816.770653
660.449362	5822.951108
660.790958	5817.095808
661.132503	5805.128109
661.473996	5843.955076
661.815438	5828.438404
662.156829	5827.684752
662.498168	5819.621426
662.839456	5793.460358
663.180693	5833.083827
663.521879	5833.673642
663.863013	5820.420449
664.204097	5842.909036
664.545129	5881.383122
664.886110	5878.398759
665.227040	5915.859573
665.567918	5877.103183
665.908746	5907.340023
666.249522	5904.363222
666.590248	5895.168158
666.930922	5923.504483
667.271545	5934.978149
667.612118	5945.473832
667.952639	5910.952010
668.293109	5929.420277
668.633528	5888.861674
668.973896	5896.846862
669.314213	5886.545264
669.654480	5863.277818
669.994695	5860.033836
670.334859	5851.617629
670.674973	5842.722513
671.015035	5850.185942
671.355047	5844.048337
671.695008	5830.684238
672.034918	5806.693387
672.374777	5819.649152
672.714585	5799.056039
673.054342	5800.638961
673.394049	5796.903466
673.733705	5832.526780
674.073310	5817.065561
674.412864	5776.030569
674.752368	5769.963540
675.091820	5773.719200
675.431223	5707.296957
675.770574	5709.447009
676.109875	5660.081510
676.449125	5665.707437
676.788324	5631.190657
677.127473	5574.775104
677.466571	5563.399741
677.805619	5554.512186
678.144616	5541.858890
678.483562	5523.241909
678.822458	5490.998689
679.161303	5484.392257
679.500098	5476.974199
679.838842	5460.960974
680.177535	5462.967353
680.516179	5482.930322
680.854771	5495.523125
681.193314	5573.845011
681.531805	5678.201937
681.870247	5827.828424
682.208638	5933.823725
682.546978	5940.810764
682.885268	5917.505510
683.223508	5829.547458
683.561697	5784.729080
683.899836	5751.250777
684.237925	5707.627152
684.575963	5672.835629
684.913951	5631.379700
685.251889	5695.684659
685.589776	5657.770141
685.927614	5627.440038
686.265401	5703.596750
686.603137	5688.990006
686.940824	5761.544813
687.278460	5785.946518
687.616046	5799.635772
687.953582	5860.606007
688.291068	5845.459860
688.628504	5910.982257
688.965889	5868.868458
689.303224	5810.602802
689.640510	5766.792654
689.977745	5689.783988
690.314930	5593.714719
690.652065	5539.492068
690.989150	5449.530158
691.326185	5370.237849
691.663170	5320.902597
692.000105	5241.791769
692.336990	5167.623793
692.673825	5140.762005
693.010610	5070.042178
693.347345	5005.596068
693.684030	4988.259539
694.020665	4950.866781
694.357251	4856.733315
694.693786	4867.337382
695.030272	4837.423175
695.366707	4800.617711
695.703093	4765.344757
696.039429	4790.681597
696.375716	4774.789359
696.711952	4748.950925
697.048139	4735.833843
697.384276	4718.310792
697.720363	4728.130960
698.056400	4739.224019
698.392388	4688.567984
698.728326	4667.203574
699.064214	4644.697343
699.400053	4637.980006
699.735842	4605.048668
700.071581	4580.503290
700.407270	4556.131832
700.742910	4539.690108
701.078501	4483.700533
701.414042	4478.719873
701.749533	4451.916058
702.084974	4388.808374
702.420366	4442.519347
702.755709	4385.619844
703.091002	4331.813088
703.426246	4380.379565
703.761440	4334.537832
704.096584	4299.403510
704.431679	4320.087365
704.766725	4304.976506
705.101721	4292.169455
705.436668	4319.505111
705.771565	4269.312863
706.106413	4296.540135
706.441212	4330.250331
706.775961	4336.042617
707.110661	4319.419412
707.445311	4344.582331
707.779913	4368.245507
708.114465	4380.238412
708.448967	4403.662134
708.783421	4464.667657
709.117825	4500.885827
709.452180	4510.247249
709.786485	4553.397006
710.120742	4636.656703
710.454949	4626.362667
710.789107	4689.440104
711.123216	4763.209829
711.457275	4753.908900
711.791286	4824.454807
712.125247	4844.579093
712.459159	4747.224330
712.793023	4820.137059
713.126837	4783.230771
713.460602	4779.210451
713.794318	4696.785065
714.127985	4704.772773
714.461602	4619.806646
714.795171	4587.621399
715.128691	4523.770145
715.462162	4468.365343
715.795584	4416.582611
716.128957	4399.188110
716.462281	4350.825800
716.795556	4323.253209
717.128782	4282.258546
717.461960	4217.935944
717.795088	4228.471955
718.128167	4189.029968
718.461198	4128.276502
718.794180	4127.550576
719.127113	4103.809262
719.459997	4084.660439
719.792833	4040.565466
720.125619	4031.897202
720.458357	3997.456039
720.791046	3999.364116
721.123686	3975.045590
721.456278	3936.009415
721.788821	3947.644398
722.121315	3923.099020
722.453761	3897.502561
722.786158	3910.967483
723.118506	3931.759722
723.450805	3886.543093
723.783056	3908.865322
724.115259	3923.582971
724.447412	3928.324176
724.779518	3918.932506
725.111574	3926.607663
725.443582	3953.582877
725.775542	3937.914971
726.107453	3989.410357
726.439315	3989.639730
726.771129	4002.998788
727.102895	4041.941701
727.434612	4088.869802
727.766281	4097.628807
728.097901	4099.360443
728.429473	4103.350517
728.760996	4114.151189
729.092471	4104.031072
729.423897	4090.803085
729.755276	4096.393724
730.086606	4095.098148
730.417887	4132.732882
730.749120	4195.616235
731.080305	4261.287346
731.411442	4288.570071
731.742530	4254.617900
732.073570	4259.845576
732.404562	4313.105367
732.735506	4307.718894
733.066401	4267.414869
733.397249	4206.197617
733.728048	4127.028816
734.058798	4045.810787
734.389501	3976.656238
734.720156	3915.207093
735.050762	3870.504662
735.381320	3864.246069
735.711831	3812.959891
736.042293	3785.722536
736.372707	3807.454951
736.703073	3779.534520
737.033391	3768.577572
737.363661	3788.210346
737.693883	3812.032318
738.024056	3823.405161
738.354182	3814.305879
738.684260	3880.841548
739.014290	3901.293509
739.344272	3895.128178
739.674207	3940.377575
740.004093	3943.661886
740.333931	3936.664765
740.663722	3941.163995
740.993464	3934.519754
741.323159	3913.190632
741.652806	3883.420098
741.982405	3854.453628
742.311956	3825.419102
742.641460	3817.224707
742.970915	3791.696304
743.300323	3748.486053
743.629683	3716.331054
743.958996	3707.413253
744.288260	3682.547761
744.617477	3650.987617
744.946647	3635.324752
745.275768	3614.855147
745.604842	3609.196452
745.933869	3562.404462
746.262847	3551.278636
746.591778	3588.396651
746.920662	3560.854307
747.249498	3529.324411
747.578286	3579.221751
747.907027	3594.599791
748.235720	3590.806323
748.564365	3616.551496
748.892963	3617.282463
749.221514	3600.692026
749.550017	3575.065320
749.878473	3570.745051
750.206881	3542.333108
750.535242	3542.373437
750.863555	3540.553581
751.191821	3536.228271
751.520039	3522.748225
751.848210	3495.909122
752.176334	3529.785676
752.504411	3535.784649
752.832440	3496.670337
753.160421	3476.929178
753.488356	3489.620283
753.816243	3499.478259
754.144082	3454.896815
754.471875	3441.993982
754.799620	3463.600367
755.127318	3453.008903
755.454969	3452.514870
755.782572	3457.858493
756.110129	3433.577776
756.437638	3428.942435
756.765100	3442.480453
757.092515	3453.359263
757.419882	3458.647434
757.747203	3428.589554
758.074477	3431.765481
758.401703	3446.420115
758.728882	3464.301088
759.056014	3473.939774
759.383099	3479.938747
759.710138	3473.496152
760.037129	3490.353771
760.364073	3523.196888
760.690970	3507.012264
761.017820	3484.238851
761.344623	3506.130062
761.671379	3546.550033
761.998088	3599.787138
762.324751	3726.524267
762.651366	3969.893530
762.977935	4439.960962
763.304456	4875.589751
763.630931	4966.912773
763.957359	4608.040593
764.283740	4266.515023
764.610074	4080.146086
764.936362	3886.167527
765.262602	3730.884865
765.588796	3622.127012
765.914943	3532.331459
766.241044	3446.652008
766.567097	3416.304262
766.893104	3371.604351
767.219064	3339.018332
767.544978	3313.631082
767.870845	3257.666712
768.196665	3238.437231
768.522438	3246.490474
768.848165	3245.091554
769.173846	3205.805842
769.499479	3191.695652
769.825066	3176.584794
770.150607	3155.837925
770.476101	3174.661593
770.801548	3172.544309
771.126949	3124.015641
771.452303	3106.089298
771.777611	3113.126749
772.102872	3119.783593
772.428087	3094.832402
772.753256	3081.178437
773.078378	3078.327664
773.403453	3044.093188
773.728482	3032.175901
774.053465	3051.123077
774.378401	3040.758465
774.703291	3008.404340
775.028135	3012.328878
775.352932	3005.777898
775.677683	2993.469921
776.002388	2988.383397
776.327046	2990.402379
776.651658	2981.839979
776.976224	2967.860860
777.300743	2968.836323
777.625216	2960.931794
777.949643	2955.268058
778.274024	2956.104889
778.598359	2946.844289
778.922647	2954.940383
779.246889	2951.759414
779.571086	2936.230140
779.895236	2929.956424
780.219339	2943.068465
780.543397	2955.361319
780.867409	2957.975157
781.191374	2950.171451
781.515294	2947.645833
781.839167	2946.657767
782.162995	2942.932354
782.486776	2947.729012
782.810511	2944.066614
783.134201	2930.513472
783.457844	2935.872218
783.781441	2930.125303
784.104993	2910.832807
784.428498	2909.607807
784.751958	2927.234201
785.075372	2916.993097
785.398739	2901.922568
785.722061	2917.988725
786.045337	2931.723348
786.368568	2913.136614
786.691752	2907.729977
787.014891	2953.294446
787.337983	2986.213180
787.661030	3011.015657
787.984031	3077.856316
788.306987	3121.472379
788.629897	3114.729836
788.952760	3100.017228
789.275579	3084.702203
789.598351	3023.217770
789.921078	2979.599187
790.243759	2971.898824
790.566395	2956.586319
790.888984	2932.114038
791.211529	2914.018816
791.534027	2907.757703
791.856480	2896.518451
792.178888	2881.886502
792.501249	2874.866695
792.823566	2871.194214
793.145836	2866.072402
793.468062	2861.164839
793.790241	2862.956969
794.112375	2868.477032
794.434464	2880.222921
794.756507	2884.263406
795.078505	2892.770353
795.400457	2904.299472
795.722364	2940.089143
796.044226	2962.928091
796.366042	2966.219964
796.687812	2956.813171
797.009538	2974.351345
797.331218	2961.917339
797.652852	2948.371759
797.974442	2931.972886
798.295986	2928.121444
798.617484	2922.130033
798.938938	2906.895666
799.260346	2893.430744
799.581709	2886.194167
799.903026	2878.788713
800.224299	2873.916437
800.545526	2866.269007
800.866708	2848.554392
801.187845	2837.373113
801.508936	2840.728001
801.829983	2847.352077
802.150984	2836.475788
802.471940	2823.610763
802.792851	2822.501709
803.113717	2823.126812
803.434538	2828.702328
803.755314	2819.590443
804.076045	2814.103147
804.396731	2814.997952
804.717372	2818.062973
805.037967	2809.906386
805.358518	2815.217242
805.679024	2829.304746
805.999485	2822.902481
806.319901	2831.825323
806.640272	2821.289312
806.960598	2824.263592
807.280879	2832.715087
807.601115	2844.977694
807.921306	2827.918429
808.241453	2823.983808
808.561554	2831.653924
808.881611	2833.388081
809.201623	2828.440188
809.521590	2825.231494
809.841513	2821.516164
810.161390	2823.671257
810.481223	2819.618169
810.801011	2811.726243
811.120755	2805.271045
811.440453	2812.492498
811.760107	2807.468988
812.079716	2808.751962
812.399281	2797.812658
812.718801	2788.070628
813.038276	2787.783283
813.357707	2790.639096
813.677093	2801.011270
813.996434	2793.136988
814.315731	2790.644137
814.634983	2785.373611
814.954191	2786.296142
815.273354	2800.113945
815.592473	2807.726087
815.911547	2811.244813
816.230577	2817.052222
816.549562	2831.152329
816.868502	2825.884323
817.187399	2836.748010
817.506250	2854.218129
817.825058	2848.241841
818.143821	2858.561083
818.462539	2872.003319
818.781213	2899.704460
819.099843	2935.027825
819.418429	2993.331290
819.736970	3052.353119
820.055466	3121.726957
820.373919	3227.301322
820.692327	3365.575131
821.010691	3526.760984
821.329011	3961.096717
821.647286	4844.720245
821.965517	6196.258633
822.283704	6914.262613
822.601847	6889.896196
822.919945	6267.691783
823.237999	5775.357575
823.556010	5205.898754
823.873976	4664.186444
824.191897	4269.242287
824.509775	3979.030622
824.827609	3714.160837
825.145398	3595.613063
825.463144	3585.006475
825.780845	3676.415198
826.098502	3782.264305
826.416116	4057.657498
826.733685	4367.244838
827.051210	4424.056122
827.368692	4311.431703
827.686129	4052.568453
828.003522	3736.233529
828.320872	3480.725167
828.638177	3287.452370
828.955439	3153.433295
829.272656	3074.088054
829.589830	3010.577077
829.906960	2960.800724
830.224046	2918.321441
830.541088	2883.484547
830.858086	2870.140613
831.175041	2850.701924
831.491952	2853.280474
831.808819	2865.961497
832.125642	2889.629714
832.442421	2935.733586
832.759157	3009.621778
833.075849	3190.261444
833.392497	3461.248669
833.709101	3663.401459
834.025662	3613.496556
834.342179	3453.243317
834.658653	3283.260650
834.975083	3134.344966
835.291469	3040.929864
835.607811	2961.687967
835.924110	2901.831827
836.240366	2851.022037
836.556578	2810.609627
836.872746	2787.823612
837.188871	2765.813934
837.504952	2749.334402
837.820990	2742.523803
838.136984	2729.752040
838.452935	2722.462532
838.768842	2719.490772
839.084706	2735.708163
839.400526	2814.203970
839.716303	2943.355811
840.032037	3021.665095
840.347727	3007.310409
840.663373	2951.129270
840.978977	2874.682693
841.294537	2802.574028
841.610054	2755.345978
841.925527	2737.462485
842.240957	2714.951212
842.556344	2693.349868
842.871687	2677.881088
843.186987	2669.384223
843.502244	2667.219047
843.817458	2659.624549
844.132629	2650.550472
844.447756	2642.023360
844.762840	2634.612864
845.077881	2638.623102
845.392879	2635.643780
845.707833	2631.089098
846.022745	2622.662809
846.337613	2626.352934
846.652438	2625.944600
846.967221	2624.643982
847.281960	2623.487038
847.596656	2621.778087
847.911309	2618.271964
848.225919	2619.272633
848.540485	2614.367590
848.855009	2615.395986
849.169490	2616.779782
849.483928	2615.017899
849.798323	2612.966150
850.112675	2613.868516
850.426984	2615.857251
850.741251	2612.459514
851.055474	2613.319030
851.369654	2614.508743
851.683792	2614.778444
851.997887	2614.105450
852.311938	2609.828031
852.625947	2611.645367
852.939914	2616.283229
853.253837	2617.024278
853.567718	2612.837600
853.881555	2612.603187
854.195350	2617.702314
854.509103	2617.309104
854.822812	2610.233844
855.136479	2610.964812
855.450103	2614.004627
855.763685	2618.065277
856.077224	2611.007661
856.390720	2607.572115
856.704173	2615.648043
857.017584	2618.483692
857.330953	2621.226080
857.644278	2621.730196
857.957561	2620.648868
858.270802	2618.710544
858.584000	2616.338682
858.897155	2620.260699
859.210268	2623.615587
859.523339	2614.319699
859.836367	2608.650922
860.149352	2610.034719
860.462295	2610.352311
860.775195	2609.482712
861.088054	2608.103957
861.400869	2606.614296
861.713642	2604.638163
862.026373	2606.873915
862.339062	2609.454986
862.651708	2615.509412
862.964312	2618.377828
863.276873	2613.056890
863.589392	2616.114350
863.901869	2622.640124
864.214303	2630.189252
864.526696	2624.291102
864.839045	2629.554066
865.151353	2631.300826
865.463619	2633.707977
865.775842	2632.752678
866.088023	2633.382823
866.400162	2633.939870
866.712258	2631.991464
867.024313	2632.056999
867.336325	2627.635907
867.648296	2632.102370
867.960224	2636.397433
868.272110	2634.837196
868.583954	2625.664816
868.895755	2629.123048
869.207515	2634.202010
869.519233	2639.162506
869.830909	2636.004223
870.142542	2629.947276
870.454134	2634.043214
870.765684	2638.209727
871.077191	2641.804070
871.388657	2643.480254
871.700081	2641.914976
872.011463	2641.214255
872.322803	2643.898670
872.634101	2645.418577
872.945357	2652.095586
873.256571	2657.207316
873.567744	2653.239928
873.878874	2653.189516
874.189963	2655.591626
874.501010	2660.806700
874.812015	2665.394150
875.122979	2664.131341
875.433900	2655.473159
875.744780	2654.716986
876.055618	2659.737975
876.366415	2665.230312
876.677169	2663.327277
876.987882	2657.096410
877.298554	2657.164466
877.609183	2669.268276
877.919771	2674.498473
878.230317	2681.354443
878.540822	2692.712162
878.851285	2704.861343
879.161707	2727.889334
879.472087	2764.457864
879.782425	2810.763382
880.092722	2921.041143
880.402977	3104.173660
880.713191	3355.734798
881.023363	3636.574959
881.333494	3818.119512
881.643583	3986.005058
881.953631	3984.154955
882.263637	3811.097184
882.573602	3597.185903
882.883526	3472.535812
883.193408	3359.371991
883.503248	3264.530243
883.813048	3150.287615
884.122806	3047.261553
884.432522	2960.566310
884.742197	2901.133627
885.051831	2863.957638
885.361424	2831.220385
885.670975	2794.593882
885.980485	2765.577000
886.289954	2751.003024
886.599382	2737.223030
886.908768	2724.799107
887.218113	2706.850078
887.527417	2693.102852
887.836680	2688.575896
888.145901	2679.733712
888.455082	2672.159378
888.764221	2661.520023
889.073319	2655.579023
889.382376	2654.394352
889.691392	2656.105824
890.000366	2656.791421
890.309300	2654.147335
890.618193	2659.049857
890.927044	2658.137409
891.235855	2658.964158
891.544625	2657.388797
891.853353	2658.419713
892.162041	2664.925322
892.470687	2686.592202
892.779293	2696.182997
893.087858	2705.660366
893.396381	2728.335476
893.704864	2767.714449
894.013306	2834.542505
894.321707	2922.034251
894.630068	2970.502424
894.938387	2989.278202
895.246665	2981.688745
895.554903	2938.160902
895.863100	2899.240674
896.171256	2842.852847
896.479371	2782.989145
896.787446	2750.022520
897.095480	2728.358161
897.403473	2724.960423
897.711425	2711.545913
898.019336	2693.591844
898.327207	2678.055007
898.635038	2677.129956
898.942827	2673.618792
899.250576	2664.380878
899.558284	2657.277892
899.865952	2648.750780
900.173579	2648.942344
900.481165	2645.655512
900.788711	2637.768627
901.096216	2632.977010
901.403681	2631.142030
901.711105	2629.584313
902.018489	2626.544497
902.325832	2633.491207
902.633135	2633.632360
902.940397	2648.841521
903.247619	2688.170083
903.554800	2748.220307
903.861941	2870.609440
904.169041	2991.168635
904.476101	3051.191133
904.783121	3041.693599
905.090100	2989.280723
905.397039	2914.961512
905.703938	2848.927438
906.010796	2787.443005
906.317614	2737.699419
906.624391	2702.492001
906.931129	2677.102229
907.237826	2657.572799
907.544483	2636.621764
907.851099	2625.044754
908.157675	2616.641151
908.464211	2611.118567
908.770707	2600.201948
909.077163	2595.236412
909.383578	2592.640217
909.689954	2590.638879
909.996289	2589.799527
910.302584	2592.617532
910.608839	2588.498909
910.915054	2589.217274
911.221229	2587.888930
911.527363	2593.696339
911.833458	2588.342634
912.139513	2590.666606
912.445527	2593.650969
912.751502	2596.960486
913.057436	2603.594645
913.363331	2609.094543
913.669186	2618.859258
913.975000	2633.213944
914.280775	2648.231541
914.586510	2663.667554
914.892205	2698.249870
915.197859	2764.684716
915.503475	2843.765296
915.809050	2904.208731
916.114585	2917.782038
916.420081	2927.947524
916.725536	2940.996551
917.030952	2917.696338
917.336328	2871.801673
917.641665	2825.286947
917.946961	2777.257353
918.252218	2744.510018
918.557435	2720.390617
918.862612	2700.984696
919.167750	2683.965760
919.472848	2667.130827
919.777906	2651.639361
920.082925	2641.925058
920.387904	2631.754530
920.692843	2627.633387
920.997743	2622.430916
921.302603	2614.627210
921.607423	2606.180757
921.912204	2602.926692
922.216946	2601.873091
922.521647	2599.614654
922.826310	2596.413521
923.130932	2591.188365
923.435516	2586.784917
923.740059	2583.460276
924.044564	2584.007241
924.349028	2580.390213
924.653454	2573.214131
924.957840	2571.202711
925.262186	2569.002247
925.566493	2570.121383
925.870761	2567.731876
926.174989	2569.420663
926.479178	2564.583676
926.783328	2564.810527
927.087438	2563.262893
927.391509	2564.016546
927.695541	2560.139898
927.999533	2558.166287
928.303486	2557.702501
928.607400	2559.489590
928.911275	2555.431461
929.215110	2559.038406
929.518906	2558.980433
929.822663	2558.584703
930.126381	2558.113355
930.430060	2559.043448
930.733699	2558.045299
931.037299	2557.213509
931.340861	2559.976061
931.644383	2557.851215
931.947866	2556.782490
932.251309	2559.537481
932.554714	2556.689229
932.858080	2559.514795
933.161407	2557.495813
933.464694	2555.388611
933.767943	2557.999929
934.071153	2559.164435
934.374323	2554.148487
934.677455	2554.574465
934.980548	2556.986657
935.283602	2554.352654
935.586617	2554.274516
935.889593	2555.320555
936.192530	2553.556152
936.495428	2555.630586
936.798287	2556.154866
937.101108	2558.141081
937.403890	2560.810372
937.706632	2561.831206
938.009336	2563.149467
938.312002	2570.214644
938.614628	2572.594069
938.917216	2575.666652
939.219765	2579.601273
939.522275	2577.385686
939.824747	2576.765624
940.127179	2569.748338
940.429573	2566.358162
940.731929	2570.963256
941.034246	2566.461505
941.336524	2569.332443
941.638763	2565.659962
941.940964	2568.072154
942.243126	2565.601989
942.545250	2566.811866
942.847335	2565.251628
943.149381	2561.939590
943.451389	2559.592933
943.753359	2561.437996
944.055290	2557.445402
944.357182	2559.716442
944.659036	2558.161246
944.960851	2556.401883
945.262628	2558.839281
945.564367	2557.584033
945.866067	2556.661502
946.167729	2560.586041
946.469352	2557.785680
946.770937	2561.216185
947.072484	2557.803324
947.373992	2555.834753
947.675462	2558.743499
947.976893	2556.782490
948.278286	2558.506565
948.579641	2553.901471
948.880958	2552.981460
949.182236	2553.281409
949.483476	2554.637479
949.784678	2555.161759
950.085841	2553.561193
950.386967	2555.363405
950.688054	2555.202088
950.989103	2558.362892
951.290114	2555.708724
951.591087	2556.449774
951.892021	2558.869528
952.192917	2561.140568
952.493776	2558.413303
952.794596	2561.690053
953.095378	2562.216854
953.396122	2565.425548
953.696828	2562.020249
953.997496	2559.197203
954.298126	2555.928014
954.598718	2558.095711
954.899272	2555.648230
955.199788	2558.660320
955.500266	2554.075390
955.800706	2550.367622
956.101108	2548.086500
956.401472	2549.586243
956.701798	2547.171530
957.002087	2547.678166
957.302337	2549.689587
957.602550	2547.685728
957.902724	2545.699513
958.202861	2547.786551
958.502960	2542.266488
958.803022	2546.480892
959.103045	2544.096426
959.403031	2546.833773
959.702979	2545.059287
960.002889	2544.371169
960.302762	2542.805891
960.602596	2545.177754
960.902393	2543.367980
961.202153	2540.078627
961.501875	2543.554502
961.801559	2542.838658
962.101205	2543.178936
962.400814	2541.308668
962.700385	2541.666590
962.999918	2544.822352
963.299414	2542.868905
963.598873	2543.035263
963.898293	2542.024512
964.197677	2541.659028
964.497022	2541.016281
964.796331	2540.865047
965.095601	2543.216745
965.394835	2542.243802
965.694030	2539.506456
965.993189	2545.137425
966.292309	2543.120963
966.591393	2539.705581
966.890439	2538.226003
967.189447	2539.468647
967.488419	2541.326312
967.787353	2540.086188
968.086249	2538.402443
968.385108	2539.718184
968.683930	2540.121477
968.982714	2541.041487
969.281462	2538.460416
969.580172	2543.539379
969.878844	2541.016281
970.177480	2541.822866
970.476078	2543.761190
970.774639	2541.154913
971.073162	2543.320089
971.371649	2538.125180
971.670098	2538.069727
971.968510	2539.529141
972.266885	2539.403112
972.565223	2543.070552
972.863524	2541.603576
973.161788	2540.300438
973.460014	2541.311189
973.758204	2541.752290
974.056356	2538.561239
974.354471	2543.337733
974.652550	2543.446117
974.950591	2543.751107
975.248595	2540.731456
975.546563	2541.873277
975.844493	2542.337064
976.142386	2543.700696
976.440243	2540.328164
976.738062	2542.778165
977.035845	2540.328164
977.333590	2540.038298
977.631299	2537.011085
977.928971	2542.263967
978.226606	2540.791950
978.524204	2540.333205
978.821765	2541.530479
979.119290	2539.375386
979.416777	2542.125335
979.714228	2544.905532
980.011642	2538.795653
980.309020	2543.037784
980.606360	2543.534338
980.903664	2541.739687
981.200931	2543.262115
981.498162	2540.108874
981.795356	2543.211704
982.092513	2546.266643
982.389633	2547.620193
982.686717	2552.421892
982.983764	2553.805689
983.280775	2557.959599
983.577749	2556.338868
983.874686	2553.034392
984.171587	2551.675801
984.468451	2550.798640
984.765279	2545.623896
985.062070	2546.251520
985.358824	2543.022661
985.655543	2543.201622
985.952224	2540.658359
986.248869	2539.997968
986.545478	2537.681558
986.842050	2537.585776
987.138586	2536.421270
987.435086	2535.760878
987.731549	2535.934798
988.027975	2540.421425
988.324366	2538.417567
988.620719	2538.972093
988.917037	2537.953780
989.213318	2538.851106
989.509563	2537.270704
989.805772	2538.261291
990.101944	2538.155427
990.398080	2537.106867
990.694180	2538.299099
990.990244	2540.393699
991.286271	2538.281455
991.582262	2538.720036
991.878217	2536.746424
992.174136	2536.569984
992.470019	2535.415559
992.765865	2538.387320
993.061676	2537.878163
993.357450	2537.547968
993.653188	2540.572660
993.948890	2541.013761
994.244556	2538.898997
994.540186	2538.203318
994.835780	2540.459234
995.131337	2541.006199
995.426859	2538.893956
995.722345	2537.409336
996.017795	2540.255067
996.313208	2542.516025
996.608586	2540.832279
996.903928	2540.688606
997.199234	2541.202804
997.494504	2541.865716
997.789738	2542.077444
998.084936	2540.008051
998.380099	2537.043852
998.675225	2539.458565
998.970316	2539.942516
999.265371	2537.951260
999.560390	2538.778009
999.855373	2541.175078
1000.150320	2535.239119
1000.445232	2538.578883
1000.740108	2537.530323
1001.034948	2534.787936
1001.329752	2533.038655
1001.624521	2537.394212
1001.919254	2533.386495
1002.213951	2536.537216
1002.508613	2535.226516
1002.803239	2533.767102
1003.097829	2531.334745
1003.392384	2535.186187
1003.686903	2536.625436
1003.981386	2534.959335
1004.275834	2535.697864
1004.570246	2536.653163
1004.864623	2535.360107
1005.158964	2535.723070
1005.453270	2535.912113
1005.747540	2534.571166
1006.041775	2536.375899
1006.335974	2535.783564
1006.630138	2538.210879
1006.924266	2535.208872
1007.218359	2534.445137
1007.512416	2537.200128
1007.806438	2536.017977
1008.100425	2535.559232
1008.394376	2533.981351
1008.688292	2534.389685
1008.982172	2536.980838
1009.276017	2537.477391
1009.569827	2535.781043
1009.863602	2536.063348
1010.157341	2536.285158
1010.451045	2534.792977
1010.744714	2537.210210
1011.038347	2533.807431
1011.331945	2533.933460
1011.625508	2535.438245
1011.919036	2534.510672
1012.212528	2537.215251
1012.505986	2532.688295
1012.799408	2537.658873
1013.092795	2535.201310
1013.386147	2537.487474
1013.679464	2533.883049
1013.972745	2532.607637
1014.265992	2534.553522
1014.559204	2536.527134
1014.852380	2536.776671
1015.145521	2535.710467
1015.438628	2536.678368
1015.731699	2535.944881
1016.024736	2532.731145
1016.317737	2536.764068
1016.610703	2534.976979
1016.903635	2531.485980
1017.196531	2531.589324
1017.489393	2528.942718
1017.782219	2527.687471
1018.075011	2532.330373
1018.367768	2533.051258
1018.660490	2533.890610
1018.953177	2533.890610
1019.245829	2533.890610
