Dividing Wavelength (nm)	Counts (n)	Blue Motor Position (mm): 18.700000	Red Motor Position (mm): 0.000000	
326.493990	2133.426390
326.888308	2133.426390
327.282561	2133.426390
327.676750	2103.176946
328.070874	2098.367686
328.464933	2101.261308
328.858929	2109.188522
329.252859	2118.345778
329.646726	2130.507562
330.040528	2142.631537
330.434265	2161.969403
330.827938	2178.804336
331.221547	2196.889476
331.615091	2213.492516
332.008571	2230.617316
332.401986	2252.309401
332.795338	2273.477206
333.188625	2293.755247
333.581847	2310.771662
333.975006	2327.198262
334.368100	2348.386231
334.761129	2364.613705
335.154095	2381.244472
335.546996	2403.843965
335.939833	2421.956830
336.332606	2438.655653
336.725315	2446.930707
337.117960	2458.873200
337.510540	2468.111114
337.903056	2477.031436
338.295508	2487.368322
338.687896	2493.274034
339.080220	2502.138903
339.472480	2508.112670
339.864676	2513.625172
340.256807	2518.013496
340.648875	2520.597088
341.040879	2526.215454
341.432818	2525.139167
341.824694	2524.410721
342.216506	2526.989271
342.608253	2527.687471
342.999937	2525.381143
343.391557	2526.265865
343.783113	2526.223015
344.174605	2526.853160
344.566033	2523.445340
344.957397	2520.816378
345.348697	2519.689680
345.739934	2517.360667
346.131106	2516.508712
346.522215	2516.675070
346.913260	2515.402179
347.304241	2509.423370
347.695159	2508.722650
348.086012	2508.175685
348.476802	2504.757782
348.867528	2505.246774
349.258191	2505.511435
349.648789	2503.051352
350.039324	2499.366268
350.429796	2503.379027
350.820203	2496.810403
351.210548	2495.570279
351.600828	2498.186638
351.991045	2492.565752
352.381198	2495.131699
352.771288	2492.008704
353.161314	2492.338900
353.551276	2495.560197
353.941175	2495.557677
354.331010	2492.104486
354.720782	2494.078098
355.110490	2495.456853
355.500135	2493.054744
355.889717	2492.716986
356.279235	2491.023159
356.668689	2495.610609
357.058080	2493.846205
357.447408	2494.788901
357.836672	2489.888899
358.225873	2493.589106
358.615010	2492.152377
359.004084	2497.145640
359.393095	2495.633294
359.782043	2497.619508
360.170927	2498.194200
360.559748	2496.812924
360.948505	2498.269817
361.337199	2499.305774
361.725830	2500.346773
362.114398	2499.847698
362.502903	2499.615805
362.891344	2500.510610
363.279722	2502.554798
363.668037	2501.939777
364.056289	2500.394664
364.444478	2504.031856
364.832603	2501.720487
365.220665	2503.361383
365.608665	2503.608399
365.996601	2505.347597
366.384474	2503.759634
366.772284	2504.722494
367.160031	2504.399860
367.547715	2504.795591
367.935336	2506.242402
368.322893	2507.351456
368.710388	2506.991013
369.097820	2506.638133
369.485189	2510.292969
369.872495	2505.249295
370.259738	2509.355315
370.646918	2507.036384
371.034035	2506.464213
371.421090	2507.109481
371.808081	2507.424553
372.195010	2509.819101
372.581875	2510.418998
372.968678	2508.236178
373.355418	2509.161230
373.742096	2511.979235
374.128710	2509.642660
374.515262	2510.093844
374.901751	2510.156858
375.288177	2512.606859
375.674540	2508.911693
376.060841	2511.555778
376.447079	2511.787671
376.833254	2511.757424
377.219367	2507.527896
377.605417	2509.670387
377.991404	2507.931189
378.377329	2508.147958
378.763191	2508.508401
379.148991	2513.993176
379.534727	2513.383197
379.920402	2513.007631
380.306013	2513.408402
380.691563	2514.222549
381.077049	2514.514936
381.462474	2513.126098
381.847835	2512.750532
382.233134	2514.525018
382.618371	2515.500481
383.003545	2512.586694
383.388657	2515.205574
383.773706	2513.257168
384.158693	2516.128105
384.543618	2515.376973
384.928480	2519.046933
385.313280	2516.299504
385.698017	2518.479803
386.082692	2515.646675
386.467305	2519.296470
386.851856	2518.792355
387.236344	2517.534587
387.620770	2520.019876
388.005133	2519.243538
388.389435	2518.492406
388.773674	2518.968795
389.157851	2519.026768
389.541965	2519.235976
389.926018	2518.520132
390.310008	2518.706655
390.693936	2517.521984
391.077802	2516.392765
391.461606	2521.895185
391.845348	2518.913342
392.229027	2521.307890
392.612645	2521.895185
392.996200	2520.067767
393.379694	2519.359484
393.763125	2519.896367
394.146494	2519.939217
394.529801	2521.481810
394.913047	2518.260513
395.296230	2522.306039
395.679351	2522.984074
396.062410	2524.446009
396.445408	2523.377284
396.828343	2522.492562
397.211217	2519.243538
397.594028	2519.503157
397.976778	2517.055677
398.359466	2520.082890
398.742092	2516.531397
399.124656	2522.694208
399.507158	2521.877541
399.889598	2522.762263
400.271977	2523.520957
400.654294	2524.544311
401.036549	2522.371574
401.418742	2526.228057
401.800874	2521.769156
402.182944	2525.131606
402.564952	2524.844260
402.946898	2524.907274
403.328783	2524.763601
403.710606	2524.390556
404.092367	2525.290402
404.474067	2527.332069
404.855705	2525.499610
405.237282	2527.072450
405.618797	2523.626821
406.000250	2527.112779
406.381642	2522.666481
406.762972	2527.264014
407.144240	2527.082532
407.525447	2527.546318
407.906593	2528.052954
408.287677	2529.282996
408.668700	2525.900382
409.049661	2526.162522
409.430560	2526.961544
409.811399	2529.308202
410.192176	2527.808458
410.572891	2528.826771
410.953545	2528.136133
411.334138	2528.499096
411.714669	2526.248221
412.095139	2528.118489
412.475547	2527.659744
412.855894	2528.020187
413.236180	2530.155115
413.616405	2530.142513
413.996568	2531.783408
414.376670	2532.262318
414.756711	2531.576721
415.136691	2531.589324
415.516609	2531.354910
415.896466	2534.465302
416.276262	2531.392719
416.655997	2527.637059
417.035670	2529.653521
417.415283	2530.704601
417.794834	2527.178314
418.174324	2531.077647
418.553753	2529.961031
418.933121	2530.860877
419.312428	2532.416073
419.691674	2531.032276
420.070859	2531.301978
420.449983	2530.944056
420.829045	2528.110928
421.208047	2531.352389
421.586988	2532.403470
421.965867	2531.271731
422.344686	2532.088398
422.723444	2532.060672
423.102141	2532.068233
423.480777	2532.254756
423.859352	2533.517565
424.237866	2532.559746
424.616319	2531.990095
424.994712	2534.664427
425.373044	2535.728111
425.751314	2533.721732
426.129524	2530.709642
426.507673	2532.501772
426.885762	2534.946732
427.263789	2535.334901
427.641756	2535.697864
428.019662	2537.280786
428.397508	2534.089736
428.775292	2532.569828
429.153016	2535.551671
429.530679	2536.290200
429.908282	2536.091074
430.285824	2535.024870
430.663305	2534.253573
431.040726	2532.761392
431.418086	2533.240302
431.795385	2536.542257
432.172624	2536.058307
432.549802	2535.123173
432.926920	2537.416897
433.303977	2535.692823
433.680974	2534.825744
434.057910	2538.576363
434.434786	2535.753317
434.811601	2535.075282
435.188355	2535.463450
435.565050	2536.559901
435.941683	2537.520241
436.318257	2537.928575
436.694770	2532.292565
437.071222	2530.994468
437.447614	2532.206865
437.823946	2535.133255
438.200218	2538.793132
438.576429	2537.058976
438.952580	2537.550488
439.328670	2539.806404
439.704700	2537.157278
440.080670	2538.019315
440.456580	2538.220962
440.832429	2539.100643
441.208218	2537.553009
441.583947	2540.371014
441.959616	2536.995961
442.335224	2537.313554
442.710773	2538.281455
443.086261	2541.958977
443.461689	2538.304141
443.837057	2537.752134
444.212365	2539.461085
444.587612	2538.830941
444.962800	2540.920499
445.337927	2542.357228
445.712995	2537.061496
446.088002	2541.177598
446.462949	2537.711805
446.837837	2542.125335
447.212664	2541.585932
447.587431	2541.114584
447.962139	2538.415046
448.336786	2540.257588
448.711374	2542.195911
449.085901	2543.632640
449.460369	2542.553833
449.834776	2541.268339
450.209124	2539.861857
450.583412	2542.054759
450.957640	2541.207845
451.331808	2542.231199
451.705917	2536.998482
452.079965	2541.074255
452.453954	2541.661549
452.827883	2540.542413
453.201752	2542.765562
453.575562	2544.046015
453.949311	2543.816642
454.323001	2541.200283
454.696632	2543.360418
455.070202	2543.753628
455.443713	2542.102650
455.817164	2542.571477
456.190556	2539.647608
456.563888	2539.952598
456.937160	2538.183153
457.310373	2543.378062
457.683526	2545.346632
458.056619	2543.609955
458.429653	2545.843186
458.802628	2544.013247
459.175542	2542.304296
459.548398	2542.148020
459.921194	2544.643392
460.293930	2546.027188
460.666607	2545.782692
461.039224	2544.744215
461.411782	2543.410829
461.784280	2546.690100
462.156719	2545.129863
462.529099	2547.171530
462.901419	2547.698331
463.273680	2545.144986
463.645882	2545.823022
464.018024	2546.687579
464.390106	2545.891077
464.762130	2546.611962
465.134094	2546.032229
465.505999	2547.073228
465.877845	2546.846376
466.249631	2547.791592
466.621358	2548.862837
466.993026	2549.797971
467.364634	2551.433826
467.736184	2546.886705
468.107674	2548.378887
468.479105	2545.074410
468.850477	2546.785882
469.221790	2547.295038
469.593043	2546.831252
469.964238	2547.537014
470.335373	2547.902497
470.706449	2547.017775
471.077467	2549.377035
471.448425	2548.822508
471.819324	2550.801161
472.190164	2549.697148
472.560945	2546.816129
472.931667	2547.111036
473.302330	2548.293187
473.672934	2548.174720
474.043479	2550.176058
474.413965	2549.901315
474.784393	2545.243289
475.154761	2547.383259
475.525070	2547.010213
475.895321	2543.675490
476.265513	2546.284287
476.635645	2552.283260
477.005719	2547.995759
477.375734	2552.628579
477.745691	2549.742519
478.115588	2551.438867
478.485427	2550.261758
478.855207	2551.942982
479.224928	2553.707386
479.594591	2554.224104
479.964194	2553.049516
480.333739	2554.415668
480.703226	2555.461708
481.072653	2553.702345
481.442022	2554.496327
481.811333	2554.471121
482.180584	2555.542366
482.549777	2553.278888
482.918912	2554.516491
483.287988	2555.673436
483.657005	2554.072870
484.025964	2555.542366
484.394864	2551.640513
484.763706	2555.320555
485.132489	2555.481872
485.501213	2556.880793
485.869879	2556.434650
486.238487	2553.409958
486.607036	2555.801986
486.975527	2557.924311
487.343959	2553.853580
487.712333	2558.289795
488.080648	2557.616801
488.448905	2558.740978
488.817104	2554.435833
489.185244	2558.559497
489.553326	2557.493293
489.921350	2560.369271
490.289315	2560.386915
490.657222	2566.610219
491.025070	2561.057388
491.392861	2559.434137
491.760593	2564.523182
492.128267	2563.262893
492.495883	2561.707697
492.863440	2564.482852
493.230939	2561.364899
493.598380	2565.874211
493.965763	2560.386915
494.333088	2562.161401
494.700354	2558.814075
495.067563	2565.349931
495.434713	2558.194013
495.801805	2567.341187
496.168839	2568.740107
496.535815	2569.559294
496.902733	2569.125755
497.269593	2571.356466
497.636395	2574.418967
498.003139	2574.360993
498.369825	2573.345201
498.736453	2578.068762
499.103023	2577.136149
499.469535	2580.420460
499.835989	2582.079000
500.202385	2584.430698
500.568723	2584.357602
500.935003	2589.237438
501.301226	2589.239959
501.667390	2596.403439
502.033497	2598.097266
502.399546	2602.117587
502.765537	2604.363421
503.131470	2606.757969
503.497345	2612.411623
503.863163	2617.092334
504.228923	2617.838425
504.594625	2629.251597
504.960269	2630.479118
505.325856	2635.878194
505.691385	2642.119142
506.056856	2646.351191
506.422270	2654.386790
506.787625	2657.368633
507.152924	2666.420024
507.518164	2674.415294
507.883347	2679.320337
508.248472	2686.682942
508.613540	2695.731813
508.978550	2700.853626
509.343503	2710.608258
509.708398	2723.546380
510.073236	2735.206569
510.438016	2742.047414
510.802738	2750.211563
511.167403	2763.106835
511.532010	2771.223092
511.896561	2786.608694
512.261053	2802.231230
512.625488	2805.954122
512.989866	2819.469455
513.354186	2833.120900
513.718449	2843.364524
514.082655	2868.277907
514.446803	2879.600338
514.810894	2902.434245
515.174927	2913.207190
515.538904	2927.035075
515.902822	2951.482151
516.266684	2961.690488
516.630488	2981.860144
516.994235	3000.779594
517.357925	3025.705580
517.721558	3044.683003
518.085133	3066.319636
518.448651	3086.327975
518.812112	3100.866663
519.175516	3126.238790
519.538863	3156.621824
519.902152	3169.469205
520.265385	3212.455124
520.628560	3223.825446
520.991678	3256.955909
521.354739	3282.660753
521.717743	3304.607416
522.080690	3325.976867
522.443580	3375.395298
522.806413	3398.072929
523.169189	3428.380346
523.531908	3464.787559
523.894569	3479.850527
524.257174	3512.612986
524.619722	3561.794482
524.982213	3580.121597
525.344647	3631.755616
525.707025	3654.433246
526.069345	3705.399312
526.431608	3739.545567
526.793815	3785.261271
527.155964	3795.383908
527.518057	3833.444619
527.880093	3868.805793
528.242072	3910.501176
528.603995	3944.783543
528.965860	3973.979386
529.327669	4020.761293
529.689421	4050.872105
530.051117	4088.282508
530.412755	4155.400430
530.774337	4171.133871
531.135862	4221.752097
531.497331	4255.764762
531.858743	4279.047331
532.220098	4350.450234
532.581396	4369.268862
532.942638	4413.794853
533.303824	4447.789874
533.664953	4508.992002
534.026025	4528.574364
534.387040	4599.508440
534.747999	4641.430675
535.108902	4710.529771
535.469748	4692.096792
535.830537	4767.245272
536.191270	4808.865039
536.551947	4870.672105
536.912567	4919.475516
537.273131	4948.159681
537.633638	4983.732583
537.994089	5034.408782
538.354483	5072.479576
538.714821	5158.007792
539.075103	5215.663469
539.435328	5256.884984
539.795497	5241.632973
540.155609	5356.515828
540.515665	5428.604328
540.875665	5398.180964
541.235609	5472.459846
541.595496	5518.719994
541.955328	5635.039578
542.315102	5641.106607
542.674821	5677.208830
543.034483	5729.659515
543.394090	5785.235716
543.753640	5810.673378
544.113134	5956.312313
544.472571	5942.963337
544.831953	6064.969342
545.191278	6033.547831
545.550548	6097.373879
545.909761	6205.544438
546.268918	6255.658548
546.628019	6338.381362
546.987064	6337.320200
547.346053	6338.499830
547.704986	6450.612571
548.063863	6492.514641
548.422684	6526.996134
548.781449	6560.270270
549.140158	6654.683519
549.498811	6647.033568
549.857408	6621.222861
550.215949	6795.470343
550.574434	6772.054184
550.932864	6886.163222
551.291237	6948.542459
551.649555	6994.636250
552.007817	7041.904629
552.366022	7064.330202
552.724173	7121.607792
553.082267	7158.130951
553.440305	7302.086140
553.798288	7217.034313
554.156215	7374.141873
554.514086	7409.049343
554.871902	7368.740277
555.229661	7432.289062
555.587365	7470.148127
555.945014	7449.088707
556.302606	7590.261179
556.660143	7556.273720
557.017625	7723.072898
557.375050	7694.673558
557.732421	7835.415012
558.089735	7830.653642
558.446994	7872.830455
558.804197	7946.695962
559.161345	7990.901840
559.518437	7931.161647
559.875474	8047.703041
560.232455	8112.479347
560.589381	8108.489274
560.946251	8173.099222
561.303065	8269.614633
561.659825	8287.573744
562.016528	8268.734952
562.373177	8216.682518
562.729770	8356.440947
563.086307	8332.344231
563.442789	8427.130527
563.799216	8394.083243
564.155587	8463.237791
564.511904	8474.852609
564.868164	8502.195828
565.224370	8548.516470
565.580520	8539.661683
565.936615	8564.781753
566.292654	8513.472889
566.648638	8638.458216
567.004567	8646.022468
567.360441	8665.808997
567.716260	8631.768605
568.072023	8738.537723
568.427732	8741.194411
568.783385	8683.884054
569.138982	8787.308366
569.494525	8821.507554
569.850013	8759.030013
570.205445	8858.784366
570.560823	8797.539388
570.916145	8766.067464
571.271412	8851.182306
571.626625	8833.563473
571.981782	8836.618412
572.336884	8846.869599
572.691931	8874.119556
573.046923	8860.692442
573.401860	8848.893622
573.756743	8819.080238
574.111570	8884.673211
574.466342	8887.796206
574.821059	8938.437117
575.175722	8867.649235
575.530330	8907.693640
575.884882	8915.366277
576.239380	8883.148262
576.593823	8883.138180
576.948211	8921.317359
577.302544	8824.002925
577.656823	8865.360551
578.011047	8886.714879
578.365216	8881.023416
578.719330	8828.870159
579.073389	8851.706586
579.427394	8823.168614
579.781344	8814.502870
580.135239	8793.166187
580.489080	8817.719127
580.842866	8743.041994
581.196597	8764.855067
581.550273	8813.509763
581.903895	8800.347310
582.257463	8874.149803
582.610975	8774.760934
582.964434	8815.501019
583.317837	8752.854600
583.671186	8746.243127
584.024481	8755.594467
584.377721	8692.491824
584.730906	8683.727778
585.084037	8722.267399
585.437113	8671.099687
585.790135	8707.398516
586.143103	8619.939538
586.496016	8604.995037
586.848874	8674.240326
587.201679	8667.465016
587.554428	8570.778205
587.907124	8627.816341
588.259765	8602.355993
588.612352	8620.426009
588.964884	8501.336311
589.317362	8522.872120
589.669786	8531.777319
590.022155	8585.435360
590.374470	8605.352959
590.726731	8554.611225
591.078937	8432.731248
591.431090	8537.274697
591.783188	8423.357223
592.135232	8424.211698
592.487222	8430.472812
592.839157	8488.294846
593.191038	8423.725227
593.542866	8373.545582
593.894639	8287.830843
594.246358	8340.326898
594.598022	8363.438068
594.949633	8267.394005
595.301190	8247.602435
595.652692	8279.943958
596.004141	8391.285402
596.355535	8184.048609
596.706876	8169.615785
597.058162	8106.815611
597.409395	8190.503806
597.760573	8253.056964
598.111698	8164.312491
598.462768	8157.426275
598.813785	8119.995708
599.164748	8093.640556
599.515657	8086.507323
599.866511	7998.551791
600.217312	8129.026935
600.568060	7996.230340
600.918753	8092.889424
601.269392	8070.501659
601.619978	7986.516036
601.970510	8048.597846
602.320988	8048.660860
602.671412	8108.645550
603.021783	8044.126342
603.372100	8020.468207
603.722363	8025.637911
604.072572	8007.938420
604.422728	8018.330758
604.772830	7953.768701
605.122878	7955.215512
605.472872	7950.575130
605.822813	7985.568299
606.172701	7936.240609
606.522534	8009.662494
606.872314	8007.252823
607.222041	7976.920200
607.571714	8036.342801
607.921333	8002.027667
608.270899	8003.744180
608.620411	8096.246832
608.969870	7994.425607
609.319276	7989.654155
609.668627	8007.232658
610.017926	8045.169861
610.367171	8095.102490
610.716362	8070.468892
611.065500	8058.629742
611.414585	8088.460770
611.763616	8078.754028
612.112594	8062.292140
612.461518	8079.858041
612.810389	8137.518759
613.159207	8083.291067
613.507971	8026.893158
613.856682	8141.705437
614.205340	8099.551308
614.553945	8180.418978
614.902496	8079.525325
615.250994	8134.826782
615.599439	8113.709389
615.947830	8129.541133
616.296169	8102.263449
616.644454	8113.031354
616.992686	8109.038760
617.340864	8176.421343
617.688990	8077.763442
618.037063	8171.995210
618.385082	8120.502344
618.733048	8205.712967
619.080961	8142.721229
619.428821	8161.171852
619.776628	8166.480188
620.124382	8116.371118
620.472083	8104.647915
620.819731	8128.106924
621.167326	8019.127261
621.514868	8034.049076
621.862357	7924.343486
622.209793	7939.381248
622.557176	7875.046043
622.904506	7843.911876
623.251783	7780.174048
623.599007	7739.590239
623.946179	7737.583859
624.293297	7699.190432
624.640363	7618.887372
624.987376	7596.789474
625.334336	7549.143008
625.681243	7496.233578
626.028097	7491.096642
626.374899	7472.235165
626.721647	7454.359233
627.068343	7388.005046
627.414987	7363.288269
627.761577	7315.853532
628.108115	7352.560693
628.454600	7246.744353
628.801032	7296.591283
629.147412	7260.821776
629.493739	7247.838284
629.840014	7188.231681
630.186236	7243.250834
630.532405	7129.623226
630.878521	7174.144176
631.224585	7134.553475
631.570597	7060.357772
631.916556	7089.069664
632.262462	7089.392298
632.608316	7053.915178
632.954117	7030.264604
633.299866	7015.151225
633.645562	7007.435739
633.991206	6930.905983
634.336797	6875.027313
634.682336	6830.899573
635.027823	6797.993441
635.373257	6784.732686
635.718639	6724.233798
636.063968	6727.840744
636.409245	6628.346011
636.754470	6625.890969
637.099642	6589.781184
637.444762	6531.908738
637.789829	6539.992228
638.134845	6485.267983
638.479808	6471.835828
638.824719	6473.396065
639.169577	6398.151803
639.514383	6423.145844
639.859137	6351.357292
640.203839	6357.424321
640.548489	6343.808165
640.893086	6323.749413
641.237632	6291.203724
641.582125	6312.868083
641.926566	6286.722138
642.270955	6297.464837
642.615292	6293.242871
642.959576	6306.264171
643.303809	6297.227903
643.647990	6300.857534
643.992118	6289.777078
644.336195	6240.540128
644.680219	6269.574654
645.024192	6258.935298
645.368112	6349.330749
645.711981	6376.817640
646.055797	6446.801458
646.399562	6404.339819
646.743274	6532.654829
647.086935	6587.626091
647.430544	6583.457057
647.774101	6604.345078
648.117606	6606.623679
648.461059	6600.531445
648.804460	6562.871505
649.147810	6471.855993
649.491108	6438.390293
649.834354	6414.913640
650.177548	6332.924313
650.520690	6251.436582
650.863781	6225.351132
651.206820	6241.031641
651.549807	6167.229148
651.892742	6107.947700
652.235626	6115.824502
652.578458	6097.825063
652.921238	6010.666033
653.263967	6052.275717
653.606644	5991.529813
653.949269	5998.161451
654.291843	5934.264826
654.634365	5980.613195
654.976836	5939.744560
655.319255	5937.223983
655.661622	5916.925778
656.003938	5916.242701
656.346203	5872.712338
656.688416	5908.950672
657.030577	5859.638105
657.372687	5831.510987
657.714746	5815.911137
658.056753	5858.413105
658.398708	5799.292973
658.740612	5791.048166
659.082465	5836.940310
659.424266	5827.795657
659.766016	5829.877653
660.107715	5805.017203
660.449362	5817.635211
660.790958	5816.125386
661.132503	5795.938085
661.473996	5839.871741
661.815438	5824.627292
662.156829	5820.362476
662.498168	5813.841743
662.839456	5788.590603
663.180693	5829.567623
663.521879	5828.224155
663.863013	5815.263348
664.204097	5832.856975
664.545129	5874.711155
664.886110	5870.020362
665.227040	5902.313993
665.567918	5866.143714
665.908746	5896.617489
666.249522	5898.946502
666.590248	5889.794288
666.930922	5916.903092
667.271545	5928.162509
667.612118	5932.044198
667.952639	5904.408593
668.293109	5925.709988
668.633528	5881.262135
668.973896	5886.570470
669.314213	5871.600763
669.654480	5859.403692
669.994695	5854.218865
670.334859	5844.514644
670.674973	5833.386297
671.015035	5839.753274
671.355047	5836.884857
671.695008	5820.861550
672.034918	5800.641482
672.374777	5806.713552
672.714585	5791.932888
673.054342	5795.439011
673.394049	5790.627230
673.733705	5825.204504
674.073310	5806.958048
674.412864	5767.442963
674.752368	5759.828300
675.091820	5770.442450
675.431223	5701.991142
675.770574	5699.909146
676.109875	5650.566332
676.449125	5655.602444
676.788324	5623.132372
677.127473	5567.415020
677.466571	5560.400254
677.805619	5550.043203
678.144616	5533.614083
678.483562	5515.730590
678.822458	5485.362679
679.161303	5480.578624
679.500098	5470.980267
679.838842	5455.677845
680.177535	5455.110715
680.516179	5475.086287
680.854771	5485.087936
681.193314	5564.042488
681.531805	5673.833777
681.870247	5825.063352
682.208638	5919.768988
682.546978	5937.649961
682.885268	5912.257669
683.223508	5828.057797
683.561697	5775.460918
683.899836	5744.646865
684.237925	5701.000555
684.575963	5661.193084
684.913951	5625.831910
685.251889	5686.812228
685.589776	5652.187063
685.927614	5628.438187
686.265401	5696.955029
686.603137	5680.223440
686.940824	5754.804790
687.278460	5776.791783
687.616046	5790.707888
687.953582	5852.313309
688.291068	5836.814281
688.628504	5898.787706
688.965889	5861.894022
689.303224	5808.997194
689.640510	5759.798053
689.977745	5685.567063
690.314930	5585.923616
690.652065	5529.689545
690.989150	5437.585143
691.326185	5365.645358
691.663170	5311.954548
692.000105	5233.705758
692.336990	5156.303882
692.673825	5134.573989
693.010610	5065.076642
693.347345	4995.319675
693.684030	4983.160412
694.020665	4940.545018
694.357251	4855.200804
694.693786	4863.725395
695.030272	4829.473276
695.366707	4792.582112
695.703093	4763.182102
696.039429	4782.525010
696.375716	4766.242083
696.711952	4739.133278
697.048139	4725.970825
697.384276	4706.151529
697.720363	4722.590732
698.056400	4731.874017
698.392388	4677.442158
698.728326	4658.560516
699.064214	4640.727434
699.400053	4636.127382
699.735842	4599.737813
700.071581	4573.029779
700.407270	4549.694278
700.742910	4531.513357
701.078501	4477.162157
701.414042	4478.258608
701.749533	4448.863640
702.084974	4379.986355
702.420366	4438.332669
702.755709	4382.847209
703.091002	4324.621882
703.426246	4376.760016
703.761440	4332.473480
704.096584	4292.207263
704.431679	4312.825582
704.766725	4297.427378
705.101721	4289.888333
705.436668	4315.404133
705.771565	4266.076442
706.106413	4290.432777
706.441212	4327.152542
706.775961	4332.128161
707.110661	4314.181653
707.445311	4339.954552
707.779913	4362.632183
708.114465	4379.131879
708.448967	4401.809510
708.783421	4461.146411
709.117825	4499.784335
709.452180	4502.504037
709.786485	4549.253177
710.120742	4635.035972
710.454949	4618.969814
710.789107	4682.863919
711.123216	4757.157924
711.457275	4747.355400
711.791286	4825.173171
712.125247	4838.499462
712.459159	4742.974637
712.793023	4820.041277
713.126837	4775.984113
713.460602	4770.423720
713.794318	4689.898849
714.127985	4698.080642
714.461602	4614.510914
714.795171	4584.750462
715.128691	4516.858723
715.462162	4463.140187
715.795584	4414.503135
716.128957	4393.209301
716.462281	4341.923123
716.795556	4320.094926
717.128782	4281.454482
717.461960	4210.742217
717.795088	4224.643199
718.128167	4184.036705
718.461198	4122.524545
718.794180	4116.880974
719.127113	4101.671812
719.459997	4080.443514
719.792833	4033.422151
720.125619	4025.749515
720.458357	3987.759380
720.791046	3998.860000
721.123686	3969.696925
721.456278	3927.585647
721.788821	3948.009882
722.121315	3921.286725
722.453761	3894.576171
722.786158	3908.472112
723.118506	3930.111265
723.450805	3879.969428
723.783056	3900.272675
724.115259	3919.570212
724.447412	3928.603960
724.779518	3916.104419
725.111574	3919.519801
725.443582	3953.456848
725.775542	3936.422789
726.107453	3985.876509
726.439315	3985.619410
726.771129	4001.362933
727.102895	4036.656051
727.434612	4083.397630
727.766281	4095.471193
728.097901	4095.927418
728.429473	4102.879169
728.760996	4108.381588
729.092471	4102.652317
729.423897	4088.335440
729.755276	4094.072273
730.086606	4092.822067
730.417887	4131.162563
730.749120	4193.153631
731.080305	4261.294908
731.411442	4282.782826
731.742530	4251.278135
732.073570	4256.662088
732.404562	4313.755675
732.735506	4301.535918
733.066401	4264.601905
733.397249	4201.146381
733.728048	4123.462200
734.058798	4043.005385
734.389501	3971.481494
734.720156	3913.573760
735.050762	3865.304712
735.381320	3861.002087
735.711831	3807.772543
736.042293	3783.602731
736.372707	3804.226092
736.703073	3776.681227
737.033391	3769.051441
737.363661	3783.653143
737.693883	3813.161537
738.024056	3820.128411
738.354182	3814.305879
738.684260	3874.693861
739.014290	3899.019948
739.344272	3889.950913
739.674207	3933.350206
740.004093	3942.648614
740.333931	3935.366668
740.663722	3932.830967
740.993464	3931.258127
741.323159	3909.629057
741.652806	3881.068400
741.982405	3849.132690
742.311956	3820.756035
742.641460	3811.271104
742.970915	3788.283443
743.300323	3748.233996
743.629683	3713.351732
743.958996	3704.045762
744.288260	3679.213038
744.617477	3647.249602
744.946647	3633.777118
745.275768	3608.750310
745.604842	3605.803756
745.933869	3559.462949
746.262847	3552.070097
746.591778	3586.849017
746.920662	3558.260634
747.249498	3524.520191
747.578286	3574.203283
747.907027	3590.314810
748.235720	3589.198195
748.564365	3609.937502
748.892963	3612.778192
749.221514	3593.253803
749.550017	3572.375864
749.878473	3572.325453
750.206881	3542.355793
750.535242	3538.179197
750.863555	3538.547202
751.191821	3536.147612
751.520039	3510.278931
751.848210	3493.128926
752.176334	3524.668905
752.504411	3532.460008
752.832440	3491.626662
753.160421	3475.046307
753.488356	3486.726661
753.816243	3496.902230
754.144082	3454.438070
754.471875	3442.956842
754.799620	3461.268834
755.127318	3450.601752
755.454969	3454.072587
755.782572	3458.536528
756.110129	3433.393773
756.437638	3424.523863
756.765100	3438.404680
757.092515	3448.252574
757.419882	3455.133749
757.747203	3428.869338
758.074477	3428.718103
758.401703	3441.109259
758.728882	3467.439206
759.056014	3474.063282
759.383099	3477.579487
759.710138	3468.838126
760.037129	3491.553565
760.364073	3520.411651
760.690970	3504.957993
761.017820	3476.800629
761.344623	3499.306860
761.671379	3548.339643
761.998088	3596.417127
762.324751	3723.794482
762.651366	3968.144250
762.977935	4436.981640
763.304456	4869.409296
763.630931	4959.368687
763.957359	4598.951392
764.283740	4264.470835
764.610074	4075.455292
764.936362	3882.406826
765.262602	3725.936972
765.588796	3614.078810
765.914943	3529.785676
766.241044	3443.617233
766.567097	3413.932399
766.893104	3365.411293
767.219064	3336.676716
767.544978	3309.918272
767.870845	3255.965323
768.196665	3237.350862
768.522438	3247.130701
768.848165	3241.948394
769.173846	3207.212324
769.499479	3188.776824
769.825066	3169.441479
770.150607	3157.786331
770.476101	3171.120183
770.801548	3169.063392
771.126949	3122.452884
771.452303	3107.382354
771.777611	3112.683127
772.102872	3115.922069
772.428087	3090.930549
772.753256	3081.919486
773.078378	3075.005544
773.403453	3040.531613
773.728482	3029.998122
774.053465	3050.913869
774.378401	3039.969524
774.703291	3007.486850
775.028135	3007.958198
775.352932	3004.321005
775.677683	2992.933038
776.002388	2988.736278
776.327046	2989.255517
776.651658	2977.675986
776.976224	2968.705253
777.300743	2967.916312
777.625216	2960.057154
777.949643	2953.743108
778.274024	2958.512040
778.598359	2946.657767
778.922647	2952.684466
779.246889	2949.057356
779.571086	2933.056734
779.895236	2928.776794
780.219339	2940.159719
780.543397	2952.253448
780.867409	2955.691514
781.191374	2949.493416
781.515294	2945.498301
781.839167	2946.143569
782.162995	2936.784667
782.486776	2944.752211
782.810511	2945.349587
783.134201	2927.488779
783.457844	2937.371961
783.781441	2925.318563
784.104993	2905.370717
784.428498	2908.236613
784.751958	2920.501740
785.075372	2914.512849
785.398739	2901.252094
785.722061	2916.388158
786.045337	2927.382915
786.368568	2916.133580
786.691752	2906.734349
787.014891	2953.750670
787.337983	2981.776965
787.661030	3009.049607
787.984031	3075.708785
788.306987	3120.103706
788.629897	3111.984928
788.952760	3096.624532
789.275579	3080.281111
789.598351	3021.314735
789.921078	2978.805205
790.243759	2970.066365
790.566395	2953.128088
790.888984	2929.467432
791.211529	2911.057138
791.534027	2903.500449
791.856480	2896.079870
792.178888	2878.642519
792.501249	2871.741179
792.823566	2866.989892
793.145836	2868.431662
793.468062	2865.306147
793.790241	2861.762215
794.112375	2868.272866
794.434464	2879.050853
794.756507	2880.404402
795.078505	2890.428737
795.400457	2901.756209
795.722364	2939.370779
796.044226	2961.572020
796.366042	2964.644604
796.687812	2956.581278
797.009538	2970.517548
797.331218	2960.634366
797.652852	2943.887653
797.974442	2929.893410
798.295986	2925.530291
798.617484	2922.399734
798.938938	2905.826941
799.260346	2891.424365
799.581709	2886.075700
799.903026	2878.753424
800.224299	2873.162785
800.545526	2861.739530
800.866708	2848.050277
801.187845	2837.915037
801.508936	2840.571725
801.829983	2847.944413
802.150984	2837.428566
802.471940	2823.898109
802.792851	2822.975578
803.113717	2821.390135
803.434538	2822.824343
803.755314	2820.258396
804.076045	2814.927376
804.396731	2813.556182
804.717372	2813.684731
805.037967	2808.822538
805.358518	2813.954433
805.679024	2826.884992
805.999485	2823.555310
806.319901	2826.501865
806.640272	2820.860814
806.960598	2823.381391
807.280879	2831.805159
807.601115	2841.917713
807.921306	2828.634273
808.241453	2822.572285
808.561554	2827.774756
808.881611	2829.861794
809.201623	2827.530260
809.521590	2825.559169
809.841513	2820.147490
810.161390	2826.431289
810.481223	2819.381235
810.801011	2809.853454
811.120755	2809.424956
811.440453	2807.713484
811.760107	2805.593679
812.079716	2807.605100
812.399281	2793.923408
812.718801	2788.279836
813.038276	2786.122222
813.357707	2794.886268
813.677093	2796.534726
813.996434	2793.477266
814.315731	2790.177831
814.634983	2782.716923
814.954191	2786.538118
815.273354	2801.159984
815.592473	2808.257929
815.911547	2809.341777
816.230577	2815.865030
816.549562	2824.717296
816.868502	2825.223932
817.187399	2832.609223
817.506250	2848.365349
817.825058	2843.417457
818.143821	2855.014631
818.462539	2871.589945
818.781213	2896.551218
819.099843	2933.074378
819.418429	2988.499344
819.736970	3050.445042
820.055466	3119.448356
820.373919	3222.744119
820.692327	3362.522712
821.010691	3524.840304
821.329011	3960.688383
821.647286	4840.818392
821.965517	6197.465989
822.283704	6909.221459
822.601847	6878.929166
822.919945	6259.300782
823.237999	5769.802223
823.556010	5197.500192
823.873976	4662.041433
824.191897	4264.894292
824.509775	3973.956700
824.827609	3712.406515
825.145398	3595.625666
825.463144	3586.357505
825.780845	3674.300433
826.098502	3778.755662
826.416116	4056.218249
826.733685	4364.472204
827.051210	4415.191252
827.368692	4304.643790
827.686129	4045.783060
828.003522	3729.261613
828.320872	3480.684838
828.638177	3286.149231
828.955439	3152.684683
829.272656	3070.912127
829.589830	3007.595234
829.906960	2958.506999
830.224046	2914.469999
830.541088	2885.387583
830.858086	2867.478884
831.175041	2849.570185
831.491952	2851.059846
831.808819	2864.698688
832.125642	2887.285577
832.442421	2931.597320
832.759157	3011.575225
833.075849	3183.836493
833.392497	3461.740182
833.709101	3656.371570
834.025662	3607.681585
834.342179	3450.480764
834.658653	3278.456431
834.975083	3133.520737
835.291469	3038.754606
835.607811	2959.139664
835.924110	2898.653379
836.240366	2849.010617
836.556578	2807.761375
836.872746	2784.110802
837.188871	2764.104983
837.504952	2746.899525
837.820990	2741.450038
838.136984	2730.379664
838.452935	2720.536811
838.768842	2718.142263
839.084706	2736.718915
839.400526	2812.948723
839.716303	2943.996038
840.032037	3019.041174
840.347727	3003.201869
840.663373	2945.155503
840.978977	2873.891232
841.294537	2800.650828
841.610054	2756.039137
841.925527	2733.540467
842.240957	2713.406099
842.556344	2689.556400
842.871687	2675.597445
843.186987	2668.020591
843.502244	2661.202430
843.817458	2657.865186
844.132629	2648.498722
844.447756	2639.230561
844.762840	2631.031124
845.077881	2633.791156
845.392879	2635.124541
845.707833	2628.903757
846.022745	2621.034516
846.337613	2625.783283
846.652438	2623.648355
846.967221	2625.879065
847.281960	2621.657099
847.596656	2619.489403
847.911309	2619.559979
848.225919	2615.761469
848.540485	2610.301900
848.855009	2612.608228
849.169490	2613.145111
849.483928	2615.138887
849.798323	2614.528907
850.112675	2610.259050
850.426984	2612.998917
850.741251	2614.728033
851.055474	2609.686879
851.369654	2613.664349
851.683792	2614.755759
851.997887	2611.410954
852.311938	2611.592435
852.625947	2612.154524
852.939914	2617.485544
853.253837	2614.488578
853.567718	2610.594287
853.881555	2607.914913
854.195350	2615.156531
854.509103	2613.858434
854.822812	2609.142434
855.136479	2608.658484
855.450103	2609.702002
855.763685	2614.095368
856.077224	2609.886005
856.390720	2607.211673
856.704173	2612.835080
857.017584	2618.382869
857.330953	2619.295318
857.644278	2620.212808
857.957561	2617.319186
858.270802	2616.444546
858.584000	2615.746346
858.897155	2619.469238
859.210268	2618.047633
859.523339	2612.789709
859.836367	2606.957094
860.149352	2610.770727
860.462295	2612.862806
860.775195	2609.717126
861.088054	2603.566918
861.400869	2608.764348
861.713642	2605.487598
862.026373	2604.517176
862.339062	2610.231324
862.651708	2615.585029
862.964312	2613.346757
863.276873	2612.663680
863.589392	2612.078907
863.901869	2618.881944
864.214303	2624.969137
864.526696	2627.653551
864.839045	2629.617081
865.151353	2632.281331
865.463619	2627.716566
865.775842	2631.580610
866.088023	2631.366361
866.400162	2631.817544
866.712258	2633.009777
867.024313	2630.300157
867.336325	2626.408386
867.648296	2630.093470
867.960224	2634.310395
868.272110	2632.092287
868.583954	2627.721607
868.895755	2627.088942
869.207515	2631.371402
869.519233	2636.321815
869.830909	2634.378451
870.142542	2628.208078
870.454134	2630.244704
870.765684	2635.510190
871.077191	2635.903400
871.388657	2641.254584
871.700081	2641.683082
872.011463	2639.903555
872.322803	2641.652836
872.634101	2646.421767
872.945357	2651.352016
873.256571	2657.955927
873.567744	2653.439053
873.878874	2652.587098
874.189963	2656.380567
874.501010	2659.881648
874.812015	2662.795435
875.122979	2663.501196
875.433900	2651.931748
875.744780	2653.277736
876.055618	2656.456184
876.366415	2664.360713
876.677169	2663.231495
876.987882	2659.337203
877.298554	2658.722182
877.609183	2668.118893
877.919771	2674.148113
878.230317	2682.266892
878.540822	2693.077646
878.851285	2699.363965
879.161707	2724.945300
879.472087	2763.762185
879.782425	2809.510656
880.092722	2919.367480
880.402977	3102.184925
880.713191	3350.134077
881.023363	3630.500368
881.333494	3812.952329
881.643583	3980.101867
881.953631	3980.704285
882.263637	3807.210455
882.573602	3590.662650
882.883526	3467.913074
883.193408	3357.668081
883.503248	3261.855911
883.813048	3150.849703
884.122806	3041.880122
884.432522	2958.343161
884.742197	2894.665827
885.051831	2862.450333
885.361424	2828.344407
885.670975	2797.119500
885.980485	2765.219078
886.289954	2749.820874
886.599382	2733.003584
886.908768	2722.071842
887.218113	2705.909903
887.527417	2694.733665
887.836680	2686.161183
888.145901	2680.583146
888.455082	2672.466888
888.764221	2664.300219
889.073319	2654.595998
889.382376	2654.056595
889.691392	2652.297232
890.000366	2653.640699
890.309300	2653.857469
890.618193	2652.811430
890.927044	2657.056081
891.235855	2658.739827
891.544625	2657.149342
891.853353	2656.330155
892.162041	2663.889365
892.470687	2682.629855
892.779293	2694.080836
893.087858	2703.023842
893.396381	2721.958416
893.704864	2762.784201
894.013306	2833.176352
894.321707	2919.299425
894.630068	2967.003864
894.938387	2985.089003
895.246665	2978.006182
895.554903	2938.652414
895.863100	2893.435785
896.171256	2840.896880
896.479371	2782.424536
896.787446	2742.778382
897.095480	2729.449571
897.403473	2720.604867
897.711425	2710.641026
898.019336	2689.901719
898.327207	2675.201714
898.635038	2674.069975
898.942827	2672.822290
899.250576	2663.365085
899.558284	2653.872592
899.865952	2649.020482
900.173579	2646.230203
900.481165	2645.595018
900.788711	2634.471712
901.096216	2632.036835
901.403681	2626.176493
901.711105	2629.932153
902.018489	2625.228756
902.325832	2629.067595
902.633135	2633.770992
902.940397	2646.394041
903.247619	2684.134639
903.554800	2745.621592
903.861941	2869.402084
904.169041	2986.863489
904.476101	3046.485216
904.783121	3039.659493
905.090100	2986.003973
905.397039	2913.381110
905.703938	2845.383507
906.010796	2786.699435
906.317614	2735.100704
906.624391	2701.415714
906.931129	2675.647857
907.237826	2654.424599
907.544483	2636.331898
907.851099	2624.407048
908.157675	2615.164093
908.464211	2606.581528
908.770707	2598.858481
909.077163	2592.481421
909.383578	2593.565269
909.689954	2591.286667
909.996289	2589.295412
910.302584	2587.727613
910.608839	2585.595205
910.915054	2589.481934
911.221229	2589.829774
911.527363	2590.606112
911.833458	2588.796337
912.139513	2587.742736
912.445527	2592.423448
912.751502	2597.381423
913.057436	2598.679520
913.363331	2607.438524
913.669186	2617.049484
913.975000	2629.549025
914.280775	2644.571664
914.586510	2663.672596
914.892205	2697.556711
915.197859	2761.536515
915.503475	2841.390913
915.809050	2902.809811
916.114585	2915.889084
916.420081	2923.213881
916.725536	2938.216355
917.030952	2913.544948
917.336328	2869.868391
917.641665	2822.103458
917.946961	2774.988834
918.252218	2741.051787
918.557435	2718.154866
918.862612	2697.602082
919.167750	2683.630524
919.472848	2665.943635
919.777906	2649.295225
920.082925	2638.371044
920.387904	2631.222688
920.692843	2624.331431
920.997743	2622.246914
921.302603	2609.354163
921.607423	2610.175871
921.912204	2599.924685
922.216946	2597.981320
922.521647	2598.480394
922.826310	2593.439240
923.130932	2590.548138
923.435516	2581.804257
923.740059	2585.839701
924.044564	2581.292580
924.349028	2580.208732
924.653454	2572.828483
924.957840	2571.401836
925.262186	2569.264387
925.566493	2568.241033
925.870761	2564.719787
926.174989	2567.348748
926.479178	2563.167111
926.783328	2563.598130
927.087438	2562.365568
927.391509	2562.615105
927.695541	2561.806000
927.999533	2556.575803
928.303486	2556.943807
928.607400	2558.022614
928.911275	2557.780638
929.215110	2557.034548
929.518906	2556.785011
929.822663	2556.633776
930.126381	2556.767367
930.430060	2559.310629
930.733699	2557.694939
931.037299	2557.793241
931.340861	2557.699980
931.644383	2558.002449
931.947866	2559.499672
932.251309	2557.135371
932.554714	2556.911039
932.858080	2559.383725
933.161407	2554.869372
933.464694	2554.496327
933.767943	2555.348282
934.071153	2556.316183
934.374323	2553.276368
934.677455	2555.958261
934.980548	2553.480534
935.283602	2554.400545
935.586617	2553.989691
935.889593	2551.937941
936.192530	2553.079762
936.495428	2553.478014
936.798287	2554.004814
937.101108	2556.868190
937.403890	2558.302398
937.706632	2562.370609
938.009336	2565.662482
938.312002	2567.852864
938.614628	2568.571228
938.917216	2572.057186
939.219765	2575.013823
939.522275	2577.138669
939.824747	2574.061045
940.127179	2568.523337
940.429573	2567.915878
940.731929	2565.342369
941.034246	2565.760785
941.336524	2565.614592
941.638763	2564.235836
941.940964	2566.668193
942.243126	2565.954869
942.545250	2562.332800
942.847335	2563.668706
943.149381	2560.591082
943.451389	2558.894733
943.753359	2559.355999
944.055290	2556.651420
944.357182	2557.057233
944.659036	2556.724517
944.960851	2558.357851
945.262628	2557.997408
945.564367	2558.851884
945.866067	2556.013714
946.167729	2558.791390
946.469352	2558.710731
946.770937	2558.070505
947.072484	2555.867521
947.373992	2557.752912
947.675462	2556.752243
947.976893	2556.578323
948.278286	2553.382232
948.579641	2555.648230
948.880958	2552.424413
949.182236	2551.300235
949.483476	2554.347613
949.784678	2555.144115
950.085841	2552.638662
950.386967	2554.733261
950.688054	2552.726882
950.989103	2551.975750
951.290114	2557.352140
951.591087	2556.059084
951.892021	2556.679146
952.192917	2559.318190
952.493776	2559.504713
952.794596	2561.634601
953.095378	2563.018397
953.396122	2561.097718
953.696828	2559.570248
953.997496	2559.025803
954.298126	2557.939435
954.598718	2555.451625
954.899272	2555.844835
955.199788	2555.759136
955.500266	2549.331665
955.800706	2550.284443
956.101108	2546.513660
956.401472	2547.887374
956.701798	2544.590459
957.002087	2544.383772
957.302337	2548.623382
957.602550	2547.569781
957.902724	2543.678011
958.202861	2546.160779
958.502960	2544.028371
958.803022	2547.078269
959.103045	2543.441076
959.403031	2543.751107
959.702979	2544.023330
960.002889	2542.168185
960.302762	2544.308155
960.602596	2544.552651
960.902393	2540.123997
961.202153	2543.468803
961.501875	2539.914789
961.801559	2541.908566
962.101205	2540.842362
962.400814	2541.669111
962.700385	2540.600386
962.999918	2540.557536
963.299414	2539.831610
963.598873	2541.923689
963.898293	2541.467465
964.197677	2540.313040
964.497022	2540.388658
964.796331	2541.283463
965.095601	2540.219779
965.394835	2543.254554
965.694030	2539.267001
965.993189	2540.010571
966.292309	2543.191539
966.591393	2540.199614
966.890439	2539.720705
967.189447	2539.451003
967.488419	2537.623585
967.787353	2538.571322
968.086249	2536.396064
968.385108	2540.106353
968.683930	2540.096271
968.982714	2538.992258
969.281462	2537.754655
969.580172	2539.377906
969.878844	2541.757331
970.177480	2540.819676
970.476078	2539.100643
970.774639	2541.298586
971.073162	2540.476878
971.371649	2541.187681
971.670098	2536.207021
971.968510	2539.030067
972.266885	2534.268697
972.565223	2542.710109
972.863524	2541.928730
973.161788	2538.825900
973.460014	2540.960829
973.758204	2539.919830
974.056356	2540.761703
974.354471	2541.381765
974.652550	2539.960160
974.950591	2544.051056
975.248595	2538.530993
975.546563	2539.773637
975.844493	2538.707433
976.142386	2542.780685
976.440243	2538.193235
976.738062	2542.374872
977.035845	2539.012423
977.333590	2538.387320
977.631299	2542.314378
977.928971	2539.123328
978.226606	2540.993596
978.524204	2542.843700
978.821765	2537.447144
979.119290	2540.983514
979.416777	2537.026208
979.714228	2540.565098
980.011642	2540.398740
980.309020	2543.047866
980.606360	2542.072403
980.903664	2541.535520
981.200931	2540.302958
981.498162	2541.253216
981.795356	2542.594162
982.092513	2545.676828
982.389633	2548.061294
982.686717	2552.033723
982.983764	2551.295194
983.280775	2552.792417
983.577749	2553.099927
983.874686	2555.544887
984.171587	2547.955430
984.468451	2547.355532
984.765279	2547.632796
985.062070	2544.960984
985.358824	2544.106509
985.655543	2542.808412
985.952224	2540.670962
986.248869	2538.868750
986.545478	2535.770961
986.842050	2538.021836
987.138586	2532.509334
987.435086	2536.927906
987.731549	2530.752492
988.027975	2538.772968
988.324366	2537.242978
988.620719	2540.071065
988.917037	2533.278110
989.213318	2537.628626
989.509563	2535.803728
989.805772	2538.455375
990.101944	2536.610313
990.398080	2535.831455
990.694180	2536.504449
990.990244	2539.609799
991.286271	2536.353214
991.582262	2538.074768
991.878217	2536.721218
992.174136	2534.309026
992.470019	2537.142155
992.765865	2535.196269
993.061676	2536.295241
993.357450	2537.956301
993.653188	2532.718542
993.948890	2534.608975
994.244556	2535.549150
994.540186	2537.825231
994.835780	2535.793646
995.131337	2538.793132
995.426859	2537.742052
995.722345	2539.811446
996.017795	2536.726259
996.313208	2541.769934
996.608586	2539.022505
996.903928	2541.797660
997.199234	2538.997299
997.494504	2541.270860
997.789738	2539.690458
998.084936	2540.975952
998.380099	2536.693492
998.675225	2538.546116
998.970316	2535.871784
999.265371	2537.149716
999.560390	2538.604089
999.855373	2538.420087
1000.150320	2540.118956
1000.445232	2536.519572
1000.740108	2536.196938
1001.034948	2537.706764
1001.329752	2535.478574
1001.624521	2536.872453
1001.919254	2530.192924
1002.213951	2534.031763
1002.508613	2535.292051
1002.803239	2531.753161
1003.097829	2531.599406
1003.392384	2537.091743
1003.686903	2535.695343
1003.981386	2537.807587
1004.275834	2534.626619
1004.570246	2534.855991
1004.864623	2534.571166
1005.158964	2533.900693
1005.453270	2534.639222
1005.747540	2531.760723
1006.041775	2535.027391
1006.335974	2536.660724
1006.630138	2533.683923
1006.924266	2532.819365
1007.218359	2533.043697
1007.512416	2535.234078
1007.806438	2537.240457
1008.100425	2535.589479
1008.394376	2534.125024
1008.688292	2534.661907
1008.982172	2534.795497
1009.276017	2533.983872
1009.569827	2535.904551
1009.863602	2535.518903
1010.157341	2536.522093
1010.451045	2536.680889
1010.744714	2535.821372
1011.038347	2535.899510
1011.331945	2534.586290
1011.625508	2537.555529
1011.919036	2531.062523
1012.212528	2535.450848
1012.505986	2532.668131
1012.799408	2534.596372
1013.092795	2536.428831
1013.386147	2536.829603
1013.679464	2534.044366
1013.972745	2536.055786
1014.265992	2534.475384
1014.559204	2537.888245
1014.852380	2536.214582
1015.145521	2534.185518
1015.438628	2533.026052
1015.731699	2535.881866
1016.024736	2533.298275
1016.317737	2533.545291
1016.610703	2535.082843
1016.903635	2532.428676
1017.196531	2533.709129
1017.489393	2533.141999
1017.782219	2527.450536
1018.075011	2530.991947
1018.367768	2536.232226
1018.660490	2534.089736
1018.953177	2534.089736
1019.245829	2534.089736
