Dividing Wavelength (nm)	Counts (n)	Blue Motor Position (mm): 6.100000	Red Motor Position (mm): 0.000000	
326.493990	2142.752525
326.888308	2142.752525
327.282561	2142.752525
327.676750	2111.109202
328.070874	2110.458893
328.464933	2111.610797
328.858929	2118.554986
329.252859	2129.529578
329.646726	2141.081382
330.040528	2149.232928
330.434265	2171.958449
330.827938	2187.734740
331.221547	2205.681248
331.615091	2226.473487
332.008571	2244.571229
332.401986	2261.718714
332.795338	2281.285953
333.188625	2300.041566
333.581847	2320.669967
333.975006	2339.745693
334.368100	2357.195648
334.761129	2376.770448
335.154095	2391.861142
335.546996	2411.226734
335.939833	2421.729978
336.332606	2437.619695
336.725315	2452.435647
337.117960	2460.589713
337.510540	2470.064562
337.903056	2480.156952
338.295508	2488.747078
338.687896	2495.726555
339.080220	2502.617812
339.472480	2509.816580
339.864676	2513.521828
340.256807	2519.114988
340.648875	2520.347551
341.040879	2525.512213
341.432818	2527.826102
341.824694	2527.193438
342.216506	2525.522295
342.608253	2529.164529
342.999937	2527.531195
343.391557	2526.376771
343.783113	2526.258303
344.174605	2523.682274
344.566033	2523.896523
344.957397	2522.018693
345.348697	2521.159176
345.739934	2520.302180
346.131106	2516.186078
346.522215	2516.145749
346.913260	2511.369256
347.304241	2513.421005
347.695159	2508.339522
348.086012	2509.650222
348.476802	2506.078565
348.867528	2506.610406
349.258191	2504.238543
349.648789	2502.441372
350.039324	2499.197390
350.429796	2504.147803
350.820203	2499.479694
351.210548	2498.287461
351.600828	2494.544405
351.991045	2493.397542
352.381198	2495.136740
352.771288	2495.424086
353.161314	2493.959631
353.551276	2494.937615
353.941175	2495.298057
354.331010	2493.516009
354.720782	2492.512820
355.110490	2495.847543
355.500135	2493.868890
355.889717	2493.710094
356.279235	2493.084991
356.668689	2492.391832
357.058080	2496.165136
357.447408	2493.848725
357.836672	2492.338900
358.225873	2495.166987
358.615010	2492.419558
359.004084	2496.530619
359.393095	2496.951556
359.782043	2497.526247
360.170927	2496.424755
360.559748	2500.989520
360.948505	2496.621360
361.337199	2501.735611
361.725830	2498.973058
362.114398	2501.307113
362.502903	2502.892555
362.891344	2501.113028
363.279722	2501.586897
363.668037	2502.685868
364.056289	2500.745024
364.444478	2504.266270
364.832603	2503.215189
365.220665	2503.472288
365.608665	2505.055210
365.996601	2506.358349
366.384474	2505.965139
366.772284	2505.861795
367.160031	2505.445900
367.547715	2505.823986
367.935336	2506.053359
368.322893	2507.837927
368.710388	2507.590911
369.097820	2512.798423
369.485189	2506.867505
369.872495	2508.984790
370.259738	2507.419512
370.646918	2508.082423
371.034035	2507.921106
371.421090	2509.045284
371.808081	2508.324399
372.195010	2511.891015
372.581875	2507.737104
372.968678	2511.525531
373.355418	2510.413957
373.742096	2513.262209
374.128710	2510.804646
374.515262	2513.773886
374.901751	2508.833555
375.288177	2511.422188
375.674540	2509.854389
376.060841	2513.186592
376.447079	2510.988648
376.833254	2512.659791
377.219367	2508.057218
377.605417	2510.403875
377.991404	2510.335819
378.377329	2510.698782
378.763191	2508.150479
379.148991	2514.537621
379.534727	2513.892353
379.920402	2512.805984
380.306013	2514.865296
380.691563	2514.025944
381.077049	2513.300017
381.462474	2514.673732
381.847835	2514.199863
382.233134	2517.365708
382.618371	2513.897394
383.003545	2518.683970
383.388657	2516.309586
383.773706	2515.729854
384.158693	2515.961747
384.543618	2514.182219
384.928480	2514.361180
385.313280	2513.839421
385.698017	2517.020389
386.082692	2518.762108
386.467305	2517.960564
386.851856	2518.656243
387.236344	2515.097189
387.620770	2517.469052
388.005133	2518.946110
388.389435	2518.668846
388.773674	2521.418796
389.157851	2518.094155
389.541965	2518.943589
389.926018	2518.278157
390.310008	2519.364526
390.693936	2520.841584
391.077802	2519.845956
391.461606	2521.340658
391.845348	2520.488703
392.229027	2521.940555
392.612645	2517.884947
392.996200	2520.405524
393.379694	2519.218332
393.763125	2519.971985
394.146494	2520.960051
394.529801	2520.773528
394.913047	2520.397962
395.296230	2524.703108
395.679351	2520.884433
396.062410	2525.055988
396.445408	2519.924094
396.828343	2522.217819
397.211217	2517.166583
397.594028	2520.289577
397.976778	2519.616583
398.359466	2521.559948
398.742092	2518.822602
399.124656	2524.945083
399.507158	2523.672192
399.889598	2525.658406
400.271977	2526.328880
400.654294	2526.094466
401.036549	2523.573889
401.418742	2525.484486
401.800874	2523.203364
402.182944	2525.265196
402.564952	2525.844929
402.946898	2525.444157
403.328783	2524.536749
403.710606	2525.938190
404.092367	2525.038344
404.474067	2524.619928
404.855705	2524.766122
405.237282	2524.254445
405.618797	2527.080012
406.000250	2526.190248
406.381642	2526.515402
406.762972	2527.511030
407.144240	2526.974147
407.525447	2527.780732
407.906593	2524.236801
408.287677	2527.619415
408.668700	2528.539426
409.049661	2528.499096
409.430560	2526.628828
409.811399	2528.095804
410.192176	2527.228726
410.572891	2529.845084
410.953545	2529.335928
411.334138	2527.626977
411.714669	2529.719056
412.095139	2530.510517
412.475547	2529.623274
412.855894	2530.318953
413.236180	2531.836340
413.616405	2530.026566
413.996568	2528.824251
414.376670	2527.788294
414.756711	2529.910619
415.136691	2531.044879
415.516609	2530.707122
415.896466	2532.312729
416.276262	2532.411032
416.655997	2529.035979
417.035670	2527.168232
417.415283	2531.916999
417.794834	2526.946421
418.174324	2529.247708
418.553753	2530.417255
418.933121	2530.361803
419.312428	2530.094622
419.691674	2531.793490
420.070859	2533.099149
420.449983	2530.760054
420.829045	2532.287523
421.208047	2532.010260
421.586988	2530.412214
421.965867	2535.367668
422.344686	2530.439941
422.723444	2535.549150
423.102141	2534.687113
423.480777	2532.773995
423.859352	2533.593182
424.237866	2532.678213
424.616319	2533.966228
424.994712	2535.103008
425.373044	2534.936650
425.751314	2534.273738
426.129524	2533.101670
426.507673	2533.691485
426.885762	2535.133255
427.263789	2535.017308
427.641756	2533.315919
428.019662	2535.251722
428.397508	2536.779192
428.775292	2535.216434
429.153016	2535.715508
429.530679	2535.508821
429.908282	2536.028060
430.285824	2533.880528
430.663305	2533.232740
431.040726	2534.520755
431.418086	2536.461599
431.795385	2536.607792
432.172624	2536.501928
432.549802	2537.089223
432.926920	2536.736342
433.303977	2538.823379
433.680974	2536.451517
434.057910	2538.407484
434.434786	2534.903882
434.811601	2537.237937
435.188355	2536.333049
435.565050	2537.686599
435.941683	2538.097453
436.318257	2536.328008
436.694770	2532.708460
437.071222	2534.646783
437.447614	2534.823224
437.823946	2534.888759
438.200218	2537.742052
438.576429	2536.839685
438.952580	2536.554860
439.328670	2536.597710
439.704700	2539.148534
440.080670	2536.897659
440.456580	2536.748945
440.832429	2539.347659
441.208218	2537.810108
441.583947	2539.070396
441.959616	2539.856816
442.335224	2539.740869
442.710773	2538.485622
443.086261	2540.938143
443.461689	2538.515869
443.837057	2537.222813
444.212365	2540.592824
444.587612	2540.101312
444.962800	2538.283976
445.337927	2539.791281
445.712995	2537.084181
446.088002	2539.670293
446.462949	2540.469316
446.837837	2539.607279
447.212664	2537.623585
447.587431	2539.824048
447.962139	2537.278266
448.336786	2542.949564
448.711374	2540.716333
449.085901	2542.059800
449.460369	2538.034439
449.834776	2542.780685
450.209124	2542.924358
450.583412	2540.686086
450.957640	2542.516025
451.331808	2538.430169
451.705917	2540.993596
452.079965	2541.076775
452.453954	2540.401261
452.827883	2543.007537
453.201752	2541.878319
453.575562	2542.339584
453.949311	2541.928730
454.323001	2538.951929
454.696632	2540.824717
455.070202	2541.943854
455.443713	2541.028884
455.817164	2539.980324
456.190556	2538.830941
456.563888	2539.085519
456.937160	2535.256763
457.310373	2542.004348
457.683526	2541.381765
458.056619	2544.262784
458.429653	2542.024512
458.802628	2542.354708
459.175542	2543.420912
459.548398	2540.764224
459.921194	2540.313040
460.293930	2543.365459
460.666607	2543.357897
461.039224	2542.407640
461.411782	2542.747918
461.784280	2541.873278
462.156719	2544.335881
462.529099	2542.629451
462.901419	2543.249513
463.273680	2541.911086
463.645882	2540.640715
464.018024	2542.674821
464.390106	2542.881508
464.762130	2542.432846
465.134094	2543.660367
465.505999	2545.855789
465.877845	2543.476364
466.249631	2544.187167
466.621358	2543.514173
466.993026	2546.574153
467.364634	2546.301931
467.736184	2544.834955
468.107674	2544.053577
468.479105	2544.260264
468.850477	2544.560213
469.221790	2543.995603
469.593043	2541.858154
469.964238	2543.869574
470.335373	2545.543238
470.706449	2545.886036
471.077467	2543.710778
471.448425	2542.637012
471.819324	2546.359904
472.190164	2544.386293
472.560945	2546.551468
472.931667	2548.013403
473.302330	2543.284801
473.672934	2545.031560
474.043479	2544.683721
474.413965	2545.160110
474.784393	2540.507125
475.154761	2542.085006
475.525070	2539.982845
475.895321	2543.730943
476.265513	2542.848741
476.635645	2545.757487
477.005719	2545.230686
477.375734	2543.667928
477.745691	2546.369987
478.115588	2548.262940
478.485427	2543.967877
478.855207	2548.535162
479.224928	2544.091385
479.594591	2544.782023
479.964194	2545.535676
480.333739	2547.360573
480.703226	2546.299411
481.072653	2543.680531
481.442022	2542.826056
481.811333	2546.803526
482.180584	2546.969884
482.549777	2546.947199
482.918912	2543.698175
483.287988	2544.182126
483.657005	2544.290511
484.025964	2547.726057
484.394864	2544.439225
484.763706	2548.552806
485.132489	2546.259081
485.501213	2547.761345
485.869879	2544.343443
486.238487	2545.981818
486.607036	2546.748073
486.975527	2545.926365
487.343959	2548.794782
487.712333	2547.514329
488.080648	2548.152035
488.448905	2546.324616
488.817104	2546.579195
489.185244	2547.501726
489.553326	2548.492312
489.921350	2544.577857
490.289315	2546.601880
490.657222	2547.710934
491.025070	2547.360573
491.392861	2550.828887
491.760593	2548.242775
492.128267	2548.872920
492.495883	2546.785882
492.863440	2545.528114
493.230939	2549.099772
493.598380	2549.588763
493.965763	2543.206663
494.333088	2547.284956
494.700354	2545.404606
495.067563	2547.053063
495.434713	2542.974770
495.801805	2547.970553
496.168839	2548.769576
496.535815	2550.662529
496.902733	2547.166489
497.269593	2549.296377
497.636395	2547.627755
498.003139	2549.543393
498.369825	2549.561037
498.736453	2547.027857
499.103023	2548.005841
499.469535	2550.332334
499.835989	2548.083979
500.202385	2548.136911
500.568723	2547.673125
500.935003	2546.541386
501.301226	2548.217570
501.667390	2548.167158
502.033497	2548.462066
502.399546	2546.735470
502.765537	2548.651109
503.131470	2548.721685
503.497345	2550.607077
503.863163	2550.702858
504.228923	2548.013403
504.594625	2548.399051
504.960269	2547.927703
505.325856	2548.290666
505.691385	2547.915100
506.056856	2551.491799
506.422270	2547.902497
506.787625	2548.560368
507.152924	2545.938968
507.518164	2550.884340
507.883347	2549.949206
508.248472	2551.116233
508.613540	2549.903836
508.978550	2549.926521
509.343503	2545.828063
509.708398	2550.546583
510.073236	2549.815615
510.438016	2549.215718
510.802738	2549.508105
511.167403	2548.870399
511.532010	2549.003990
511.896561	2547.899977
512.261053	2548.814946
512.625488	2548.767055
512.989866	2544.222455
513.354186	2544.678680
513.718449	2543.433515
514.082655	2549.361912
514.446803	2550.939793
514.810894	2547.773948
515.174927	2549.031716
515.538904	2549.349309
515.902822	2550.811243
516.266684	2547.713454
516.630488	2550.397869
516.994235	2550.080276
517.357925	2551.564896
517.721558	2549.671942
518.085133	2550.763352
518.448651	2550.546583
518.812112	2551.569937
519.175516	2551.229659
519.538863	2549.341747
519.902152	2548.399051
520.265385	2548.373845
520.628560	2551.227138
520.991678	2549.808054
521.354739	2547.438711
521.717743	2548.993907
522.080690	2552.242931
522.443580	2550.874258
522.806413	2552.673950
523.169189	2548.472148
523.531908	2549.117416
523.894569	2551.189330
524.257174	2552.177396
524.619722	2550.738147
524.982213	2550.037426
525.344647	2550.723023
525.707025	2552.154711
526.069345	2550.624721
526.431608	2550.294525
526.793815	2551.910215
527.155964	2553.225956
527.518057	2550.768393
527.880093	2552.421892
528.242072	2549.485420
528.603995	2552.497509
528.965860	2551.527087
529.327669	2552.182437
529.689421	2551.237221
530.051117	2552.331151
530.412755	2552.016079
530.774337	2550.168496
531.135862	2550.884340
531.497331	2551.365770
531.858743	2547.171530
532.220098	2550.632282
532.581396	2546.702703
532.942638	2547.489123
533.303824	2547.917621
533.664953	2551.438867
534.026025	2548.693959
534.387040	2551.711089
534.747999	2549.606408
535.108902	2553.369629
535.469748	2551.065822
535.830537	2553.064639
536.191270	2552.336192
536.551947	2550.405430
536.912567	2551.814433
537.273131	2550.274360
537.633638	2550.551624
537.994089	2553.407437
538.354483	2549.608928
538.714821	2551.111192
539.075103	2553.294012
539.435328	2552.381563
539.795497	2551.295194
540.155609	2553.672098
540.515665	2552.149670
540.875665	2553.914073
541.235609	2550.443239
541.595496	2551.895091
541.955328	2549.906356
542.315102	2552.147149
542.674821	2550.780996
543.034483	2554.975236
543.394090	2550.521377
543.753640	2553.626728
544.113134	2549.825698
544.472571	2554.624876
544.831953	2550.909546
545.191278	2554.952551
545.550548	2552.986501
545.909761	2553.878785
546.268918	2550.591953
546.628019	2550.062632
546.987064	2549.813095
547.346053	2551.403579
547.704986	2554.541697
548.063863	2550.102961
548.422684	2551.282591
548.781449	2549.868548
549.140158	2550.231511
549.498811	2552.621017
549.857408	2552.532797
550.215949	2547.708413
550.574434	2549.160265
550.932864	2551.874927
551.291237	2548.744370
551.649555	2550.634803
552.007817	2549.122457
552.366022	2555.345761
552.724173	2550.017262
553.082267	2554.004814
553.440305	2550.990204
553.798288	2552.316028
554.156215	2549.966850
554.514086	2550.773435
554.871902	2549.969371
555.229661	2552.673950
555.587365	2552.081614
555.945014	2554.355174
556.302606	2550.148332
556.660143	2553.465411
557.017625	2549.319062
557.375050	2551.239741
557.732421	2550.014741
558.089735	2551.970709
558.446994	2553.467931
558.804197	2552.071532
559.161345	2550.549103
559.518437	2552.898281
559.875474	2554.171172
560.232455	2553.780483
560.589381	2553.054557
560.946251	2555.202088
561.303065	2551.383414
561.659825	2550.440718
562.016528	2552.139587
562.373177	2552.835267
562.729770	2552.731923
563.086307	2551.595143
563.442789	2549.107333
563.799216	2553.888868
564.155587	2550.768393
564.511904	2551.779145
564.868164	2552.336192
565.224370	2549.984494
565.580520	2552.494989
565.936615	2552.250493
566.292654	2551.791748
566.648638	2552.341233
567.004567	2553.646892
567.360441	2551.907694
567.716260	2550.851572
568.072023	2552.457180
568.427732	2547.471479
568.783385	2550.165976
569.138982	2548.104144
569.494525	2549.187992
569.850013	2549.117416
570.205445	2551.721172
570.560823	2551.940462
570.916145	2550.531459
571.271412	2553.941800
571.626625	2554.466080
571.981782	2549.961809
572.336884	2553.001625
572.691931	2553.253682
573.046923	2549.621531
573.401860	2551.378373
573.756743	2554.186296
574.111570	2548.300749
574.466342	2552.731923
574.821059	2551.983312
575.175722	2551.680842
575.530330	2553.896429
575.884882	2553.939279
576.239380	2554.408107
576.593823	2553.737633
576.948211	2553.306614
577.302544	2551.416182
577.656823	2551.519525
578.011047	2551.542211
578.365216	2552.189999
578.719330	2553.044474
579.073389	2553.775442
579.427394	2550.889381
579.781344	2550.899463
580.135239	2552.237890
580.489080	2549.092210
580.842866	2550.932231
581.196597	2558.254507
581.550273	2553.530946
581.903895	2554.186296
582.257463	2553.225956
582.610975	2550.042467
582.964434	2554.864331
583.317837	2550.723023
583.671186	2551.726213
584.024481	2550.415513
584.377721	2555.529763
584.730906	2552.167314
585.084037	2552.343754
585.437113	2550.970040
585.790135	2553.979608
586.143103	2553.926676
586.496016	2556.537994
586.848874	2548.414175
587.201679	2549.745039
587.554428	2548.300749
587.907124	2552.023641
588.259765	2548.336037
588.612352	2551.970709
588.964884	2551.501881
589.317362	2553.150339
589.669786	2551.738816
590.022155	2551.844680
590.374470	2553.299053
590.726731	2554.259392
591.078937	2553.452808
591.431090	2554.750905
591.783188	2550.826367
592.135232	2553.493137
592.487222	2552.656306
592.839157	2554.466080
593.191038	2549.974412
593.542866	2551.154042
593.894639	2554.145967
594.246358	2553.609084
594.598022	2554.004814
594.949633	2551.990873
595.301190	2550.778476
595.652692	2551.736295
596.004141	2552.449618
596.355535	2553.969526
596.706876	2551.552293
597.058162	2551.852242
597.409395	2551.338044
597.760573	2554.927345
598.111698	2553.094886
598.462768	2555.557490
598.813785	2553.223435
599.164748	2552.391645
599.515657	2552.290822
599.866511	2553.021789
600.217312	2551.406099
600.568060	2554.161090
600.918753	2555.703683
601.269392	2550.002138
601.619978	2552.706717
601.970510	2551.852242
602.320988	2548.915769
602.671412	2551.925338
603.021783	2551.874927
603.372100	2551.968188
603.722363	2550.339895
604.072572	2552.583209
604.422728	2554.652602
604.772830	2552.530277
605.122878	2547.995759
605.472872	2550.327292
605.822813	2545.936448
606.172701	2551.922818
606.522534	2553.364588
606.872314	2553.281409
607.222041	2552.023641
607.571714	2556.016235
607.921333	2549.404761
608.270899	2551.045657
608.620411	2554.624876
608.969870	2553.074721
609.319276	2553.362067
609.668627	2555.799465
610.017926	2559.693756
610.367171	2560.704508
610.716362	2559.068653
611.065500	2557.198385
611.414585	2555.660833
611.763616	2559.214847
612.112594	2552.500030
612.461518	2555.015566
612.810389	2555.073539
613.159207	2553.717468
613.507971	2553.505740
613.856682	2554.604712
614.205340	2553.568754
614.553945	2554.917263
614.902496	2551.443908
615.250994	2554.907181
615.599439	2550.959957
615.947830	2552.815102
616.296169	2552.694114
616.644454	2552.089176
616.992686	2553.104968
617.340864	2552.028682
617.688990	2554.060267
618.037063	2553.639331
618.385082	2553.210832
618.733048	2555.184444
619.080961	2548.774617
619.428821	2552.008517
619.776628	2550.123126
620.124382	2557.120247
620.472083	2553.936759
620.819731	2553.488096
621.167326	2555.912891
621.514868	2552.845349
621.862357	2552.101779
622.209793	2553.440205
622.557176	2553.455328
622.904506	2552.999104
623.251783	2545.959133
623.599007	2550.042467
623.946179	2548.474668
624.293297	2547.295038
624.640363	2551.799309
624.987376	2554.387942
625.334336	2550.793599
625.681243	2552.744526
626.028097	2551.441388
626.374899	2554.997922
626.721647	2552.215205
627.068343	2553.281409
627.414987	2554.090514
627.761577	2553.180586
628.108115	2552.792417
628.454600	2553.014228
628.801032	2550.362581
629.147412	2553.916594
629.493739	2553.863662
629.840014	2553.946841
630.186236	2552.628579
630.532405	2553.903991
630.878521	2553.677139
631.224585	2553.339382
631.570597	2551.698486
631.916556	2553.813250
632.262462	2551.774104
632.608316	2554.443395
632.954117	2552.966337
633.299866	2551.264947
633.645562	2551.839639
633.991206	2553.404917
634.336797	2551.958106
634.682336	2556.273333
635.027823	2551.494320
635.373257	2552.046326
635.718639	2550.798640
636.063968	2551.935421
636.409245	2551.338044
636.754470	2551.660678
637.099642	2554.208981
637.444762	2554.357695
637.789829	2554.203940
638.134845	2549.613969
638.479808	2551.602704
638.824719	2551.917777
639.169577	2553.326779
639.514383	2550.239072
639.859137	2551.103630
640.203839	2554.133364
640.548489	2550.864175
640.893086	2547.703372
641.237632	2548.890564
641.582125	2551.040616
641.926566	2548.986346
642.270955	2551.496840
642.615292	2552.981460
642.959576	2552.515153
643.303809	2551.383414
643.647990	2552.706717
643.992118	2551.441387
644.336195	2555.255020
644.680219	2552.613456
645.024192	2554.156049
645.368112	2552.353836
645.711981	2551.350647
646.055797	2551.264947
646.399562	2551.653116
646.743274	2551.275029
647.086935	2551.643034
647.430544	2550.135729
647.774101	2549.588763
648.117606	2550.929710
648.461059	2549.379556
648.804460	2552.805020
649.147810	2552.633620
649.491108	2550.135729
649.834354	2554.297201
650.177548	2552.931048
650.520690	2553.672098
650.863781	2552.847869
651.206820	2553.452808
651.549807	2550.420554
651.892742	2554.982798
652.235626	2551.718651
652.578458	2549.959288
652.921238	2549.898794
653.263967	2551.950544
653.606644	2549.692107
653.949269	2553.188147
654.291843	2552.558003
654.634365	2553.833415
654.976836	2551.948023
655.319255	2552.923487
655.661622	2551.330482
656.003938	2550.173537
656.346203	2552.482386
656.688416	2552.799978
657.030577	2551.821995
657.372687	2552.517674
657.714746	2552.482386
658.056753	2553.956923
658.398708	2544.903011
658.740612	2550.816284
659.082465	2547.995759
659.424266	2547.766386
659.766016	2548.061294
660.107715	2552.132026
660.449362	2550.392827
660.790958	2553.399876
661.132503	2550.874258
661.473996	2550.937272
661.815438	2551.491799
662.156829	2551.149001
662.498168	2550.339895
662.839456	2548.885522
663.180693	2552.121943
663.521879	2550.788558
663.863013	2552.767211
664.204097	2550.115564
664.545129	2552.225287
664.886110	2553.989691
665.227040	2551.176727
665.567918	2552.565565
665.908746	2551.637992
666.249522	2552.711758
666.590248	2550.987684
666.930922	2551.766542
667.271545	2552.126984
667.612118	2552.429454
667.952639	2551.403579
668.293109	2552.467262
668.633528	2549.036757
668.973896	2548.968702
669.314213	2550.801161
669.654480	2551.960626
669.994695	2550.957437
670.334859	2552.295863
670.674973	2550.007179
671.015035	2549.074566
671.355047	2551.196892
671.695008	2552.754608
672.034918	2551.085986
672.374777	2551.159083
672.714585	2549.858465
673.054342	2554.632438
673.394049	2550.115564
673.733705	2553.326779
674.073310	2554.035061
674.412864	2549.903836
674.752368	2552.568085
675.091820	2552.890719
675.431223	2552.663867
675.770574	2549.248486
676.109875	2545.908721
676.449125	2548.822508
676.788324	2545.502908
677.127473	2549.679504
677.466571	2546.430481
677.805619	2552.575647
678.144616	2551.517005
678.483562	2552.747046
678.822458	2552.900802
679.161303	2551.529608
679.500098	2550.491130
679.838842	2551.355688
680.177535	2552.071532
680.516179	2549.122457
680.854771	2550.400389
681.193314	2549.659340
681.531805	2548.245296
681.870247	2551.499361
682.208638	2547.272353
682.546978	2554.594629
682.885268	2552.227807
683.223508	2549.445091
683.561697	2552.336192
683.899836	2551.837118
684.237925	2551.887530
684.575963	2554.448436
684.913951	2551.244783
685.251889	2551.751418
685.589776	2550.216387
685.927614	2549.755122
686.265401	2551.491799
686.603137	2551.088507
686.940824	2549.314021
687.278460	2549.722354
687.616046	2552.852911
687.953582	2553.498178
688.291068	2550.670091
688.628504	2551.794268
688.965889	2550.833928
689.303224	2555.668395
689.640510	2553.215874
689.977745	2549.218239
690.314930	2550.055070
690.652065	2551.675801
690.989150	2553.258723
691.326185	2549.782848
691.663170	2550.332334
692.000105	2551.242262
692.336990	2550.085317
692.673825	2552.063970
693.010610	2552.303425
693.347345	2548.028526
693.684030	2547.700851
694.020665	2548.898125
694.357251	2545.906201
694.693786	2551.443908
695.030272	2551.958106
695.366707	2550.435677
695.703093	2552.351316
696.039429	2552.109340
696.375716	2552.086655
696.711952	2550.649926
697.048139	2552.290822
697.384276	2551.058260
697.720363	2550.952396
698.056400	2550.871737
698.392388	2553.588919
698.728326	2554.050185
699.064214	2551.527087
699.400053	2552.053888
699.735842	2550.193702
700.071581	2552.192519
700.407270	2551.179247
700.742910	2551.806871
701.078501	2553.064639
701.414042	2550.796120
701.749533	2552.870555
702.084974	2555.519681
702.420366	2550.733105
702.755709	2552.953734
703.091002	2552.250493
703.426246	2552.119423
703.761440	2552.696635
704.096584	2551.280071
704.431679	2552.391645
704.766725	2549.785368
705.101721	2552.547921
705.436668	2549.540872
705.771565	2552.931048
706.106413	2552.056408
706.441212	2553.450287
706.775961	2554.612273
707.110661	2554.488765
707.445311	2550.435677
707.779913	2553.357026
708.114465	2554.408107
708.448967	2554.140925
708.783421	2552.598332
709.117825	2553.788045
709.452180	2552.063970
709.786485	2552.247972
710.120742	2552.328631
710.454949	2553.281409
710.789107	2553.717468
711.123216	2550.778476
711.457275	2548.204967
711.791286	2549.750080
712.125247	2553.357026
712.459159	2554.783673
712.793023	2554.667726
713.126837	2553.152859
713.460602	2553.820812
713.794318	2551.869886
714.127985	2555.751574
714.461602	2553.881306
714.795171	2550.949875
715.128691	2552.704197
715.462162	2554.634958
715.795584	2554.811399
716.128957	2552.313507
716.462281	2551.761501
716.795556	2551.670760
717.128782	2553.588919
717.461960	2553.725030
717.795088	2553.004145
718.128167	2552.157231
718.461198	2552.207643
718.794180	2553.979608
719.127113	2552.663867
719.459997	2554.496327
719.792833	2550.889381
720.125619	2552.273178
720.458357	2551.653116
720.791046	2553.898950
721.123686	2552.870555
721.456278	2552.898281
721.788821	2553.510781
722.121315	2553.735113
722.453761	2553.936759
722.786158	2549.127498
723.118506	2552.285781
723.450805	2553.760318
723.783056	2551.781665
724.115259	2552.008517
724.447412	2552.729402
724.779518	2555.136553
725.111574	2553.402396
725.443582	2554.030020
725.775542	2553.949362
726.107453	2553.402396
726.439315	2551.945503
726.771129	2557.936914
727.102895	2555.819630
727.434612	2554.571944
727.766281	2555.113868
728.097901	2552.361398
728.429473	2550.130687
728.760996	2552.013558
729.092471	2547.456355
729.423897	2553.619166
729.755276	2552.366439
730.086606	2553.271326
730.417887	2554.370298
730.749120	2554.297201
731.080305	2556.664023
731.411442	2558.410783
731.742530	2555.907850
732.073570	2556.830381
732.404562	2553.367108
732.735506	2557.634445
733.066401	2552.817622
733.397249	2554.549259
733.728048	2557.601677
734.058798	2555.345761
734.389501	2554.703014
734.720156	2555.295350
735.050762	2553.389793
735.381320	2554.534135
735.711831	2554.609753
736.042293	2552.210163
736.372707	2553.268806
736.703073	2554.786193
737.033391	2553.757798
737.363661	2551.789227
737.693883	2553.535987
738.024056	2558.017573
738.354182	2554.650082
738.684260	2555.146636
739.014290	2554.022458
739.344272	2556.283416
739.674207	2555.691080
740.004093	2556.084290
740.333931	2557.800803
740.663722	2556.306101
740.993464	2555.706204
741.323159	2555.686039
741.652806	2556.427089
741.982405	2555.892726
742.311956	2558.446071
742.641460	2556.497665
742.970915	2554.776111
743.300323	2554.604712
743.629683	2552.305945
743.958996	2553.354505
744.288260	2554.070349
744.617477	2557.505896
744.946647	2550.375183
745.275768	2552.694114
745.604842	2553.236038
745.933869	2553.246121
746.262847	2548.734288
746.591778	2553.354505
746.920662	2553.682180
747.249498	2553.616645
747.578286	2553.692263
747.907027	2554.735782
748.235720	2552.684032
748.564365	2555.585216
748.892963	2555.991029
749.221514	2554.488765
749.550017	2555.741492
749.878473	2554.100596
750.206881	2554.818961
750.535242	2557.604198
750.863555	2553.543549
751.191821	2554.892057
751.520039	2552.452139
751.848210	2555.479352
752.176334	2555.552448
752.504411	2553.939279
752.832440	2555.249979
753.160421	2555.585216
753.488356	2556.669064
753.816243	2555.403734
754.144082	2554.582026
754.471875	2555.439022
754.799620	2554.927345
755.127318	2556.016235
755.454969	2551.877447
755.782572	2553.089845
756.110129	2555.209650
756.437638	2553.969526
756.765100	2554.398024
757.092515	2559.479507
757.419882	2557.016904
757.747203	2555.565051
758.074477	2555.565051
758.401703	2553.941800
758.728882	2553.667057
759.056014	2556.858107
759.383099	2555.648230
759.710138	2558.526729
760.037129	2557.042109
760.364073	2556.487582
760.690970	2554.818961
761.017820	2554.803837
761.344623	2556.182593
761.671379	2557.826009
761.998088	2553.604042
762.324751	2556.482541
762.651366	2554.798796
762.977935	2561.977399
763.304456	2562.272307
763.630931	2569.924778
763.957359	2564.997050
764.283740	2561.218705
764.610074	2561.589230
764.936362	2559.880279
765.262602	2558.851884
765.588796	2555.854918
765.914943	2557.505896
766.241044	2555.378529
766.567097	2554.788714
766.893104	2557.145453
767.219064	2554.259392
767.544978	2556.245607
767.870845	2556.427089
768.196665	2556.802655
768.522438	2554.319886
768.848165	2558.821637
769.173846	2553.425082
769.499479	2554.340051
769.825066	2552.832746
770.150607	2555.149156
770.476101	2552.409289
770.801548	2557.218550
771.126949	2554.035061
771.452303	2553.662016
771.777611	2551.804351
772.102872	2554.619835
772.428087	2553.074721
772.753256	2553.266285
773.078378	2553.687222
773.403453	2551.166645
773.728482	2553.820812
774.053465	2552.565565
774.378401	2552.739485
774.703291	2554.377860
775.028135	2552.333672
775.352932	2553.941800
775.677683	2553.712427
776.002388	2555.008004
776.327046	2552.598332
776.651658	2555.769218
776.976224	2551.595143
777.300743	2551.695966
777.625216	2553.354505
777.949643	2553.258723
778.274024	2552.663867
778.598359	2549.550955
778.922647	2550.450801
779.246889	2548.893084
779.571086	2548.976263
779.895236	2551.514484
780.219339	2552.351316
780.543397	2553.190668
780.867409	2549.810574
781.191374	2552.237890
781.515294	2550.995245
781.839167	2550.876778
782.162995	2552.658826
782.486776	2552.615976
782.810511	2551.665719
783.134201	2551.607746
783.457844	2552.837787
783.781441	2551.958106
784.104993	2552.789896
784.428498	2550.506253
784.751958	2554.337530
785.075372	2554.297201
785.398739	2550.526418
785.722061	2552.071532
786.045337	2550.778476
786.368568	2551.327962
786.691752	2551.005328
787.014891	2551.201933
787.337983	2552.810061
787.661030	2555.582695
787.984031	2553.853580
788.306987	2556.356512
788.629897	2551.869886
788.952760	2557.037068
789.275579	2554.849208
789.598351	2556.215360
789.921078	2555.660833
790.243759	2556.164949
790.566395	2554.700493
790.888984	2551.842159
791.211529	2552.096738
791.534027	2556.754764
791.856480	2550.586912
792.178888	2550.360060
792.501249	2550.173537
792.823566	2552.343754
793.145836	2552.981460
793.468062	2549.573640
793.790241	2550.302087
794.112375	2554.443395
794.434464	2553.147818
794.756507	2553.369629
795.078505	2553.667057
795.400457	2551.169165
795.722364	2549.490461
796.044226	2549.112374
796.366042	2546.231355
796.687812	2549.301418
797.009538	2555.260062
797.331218	2553.137736
797.652852	2553.049516
797.974442	2553.881306
798.295986	2552.900802
798.617484	2555.615463
798.938938	2552.462221
799.260346	2554.400545
799.581709	2553.301573
799.903026	2553.745195
800.224299	2551.474155
800.545526	2552.689073
800.866708	2552.084135
801.187845	2552.195040
801.508936	2550.803682
801.829983	2552.081614
802.150984	2551.731254
802.471940	2554.082952
802.792851	2551.905174
803.113717	2550.554144
803.434538	2552.192519
803.755314	2551.043136
804.076045	2549.460214
804.396731	2551.852242
804.717372	2551.345606
805.037967	2549.737477
805.358518	2549.523228
805.679024	2550.097920
805.999485	2550.191181
806.319901	2553.740154
806.640272	2552.099258
806.960598	2552.379042
807.280879	2549.903836
807.601115	2550.841490
807.921306	2551.764021
808.241453	2553.868703
808.561554	2550.803682
808.881611	2552.666388
809.201623	2553.757798
809.521590	2550.483568
809.841513	2551.428785
810.161390	2553.830894
810.481223	2551.065822
810.801011	2551.484237
811.120755	2552.215205
811.440453	2553.790565
811.760107	2554.181255
812.079716	2551.580019
812.399281	2547.325285
812.718801	2549.072045
813.038276	2547.693290
813.357707	2549.384597
813.677093	2552.195040
813.996434	2551.121274
814.315731	2551.534649
814.634983	2551.169165
814.954191	2554.100596
815.273354	2552.152190
815.592473	2552.530277
815.911547	2553.793086
816.230577	2554.604712
816.549562	2553.372149
816.868502	2553.074721
817.187399	2551.723692
817.506250	2554.718138
817.825058	2552.366439
818.143821	2553.336861
818.462539	2553.780483
818.781213	2553.873744
819.099843	2554.196378
819.418429	2554.203940
819.736970	2558.614949
820.055466	2555.688560
820.373919	2559.981102
820.692327	2561.276679
821.010691	2565.997719
821.329011	2570.537278
821.647286	2588.181317
821.965517	2600.232195
822.283704	2606.284100
822.601847	2612.330964
822.919945	2611.715943
823.237999	2608.058586
823.556010	2601.845364
823.873976	2592.879672
824.191897	2587.415061
824.509775	2577.688155
824.827609	2577.030284
825.145398	2572.137845
825.463144	2569.844120
825.780845	2571.810170
826.098502	2574.575242
826.416116	2578.933320
826.733685	2583.669484
827.051210	2585.355750
827.368692	2584.443301
827.686129	2580.637230
828.003522	2574.371076
828.320872	2564.893707
828.638177	2564.031669
828.955439	2558.481359
829.272656	2557.200906
829.589830	2553.432643
829.906960	2555.290308
830.224046	2556.011193
830.541088	2554.670247
830.858086	2555.817109
831.175041	2554.060267
831.491952	2556.207798
831.808819	2556.122099
832.125642	2553.251162
832.442421	2556.333827
832.759157	2555.706204
833.075849	2560.762481
833.392497	2565.095353
833.709101	2570.602813
834.025662	2571.243040
834.342179	2567.520148
834.658653	2564.891186
834.975083	2561.178376
835.291469	2564.394632
835.607811	2557.523540
835.924110	2552.139587
836.240366	2554.448436
836.556578	2552.268137
836.872746	2554.478683
837.188871	2551.363250
837.504952	2552.873075
837.820990	2548.578012
838.136984	2552.200081
838.452935	2552.830225
838.768842	2552.268137
839.084706	2550.871737
839.400526	2555.381049
839.716303	2554.420709
840.032037	2557.518498
840.347727	2555.799465
840.663373	2558.683005
840.978977	2556.807696
841.294537	2552.542880
841.610054	2554.755946
841.925527	2553.432643
842.240957	2552.316028
842.556344	2551.048177
842.871687	2551.847200
843.186987	2549.593805
843.502244	2549.515667
843.817458	2548.641027
844.132629	2549.145142
844.447756	2551.292673
844.762840	2545.074410
845.077881	2546.725388
845.392879	2542.286652
845.707833	2546.770758
846.022745	2544.620706
846.337613	2548.298228
846.652438	2549.109854
846.967221	2548.330996
847.281960	2547.622713
847.596656	2548.769576
847.911309	2546.740512
848.225919	2550.158414
848.540485	2549.427447
848.855009	2547.998279
849.169490	2547.103475
849.483928	2549.984494
849.798323	2547.030378
850.112675	2547.723537
850.426984	2547.562220
850.741251	2550.007179
851.055474	2546.286808
851.369654	2549.233362
851.683792	2548.436860
851.997887	2549.432488
852.311938	2548.966181
852.625947	2548.507436
852.939914	2547.650440
853.253837	2549.122457
853.567718	2546.009544
853.881555	2550.435677
854.195350	2545.399565
854.509103	2549.868547
854.822812	2544.454348
855.136479	2548.560368
855.450103	2545.533155
855.763685	2550.871737
856.077224	2546.438042
856.390720	2549.929041
856.704173	2548.076417
857.017584	2550.274360
857.330953	2547.766386
857.644278	2545.462579
857.957561	2548.121788
858.270802	2547.922662
858.584000	2545.805377
858.897155	2548.530121
859.210268	2548.283105
859.523339	2549.417364
859.836367	2549.424926
860.149352	2547.652960
860.462295	2549.031716
860.775195	2545.039122
861.088054	2542.760521
861.400869	2547.473999
861.713642	2544.953422
862.026373	2548.197405
862.339062	2548.484751
862.651708	2547.844524
862.964312	2546.589277
863.276873	2547.426108
863.589392	2548.598177
863.901869	2548.197405
864.214303	2549.558517
864.526696	2547.393341
864.839045	2546.528783
865.151353	2547.859648
865.463619	2551.857283
865.775842	2549.755122
866.088023	2547.151366
866.400162	2548.714123
866.712258	2546.662374
867.024313	2549.780327
867.336325	2551.758980
867.648296	2550.723023
867.960224	2549.102292
868.272110	2549.785368
868.583954	2547.899977
868.895755	2547.287477
869.207515	2549.742519
869.519233	2545.578526
869.830909	2549.094730
870.142542	2546.604400
870.454134	2548.951057
870.765684	2547.723537
871.077191	2550.375183
871.388657	2549.064483
871.700081	2548.278063
872.011463	2546.140614
872.322803	2551.219577
872.634101	2549.608928
872.945357	2547.968032
873.256571	2549.540873
873.567744	2550.811243
873.878874	2551.385935
874.189963	2549.069525
874.501010	2550.649926
874.812015	2549.450132
875.122979	2552.505071
875.433900	2549.382076
875.744780	2550.289484
876.055618	2549.803012
876.366415	2552.011038
876.677169	2550.957437
876.987882	2546.909390
877.298554	2544.618186
877.609183	2548.353681
877.919771	2547.416026
878.230317	2548.603218
878.540822	2550.410472
878.851285	2554.125802
879.161707	2553.306614
879.472087	2557.931873
879.782425	2556.487583
880.092722	2561.012018
880.402977	2564.679457
880.713191	2572.495767
881.023363	2577.998186
881.333494	2579.613876
881.643583	2582.426840
881.953631	2583.588826
882.263637	2584.148394
882.573602	2582.363825
882.883526	2578.973649
883.193408	2576.006930
883.503248	2572.795715
883.813048	2569.844120
884.122806	2564.155177
884.432522	2564.014025
884.742197	2559.739127
885.051831	2559.537481
885.361424	2560.396997
885.670975	2558.168807
885.980485	2559.822306
886.289954	2553.732592
886.599382	2553.946841
886.908768	2553.467931
887.218113	2552.283260
887.527417	2550.861655
887.836680	2550.433157
888.145901	2550.342416
888.455082	2552.240410
888.764221	2553.465411
889.073319	2548.946016
889.382376	2549.828218
889.691392	2549.228321
890.000366	2551.398538
890.309300	2550.097920
890.618193	2551.867365
890.927044	2550.909546
891.235855	2551.922818
891.544625	2547.085831
891.853353	2548.857796
892.162041	2551.522046
892.470687	2552.782334
892.779293	2550.327292
893.087858	2547.658002
893.396381	2548.769576
893.704864	2551.088507
894.013306	2550.715461
894.321707	2556.298539
894.630068	2560.669220
894.938387	2561.879097
895.246665	2563.756926
895.554903	2562.990671
895.863100	2558.798952
896.171256	2558.458674
896.479371	2556.144784
896.787446	2555.625545
897.095480	2555.111348
897.403473	2552.973898
897.711425	2553.924156
898.019336	2550.849052
898.327207	2551.164124
898.635038	2553.425082
898.942827	2550.977601
899.250576	2549.699669
899.558284	2549.087169
899.865952	2550.433157
900.173579	2548.671273
900.481165	2549.492982
900.788711	2547.741181
901.096216	2549.132539
901.403681	2545.785213
901.711105	2548.220090
902.018489	2550.488609
902.325832	2552.878116
902.633135	2546.059956
902.940397	2549.508105
903.247619	2551.474155
903.554800	2555.398693
903.861941	2558.874569
904.169041	2561.445557
904.476101	2562.335321
904.783121	2565.042421
905.090100	2561.440516
905.397039	2563.290620
905.703938	2555.892726
906.010796	2558.861966
906.317614	2553.725030
906.624391	2554.110678
906.931129	2553.777962
907.237826	2548.593136
907.544483	2551.232180
907.851099	2546.899308
908.157675	2547.766386
908.464211	2547.965512
908.770707	2541.437218
909.077163	2543.080634
909.383578	2543.909904
909.689954	2543.753628
909.996289	2541.596014
910.302584	2547.574822
910.608839	2548.096582
910.915054	2548.439380
911.221229	2546.811088
911.527363	2548.386448
911.833458	2546.982487
912.139513	2548.396531
912.445527	2546.634647
912.751502	2546.919472
913.057436	2548.210008
913.363331	2544.706406
913.669186	2545.825542
913.975000	2549.276212
914.280775	2547.602549
914.586510	2551.411141
914.892205	2552.855431
915.197859	2551.247303
915.503475	2556.306101
915.809050	2559.587892
916.114585	2562.259704
916.420081	2563.646021
916.725536	2559.981102
917.030952	2564.550908
917.336328	2559.875238
917.641665	2561.407749
917.946961	2557.561348
918.252218	2555.650751
918.557435	2554.161090
918.862612	2551.985832
919.167750	2552.605894
919.472848	2551.829556
919.777906	2552.215205
920.082925	2550.700338
920.387904	2547.199257
920.692843	2549.082127
920.997743	2549.031716
921.302603	2550.037426
921.607423	2546.483413
921.912204	2548.751932
922.216946	2547.335368
922.521647	2549.077086
922.826310	2548.497354
923.130932	2546.942158
923.435516	2544.930737
923.740059	2546.062476
924.044564	2544.441745
924.349028	2546.695141
924.653454	2540.325643
924.957840	2543.126004
925.262186	2537.724408
925.566493	2542.662218
925.870761	2540.832279
926.174989	2544.403937
926.479178	2545.109698
926.783328	2546.417878
927.087438	2545.664225
927.391509	2545.906201
927.695541	2542.319420
927.999533	2545.853268
928.303486	2546.899308
928.607400	2545.497867
928.911275	2545.081972
929.215110	2542.987373
929.518906	2541.888401
929.822663	2546.574153
930.126381	2544.691282
930.430060	2542.989893
930.733699	2541.921168
931.037299	2544.754297
931.340861	2544.865202
931.644383	2541.845551
931.947866	2545.114739
932.251309	2544.131714
932.554714	2543.090716
932.858080	2547.229503
933.161407	2547.131201
933.464694	2541.895963
933.767943	2546.438042
934.071153	2546.185985
934.374323	2544.088865
934.677455	2544.575336
934.980548	2542.702547
935.283602	2546.369987
935.586617	2543.312527
935.889593	2545.898639
936.192530	2542.838658
936.495428	2543.670449
936.798287	2543.287321
937.101108	2545.185316
937.403890	2544.729091
937.706632	2543.768751
938.009336	2543.640202
938.312002	2545.828063
938.614628	2546.097764
938.917216	2546.057435
939.219765	2543.700696
939.522275	2545.220604
939.824747	2548.358722
940.127179	2540.998637
940.429573	2542.087527
940.731929	2540.749100
941.034246	2538.412525
941.336524	2545.160110
941.638763	2546.352343
941.940964	2545.523073
942.243126	2546.133052
942.545250	2543.236910
942.847335	2545.512991
943.149381	2545.394523
943.451389	2543.776313
943.753359	2545.255892
944.055290	2544.154400
944.357182	2546.833773
944.659036	2544.650953
944.960851	2544.159441
945.262628	2545.581046
945.564367	2545.533155
945.866067	2546.004503
946.167729	2543.131045
946.469352	2544.414019
946.770937	2544.245140
947.072484	2547.317724
947.373992	2543.914945
947.675462	2544.567774
947.976893	2545.472661
948.278286	2546.279246
948.579641	2545.346633
948.880958	2542.571477
949.182236	2546.881664
949.483476	2542.521066
949.784678	2543.909904
950.085841	2544.219935
950.386967	2544.305634
950.688054	2545.364277
950.989103	2543.330171
951.290114	2543.645243
951.591087	2544.950902
951.892021	2545.442414
952.192917	2546.508618
952.493776	2543.478885
952.794596	2545.964174
953.095378	2543.962836
953.396122	2544.507280
953.696828	2544.287990
953.997496	2544.376210
954.298126	2544.381252
954.598718	2545.192877
954.899272	2544.250182
955.199788	2544.172044
955.500266	2541.853113
955.800706	2542.110212
956.101108	2539.267001
956.401472	2541.122146
956.701798	2539.390509
957.002087	2539.536703
957.302337	2543.985521
957.602550	2545.407126
957.902724	2544.910573
958.202861	2543.065510
958.502960	2544.739173
958.803022	2543.040305
959.103045	2542.742877
959.403031	2542.332023
959.702979	2542.944523
960.002889	2542.364790
960.302762	2542.795809
960.602596	2543.282280
960.902393	2542.677342
961.202153	2544.822352
961.501875	2540.761703
961.801559	2541.238092
962.101205	2541.762372
962.400814	2541.263298
962.700385	2545.001313
962.999918	2545.379400
963.299414	2542.967208
963.598873	2539.534182
963.898293	2543.539379
964.197677	2544.081303
964.497022	2539.415715
964.796331	2541.510314
965.095601	2540.139121
965.394835	2540.499563
965.694030	2543.010058
965.993189	2543.889739
966.292309	2541.815304
966.591393	2543.378062
966.890439	2540.983514
967.189447	2541.704399
967.488419	2543.186498
967.787353	2543.418391
968.086249	2540.796991
968.385108	2543.965356
968.683930	2543.705737
968.982714	2542.921838
969.281462	2543.118442
969.580172	2542.367311
969.878844	2543.307486
970.177480	2541.969059
970.476078	2543.609955
970.774639	2543.862013
971.073162	2542.175747
971.371649	2539.715664
971.670098	2540.741538
971.968510	2542.410160
972.266885	2537.820190
972.565223	2541.149872
972.863524	2543.423432
973.161788	2540.943185
973.460014	2543.768751
973.758204	2541.679193
974.056356	2542.702547
974.354471	2544.325799
974.652550	2541.638864
974.950591	2542.125335
975.248595	2543.640202
975.546563	2544.696324
975.844493	2543.917465
976.142386	2543.229348
976.440243	2541.616179
976.738062	2540.423946
977.035845	2544.217414
977.333590	2541.543082
977.631299	2541.623740
977.928971	2544.529966
978.226606	2540.812115
978.524204	2543.693134
978.821765	2542.526107
979.119290	2543.252033
979.416777	2542.354708
979.714228	2542.609286
980.011642	2542.069883
980.309020	2542.682383
980.606360	2541.790098
980.903664	2541.424615
981.200931	2540.686086
981.498162	2543.395706
981.795356	2543.433515
982.092513	2544.741694
982.389633	2541.908566
982.686717	2543.587270
982.983764	2541.180119
983.280775	2545.041643
983.577749	2540.827238
983.874686	2545.608772
984.171587	2544.169523
984.468451	2541.578370
984.765279	2542.763041
985.062070	2542.705068
985.358824	2541.273380
985.655543	2544.557692
985.952224	2542.972249
986.248869	2544.333361
986.545478	2537.946219
986.842050	2540.590304
987.138586	2538.117618
987.435086	2541.457382
987.731549	2540.035777
988.027975	2542.478216
988.324366	2541.046528
988.620719	2542.967208
988.917037	2542.546272
989.213318	2542.916796
989.509563	2544.247661
989.805772	2542.286652
990.101944	2542.815973
990.398080	2540.708771
990.694180	2542.717671
990.990244	2540.776827
991.286271	2540.577701
991.582262	2539.912269
991.878217	2542.291693
992.174136	2543.625078
992.470019	2544.789585
992.765865	2544.598021
993.061676	2542.523586
993.357450	2542.649615
993.653188	2542.621889
993.948890	2543.113401
994.244556	2541.764893
994.540186	2542.374872
994.835780	2542.906714
995.131337	2542.528628
995.426859	2539.171219
995.722345	2538.094933
996.017795	2542.410160
996.313208	2542.861344
996.608586	2539.289686
996.903928	2542.021992
997.199234	2545.119781
997.494504	2543.183977
997.789738	2541.613658
998.084936	2542.750438
998.380099	2541.596014
998.675225	2542.826056
998.970316	2542.432846
999.265371	2544.298072
999.560390	2543.713299
999.855373	2542.326981
1000.150320	2541.482588
1000.445232	2541.870757
1000.740108	2541.530479
1001.034948	2542.112732
1001.329752	2541.195242
1001.624521	2542.936961
1001.919254	2540.295396
1002.213951	2537.789943
1002.508613	2537.915972
1002.803239	2537.363965
1003.097829	2536.915303
1003.392384	2541.800181
1003.686903	2539.506456
1003.981386	2540.643236
1004.275834	2541.512835
1004.570246	2542.768082
1004.864623	2541.079296
1005.158964	2543.577187
1005.453270	2538.730118
1005.747540	2541.951415
1006.041775	2542.052238
1006.335974	2542.203473
1006.630138	2541.273380
1006.924266	2540.965870
1007.218359	2541.245654
1007.512416	2541.351518
1007.806438	2541.205325
1008.100425	2541.623740
1008.394376	2540.431508
1008.688292	2540.643236
1008.982172	2541.911086
1009.276017	2539.735828
1009.569827	2542.780685
1009.863602	2544.595501
1010.157341	2542.803370
1010.451045	2541.545603
1010.744714	2541.195242
1011.038347	2543.529297
1011.331945	2542.422763
1011.625508	2538.410005
1011.919036	2540.413863
1012.212528	2540.519728
1012.505986	2541.807743
1012.799408	2541.512835
1013.092795	2539.771116
1013.386147	2542.720191
1013.679464	2540.897814
1013.972745	2543.531817
1014.265992	2543.012578
1014.559204	2541.810263
1014.852380	2539.448483
1015.145521	2541.505273
1015.438628	2542.122815
1015.731699	2542.929399
1016.024736	2540.106353
1016.317737	2540.169368
1016.610703	2539.806404
1016.903635	2536.632998
1017.196531	2533.726773
1017.489393	2538.346990
1017.782219	2537.369007
1018.075011	2539.750952
1018.367768	2540.509645
1018.660490	2540.290355
1018.953177	2540.290355
1019.245829	2540.290355
