Dividing Wavelength (nm)	Counts (n)	Blue Motor Position (mm): 46.100000	Red Motor Position (mm): 0.000000	
326.493990	2130.983951
326.888308	2130.983951
327.282561	2130.983951
327.676750	2096.552870
328.070874	2096.157140
328.464933	2100.396750
328.858929	2105.758017
329.252859	2115.638679
329.646726	2127.621501
330.040528	2142.044243
330.434265	2155.211736
330.827938	2173.677483
331.221547	2191.465194
331.615091	2211.821373
332.008571	2232.071688
332.401986	2250.469379
332.795338	2269.996289
333.188625	2288.918260
333.581847	2307.026084
333.975006	2326.212716
334.368100	2344.481858
334.761129	2362.786287
335.154095	2377.622403
335.546996	2398.555794
335.939833	2426.335072
336.332606	2438.365786
336.725315	2451.369443
337.117960	2462.974179
337.510540	2469.752010
337.903056	2483.506798
338.295508	2492.137254
338.687896	2498.012718
339.080220	2504.470437
339.472480	2512.465707
339.864676	2517.186747
340.256807	2520.458456
340.648875	2521.622963
341.040879	2526.225536
341.432818	2528.133613
341.824694	2529.048582
342.216506	2530.195445
342.608253	2529.729138
342.999937	2532.302647
343.391557	2531.017153
343.783113	2527.533715
344.174605	2527.269055
344.566033	2525.965917
344.957397	2526.391894
345.348697	2524.264527
345.739934	2522.351409
346.131106	2521.605318
346.522215	2519.029289
346.913260	2516.448218
347.304241	2516.745646
347.695159	2512.589215
348.086012	2513.214318
348.476802	2507.764831
348.867528	2509.690551
349.258191	2507.154851
349.648789	2504.420025
350.039324	2502.733759
350.429796	2506.164264
350.820203	2498.579848
351.210548	2502.758965
351.600828	2498.020280
351.991045	2502.106135
352.381198	2497.440547
352.771288	2498.413490
353.161314	2496.223109
353.551276	2497.143119
353.941175	2498.083295
354.331010	2497.624550
354.720782	2499.109169
355.110490	2496.628922
355.500135	2496.923829
355.889717	2500.825682
356.279235	2498.226968
356.668689	2499.285610
357.058080	2501.710405
357.447408	2496.626401
357.836672	2496.686895
358.225873	2498.085815
358.615010	2498.138747
359.004084	2502.224602
359.393095	2501.654952
359.782043	2505.645025
360.170927	2504.422546
360.559748	2503.489932
360.948505	2507.283400
361.337199	2507.666528
361.725830	2505.927330
362.114398	2506.053359
362.502903	2505.471106
362.891344	2508.508401
363.279722	2509.587208
363.668037	2510.345901
364.056289	2507.454800
364.444478	2510.910511
364.832603	2509.849348
365.220665	2512.614421
365.608665	2508.934378
365.996601	2512.342198
366.384474	2511.732219
366.772284	2516.221366
367.160031	2514.078876
367.547715	2514.187261
367.935336	2515.117353
368.322893	2517.390914
368.710388	2515.984432
369.097820	2519.190606
369.485189	2513.206756
369.872495	2515.533249
370.259738	2515.175327
370.646918	2518.111799
371.034035	2520.871831
371.421090	2521.766635
371.808081	2519.109947
372.195010	2522.346368
372.581875	2527.175793
372.968678	2525.015659
373.355418	2533.021011
373.742096	2532.128727
374.128710	2536.396064
374.515262	2545.175233
374.901751	2551.428785
375.288177	2557.712583
375.674540	2568.021743
376.060841	2575.843093
376.447079	2588.370360
376.833254	2598.215733
377.219367	2606.934409
377.605417	2626.128602
377.991404	2637.723256
378.377329	2650.056439
378.763191	2665.825168
379.148991	2693.609488
379.534727	2711.435008
379.920402	2731.370251
380.306013	2745.402302
380.691563	2784.821605
381.077049	2805.220634
381.462474	2826.295177
381.847835	2862.339427
382.233134	2889.647358
382.618371	2898.439130
383.003545	2955.699076
383.388657	2976.405616
383.773706	3011.008096
384.158693	3036.438196
384.543618	3069.982034
384.928480	3109.623147
385.313280	3157.690549
385.698017	3170.812673
386.082692	3228.738051
386.467305	3245.177253
386.851856	3288.732823
387.236344	3317.101916
387.620770	3361.698483
388.005133	3394.473545
388.389435	3429.693567
388.773674	3456.008390
389.157851	3505.590658
389.541965	3530.045296
389.926018	3511.559384
390.310008	3583.519335
390.693936	3611.071761
391.077802	3658.103206
391.461606	3655.781755
391.845348	3721.712485
392.229027	3733.044999
392.612645	3752.629882
392.996200	3829.610822
393.379694	3874.555229
393.763125	3941.302626
394.146494	3913.616609
394.529801	3983.098833
394.913047	4031.604815
395.296230	4000.657172
395.679351	4059.179927
396.062410	4083.788319
396.445408	4066.716452
396.828343	4101.495372
397.211217	4130.963437
397.594028	4049.851272
397.976778	4115.177064
398.359466	4141.063389
398.742092	4172.308460
399.124656	4096.577727
399.507158	4178.660314
399.889598	4202.817523
400.271977	4263.371863
400.654294	4234.629725
401.036549	4244.669183
401.418742	4209.854974
401.800874	4315.152075
402.182944	4336.347606
402.564952	4403.387391
402.946898	4389.758631
403.328783	4388.808374
403.710606	4301.092297
404.092367	4496.129498
404.474067	4454.401347
404.855705	4463.498109
405.237282	4395.215680
405.618797	4505.616950
406.000250	4537.555180
406.381642	4617.691882
406.762972	4584.115277
407.144240	4590.532666
407.525447	4591.248509
407.906593	4650.252695
408.287677	4693.878840
408.668700	4618.934526
409.049661	4672.673226
409.430560	4709.093042
409.811399	4640.235922
410.192176	4801.920849
410.572891	4739.692846
410.953545	4842.963403
411.334138	4722.676431
411.714669	4789.980876
412.095139	4683.650339
412.475547	4829.367411
412.855894	4807.957631
413.236180	4816.676307
413.616405	4770.892547
413.996568	4856.201473
414.376670	4798.510509
414.756711	4753.712295
415.136691	4786.951143
415.516609	4865.257906
415.896466	4902.514554
416.276262	4938.578968
416.655997	4916.377727
417.035670	5099.711889
417.415283	5188.257236
417.794834	5133.507785
418.174324	5087.938274
418.553753	4995.347402
418.933121	5178.812634
419.312428	5244.289661
419.691674	5185.187173
420.070859	5312.446061
420.449983	5225.672680
420.829045	5339.882541
421.208047	5249.393829
421.586988	5321.013502
421.965867	5330.503474
422.344686	5461.656653
422.723444	5319.685158
423.102141	5134.586592
423.480777	5434.303352
423.859352	5204.242735
424.237866	5458.256395
424.616319	5453.469819
424.994712	5558.005706
425.373044	5443.359785
425.751314	5580.249797
426.129524	5385.875508
426.507673	5577.393984
426.885762	5664.447149
427.263789	5597.646819
427.641756	5473.503365
428.019662	5600.762252
428.397508	5602.050267
428.775292	5551.706784
429.153016	5649.568183
429.530679	5577.262914
429.908282	5660.653681
430.285824	5537.982243
430.663305	5809.460980
431.040726	5540.351585
431.418086	5538.909815
431.795385	5650.755375
432.172624	5658.710316
432.549802	5654.957177
432.926920	5666.272047
433.303977	5674.347975
433.680974	5711.229057
434.057910	5725.939143
434.434786	5735.945834
434.811601	5701.257654
435.188355	5940.737668
435.565050	5812.876362
435.941683	5798.060411
436.318257	6010.189644
436.694770	5995.048539
437.071222	6026.815370
437.447614	5957.854906
437.823946	5871.608325
438.200218	6025.159351
438.576429	5892.715636
438.952580	5991.640719
439.328670	6030.369383
439.704700	5943.268327
440.080670	5929.022026
440.456580	6201.629982
440.832429	6082.041210
441.208218	5927.958343
441.583947	6084.758392
441.959616	6086.510193
442.335224	6014.217526
442.710773	6153.948228
443.086261	6174.233832
443.461689	5972.713707
443.837057	6120.734586
444.212365	6276.158401
444.587612	6166.510784
444.962800	6323.885525
445.337927	6302.826104
445.712995	5913.603657
446.088002	6493.139744
446.462949	6318.983002
446.837837	6256.603765
447.212664	6420.284989
447.587431	6569.866106
447.962139	7110.734023
448.336786	8033.655866
448.711374	7778.674304
449.085901	6850.474373
449.460369	6766.261898
449.834776	6703.643206
450.209124	7096.828000
450.583412	7248.382728
450.957640	7394.273721
451.331808	7156.716907
451.705917	6709.861469
452.079965	6634.791126
452.453954	6847.704259
452.827883	6720.851184
453.201752	6814.956924
453.575562	6619.035000
453.949311	6816.827192
454.323001	6708.694442
454.696632	6779.721779
455.070202	6919.714621
455.443713	7076.086172
455.817164	7178.300608
456.190556	7253.643172
456.563888	7338.110226
456.937160	7379.634210
457.310373	7034.224431
457.683526	7061.121507
458.056619	6947.718231
458.429653	6941.474762
458.802628	6873.502364
459.175542	6984.017059
459.548398	7334.999834
459.921194	7498.055955
460.293930	7501.662901
460.666607	8029.025566
461.039224	8338.965787
461.411782	8465.836506
461.784280	8477.892425
462.156719	8372.975931
462.529099	8247.957837
462.901419	7837.794436
463.273680	7727.073054
463.645882	7741.626865
464.018024	7611.658357
464.390106	7781.038606
464.762130	8162.439703
465.134094	8635.345304
465.505999	9657.401437
465.877845	10883.052131
466.249631	11529.053311
466.621358	11147.697584
466.993026	10509.124544
467.364634	10254.072407
467.736184	9896.069825
468.107674	9558.975429
468.479105	9595.095297
468.850477	9356.295839
469.221790	9135.553794
469.593043	8804.216396
469.964238	8662.302874
470.335373	8680.269546
470.706449	8735.286179
471.077467	8718.380669
471.448425	10029.930104
471.819324	11098.687487
472.190164	11122.070879
472.560945	9874.965035
472.931667	9088.003111
473.302330	8945.028426
473.672934	8593.846525
474.043479	8948.131256
474.413965	8888.875013
474.784393	8773.331767
475.154761	8933.630377
475.525070	9023.113378
475.895321	8844.810287
476.265513	9022.674798
476.635645	9193.852218
477.005719	9194.527733
477.375734	9310.567532
477.745691	9544.847596
478.115588	9671.546915
478.485427	9922.349360
478.855207	10458.259302
479.224928	11276.173911
479.594591	11903.522822
479.964194	11709.534181
480.333739	11656.344966
480.703226	11569.256513
481.072653	11659.750266
481.442022	11893.301882
481.811333	12081.886407
482.180584	11884.459698
482.549777	11596.871954
482.918912	11429.082189
483.287988	11442.322780
483.657005	11458.857764
484.025964	11138.197530
484.394864	11266.411716
484.763706	11237.770401
485.132489	10996.039512
485.501213	10961.063987
485.869879	11035.277333
486.238487	10876.455781
486.607036	10987.499798
486.975527	10770.450398
487.343959	10956.531989
487.712333	11006.845225
488.080648	10938.285533
488.448905	10982.433438
488.817104	10926.597618
489.185244	11193.501508
489.553326	11343.712769
489.921350	11884.242929
490.289315	12945.098303
490.657222	13277.995938
491.025070	13191.933360
491.392861	13067.691603
491.760593	12685.662882
492.128267	12330.606855
492.495883	12005.623831
492.863440	11665.489619
493.230939	11328.478402
493.598380	11266.197467
493.965763	11134.840122
494.333088	11033.742302
494.700354	10955.743049
495.067563	11013.307985
495.434713	10850.254384
495.801805	10976.842798
496.168839	10898.898998
496.535815	10831.130767
496.902733	10832.151601
497.269593	10766.939234
497.636395	10866.045798
498.003139	10848.928561
498.369825	10723.862575
498.736453	10877.718590
499.103023	10809.589917
499.469535	10839.209216
499.835989	10829.903246
500.202385	10792.308841
500.568723	10639.145984
500.935003	10863.384069
501.301226	10666.010293
501.667390	10926.302710
502.033497	11017.524910
502.399546	10879.193128
502.765537	10795.988883
503.131470	10862.683349
503.497345	11040.520133
503.863163	10645.260904
504.228923	10957.023502
504.594625	11020.857113
504.960269	10772.769329
505.325856	10988.901238
505.691385	10787.202152
506.056856	10942.499938
506.422270	10966.616818
506.787625	10852.285969
507.152924	10971.302570
507.518164	10950.727101
507.883347	10869.554442
508.248472	10790.766248
508.613540	11023.602021
508.978550	10918.617471
509.343503	10883.813345
509.708398	11009.363282
510.073236	11117.738007
510.438016	11120.934099
510.802738	11068.891747
511.167403	11123.076589
511.532010	11021.545230
511.896561	11252.351938
512.261053	11323.283493
512.625488	11188.571260
512.989866	11173.236070
513.354186	11162.947075
513.718449	11058.726260
514.082655	11261.388207
514.446803	11155.602114
514.810894	11271.503282
515.174927	11136.118054
515.538904	11162.863896
515.902822	11318.401136
516.266684	11204.022396
516.630488	11146.797738
516.994235	11204.813858
517.357925	11264.017168
517.721558	11351.556805
518.085133	11370.246883
518.448651	11369.969619
518.812112	11259.616241
519.175516	11270.240473
519.538863	11392.818649
519.902152	11314.524489
520.265385	11469.166924
520.628560	11379.162163
520.991678	11362.811181
521.354739	11424.219996
521.717743	11359.887312
522.080690	11340.113386
522.443580	11469.139198
522.806413	11431.940523
523.169189	11458.882970
523.531908	11513.241732
523.894569	11339.571462
524.257174	11346.250990
524.619722	11453.788884
524.982213	11411.392780
525.344647	11459.525717
525.707025	11407.574106
526.069345	11504.611277
526.431608	11425.369379
526.793815	11523.230778
527.155964	11316.987092
527.518057	11373.863911
527.880093	11319.346352
528.242072	11388.821014
528.603995	11295.269802
528.965860	11210.066740
529.327669	11265.668146
529.689421	11210.868283
530.051117	11191.908504
530.412755	11287.987855
530.774337	11175.159270
531.135862	11161.936323
531.497331	11179.436689
531.858743	11030.503360
532.220098	11202.268075
532.581396	11071.626573
532.942638	11053.566639
533.303824	11014.210351
533.664953	11031.468741
534.026025	10950.386823
534.387040	11049.843747
534.747999	11046.118334
535.108902	11104.499937
535.469748	10859.109171
535.830537	10969.021448
536.191270	10949.933119
536.551947	10970.158228
536.912567	10966.584050
537.273131	10893.517566
537.633638	10871.764987
537.994089	10862.305262
538.354483	10811.639146
538.714821	10956.990734
539.075103	10964.925511
539.435328	10931.908473
539.795497	10756.688048
540.155609	10918.078068
540.515665	11008.402942
540.875665	10739.911088
541.235609	10810.888014
541.595496	10799.300922
541.955328	10958.644233
542.315102	10837.056643
542.674821	10789.979828
543.034483	10794.279932
543.394090	10792.472679
543.753640	10724.568336
544.113134	10950.001175
544.472571	10794.831939
544.831953	10942.956162
545.191278	10747.150185
545.550548	10773.515420
545.909761	10912.300906
546.268918	10885.943233
546.628019	10973.966820
546.987064	10837.858187
547.346053	10756.378017
547.704986	10855.865188
548.063863	10842.367499
548.422684	10834.936838
548.781449	10755.417677
549.140158	10857.415343
549.498811	10735.691642
549.857408	10587.494322
550.215949	10818.467388
550.574434	10669.339975
550.932864	10767.463514
551.291237	10828.131280
551.649555	10775.690678
552.007817	10787.212235
552.366022	10750.497511
552.724173	10744.841337
553.082267	10729.027237
553.440305	10869.360357
553.798288	10664.959213
554.156215	10815.205762
554.514086	10798.887547
554.871902	10645.323918
555.229661	10678.451861
555.587365	10656.850517
555.945014	10549.872191
556.302606	10674.938177
556.660143	10564.788965
557.017625	10721.596576
557.375050	10618.671338
557.732421	10756.141083
558.089735	10668.341827
558.446994	10674.124030
558.804197	10705.076715
559.161345	10710.405215
559.518437	10559.026926
559.875474	10649.833231
560.232455	10673.725779
560.589381	10624.067893
560.946251	10627.533687
561.303065	10730.184182
561.659825	10661.284212
562.016528	10596.510426
562.373177	10471.371343
562.729770	10588.464744
563.086307	10505.585654
563.442789	10598.292474
563.799216	10471.865376
564.155587	10526.236741
564.511904	10475.477363
564.868164	10470.524429
565.224370	10483.086985
565.580520	10411.656355
565.936615	10416.057283
566.292654	10284.770513
566.648638	10423.828221
567.004567	10373.454492
567.360441	10361.091062
567.716260	10270.360375
568.072023	10359.989570
568.427732	10313.263115
568.783385	10222.852541
569.138982	10296.196288
569.494525	10309.147012
569.850013	10192.456904
570.205445	10263.582543
570.560823	10160.984980
570.916145	10082.355583
571.271412	10150.353187
571.626625	10086.932951
571.981782	10069.455271
572.336884	10046.371827
572.691931	10056.391120
573.046923	9995.683025
573.401860	9949.231313
573.756743	9888.745029
574.111570	9927.143498
574.466342	9912.161188
574.821059	9946.186456
575.175722	9836.927008
575.530330	9841.643008
575.884882	9834.620680
576.239380	9764.883879
576.593823	9745.024253
576.948211	9760.906408
577.302544	9632.714907
577.656823	9650.686621
578.011047	9654.694338
578.365216	9632.180545
578.719330	9560.142456
579.073389	9559.782014
579.427394	9518.033698
579.781344	9485.964398
580.135239	9435.590668
580.489080	9449.882339
580.842866	9353.256023
581.196597	9358.637455
581.550273	9395.846211
581.903895	9368.046768
582.257463	9426.657744
582.610975	9307.010998
582.964434	9329.799534
583.317837	9254.139377
583.671186	9234.713290
584.024481	9229.878824
584.377721	9143.387747
584.730906	9128.861663
585.084037	9167.434051
585.437113	9091.335313
585.790135	9118.625600
586.143103	9010.825566
586.496016	8983.230290
586.848874	9048.172954
587.201679	9033.248618
587.554428	8916.639168
587.907124	8962.427968
588.259765	8937.814535
588.612352	8936.473588
588.964884	8813.373652
589.317362	8827.080549
589.669786	8829.298657
590.022155	8882.477789
590.374470	8897.001353
590.726731	8829.369233
591.078937	8684.057973
591.431090	8796.281620
591.783188	8666.459305
592.135232	8663.512751
592.487222	8660.094849
592.839157	8709.737611
593.191038	8643.459041
593.542866	8590.048016
593.894639	8489.056060
594.246358	8544.813743
594.598022	8557.759426
594.949633	8458.995660
595.301190	8429.709077
595.652692	8462.101011
596.004141	8566.825941
596.355535	8349.776541
596.706876	8330.408428
597.058162	8260.021318
597.409395	8339.157351
597.760573	8397.670023
598.111698	8310.226169
598.462768	8299.115466
598.813785	8266.095908
599.164748	8230.039055
599.515657	8221.637972
599.866511	8133.354766
600.217312	8257.041996
600.568060	8113.999255
600.918753	8220.448260
601.269392	8186.354937
601.619978	8097.620547
601.970510	8162.500197
602.320988	8161.219743
602.671412	8216.017086
603.021783	8155.966861
603.372100	8127.723797
603.722363	8131.366030
604.072572	8100.468798
604.422728	8117.460007
604.772830	8045.923514
605.122878	8053.321407
605.472872	8048.209677
605.822813	8080.178154
606.172701	8016.987291
606.522534	8092.579393
606.872314	8096.851771
607.222041	8062.216523
607.571714	8121.336655
607.921333	8076.974501
608.270899	8085.451201
608.620411	8170.981938
608.969870	8077.965088
609.319276	8069.939571
609.668627	8091.530833
610.017926	8122.402859
610.367171	8168.594952
610.716362	8142.118812
611.065500	8134.131103
611.414585	8171.075199
611.763616	8152.236407
612.112594	8133.937019
612.461518	8151.253382
612.810389	8212.309317
613.159207	8151.646592
613.507971	8102.056762
613.856682	8215.938948
614.205340	8173.371445
614.553945	8252.729289
614.902496	8150.144328
615.250994	8207.217752
615.599439	8188.300822
615.947830	8202.395888
616.296169	8175.919748
616.644454	8190.828961
616.992686	8187.186727
617.340864	8242.394923
617.688990	8148.581571
618.037063	8240.154130
618.385082	8184.978702
618.733048	8271.084130
619.080961	8208.188174
619.428821	8228.725835
619.776628	8224.861790
620.124382	8182.881582
620.472083	8163.480701
620.819731	8195.116462
621.167326	8087.976819
621.514868	8091.072088
621.862357	7985.674164
622.209793	7996.638673
622.557176	7934.042666
622.904506	7900.708036
623.251783	7837.756627
623.599007	7792.691233
623.946179	7793.661655
624.293297	7753.226560
624.640363	7670.912079
624.987376	7655.029924
625.334336	7602.763241
625.681243	7551.703914
626.028097	7538.871657
626.374899	7512.818974
626.721647	7507.845876
627.068343	7437.521780
627.414987	7414.327431
627.761577	7366.199535
628.108115	7398.107518
628.454600	7297.854092
628.801032	7345.999632
629.147412	7307.003786
629.493739	7296.447610
629.840014	7233.503763
630.186236	7290.025180
630.532405	7173.503950
630.878521	7224.689305
631.224585	7183.016607
631.570597	7105.150945
631.916556	7138.919114
632.262462	7135.047508
632.608316	7096.523010
632.954117	7071.871768
633.299866	7060.967752
633.645562	7055.160343
633.991206	6973.176058
634.336797	6913.549290
634.682336	6871.816098
635.027823	6838.831828
635.373257	6833.016857
635.718639	6764.056393
636.063968	6779.663806
636.409245	6675.828639
636.754470	6668.408061
637.099642	6626.984900
637.444762	6571.494399
637.789829	6582.184165
638.134845	6528.400095
638.479808	6504.477299
638.824719	6512.616242
639.169577	6437.966836
639.514383	6463.626309
639.859137	6388.092181
640.203839	6401.501650
640.548489	6381.934411
640.893086	6359.707964
641.237632	6331.023798
641.582125	6350.830492
641.926566	6323.562891
642.270955	6335.704510
642.615292	6328.868705
642.959576	6353.325863
643.303809	6336.407751
643.647990	6344.261868
643.992118	6330.575136
644.336195	6276.622187
644.680219	6309.283822
645.024192	6298.319313
645.368112	6389.047479
645.711981	6410.744605
646.055797	6486.185473
646.399562	6441.581343
646.743274	6567.403502
647.086935	6625.344004
647.430544	6623.282172
647.774101	6642.806561
648.117606	6647.149515
648.461059	6640.583412
648.804460	6602.835252
649.147810	6515.323342
649.491108	6481.713969
649.834354	6456.480474
650.177548	6372.202464
650.520690	6288.965452
650.863781	6264.659529
651.206820	6285.025790
651.549807	6206.189706
651.892742	6149.771632
652.235626	6155.458054
652.578458	6140.238811
652.921238	6053.127672
653.263967	6091.566470
653.606644	6025.930647
653.949269	6030.681935
654.291843	5970.092307
654.634365	6025.658425
654.976836	5973.346371
655.319255	5970.679601
655.661622	5946.829902
656.003938	5953.113700
656.346203	5905.787348
656.688416	5942.986022
657.030577	5890.681531
657.372687	5864.938878
657.714746	5847.967834
658.056753	5887.114914
658.398708	5835.987532
658.740612	5827.780533
659.082465	5870.211925
659.424266	5864.454928
659.766016	5867.807295
660.107715	5842.679664
660.449362	5854.503690
660.790958	5848.207289
661.132503	5829.005534
661.473996	5869.236462
661.815438	5860.938723
662.156829	5856.268094
662.498168	5843.511454
662.839456	5825.086037
663.180693	5859.469227
663.521879	5855.025449
663.863013	5850.574111
664.204097	5867.406523
664.545129	5907.428244
664.886110	5901.446915
665.227040	5937.982677
665.567918	5902.422378
665.908746	5930.362973
666.249522	5938.753974
666.590248	5923.103712
666.930922	5951.243432
667.271545	5964.118539
667.612118	5964.453776
667.952639	5938.086021
668.293109	5963.422860
668.633528	5916.477115
668.973896	5920.333598
669.314213	5909.716928
669.654480	5892.024998
669.994695	5885.451333
670.334859	5875.716865
670.674973	5870.282502
671.015035	5873.730651
671.355047	5875.691660
671.695008	5858.831521
672.034918	5827.140307
672.374777	5838.722358
672.714585	5830.956460
673.054342	5831.127860
673.394049	5826.767262
673.733705	5855.335480
674.073310	5843.703018
674.412864	5805.952337
674.752368	5796.220390
675.091820	5796.038908
675.431223	5735.386266
675.770574	5736.066822
676.109875	5686.003123
676.449125	5694.152148
676.788324	5661.177961
677.127473	5599.403661
677.466571	5595.713537
677.805619	5585.510241
678.144616	5567.314197
678.483562	5546.761412
678.822458	5518.823338
679.161303	5514.298902
679.500098	5504.289691
679.838842	5484.152802
680.177535	5491.517928
680.516179	5504.728272
680.854771	5515.796125
681.193314	5596.174802
681.531805	5703.281678
681.870247	5860.492581
682.208638	5956.443383
682.546978	5967.667512
682.885268	5950.058761
683.223508	5862.158682
683.561697	5811.792514
683.899836	5778.777997
684.237925	5736.860803
684.575963	5700.337644
684.913951	5658.574205
685.251889	5717.843050
685.589776	5685.451116
685.927614	5662.145862
686.265401	5730.332509
686.603137	5714.558739
686.940824	5792.840296
687.278460	5817.942722
687.616046	5822.295758
687.953582	5893.905348
688.291068	5869.339806
688.628504	5939.656340
688.965889	5899.014558
689.303224	5845.507751
689.640510	5796.467406
689.977745	5720.719029
690.314930	5620.911744
690.652065	5565.176747
690.989150	5471.388601
691.326185	5395.615017
691.663170	5348.084498
692.000105	5270.057519
692.336990	5188.539541
692.673825	5167.553217
693.010610	5097.090489
693.347345	5027.273029
693.684030	5017.503273
694.020665	4973.138598
694.357251	4881.442531
694.693786	4894.955343
695.030272	4859.432853
695.366707	4823.486905
695.703093	4791.780568
696.039429	4810.952076
696.375716	4793.585301
696.711952	4765.309469
697.048139	4757.412502
697.384276	4736.340479
697.720363	4748.139299
698.056400	4755.126339
698.392388	4709.587075
698.728326	4689.036812
699.064214	4662.800127
699.400053	4661.602852
699.735842	4625.601452
700.071581	4600.065487
700.407270	4570.869645
700.742910	4557.571081
701.078501	4505.097711
701.414042	4500.137215
701.749533	4470.974140
702.084974	4406.727155
702.420366	4465.285198
702.755709	4407.412752
703.091002	4350.432590
703.426246	4396.934714
703.761440	4351.516438
704.096584	4318.524607
704.431679	4337.249973
704.766725	4320.886388
705.101721	4307.101352
705.436668	4339.886496
705.771565	4289.956388
706.106413	4317.521417
706.441212	4346.051828
706.775961	4358.579095
707.110661	4337.406249
707.445311	4363.469014
707.779913	4386.965832
708.114465	4399.707348
708.448967	4425.661729
708.783421	4482.054597
709.117825	4519.525493
709.452180	4528.430691
709.786485	4574.678237
710.120742	4662.414478
710.454949	4643.079133
710.789107	4707.003484
711.123216	4785.209424
711.457275	4774.247435
711.791286	4853.907748
712.125247	4869.961303
712.459159	4769.758288
712.793023	4848.188559
713.126837	4806.591478
713.460602	4799.440602
713.794318	4718.061255
714.127985	4724.224066
714.461602	4641.902023
714.795171	4611.975213
715.128691	4543.702867
715.462162	4490.324609
715.795584	4437.021969
716.128957	4419.834155
716.462281	4372.616188
716.795556	4342.349100
717.128782	4304.648831
717.461960	4237.425044
717.795088	4245.385026
718.128167	4204.211402
718.461198	4148.171416
718.794180	4140.019870
719.127113	4119.998927
719.459997	4102.304477
719.792833	4057.465934
720.125619	4049.526117
720.458357	4015.730222
720.791046	4018.127290
721.123686	3991.923373
721.456278	3949.733956
721.788821	3964.249959
722.121315	3940.301957
722.453761	3916.807660
722.786158	3927.709155
723.118506	3949.108853
723.450805	3901.432141
723.783056	3926.738733
724.115259	3940.523768
724.447412	3945.212041
724.779518	3937.456226
725.111574	3942.356227
725.443582	3972.724138
725.775542	3957.280563
726.107453	4010.162267
726.439315	4009.653111
726.771129	4023.604504
727.102895	4060.654464
727.434612	4106.440744
727.766281	4117.722846
728.097901	4117.375007
728.429473	4124.719968
728.760996	4128.687356
729.092471	4127.623673
729.423897	4110.894603
729.755276	4117.062455
730.086606	4118.332826
730.417887	4152.736180
730.749120	4216.844534
731.080305	4284.050676
731.411442	4311.209893
731.742530	4281.555305
732.073570	4283.493629
732.404562	4336.090508
732.735506	4330.051205
733.066401	4293.971667
733.397249	4232.943459
733.728048	4150.056807
734.058798	4068.153181
734.389501	3996.193230
734.720156	3934.839867
735.050762	3892.048033
735.381320	3883.631826
735.711831	3830.303980
736.042293	3803.132161
736.372707	3824.350378
736.703073	3796.848363
737.033391	3789.379893
737.363661	3804.967141
737.693883	3830.344310
738.024056	3834.984692
738.354182	3835.914785
738.684260	3896.398548
739.014290	3918.234306
739.344272	3916.837907
739.674207	3952.614976
740.004093	3958.475317
740.333931	3957.575471
740.663722	3959.160914
740.993464	3951.281590
741.323159	3931.575720
741.652806	3900.600350
741.982405	3876.551526
742.311956	3839.728417
742.641460	3835.972758
742.970915	3810.973676
743.300323	3770.208385
743.629683	3733.042479
743.958996	3724.023854
744.288260	3698.548383
744.617477	3667.182324
744.946647	3651.501815
745.275768	3627.122795
745.604842	3622.628607
745.933869	3574.551122
746.262847	3565.960996
746.591778	3604.170422
746.920662	3575.456009
747.249498	3542.945608
747.578286	3592.966457
747.907027	3607.779888
748.235720	3604.414918
748.564365	3635.687716
748.892963	3630.132364
749.221514	3615.122328
749.550017	3589.697269
749.878473	3589.679625
750.206881	3559.379770
750.535242	3555.845921
750.863555	3558.323648
751.191821	3550.131773
751.520039	3530.446067
751.848210	3512.239940
752.176334	3544.702450
752.504411	3548.576577
752.832440	3512.565095
753.160421	3493.295284
753.488356	3500.851974
753.816243	3512.164323
754.144082	3469.969865
754.471875	3456.726754
754.799620	3475.353818
755.127318	3468.107159
755.454969	3465.528609
755.782572	3474.063282
756.110129	3451.486475
756.437638	3442.921554
756.765100	3453.613842
757.092515	3462.745892
757.419882	3473.170998
757.747203	3444.328036
758.074477	3447.141000
758.401703	3462.549287
758.728882	3481.735918
759.056014	3489.539624
759.383099	3493.373422
759.710138	3489.186744
760.037129	3504.264835
760.364073	3538.227088
760.690970	3522.042464
761.017820	3499.097652
761.344623	3519.496681
761.671379	3564.665420
761.998088	3615.520580
762.324751	3744.001947
762.651366	3986.635202
762.977935	4465.549859
763.304456	4914.837654
763.630931	5007.975492
763.957359	4646.847395
764.283740	4297.107265
764.610074	4107.640539
764.936362	3912.913368
765.262602	3750.626023
765.588796	3638.261225
765.914943	3549.161351
766.241044	3462.246817
766.567097	3431.147939
766.893104	3386.924417
767.219064	3353.612473
767.544978	3326.760767
767.870845	3270.027621
768.196665	3254.831063
768.522438	3261.855911
768.848165	3254.523553
769.173846	3219.681618
769.499479	3204.810214
769.825066	3185.742050
770.150607	3169.413752
770.476101	3182.366997
770.801548	3180.542099
771.126949	3134.052579
771.452303	3118.954323
771.777611	3123.786269
772.102872	3127.655354
772.428087	3103.793053
772.753256	3093.758636
773.078378	3087.154724
773.403453	3052.131308
773.728482	3039.909031
774.053465	3061.404511
774.378401	3050.530742
774.703291	3018.350536
775.028135	3018.670649
775.352932	3011.161851
775.677683	3001.482835
776.002388	2997.759943
776.327046	3000.593072
776.651658	2990.901453
776.976224	2977.567602
777.300743	2979.294197
777.625216	2968.049903
777.949643	2962.865076
778.274024	2966.363637
778.598359	2953.450722
778.922647	2958.968264
779.246889	2955.930969
779.571086	2945.941923
779.895236	2940.603341
780.219339	2948.762448
780.543397	2963.119655
780.867409	2963.326342
781.191374	2956.172945
781.515294	2954.063222
781.839167	2954.653037
782.162995	2945.601645
782.486776	2956.513223
782.810511	2951.893005
783.134201	2938.816252
783.457844	2944.374124
783.781441	2937.288782
784.104993	2914.565781
784.428498	2914.774989
784.751958	2932.676127
785.075372	2923.513829
785.398739	2911.483116
785.722061	2925.169848
786.045337	2935.791560
786.368568	2920.156421
786.691752	2910.638723
787.014891	2961.642597
787.337983	2991.072853
787.661030	3018.539579
787.984031	3087.038778
788.306987	3132.215078
788.629897	3127.015128
788.952760	3109.567694
789.275579	3092.556321
789.598351	3034.018442
789.921078	2991.518995
790.243759	2981.398878
790.566395	2963.815334
790.888984	2939.461520
791.211529	2921.673808
791.534027	2913.456728
791.856480	2904.470871
792.178888	2888.172820
792.501249	2883.116543
792.823566	2877.909031
793.145836	2876.222765
793.468062	2872.320912
793.790241	2871.247146
794.112375	2875.751417
794.434464	2884.540669
794.756507	2891.741957
795.078505	2898.660941
795.400457	2911.649474
795.722364	2948.535597
796.044226	2971.009060
796.366042	2977.083651
796.687812	2965.783904
797.009538	2983.531287
797.331218	2973.559884
797.652852	2957.186217
797.974442	2941.026798
798.295986	2932.310643
798.617484	2930.223605
798.938938	2915.243817
799.260346	2899.149933
799.581709	2892.208264
799.903026	2886.040412
800.224299	2879.212169
800.545526	2870.647249
800.866708	2858.528315
801.187845	2846.752180
801.508936	2847.132787
801.829983	2855.952286
802.150984	2841.000223
802.471940	2829.471104
802.792851	2830.784325
803.113717	2827.772236
803.434538	2836.027125
803.755314	2824.429951
804.076045	2821.392655
804.396731	2820.444918
804.717372	2820.260916
805.037967	2815.219762
805.358518	2820.462562
805.679024	2831.714418
805.999485	2830.383553
806.319901	2831.036383
806.640272	2824.109837
806.960598	2830.577638
807.280879	2839.601303
807.601115	2849.134125
807.921306	2834.386229
808.241453	2831.606033
808.561554	2840.264215
808.881611	2841.209431
809.201623	2835.472598
809.521590	2833.040241
809.841513	2830.086125
810.161390	2830.617967
810.481223	2825.322235
810.801011	2819.348467
811.120755	2814.478713
811.440453	2817.702531
811.760107	2815.434012
812.079716	2814.176244
812.399281	2804.436734
812.718801	2796.660755
813.038276	2791.806123
813.357707	2798.321815
813.677093	2806.639719
813.996434	2799.879531
814.315731	2795.622277
814.634983	2790.540794
814.954191	2790.659261
815.273354	2806.400264
815.592473	2812.870585
815.911547	2815.421409
816.230577	2826.096052
816.549562	2832.125272
816.868502	2832.783142
817.187399	2841.975687
817.506250	2859.549149
817.825058	2852.607480
818.143821	2864.149202
818.462539	2878.965153
818.781213	2907.871129
819.099843	2944.462344
819.418429	3001.490397
819.736970	3066.024728
820.055466	3138.957621
820.373919	3245.545258
820.692327	3386.730333
821.010691	3556.586971
821.329011	4005.693284
821.647286	4913.731121
821.965517	6311.897661
822.283704	7074.246151
822.601847	7054.431896
822.919945	6408.471045
823.237999	5896.834259
823.556010	5304.889371
823.873976	4744.108897
824.191897	4333.416175
824.509775	4033.401987
824.827609	3757.718927
825.145398	3635.012201
825.463144	3621.627937
825.780845	3710.831155
826.098502	3821.358453
826.416116	4104.250363
826.733685	4427.360598
827.051210	4491.776462
827.368692	4376.127351
827.686129	4109.021815
828.003522	3775.904889
828.320872	3515.294879
828.638177	3317.048984
828.955439	3179.266687
829.272656	3093.723348
829.589830	3023.316073
829.906960	2978.021305
830.224046	2929.419541
830.541088	2893.178686
830.858086	2880.863147
831.175041	2862.982175
831.491952	2863.569469
831.808819	2874.715460
832.125642	2897.466188
832.442421	2945.301696
832.759157	3028.286650
833.075849	3208.563353
833.392497	3493.380984
833.709101	3698.916388
834.025662	3646.508552
834.342179	3487.603821
834.658653	3311.312151
834.975083	3157.221722
835.291469	3060.857545
835.607811	2974.232878
835.924110	2914.283477
836.240366	2862.639376
836.556578	2817.334527
836.872746	2796.189407
837.188871	2774.184770
837.504952	2753.079980
837.820990	2747.837180
838.136984	2734.221023
838.452935	2726.550907
838.768842	2724.292471
839.084706	2743.015316
839.400526	2825.344920
839.716303	2958.338120
840.032037	3039.077240
840.347727	3022.892616
840.663373	2963.684264
840.978977	2884.870865
841.294537	2814.592139
841.610054	2765.753440
841.925527	2740.358628
842.240957	2718.868189
842.556344	2697.246680
842.871687	2681.329237
843.186987	2670.752896
843.502244	2669.404387
843.817458	2663.327277
844.132629	2650.495019
844.447756	2642.300624
844.762840	2637.488842
845.077881	2637.801394
845.392879	2638.093781
845.707833	2632.160343
846.022745	2624.638941
846.337613	2628.505506
846.652438	2626.748664
846.967221	2627.202368
847.281960	2625.155660
847.596656	2623.514764
847.911309	2622.047788
848.225919	2618.118209
848.540485	2616.147118
848.855009	2618.201388
849.169490	2617.561161
849.483928	2615.857251
849.798323	2613.175358
850.112675	2615.821963
850.426984	2611.821808
850.741251	2615.128805
851.055474	2610.685027
851.369654	2616.890688
851.683792	2613.452621
851.997887	2617.699793
852.311938	2612.303238
852.625947	2613.939092
852.939914	2615.506891
853.253837	2617.094855
853.567718	2611.320213
853.881555	2611.542024
854.195350	2614.798609
854.509103	2616.678959
854.822812	2609.969184
855.136479	2612.351129
855.450103	2616.381531
855.763685	2617.578805
856.077224	2611.481530
856.390720	2609.525562
856.704173	2614.544031
857.017584	2618.440843
857.330953	2617.954371
857.644278	2621.815895
857.957561	2621.652058
858.270802	2616.195009
858.584000	2616.235338
858.897155	2621.775566
859.210268	2623.411420
859.523339	2618.337499
859.836367	2610.546396
860.149352	2613.624020
860.462295	2612.943464
860.775195	2612.923300
861.088054	2610.352311
861.400869	2609.886005
861.713642	2604.144130
862.026373	2606.082454
862.339062	2611.700820
862.651708	2615.932869
862.964312	2618.927314
863.276873	2612.608228
863.589392	2616.273147
863.901869	2625.117851
864.214303	2628.502986
864.526696	2630.108593
864.839045	2629.869138
865.151353	2633.226547
865.463619	2636.251239
865.775842	2633.924747
866.088023	2633.874335
866.400162	2634.975827
866.712258	2634.403656
867.024313	2632.316619
867.336325	2628.558438
867.648296	2629.538943
867.960224	2634.880045
868.272110	2635.048924
868.583954	2625.904271
868.895755	2630.887452
869.207515	2635.575725
869.519233	2639.999337
869.830909	2636.397433
870.142542	2633.594551
870.454134	2635.608492
870.765684	2641.791467
871.077191	2641.796508
871.388657	2649.234731
871.700081	2644.344812
872.011463	2643.379431
872.322803	2646.618372
872.634101	2645.756335
872.945357	2658.666730
873.256571	2661.930877
873.567744	2659.596823
873.878874	2659.480876
874.189963	2660.484066
874.501010	2663.302071
874.812015	2668.678461
875.122979	2669.525375
875.433900	2659.455670
875.744780	2659.616987
876.055618	2664.559839
876.366415	2672.829852
876.677169	2671.594769
876.987882	2660.751247
877.298554	2661.492297
877.609183	2671.297341
877.919771	2680.094154
878.230317	2689.410207
878.540822	2698.385981
878.851285	2713.758980
879.161707	2738.521127
879.472087	2777.176695
879.782425	2825.004642
880.092722	2945.155503
880.402977	3138.488794
880.713191	3403.920668
881.023363	3704.955690
881.333494	3902.170670
881.643583	4073.814396
881.953631	4076.012339
882.263637	3893.983836
882.573602	3670.345648
882.883526	3537.927140
883.193408	3416.268974
883.503248	3315.576967
883.813048	3195.030376
884.122806	3080.145000
884.432522	2990.795589
884.742197	2923.385280
885.051831	2885.279198
885.361424	2846.182529
885.670975	2812.742035
885.980485	2782.031326
886.289954	2759.010897
886.599382	2745.878691
886.908768	2734.883935
887.218113	2712.607076
887.527417	2701.876980
887.836680	2694.242152
888.145901	2689.286698
888.455082	2681.107426
888.764221	2668.733914
889.073319	2660.605053
889.382376	2660.025321
889.691392	2661.091525
890.000366	2663.029848
890.309300	2661.888027
890.618193	2659.266627
890.927044	2663.760816
891.235855	2667.834068
891.544625	2665.300888
891.853353	2662.994560
892.162041	2671.309944
892.470687	2690.322655
892.779293	2701.604758
893.087858	2714.353836
893.396381	2736.451734
893.704864	2779.014196
894.013306	2850.868282
894.321707	2946.970318
894.630068	3000.015860
894.938387	3022.232225
895.246665	3013.753004
895.554903	2967.969245
895.863100	2923.165990
896.171256	2866.516023
896.479371	2803.577218
896.787446	2763.605909
897.095480	2742.380131
897.403473	2737.149933
897.711425	2718.240565
898.019336	2701.713142
898.327207	2685.674712
898.635038	2687.166893
898.942827	2680.066428
899.250576	2672.479491
899.558284	2662.303922
899.865952	2657.315701
900.173579	2652.405617
900.481165	2653.176913
900.788711	2643.717188
901.096216	2636.553708
901.403681	2633.834006
901.711105	2637.093112
902.018489	2630.673202
902.325832	2635.419449
902.633135	2637.756024
902.940397	2652.957623
903.247619	2689.203519
903.554800	2763.805034
903.861941	2893.423182
904.169041	3027.217926
904.476101	3091.810230
904.783121	3085.937286
905.090100	3024.021834
905.397039	2949.291770
905.703938	2871.688247
906.010796	2804.905562
906.317614	2752.621235
906.624391	2717.035730
906.931129	2688.462470
907.237826	2664.050682
907.544483	2643.674338
907.851099	2630.905096
908.157675	2619.832201
908.464211	2610.763165
908.770707	2601.943667
909.077163	2598.772781
909.383578	2593.691298
909.689954	2595.828747
909.996289	2593.623242
910.302584	2591.324476
910.608839	2589.814651
910.915054	2587.715010
911.221229	2591.402614
911.527363	2594.018973
911.833458	2588.965216
912.139513	2592.761205
912.445527	2594.717173
912.751502	2600.718666
913.057436	2603.987855
913.363331	2612.068824
913.669186	2623.071142
913.975000	2636.581435
914.280775	2654.790082
914.586510	2676.099040
914.892205	2713.287632
915.197859	2781.212139
915.503475	2866.490818
915.809050	2935.481529
916.114585	2956.447688
916.420081	2971.175418
916.725536	2981.870226
917.030952	2952.697069
917.336328	2900.498442
917.641665	2852.506657
917.946961	2801.442289
918.252218	2765.597165
918.557435	2735.244377
918.862612	2713.413661
919.167750	2696.379602
919.472848	2677.611386
919.777906	2657.978612
920.082925	2647.377066
920.387904	2636.110087
920.692843	2631.187400
920.997743	2627.129271
921.302603	2620.054012
921.607423	2612.336005
921.912204	2608.172012
922.216946	2604.771754
922.521647	2599.365117
922.826310	2599.198758
923.130932	2594.455033
923.435516	2588.158632
923.740059	2584.029927
924.044564	2586.404310
924.349028	2582.142014
924.653454	2574.386199
924.957840	2571.820252
925.262186	2569.299675
925.566493	2574.068607
925.870761	2565.657441
926.174989	2566.695919
926.479178	2562.617626
926.783328	2563.288099
927.087438	2562.814231
927.391509	2560.172666
927.695541	2561.392625
927.999533	2557.306770
928.303486	2556.664023
928.607400	2558.161246
928.911275	2558.720814
929.215110	2555.728889
929.518906	2555.582695
929.822663	2557.556307
930.126381	2557.155535
930.430060	2555.496996
930.733699	2559.655948
931.037299	2558.272151
931.340861	2557.952038
931.644383	2557.452963
931.947866	2556.558159
932.251309	2556.807696
932.554714	2556.729558
932.858080	2558.393139
933.161407	2556.245607
933.464694	2555.532284
933.767943	2554.014897
934.071153	2555.270144
934.374323	2555.794424
934.677455	2554.072870
934.980548	2553.551110
935.283602	2554.080432
935.586617	2553.392314
935.889593	2555.741492
936.192530	2555.010524
936.495428	2555.139074
936.798287	2554.423230
937.101108	2554.070349
937.403890	2557.757953
937.706632	2564.760116
938.009336	2564.676937
938.312002	2568.810683
938.614628	2574.638257
938.917216	2579.341653
939.219765	2579.918866
939.522275	2579.482806
939.824747	2576.112794
940.127179	2569.912175
940.429573	2570.824624
940.731929	2570.355797
941.034246	2566.264900
941.336524	2564.760116
941.638763	2570.197000
941.940964	2571.719429
942.243126	2564.853377
942.545250	2564.593758
942.847335	2562.925136
943.149381	2562.642831
943.451389	2563.358675
943.753359	2559.663509
944.055290	2558.372974
944.357182	2558.559497
944.659036	2558.652758
944.960851	2559.164435
945.262628	2555.469269
945.564367	2559.262738
945.866067	2556.351471
946.167729	2558.466235
946.469352	2557.843653
946.770937	2558.370453
947.072484	2555.161759
947.373992	2555.507078
947.675462	2554.082952
947.976893	2553.455328
948.278286	2553.392314
948.579641	2555.164280
948.880958	2553.669578
949.182236	2553.578837
949.483476	2554.193857
949.784678	2553.099927
950.085841	2552.452139
950.386967	2554.937428
950.688054	2551.544731
950.989103	2557.367264
951.290114	2555.892726
951.591087	2557.100083
951.892021	2559.766853
952.192917	2562.952862
952.493776	2559.207285
952.794596	2559.492110
953.095378	2561.044786
953.396122	2562.148798
953.696828	2562.294992
953.997496	2559.270299
954.298126	2557.455484
954.598718	2557.541184
954.899272	2553.583878
955.199788	2555.247459
955.500266	2552.303425
955.800706	2549.850903
956.101108	2546.480892
956.401472	2545.137425
956.701798	2542.987373
957.002087	2541.273380
957.302337	2545.765048
957.602550	2545.364277
957.902724	2542.992414
958.202861	2542.505942
958.502960	2540.565098
958.803022	2543.471323
959.103045	2544.547610
959.403031	2539.902186
959.702979	2540.592824
960.002889	2543.400747
960.302762	2540.343287
960.602596	2542.158103
960.902393	2540.872608
961.202153	2539.350180
961.501875	2538.367155
961.801559	2541.008720
962.101205	2539.269522
962.400814	2536.207021
962.700385	2536.683410
962.999918	2540.345808
963.299414	2536.237268
963.598873	2537.792463
963.898293	2538.838503
964.197677	2535.536547
964.497022	2536.038142
964.796331	2537.794984
965.095601	2535.670138
965.394835	2540.272711
965.694030	2534.787936
965.993189	2538.253729
966.292309	2536.592669
966.591393	2536.433872
966.890439	2540.118956
967.189447	2536.832124
967.488419	2538.026877
967.787353	2534.893800
968.086249	2534.389685
968.385108	2537.036290
968.683930	2537.006043
968.982714	2537.784902
969.281462	2536.219623
969.580172	2538.258770
969.878844	2538.054603
970.177480	2534.707277
970.476078	2535.801208
970.774639	2538.457896
971.073162	2538.271373
971.371649	2536.441434
971.670098	2535.833975
971.968510	2535.433203
972.266885	2533.661238
972.565223	2538.410005
972.863524	2538.352032
973.161788	2538.636857
973.460014	2538.296579
973.758204	2540.612989
974.056356	2536.506969
974.354471	2538.959491
974.652550	2537.154758
974.950591	2535.667617
975.248595	2538.765406
975.546563	2539.735828
975.844493	2536.930426
976.142386	2538.919161
976.440243	2533.847761
976.738062	2538.372196
977.035845	2537.341280
977.333590	2536.330529
977.631299	2537.167360
977.928971	2536.577545
978.226606	2537.149716
978.524204	2538.770447
978.821765	2536.010416
979.119290	2536.713657
979.416777	2533.981351
979.714228	2534.959335
980.011642	2536.822041
980.309020	2540.522248
980.606360	2539.019984
980.903664	2534.684592
981.200931	2536.789274
981.498162	2540.129038
981.795356	2539.917310
982.092513	2542.768082
982.389633	2545.951571
982.686717	2549.858465
982.983764	2552.860472
983.280775	2554.423230
983.577749	2555.592778
983.874686	2553.846018
984.171587	2547.027857
984.468451	2544.625747
984.765279	2544.030891
985.062070	2542.631971
985.358824	2543.098278
985.655543	2538.833462
985.952224	2540.746580
986.248869	2538.581404
986.545478	2533.353728
986.842050	2536.151568
987.138586	2531.967410
987.435086	2534.833306
987.731549	2528.922553
988.027975	2536.118800
988.324366	2534.036804
988.620719	2534.626619
988.917037	2534.677030
989.213318	2535.609644
989.509563	2532.801721
989.805772	2532.653007
990.101944	2533.484798
990.398080	2532.421114
990.694180	2532.635363
990.990244	2532.143851
991.286271	2532.327853
991.582262	2530.573531
991.878217	2533.179808
992.174136	2535.382792
992.470019	2531.949766
992.765865	2534.198121
993.061676	2532.035466
993.357450	2535.662576
993.653188	2529.303160
993.948890	2532.194262
994.244556	2533.265507
994.540186	2533.172246
994.835780	2533.688964
995.131337	2535.904551
995.426859	2536.950591
995.722345	2534.485467
996.017795	2537.540406
996.313208	2536.368337
996.608586	2536.605272
996.903928	2537.285827
997.199234	2538.057124
997.494504	2538.951929
997.789738	2536.388502
998.084936	2538.553678
998.380099	2535.218954
998.675225	2535.050076
998.970316	2535.397915
999.265371	2535.034952
999.560390	2534.868594
999.855373	2533.898172
1000.150320	2536.759027
1000.445232	2534.785415
1000.740108	2534.452699
1001.034948	2534.341794
1001.329752	2532.199303
1001.624521	2533.333563
1001.919254	2527.042203
1002.213951	2531.117976
1002.508613	2529.083870
1002.803239	2529.149405
1003.097829	2525.640762
1003.392384	2532.920188
1003.686903	2533.814993
1003.981386	2531.629653
1004.275834	2529.288037
1004.570246	2531.438089
1004.864623	2532.894982
1005.158964	2533.010929
1005.453270	2531.929602
1005.747540	2529.759385
1006.041775	2531.778367
1006.335974	2532.360620
1006.630138	2531.571680
1006.924266	2531.402801
1007.218359	2532.716022
1007.512416	2532.189221
1007.806438	2532.070754
1008.100425	2532.887421
1008.394376	2530.528161
1008.688292	2530.424817
1008.982172	2530.190403
1009.276017	2530.266021
1009.569827	2531.301978
1009.863602	2532.363141
1010.157341	2532.098480
1010.451045	2530.578572
1010.744714	2532.627801
1011.038347	2530.732328
1011.331945	2530.931453
1011.625508	2530.142513
1011.919036	2529.356093
1012.212528	2530.679395
1012.505986	2532.290044
1012.799408	2532.557225
1013.092795	2531.589324
1013.386147	2529.855167
1013.679464	2531.417924
1013.972745	2530.883562
1014.265992	2532.405991
1014.559204	2529.570342
1014.852380	2531.629653
1015.145521	2532.330373
1015.438628	2527.422810
1015.731699	2531.364992
1016.024736	2534.621578
1016.317737	2529.756864
1016.610703	2531.478418
1016.903635	2527.047244
1017.196531	2526.412059
1017.489393	2529.696370
1017.782219	2526.026410
1018.075011	2530.331556
1018.367768	2529.469518
1018.660490	2530.175280
1018.953177	2530.175280
1019.245829	2530.175280
