Dividing Wavelength (nm)	Counts (n)	Blue Motor Position (mm): 45.800000	Red Motor Position (mm): 0.000000	
326.493990	2128.886831
326.888308	2128.886831
327.282561	2128.886831
327.676750	2100.348859
328.070874	2095.285020
328.464933	2100.285845
328.858929	2106.912441
329.252859	2114.723709
329.646726	2128.153343
330.040528	2136.758593
330.434265	2156.696356
330.827938	2175.333502
331.221547	2190.782118
331.615091	2209.862885
332.008571	2229.551112
332.401986	2248.145408
332.795338	2267.679879
333.188625	2285.969185
333.581847	2308.399799
333.975006	2324.327324
334.368100	2342.079748
334.761129	2361.329394
335.154095	2378.857486
335.546996	2400.635270
335.939833	2426.277099
336.332606	2439.797474
336.725315	2452.967488
337.117960	2459.800772
337.510540	2470.987093
337.903056	2481.941520
338.295508	2489.442757
338.687896	2496.381905
339.080220	2506.991013
339.472480	2510.963443
339.864676	2517.242200
340.256807	2520.155987
340.648875	2524.282171
341.040879	2526.772501
341.432818	2528.032790
341.824694	2530.712163
342.216506	2529.779549
342.608253	2531.642256
342.999937	2532.073274
343.391557	2530.959179
343.783113	2529.545136
344.174605	2527.601771
344.566033	2524.234280
344.957397	2525.076153
345.348697	2522.149763
345.739934	2522.215298
346.131106	2521.413755
346.522215	2518.381501
346.913260	2517.421161
347.304241	2514.131808
347.695159	2511.270953
348.086012	2512.067455
348.476802	2509.894718
348.867528	2509.206601
349.258191	2505.917248
349.648789	2507.865654
350.039324	2503.404233
350.429796	2502.884994
350.820203	2500.742503
351.210548	2501.607061
351.600828	2498.012718
351.991045	2498.955414
352.381198	2498.219406
352.771288	2500.074550
353.161314	2497.523727
353.551276	2499.038593
353.941175	2497.964827
354.331010	2495.403921
354.720782	2497.385095
355.110490	2500.162771
355.500135	2499.651093
355.889717	2500.031701
356.279235	2499.729231
356.668689	2499.489777
357.058080	2498.761330
357.447408	2497.748058
357.836672	2497.029693
358.225873	2499.043634
358.615010	2495.603047
359.004084	2502.204438
359.393095	2499.419200
359.782043	2504.533451
360.170927	2503.252998
360.559748	2504.498163
360.948505	2505.781137
361.337199	2506.053359
361.725830	2507.338853
362.114398	2508.440345
362.502903	2509.231806
362.891344	2507.870695
363.279722	2508.674759
363.668037	2510.610562
364.056289	2508.702485
364.444478	2510.202228
364.832603	2510.418998
365.220665	2511.361694
365.608665	2510.015706
365.996601	2512.576612
366.384474	2512.662312
366.772284	2515.515605
367.160031	2513.330264
367.547715	2514.449401
367.935336	2514.832528
368.322893	2513.385717
368.710388	2515.198012
369.097820	2519.717406
369.485189	2513.728516
369.872495	2519.188085
370.259738	2514.827487
370.646918	2518.774711
371.034035	2518.628517
371.421090	2518.593229
371.808081	2520.866789
372.195010	2521.154135
372.581875	2521.368384
372.968678	2525.769312
373.355418	2526.001205
373.742096	2531.927081
374.128710	2533.220137
374.515262	2540.655839
374.901751	2540.000489
375.288177	2549.366953
375.674540	2558.826678
376.060841	2564.835733
376.447079	2573.955181
376.833254	2584.009762
377.219367	2589.638210
377.605417	2607.441045
377.991404	2618.864300
378.377329	2633.723101
378.763191	2644.750625
379.148991	2669.608554
379.534727	2686.748477
379.920402	2707.306303
380.306013	2724.022769
380.691563	2758.715990
381.077049	2779.165430
381.462474	2795.917184
381.847835	2830.983451
382.233134	2854.994466
382.618371	2868.910572
383.003545	2921.797317
383.388657	2936.958587
383.773706	2974.915955
384.158693	2997.170128
384.543618	3033.587424
384.928480	3072.726942
385.313280	3118.782924
385.698017	3135.446458
386.082692	3188.965867
386.467305	3210.388251
386.851856	3249.038777
387.236344	3278.791667
387.620770	3322.790858
388.005133	3359.850901
388.389435	3397.979668
388.773674	3419.812905
389.157851	3470.657983
389.541965	3499.954648
389.926018	3481.720795
390.310008	3560.146025
390.693936	3587.416147
391.077802	3635.753251
391.461606	3639.241729
391.845348	3702.248590
392.229027	3712.189746
392.612645	3731.661203
392.996200	3815.019202
393.379694	3860.689535
393.763125	3929.382818
394.146494	3901.774939
394.529801	3970.992502
394.913047	4020.816746
395.296230	3995.265658
395.679351	4049.964697
396.062410	4076.569387
396.445408	4062.764187
396.828343	4097.349023
397.211217	4123.260554
397.594028	4047.842372
397.976778	4116.583546
398.359466	4143.578924
398.742092	4172.701670
399.124656	4095.370370
399.507158	4176.414480
399.889598	4200.985064
400.271977	4264.080145
400.654294	4236.391608
401.036549	4243.950818
401.418742	4217.635995
401.800874	4319.046366
402.182944	4336.559335
402.564952	4405.144233
402.946898	4391.487747
403.328783	4386.058424
403.710606	4300.000887
404.092367	4495.259899
404.474067	4456.584167
404.855705	4469.585302
405.237282	4392.133015
405.618797	4504.548225
406.000250	4538.727248
406.381642	4615.698106
406.762972	4581.922375
407.144240	4593.327985
407.525447	4589.829425
407.906593	4648.989886
408.287677	4690.493705
408.668700	4619.821769
409.049661	4676.847302
409.430560	4713.413311
409.811399	4638.456395
410.192176	4800.963030
410.572891	4745.820369
410.953545	4841.466181
411.334138	4722.179878
411.714669	4790.391730
412.095139	4684.729146
412.475547	4830.000076
412.855894	4807.088032
413.236180	4819.312830
413.616405	4772.682157
413.996568	4858.701886
414.376670	4800.365653
414.756711	4757.714971
415.136691	4789.960712
415.516609	4864.673132
415.896466	4904.752826
416.276262	4940.860090
416.655997	4919.478036
417.035670	5100.818423
417.415283	5195.398030
417.794834	5133.177589
418.174324	5088.704530
418.553753	4995.599459
418.933121	5182.177604
419.312428	5248.594806
419.691674	5186.908727
420.070859	5312.199044
420.449983	5223.807453
420.829045	5342.211554
421.208047	5249.459364
421.586988	5319.299510
421.965867	5325.439635
422.344686	5466.649916
422.723444	5319.226413
423.102141	5138.342251
423.480777	5436.304690
423.859352	5200.552610
424.237866	5461.664215
424.616319	5456.915448
424.994712	5563.122477
425.373044	5440.241832
425.751314	5583.471095
426.129524	5384.174118
426.507673	5581.409263
426.885762	5661.913969
427.263789	5595.897539
427.641756	5475.499662
428.019662	5594.639771
428.397508	5604.407007
428.775292	5551.177463
429.153016	5650.352083
429.530679	5576.683181
429.908282	5666.849259
430.285824	5536.563158
430.663305	5802.385721
431.040726	5542.383170
431.418086	5544.170259
431.795385	5647.279499
432.172624	5664.502602
432.549802	5652.875180
432.926920	5666.491337
433.303977	5677.407955
433.680974	5709.210074
434.057910	5728.250513
434.434786	5731.789403
434.811601	5704.851997
435.188355	5939.172389
435.565050	5812.072298
435.941683	5794.226613
436.318257	6010.587895
436.694770	5991.461758
437.071222	6030.727305
437.447614	5963.440504
437.823946	5872.891299
438.200218	6028.859558
438.576429	5892.554319
438.952580	5989.369679
439.328670	6035.571854
439.704700	5943.535508
440.080670	5931.497233
440.456580	6200.853644
440.832429	6083.949287
441.208218	5928.664104
441.583947	6081.426189
441.959616	6085.212096
442.335224	6018.588207
442.710773	6160.015257
443.086261	6181.046951
443.461689	5975.340148
443.837057	6123.471933
444.212365	6275.465242
444.587612	6170.687380
444.962800	6321.233878
445.337927	6305.268543
445.712995	5914.934522
446.088002	6494.062276
446.462949	6320.470143
446.837837	6253.952118
447.212664	6425.154744
447.587431	6571.756539
447.962139	7116.077646
448.336786	8041.714150
448.711374	7781.522556
449.085901	6857.761361
449.460369	6777.100379
449.834776	6708.003804
450.209124	7103.401664
450.583412	7250.651248
450.957640	7397.774802
451.331808	7161.697567
451.705917	6708.681839
452.079965	6637.541076
452.453954	6850.320618
452.827883	6725.012657
453.201752	6816.973385
453.575562	6617.789835
453.949311	6817.076729
454.323001	6712.253496
454.696632	6780.888806
455.070202	6921.962976
455.443713	7075.501398
455.817164	7181.622728
456.190556	7260.347907
456.563888	7339.625093
456.937160	7376.745629
457.310373	7034.509256
457.683526	7057.247380
458.056619	6951.181503
458.429653	6937.918228
458.802628	6877.888168
459.175542	6983.112172
459.548398	7341.150042
459.921194	7495.469843
460.293930	7502.288004
460.666607	8026.363837
461.039224	8339.114501
461.411782	8460.308881
461.784280	8482.071542
462.156719	8369.694140
462.529099	8251.879854
462.901419	7837.791916
463.273680	7736.013540
463.645882	7747.293122
464.018024	7610.929910
464.390106	7777.408975
464.762130	8168.622678
465.134094	8639.090881
465.505999	9663.559207
465.877845	10882.916020
466.249631	11529.224710
466.621358	11143.941925
466.993026	10515.514207
467.364634	10261.883675
467.736184	9898.250124
468.107674	9562.287467
468.479105	9590.238145
468.850477	9359.582671
469.221790	9130.419379
469.593043	8801.345459
469.964238	8658.678284
470.335373	8675.477930
470.706449	8737.864729
471.077467	8722.239673
471.448425	10023.459783
471.819324	11102.145718
472.190164	11119.010898
472.560945	9872.623419
472.931667	9085.545548
473.302330	8942.596069
473.672934	8592.205630
474.043479	8950.104868
474.413965	8896.416579
474.784393	8781.324516
475.154761	8928.359851
475.525070	9020.237400
475.895321	8851.189867
476.265513	9024.411475
476.635645	9197.562507
477.005719	9190.522536
477.375734	9308.120052
477.745691	9538.783087
478.115588	9671.970372
478.485427	9921.381459
478.855207	10456.651174
479.224928	11267.798034
479.594591	11906.350909
479.964194	11714.850077
480.333739	11660.894608
480.703226	11568.283570
481.072653	11663.342088
481.442022	11893.899259
481.811333	12087.945873
482.180584	11885.624205
482.549777	11595.215935
482.918912	11423.254615
483.287988	11450.222268
483.657005	11457.045470
484.025964	11136.554114
484.394864	11268.478589
484.763706	11234.728064
485.132489	10997.002373
485.501213	10966.064811
485.869879	11042.163549
486.238487	10877.174146
486.607036	10986.700775
486.975527	10769.800089
487.343959	10955.969901
487.712333	11006.890596
488.080648	10937.063053
488.448905	10985.175826
488.817104	10919.408933
489.185244	11187.845334
489.553326	11341.756802
489.921350	11882.070192
490.289315	12945.504116
490.657222	13281.640693
491.025070	13189.579141
491.392861	13066.658166
491.760593	12684.503417
492.128267	12339.791837
492.495883	11999.554282
492.863440	11673.525219
493.230939	11335.893940
493.598380	11266.676377
493.965763	11135.840791
494.333088	11035.443691
494.700354	10952.665424
495.067563	11016.398212
495.434713	10843.897489
495.801805	10973.729886
496.168839	10900.292877
496.535815	10831.324851
496.902733	10832.086066
497.269593	10771.705645
497.636395	10867.376663
498.003139	10856.197904
498.369825	10725.291742
498.736453	10883.485670
499.103023	10803.928701
499.469535	10833.701755
499.835989	10826.510549
500.202385	10789.384972
500.568723	10642.130347
500.935003	10867.270799
501.301226	10668.949286
501.667390	10934.655902
502.033497	11025.618482
502.399546	10889.111598
502.765537	10791.832452
503.131470	10865.352640
503.497345	11042.639938
503.863163	10649.087140
504.228923	10966.861314
504.594625	11021.520024
504.960269	10770.100038
505.325856	10994.169244
505.691385	10782.007243
506.056856	10936.127919
506.422270	10966.470624
506.787625	10855.098933
507.152924	10972.709052
507.518164	10955.712802
507.883347	10873.980575
508.248472	10791.557709
508.613540	11023.755776
508.978550	10912.003478
509.343503	10884.226720
509.708398	11009.096101
510.073236	11117.322112
510.438016	11121.909562
510.802738	11069.988198
511.167403	11123.076589
511.532010	11022.225786
511.896561	11250.458985
512.261053	11326.706437
512.625488	11198.930831
512.989866	11182.267297
513.354186	11159.168730
513.718449	11062.406303
514.082655	11259.631364
514.446803	11151.014664
514.810894	11275.715166
515.174927	11143.115176
515.538904	11165.202991
515.902822	11316.999695
516.266684	11201.244721
516.630488	11143.523509
516.994235	11201.108609
517.357925	11258.663463
517.721558	11351.216527
518.085133	11361.724812
518.448651	11374.645289
518.812112	11262.809812
519.175516	11275.621904
519.538863	11391.414688
519.902152	11304.432099
520.265385	11472.151287
520.628560	11382.837164
520.991678	11361.979390
521.354739	11424.983731
521.717743	11354.957063
522.080690	11338.716986
522.443580	11477.187400
522.806413	11426.826273
523.169189	11459.974380
523.531908	11519.986796
523.894569	11334.810092
524.257174	11338.386790
524.619722	11456.992538
524.982213	11409.925805
525.344647	11458.658639
525.707025	11415.251784
526.069345	11506.786535
526.431608	11422.881570
526.793815	11529.628003
527.155964	11316.775364
527.518057	11373.400124
527.880093	11320.957001
528.242072	11392.574153
528.603995	11294.233844
528.965860	11209.381143
529.327669	11266.381469
529.689421	11215.183511
530.051117	11184.099756
530.412755	11291.688062
530.774337	11177.198417
531.135862	11160.310551
531.497331	11188.886332
531.858743	11033.830522
532.220098	11202.663805
532.581396	11073.963148
532.942638	11055.666280
533.303824	11018.545743
533.664953	11031.753567
534.026025	10945.514548
534.387040	11043.025587
534.747999	11052.092102
535.108902	11105.908940
535.469748	10868.468073
535.830537	10967.068001
536.191270	10952.093253
536.551947	10974.924639
536.912567	10969.984308
537.273131	10892.317772
537.633638	10868.667198
537.994089	10865.264420
538.354483	10812.004629
538.714821	10958.334202
539.075103	10967.448608
539.435328	10930.297825
539.795497	10759.110322
540.155609	10912.295864
540.515665	11005.519402
540.875665	10736.324307
541.235609	10803.888372
541.595496	10804.503392
541.955328	10956.602566
542.315102	10843.521923
542.674821	10791.025868
543.034483	10789.954622
543.394090	10795.910746
543.753640	10721.853675
544.113134	10949.981010
544.472571	10804.722682
544.831953	10941.549680
545.191278	10744.717828
545.550548	10776.459453
545.909761	10913.104970
546.268918	10890.175281
546.628019	10971.980605
546.987064	10834.034472
547.346053	10752.718139
547.704986	10855.729077
548.063863	10847.869918
548.422684	10836.083701
548.781449	10753.335681
549.140158	10856.712102
549.498811	10732.697197
549.857408	10591.363408
550.215949	10817.917903
550.574434	10666.211939
550.932864	10772.000553
551.291237	10831.637403
551.649555	10774.329566
552.007817	10782.423138
552.366022	10751.646894
552.724173	10748.377706
553.082267	10721.735208
553.440305	10868.447908
553.798288	10663.812350
554.156215	10820.453603
554.514086	10801.196395
554.871902	10642.027004
555.229661	10681.337922
555.587365	10654.042594
555.945014	10549.504187
556.302606	10684.947388
556.660143	10574.462939
557.017625	10728.366846
557.375050	10621.532193
557.732421	10760.242062
558.089735	10669.564307
558.446994	10668.798051
558.804197	10712.101563
559.161345	10711.486542
559.518437	10554.280680
559.875474	10652.590742
560.232455	10679.898672
560.589381	10630.961671
560.946251	10619.233427
561.303065	10723.464324
561.659825	10662.736064
562.016528	10592.716958
562.373177	10476.760337
562.729770	10593.987328
563.086307	10510.246201
563.442789	10598.448749
563.799216	10480.052210
564.155587	10532.240755
564.511904	10477.781170
564.868164	10468.286157
565.224370	10485.572274
565.580520	10409.183669
565.936615	10416.095091
566.292654	10283.928640
566.648638	10425.113716
567.004567	10373.842660
567.360441	10359.261123
567.716260	10270.529253
568.072023	10365.892761
568.427732	10314.568773
568.783385	10222.270288
569.138982	10292.654878
569.494525	10306.709615
569.850013	10182.127580
570.205445	10263.920301
570.560823	10157.287294
570.916145	10082.068237
571.271412	10147.797322
571.626625	10096.352347
571.981782	10067.910157
572.336884	10045.046004
572.691931	10053.734432
573.046923	9995.294856
573.401860	9952.555954
573.756743	9884.785202
574.111570	9935.642883
574.466342	9916.463813
574.821059	9947.106467
575.175722	9835.505403
575.530330	9849.595428
575.884882	9838.184776
576.239380	9767.802707
576.593823	9742.785981
576.948211	9762.355740
577.302544	9644.906938
577.656823	9654.162496
578.011047	9653.270212
578.365216	9624.412127
578.719330	9553.760356
579.073389	9562.226973
579.427394	9511.288634
579.781344	9487.897681
580.135239	9438.670813
580.489080	9447.868398
580.842866	9345.152368
581.196597	9355.025468
581.550273	9392.698011
581.903895	9363.923105
582.257463	9427.454246
582.610975	9311.694230
582.964434	9331.523609
583.317837	9260.420654
583.671186	9238.864681
584.024481	9234.854443
584.377721	9152.418974
584.730906	9131.823340
585.084037	9160.257969
585.437113	9096.197506
585.790135	9113.907080
586.143103	9013.419239
586.496016	8981.362542
586.848874	9043.335967
587.201679	9032.663844
587.554428	8917.780989
587.907124	8965.966858
588.259765	8934.731869
588.612352	8941.282848
588.964884	8816.335330
589.317362	8832.761930
589.669786	8827.834202
590.022155	8876.975369
590.374470	8898.405314
590.726731	8832.963576
591.078937	8679.420112
591.431090	8798.038462
591.783188	8666.338318
592.135232	8659.013521
592.487222	8661.829006
592.839157	8712.457314
593.191038	8647.789392
593.542866	8587.005680
593.894639	8492.912543
594.246358	8548.261892
594.598022	8557.797234
594.949633	8462.532029
595.301190	8433.152185
595.652692	8458.337789
596.004141	8571.904903
596.355535	8350.227725
596.706876	8327.441709
597.058162	8264.712111
597.409395	8343.197836
597.760573	8401.924757
598.111698	8310.485788
598.462768	8298.397101
598.813785	8261.213551
599.164748	8230.956545
599.515657	8219.792910
599.866511	8133.805949
600.217312	8259.701204
600.568060	8112.887681
600.918753	8223.742654
601.269392	8193.349537
601.619978	8101.545085
601.970510	8166.356679
602.320988	8161.018097
602.671412	8217.844504
603.021783	8156.869228
603.372100	8126.806307
603.722363	8130.645145
604.072572	8105.709078
604.422728	8115.015048
604.772830	8041.986373
605.122878	8049.585912
605.472872	8046.175572
605.822813	8076.145231
606.172701	8018.963423
606.522534	8096.463602
606.872314	8093.537212
607.222041	8065.072337
607.571714	8122.980071
607.921333	8078.827125
608.270899	8081.592198
608.620411	8175.685334
608.969870	8073.417967
609.319276	8072.107267
609.668627	8093.237263
610.017926	8126.100545
610.367171	8177.704317
610.716362	8151.762539
611.065500	8138.572360
611.414585	8166.848192
611.763616	8152.299422
612.112594	8136.119838
612.461518	8153.975605
612.810389	8212.125315
613.159207	8146.537383
613.507971	8105.378882
613.856682	8219.986994
614.205340	8171.546547
614.553945	8255.242304
614.902496	8151.961664
615.250994	8204.482926
615.599439	8184.504833
615.947830	8195.106380
616.296169	8179.927465
616.644454	8187.897530
616.992686	8185.197992
617.340864	8243.476251
617.688990	8146.219790
618.037063	8243.360304
618.385082	8184.986263
618.733048	8269.423070
619.080961	8212.102630
619.428821	8228.118376
619.776628	8231.536278
620.124382	8180.882764
620.472083	8164.090681
620.819731	8199.630815
621.167326	8087.457580
621.514868	8094.991585
621.862357	7980.862382
622.209793	7993.717325
622.557176	7935.345804
622.904506	7901.305413
623.251783	7841.030857
623.599007	7795.557129
623.946179	7794.460678
624.293297	7759.142354
624.640363	7669.840834
624.987376	7657.124523
625.334336	7600.086388
625.681243	7554.181641
626.028097	7532.867643
626.374899	7518.404573
626.721647	7503.775144
627.068343	7437.617562
627.414987	7419.108965
627.761577	7368.528548
628.108115	7406.972387
628.454600	7298.809390
628.801032	7347.857297
629.147412	7310.348592
629.493739	7298.912734
629.840014	7234.111222
630.186236	7288.195241
630.532405	7178.212387
630.878521	7225.712660
631.224585	7183.561052
631.570597	7107.626151
631.916556	7143.839280
632.262462	7137.079093
632.608316	7095.590397
632.954117	7072.564926
633.299866	7062.454892
633.645562	7055.621608
633.991206	6969.561550
634.336797	6915.888385
634.682336	6874.195523
635.027823	6839.847621
635.373257	6837.374935
635.718639	6760.353666
636.063968	6776.291274
636.409245	6672.176323
636.754470	6671.402506
637.099642	6628.978676
637.444762	6571.005407
637.789829	6582.085863
638.134845	6520.566142
638.479808	6506.213977
638.824719	6512.036510
639.169577	6436.025992
639.514383	6461.861905
639.859137	6390.668210
640.203839	6401.970477
640.548489	6387.865329
640.893086	6357.237798
641.237632	6332.034550
641.582125	6353.691347
641.926566	6325.866698
642.270955	6337.320200
642.615292	6327.172357
642.959576	6348.892168
643.303809	6333.294838
643.647990	6337.650395
643.992118	6335.238203
644.336195	6281.247445
644.680219	6306.664943
645.024192	6294.656915
645.368112	6389.967490
645.711981	6407.062042
646.055797	6483.027190
646.399562	6446.287261
646.743274	6571.799388
647.086935	6623.451051
647.430544	6617.741944
647.774101	6641.400079
648.117606	6646.189175
648.461059	6642.352857
648.804460	6603.170489
649.147810	6509.878896
649.491108	6477.025696
649.834354	6455.386543
650.177548	6372.968719
650.520690	6286.558301
650.863781	6267.371669
651.206820	6284.869514
651.549807	6208.959820
651.892742	6150.336242
652.235626	6154.898486
652.578458	6137.085569
652.921238	6047.355551
653.263967	6080.884265
653.606644	6025.723960
653.949269	6031.372573
654.291843	5971.899560
654.634365	6021.922930
654.976836	5974.064736
655.319255	5972.529704
655.661622	5950.358710
656.003938	5949.151353
656.346203	5909.590899
656.688416	5941.758501
657.030577	5894.144803
657.372687	5860.122056
657.714746	5851.325243
658.056753	5892.703033
658.398708	5830.361604
658.740612	5823.001520
659.082465	5872.873655
659.424266	5865.725298
659.766016	5864.782603
660.107715	5837.971226
660.449362	5851.695767
660.790958	5846.004305
661.132503	5835.672460
661.473996	5869.291915
661.815438	5865.392582
662.156829	5856.867991
662.498168	5847.486404
662.839456	5821.781560
663.180693	5856.898238
663.521879	5856.928485
663.863013	5849.195355
664.204097	5865.372418
664.545129	5904.958078
664.886110	5901.562861
665.227040	5935.489827
665.567918	5904.280043
665.908746	5929.533703
666.249522	5937.791113
666.590248	5924.361479
666.930922	5949.589934
667.271545	5965.751873
667.612118	5968.945444
667.952639	5942.577689
668.293109	5957.933043
668.633528	5919.116159
668.973896	5920.464668
669.314213	5913.666672
669.654480	5897.759311
669.994695	5887.510645
670.334859	5875.268203
670.674973	5872.067070
671.015035	5872.379622
671.355047	5872.324169
671.695008	5859.565008
672.034918	5830.646429
672.374777	5839.254200
672.714585	5825.708619
673.054342	5828.705585
673.394049	5826.038815
673.733705	5857.314133
674.073310	5843.471125
674.412864	5803.993849
674.752368	5795.620493
675.091820	5801.264064
675.431223	5735.915587
675.770574	5732.538014
676.109875	5688.616961
676.449125	5691.198032
676.788324	5657.686962
677.127473	5600.961378
677.466571	5597.062045
677.805619	5584.141568
678.144616	5567.891409
678.483562	5550.701074
678.822458	5518.969531
679.161303	5508.856977
679.500098	5503.384804
679.838842	5485.652545
680.177535	5488.662114
680.516179	5507.662223
680.854771	5517.500035
681.193314	5599.665801
681.531805	5709.454570
681.870247	5856.651222
682.208638	5960.766172
682.546978	5974.732689
682.885268	5952.576818
683.223508	5862.259505
683.561697	5807.315969
683.899836	5779.428306
684.237925	5732.603549
684.575963	5701.499630
684.913951	5658.314585
685.251889	5718.034614
685.589776	5687.197876
685.927614	5663.597714
686.265401	5733.788220
686.603137	5715.960179
686.940824	5793.299041
687.278460	5818.489687
687.616046	5826.495039
687.953582	5889.416201
688.291068	5872.971957
688.628504	5942.640703
688.965889	5899.032202
689.303224	5846.223595
689.640510	5796.643847
689.977745	5717.815324
690.314930	5615.933605
690.652065	5567.795627
690.989150	5476.623839
691.326185	5400.240276
691.663170	5343.771791
692.000105	5265.921252
692.336990	5188.274880
692.673825	5162.575078
693.010610	5096.082258
693.347345	5026.932751
693.684030	5013.664434
694.020665	4971.139781
694.357251	4880.872880
694.693786	4888.366555
695.030272	4857.255074
695.366707	4822.526566
695.703093	4792.687976
696.039429	4809.903516
696.375716	4791.004231
696.711952	4771.406745
697.048139	4755.461575
697.384276	4735.536415
697.720363	4751.640381
698.056400	4754.967542
698.392388	4704.679512
698.728326	4686.612017
699.064214	4666.318852
699.400053	4661.098737
699.735842	4624.220176
700.071581	4600.554479
700.407270	4572.565993
700.742910	4556.739291
701.078501	4501.180734
701.414042	4500.245600
701.749533	4472.947752
702.084974	4407.178338
702.420366	4461.360660
702.755709	4406.341507
703.091002	4349.031149
703.426246	4396.748191
703.761440	4356.902911
704.096584	4312.875994
704.431679	4336.231660
704.766725	4320.626768
705.101721	4307.736538
705.436668	4335.709900
705.771565	4283.110501
706.106413	4313.334739
706.441212	4347.349925
706.775961	4354.236141
707.110661	4337.733924
707.445311	4359.148745
707.779913	4388.667222
708.114465	4398.603336
708.448967	4419.763579
708.783421	4480.335563
709.117825	4523.989435
709.452180	4531.725085
709.786485	4578.504473
710.120742	4660.382893
710.454949	4642.184328
710.789107	4714.456830
711.123216	4783.843272
711.457275	4776.982261
711.791286	4852.803736
712.125247	4868.524574
712.459159	4768.515643
712.793023	4845.408363
713.126837	4806.150377
713.460602	4797.512360
713.794318	4716.811049
714.127985	4725.996031
714.461602	4638.239625
714.795171	4609.870532
715.128691	4545.810069
715.462162	4485.480061
715.795584	4438.398204
716.128957	4421.112088
716.462281	4370.355230
716.795556	4343.380016
717.128782	4304.235456
717.461960	4234.039910
717.795088	4247.840068
718.128167	4202.535219
718.461198	4144.284686
718.794180	4140.604644
719.127113	4123.868013
719.459997	4100.096452
719.792833	4057.304617
720.125619	4049.195922
720.458357	4012.410622
720.791046	4015.581508
721.123686	3992.535873
721.456278	3949.975932
721.788821	3965.399342
722.121315	3942.663738
722.453761	3912.807504
722.786158	3922.236982
723.118506	3948.955098
723.450805	3900.633118
723.783056	3924.124895
724.115259	3940.223819
724.447412	3943.142647
724.779518	3937.577214
725.111574	3939.142492
725.443582	3970.972337
725.775542	3954.742342
726.107453	4006.406608
726.439315	4009.043131
726.771129	4021.986294
727.102895	4060.231007
727.434612	4107.665744
727.766281	4117.503556
728.097901	4117.143114
728.429473	4125.793734
728.760996	4131.160042
729.092471	4124.775421
729.423897	4108.913430
729.755276	4115.693782
730.086606	4115.547588
730.417887	4153.537724
730.749120	4219.415522
731.080305	4279.700161
731.411442	4313.059996
731.742530	4280.874749
732.073570	4283.612096
732.404562	4336.947504
732.735506	4332.526412
733.066401	4293.157521
733.397249	4230.072522
733.728048	4151.531345
734.058798	4067.928849
734.389501	3994.101151
734.720156	3934.618056
735.050762	3889.232548
735.381320	3881.786764
735.711831	3831.952438
736.042293	3802.053354
736.372707	3824.884740
736.703073	3796.011531
737.033391	3784.736991
737.363661	3801.808858
737.693883	3833.767253
738.024056	3836.802028
738.354182	3834.304136
738.684260	3896.136408
739.014290	3920.104574
739.344272	3912.822628
739.674207	3955.775779
740.004093	3962.896409
740.333931	3953.729071
740.663722	3959.803661
740.993464	3953.809729
741.323159	3931.908436
741.652806	3902.064805
741.982405	3874.351062
742.311956	3839.430989
742.641460	3834.349506
742.970915	3806.900424
743.300323	3771.304836
743.629683	3734.756471
743.958996	3724.890933
744.288260	3693.683670
744.617477	3665.395235
744.946647	3653.155314
745.275768	3627.614308
745.604842	3620.289511
745.933869	3574.939291
746.262847	3564.728434
746.591778	3603.449537
746.920662	3573.721852
747.249498	3549.695713
747.578286	3591.789348
747.907027	3608.830968
748.235720	3606.690999
748.564365	3630.943990
748.892963	3631.538846
749.221514	3616.352370
749.550017	3590.811364
749.878473	3589.445211
750.206881	3558.490006
750.535242	3556.927248
750.863555	3556.826425
751.191821	3551.029098
751.520039	3527.953217
751.848210	3509.384127
752.176334	3544.137841
752.504411	3552.521280
752.832440	3506.689630
753.160421	3491.016683
753.488356	3503.155781
753.816243	3512.411339
754.144082	3469.082622
754.471875	3455.151393
754.799620	3474.459013
755.127318	3464.147333
755.454969	3466.302426
755.782572	3471.283086
756.110129	3452.351033
756.437638	3438.331584
756.765100	3450.216104
757.092515	3464.432158
757.419882	3468.505410
757.747203	3444.895166
758.074477	3443.599589
758.401703	3462.970223
758.728882	3482.628203
759.056014	3489.935355
759.383099	3493.000377
759.710138	3486.973677
760.037129	3507.138293
760.364073	3535.177190
760.690970	3524.898277
761.017820	3502.185359
761.344623	3518.674973
761.671379	3562.394380
761.998088	3616.143162
762.324751	3744.926999
762.651366	3994.706090
762.977935	4465.035661
763.304456	4912.982510
763.630931	5007.683105
763.957359	4647.147344
764.283740	4305.757885
764.610074	4110.932412
764.936362	3908.998912
765.262602	3749.572422
765.588796	3637.111842
765.914943	3550.913152
766.241044	3459.706076
766.567097	3430.041406
766.893104	3384.056001
767.219064	3351.331351
767.544978	3326.871672
767.870845	3270.287241
768.196665	3249.832759
768.522438	3258.553955
768.848165	3252.643202
769.173846	3218.406206
769.499479	3202.503886
769.825066	3185.275743
770.150607	3168.937363
770.476101	3181.668797
770.801548	3180.864733
771.126949	3133.828247
771.452303	3116.741256
771.777611	3123.841722
772.102872	3128.285499
772.428087	3103.656942
772.753256	3093.360385
773.078378	3084.296390
773.403453	3053.341185
773.728482	3041.968342
774.053465	3059.461146
774.378401	3051.596946
774.703291	3016.507994
775.028135	3019.348685
775.352932	3013.183353
775.677683	3003.388392
776.002388	2995.388080
776.327046	3000.252794
776.651658	2988.978253
776.976224	2976.027529
777.300743	2976.997951
777.625216	2969.239615
777.949643	2965.665437
778.274024	2965.365489
778.598359	2952.273612
778.922647	2960.470528
779.246889	2956.614046
779.571086	2944.338836
779.895236	2935.365582
780.219339	2947.976028
780.543397	2958.678398
780.867409	2963.681743
781.191374	2958.116309
781.515294	2954.312759
781.839167	2955.822584
782.162995	2942.944957
782.486776	2955.159673
782.810511	2953.473407
783.134201	2934.697629
783.457844	2944.900925
783.781441	2935.602516
784.104993	2914.913621
784.428498	2916.620052
784.751958	2930.218564
785.075372	2923.518871
785.398739	2909.307858
785.722061	2926.079777
786.045337	2933.767536
786.368568	2921.162131
786.691752	2914.023857
787.014891	2958.990950
787.337983	2988.332986
787.661030	3017.430526
787.984031	3086.476689
788.306987	3133.387146
788.629897	3127.042854
788.952760	3108.667848
789.275579	3092.790734
789.598351	3032.319573
789.921078	2990.634272
790.243759	2979.412664
790.566395	2965.660396
790.888984	2937.137548
791.211529	2922.283788
791.534027	2911.992272
791.856480	2903.936508
792.178888	2887.920763
792.501249	2880.084289
792.823566	2878.206459
793.145836	2876.043804
793.468062	2868.706405
793.790241	2866.831096
794.112375	2873.873588
794.434464	2888.936555
794.756507	2891.658778
795.078505	2898.310581
795.400457	2907.843403
795.722364	2948.492747
796.044226	2972.012250
796.366042	2977.572643
796.687812	2962.968420
797.009538	2983.163282
797.331218	2970.275573
797.652852	2958.481793
797.974442	2936.779626
798.295986	2933.283586
798.617484	2930.266455
798.938938	2915.707603
799.260346	2901.811662
799.581709	2895.283368
799.903026	2886.584857
800.224299	2882.622510
800.545526	2871.189173
800.866708	2856.405989
801.187845	2847.911645
801.508936	2850.162520
801.829983	2852.420957
802.150984	2838.177177
802.471940	2827.101762
802.792851	2828.384736
803.113717	2824.432471
803.434538	2833.950170
803.755314	2826.138902
804.076045	2820.938952
804.396731	2818.330154
804.717372	2819.839980
805.037967	2813.684731
805.358518	2823.242759
805.679024	2833.188955
805.999485	2829.826506
806.319901	2836.359841
806.640272	2823.739312
806.960598	2831.984120
807.280879	2842.265553
807.601115	2847.014320
807.921306	2835.076867
808.241453	2830.751557
808.561554	2835.719615
808.881611	2839.669359
809.201623	2833.970334
809.521590	2829.002277
809.841513	2827.714262
810.161390	2832.117710
810.481223	2825.992708
810.801011	2818.441060
811.120755	2811.426294
811.440453	2814.892087
811.760107	2815.340750
812.079716	2815.207160
812.399281	2802.969759
812.718801	2795.062709
813.038276	2791.750671
813.357707	2796.842236
813.677093	2804.416570
813.996434	2798.984727
814.315731	2796.799386
814.634983	2792.602626
814.954191	2790.881072
815.273354	2806.828762
815.592473	2812.789926
815.911547	2815.716316
816.230577	2824.566062
816.549562	2835.712053
816.868502	2831.200220
817.187399	2842.149606
817.506250	2859.115610
817.825058	2854.329034
818.143821	2865.288503
818.462539	2883.419012
818.781213	2909.093609
819.099843	2944.719443
819.418429	3002.223885
819.736970	3066.985068
820.055466	3137.588948
820.373919	3244.383272
820.692327	3388.111609
821.010691	3556.433215
821.329011	4005.809231
821.647286	4913.655504
821.965517	6304.363656
822.283704	7057.517082
822.601847	7043.820267
822.919945	6401.758749
823.237999	5892.410646
823.556010	5307.800638
823.873976	4739.992795
824.191897	4328.223787
824.509775	4026.654402
824.827609	3757.227414
825.145398	3632.453815
825.463144	3623.152887
825.780845	3711.405846
826.098502	3819.770489
826.416116	4105.671968
826.733685	4424.053601
827.051210	4488.592973
827.368692	4376.671796
827.686129	4104.391515
828.003522	3773.616205
828.320872	3514.516021
828.638177	3315.304745
828.955439	3179.095288
829.272656	3090.877617
829.589830	3024.248686
829.906960	2972.959987
830.224046	2930.705035
830.541088	2894.643141
830.858086	2879.416336
831.175041	2862.677185
831.491952	2860.907740
831.808819	2875.033053
832.125642	2897.650190
832.442421	2943.557457
832.759157	3028.284130
833.075849	3206.408260
833.392497	3491.074656
833.709101	3696.869679
834.025662	3650.075169
834.342179	3485.657936
834.658653	3306.581028
834.975083	3157.335148
835.291469	3058.309242
835.607811	2972.334884
835.924110	2916.451173
836.240366	2860.809437
836.556578	2820.263437
836.872746	2795.181176
837.188871	2772.387599
837.504952	2756.157604
837.820990	2747.469175
838.136984	2733.321177
838.452935	2723.397666
838.768842	2725.335989
839.084706	2742.465830
839.400526	2823.111689
839.716303	2956.122533
840.032037	3039.193187
840.347727	3024.916639
840.663373	2961.791311
840.978977	2885.803478
841.294537	2812.305976
841.610054	2762.403594
841.925527	2741.472723
842.240957	2721.018241
842.556344	2695.971268
842.871687	2678.770851
843.186987	2673.901097
843.502244	2667.077895
843.817458	2661.023469
844.132629	2649.685914
844.447756	2641.844399
844.762840	2635.109418
845.077881	2640.427835
845.392879	2635.764768
845.707833	2631.575569
846.022745	2627.812348
846.337613	2627.535084
846.652438	2625.778242
846.967221	2626.158849
847.281960	2623.066101
847.596656	2622.914867
847.911309	2624.245731
848.225919	2619.428909
848.540485	2616.530245
848.855009	2617.031840
849.169490	2615.453959
849.483928	2616.736933
849.798323	2616.202570
850.112675	2613.855913
850.426984	2614.012189
850.741251	2613.286263
851.055474	2611.678135
851.369654	2615.927827
851.683792	2617.576285
851.997887	2613.008999
852.311938	2611.347939
852.625947	2612.940944
852.939914	2614.818774
853.253837	2617.420009
853.567718	2615.824484
853.881555	2613.046808
854.195350	2616.099227
854.509103	2614.271808
854.822812	2611.920110
855.136479	2610.448093
855.450103	2615.136366
855.763685	2617.886316
856.077224	2614.657457
856.390720	2609.931375
856.704173	2615.569906
857.017584	2615.426233
857.330953	2618.156017
857.644278	2620.595936
857.957561	2619.479320
858.270802	2617.583847
858.584000	2618.405555
858.897155	2619.035699
859.210268	2621.367232
859.523339	2616.638630
859.836367	2611.756273
860.149352	2613.936572
860.462295	2617.321707
860.775195	2611.279884
861.088054	2610.324585
861.400869	2606.649584
861.713642	2604.625561
862.026373	2608.545058
862.339062	2609.036570
862.651708	2618.836573
862.964312	2619.958230
863.276873	2613.936572
863.589392	2618.297170
863.901869	2623.187089
864.214303	2627.386370
864.526696	2632.183028
864.839045	2631.099180
865.151353	2634.938019
865.463619	2631.651186
865.775842	2633.801238
866.088023	2633.274438
866.400162	2635.754686
866.712258	2636.563791
867.024313	2632.465333
867.336325	2629.407873
867.648296	2630.990795
867.960224	2639.742238
868.272110	2635.424490
868.583954	2628.235805
868.895755	2627.867800
869.207515	2635.053965
869.519233	2642.547640
869.830909	2637.153606
870.142542	2633.287041
870.454134	2637.224182
870.765684	2642.353556
871.077191	2642.018319
871.388657	2646.441932
871.700081	2643.951602
872.011463	2644.755666
872.322803	2647.777837
872.634101	2649.534680
872.945357	2655.281595
873.256571	2661.119251
873.567744	2658.875938
873.878874	2657.300577
874.189963	2657.948365
874.501010	2663.672596
874.812015	2669.343894
875.122979	2670.362207
875.433900	2661.353665
875.744780	2660.032882
876.055618	2663.672596
876.366415	2668.872546
876.677169	2669.608554
876.987882	2663.455826
877.298554	2662.243428
877.609183	2675.090809
877.919771	2680.452076
878.230317	2687.119002
878.540822	2699.416897
878.851285	2713.834597
879.161707	2738.571539
879.472087	2775.813063
879.782425	2825.874241
880.092722	2942.463527
880.402977	3133.792959
880.713191	3399.852456
881.023363	3698.896223
881.333494	3895.987694
881.643583	4069.763829
881.953631	4071.979416
882.263637	3887.546282
882.573602	3665.251562
882.883526	3530.899771
883.193408	3413.115732
883.503248	3311.642346
883.813048	3192.774459
884.122806	3077.261460
884.432522	2986.745022
884.742197	2921.946031
885.051831	2883.552603
885.361424	2845.834690
885.670975	2810.574339
885.980485	2777.325409
886.289954	2759.530136
886.599382	2745.367014
886.908768	2735.050293
887.218113	2716.024978
887.527417	2700.856146
887.836680	2694.428675
888.145901	2684.321162
888.455082	2678.186077
888.764221	2668.446568
889.073319	2662.175373
889.382376	2660.050527
889.691392	2662.598830
890.000366	2661.459529
890.309300	2658.812923
890.618193	2659.339724
890.927044	2662.830723
891.235855	2664.330466
891.544625	2662.200579
891.853353	2663.279386
892.162041	2670.334480
892.470687	2692.084539
892.779293	2704.332022
893.087858	2715.674618
893.396381	2737.008781
893.704864	2777.958074
894.013306	2849.774352
894.321707	2947.308076
894.630068	2997.989316
894.938387	3018.990763
895.246665	3010.773682
895.554903	2969.658031
895.863100	2921.958633
896.171256	2863.579551
896.479371	2802.342135
896.787446	2763.071547
897.095480	2742.299472
897.403473	2735.060375
897.711425	2723.160732
898.019336	2702.691126
898.327207	2688.263344
898.635038	2685.457942
898.942827	2685.205884
899.250576	2670.238698
899.558284	2660.400887
899.865952	2657.252686
900.173579	2653.358395
900.481165	2649.146511
900.788711	2643.475213
901.096216	2636.410036
901.403681	2634.476753
901.711105	2632.762761
902.018489	2632.004067
902.325832	2634.214613
902.633135	2638.292907
902.940397	2654.538025
903.247619	2690.761236
903.554800	2763.918460
903.861941	2895.663975
904.169041	3023.409334
904.476101	3092.747885
904.783121	3081.309507
905.090100	3024.984695
905.397039	2946.256995
905.703938	2868.096425
906.010796	2804.204841
906.317614	2751.262644
906.624391	2713.401058
906.931129	2687.169414
907.237826	2662.019097
907.544483	2644.372538
907.851099	2631.825106
908.157675	2621.021913
908.464211	2612.880450
908.770707	2605.888370
909.077163	2598.341762
909.383578	2595.513675
909.689954	2593.320773
909.996289	2590.830443
910.302584	2588.904722
910.608839	2591.110227
910.915054	2585.968250
911.221229	2590.805237
911.527363	2591.223653
911.833458	2590.969075
912.139513	2594.001329
912.445527	2593.378746
912.751502	2599.251691
913.057436	2602.281424
913.363331	2609.258381
913.669186	2623.189610
913.975000	2637.244347
914.280775	2655.140443
914.586510	2675.615089
914.892205	2713.595142
915.197859	2780.902108
915.503475	2866.193390
915.809050	2938.019750
916.114585	2955.114302
916.420081	2966.577886
916.725536	2980.062973
917.030952	2948.676749
917.336328	2900.460633
917.641665	2853.174610
917.946961	2800.345838
918.252218	2763.598347
918.557435	2730.777915
918.862612	2713.295193
919.167750	2696.838347
919.472848	2676.262877
919.777906	2659.735454
920.082925	2648.954947
920.387904	2636.909110
920.692843	2631.399129
920.997743	2628.339148
921.302603	2620.535442
921.607423	2614.743156
921.912204	2606.977259
922.216946	2605.462392
922.521647	2602.851074
922.826310	2599.324787
923.130932	2596.905033
923.435516	2590.492686
923.740059	2587.881368
924.044564	2584.758373
924.349028	2584.405492
924.653454	2572.934347
924.957840	2572.359655
925.262186	2569.594582
925.566493	2570.333112
925.870761	2566.930333
926.174989	2567.626012
926.479178	2566.111145
926.783328	2563.797256
927.087438	2560.465053
927.391509	2561.369940
927.695541	2559.174517
927.999533	2555.834753
928.303486	2555.073539
928.607400	2556.946328
928.911275	2556.384239
929.215110	2554.710576
929.518906	2553.974567
929.822663	2555.131512
930.126381	2555.524722
930.430060	2555.784342
930.733699	2556.669064
931.037299	2557.173179
931.340861	2555.491955
931.644383	2555.827191
931.947866	2557.291647
932.251309	2559.222408
932.554714	2556.515309
932.858080	2555.398693
933.161407	2558.872048
933.464694	2554.733261
933.767943	2554.682849
934.071153	2553.467931
934.374323	2554.564382
934.677455	2554.859290
934.980548	2554.665205
935.283602	2553.994732
935.586617	2554.524053
935.889593	2551.615307
936.192530	2553.135215
936.495428	2553.311656
936.798287	2552.908363
937.101108	2554.019938
937.403890	2558.834240
937.706632	2561.944632
938.009336	2567.252967
938.312002	2569.486198
938.614628	2573.340160
938.917216	2576.634554
939.219765	2579.329051
939.522275	2579.586149
939.824747	2577.806622
940.127179	2571.706826
940.429573	2569.440827
940.731929	2570.675910
941.034246	2566.474108
941.336524	2567.711712
941.638763	2569.206414
941.940964	2569.728173
942.243126	2566.337997
942.545250	2564.888665
942.847335	2562.814231
943.149381	2560.253324
943.451389	2562.042934
943.753359	2558.614949
944.055290	2560.263407
944.357182	2556.679146
944.659036	2557.347099
944.960851	2555.658313
945.262628	2557.994888
945.564367	2557.397511
945.866067	2558.549414
946.167729	2560.523026
946.469352	2557.460525
946.770937	2560.528067
947.072484	2557.364743
947.373992	2554.864331
947.675462	2557.155535
947.976893	2555.925494
948.278286	2554.768549
948.579641	2555.484393
948.880958	2550.443239
949.182236	2554.113199
949.483476	2554.839125
949.784678	2553.989691
950.085841	2553.306614
950.386967	2554.836605
950.688054	2554.221584
950.989103	2554.609753
951.290114	2557.193344
951.591087	2557.410114
951.892021	2556.787531
952.192917	2559.706359
952.493776	2558.836760
952.794596	2561.513613
953.095378	2563.968655
953.396122	2561.422872
953.696828	2560.938921
953.997496	2559.928170
954.298126	2558.093190
954.598718	2554.082952
954.899272	2556.142263
955.199788	2554.309804
955.500266	2554.516491
955.800706	2551.408620
956.101108	2546.745553
956.401472	2543.909904
956.701798	2540.721374
957.002087	2543.647764
957.302337	2545.374359
957.602550	2546.758156
957.902724	2545.089534
958.202861	2542.674821
958.502960	2541.144831
958.803022	2543.925027
959.103045	2542.697506
959.403031	2540.381096
959.702979	2537.396733
960.002889	2540.519728
960.302762	2538.886394
960.602596	2539.327495
960.902393	2539.367824
961.202153	2540.060983
961.501875	2537.167360
961.801559	2538.843544
962.101205	2539.975283
962.400814	2540.302958
962.700385	2538.465458
962.999918	2537.384130
963.299414	2538.392361
963.598873	2538.994779
963.898293	2539.549306
964.197677	2537.230375
964.497022	2538.810777
964.796331	2536.106198
965.095601	2539.272042
965.394835	2536.254912
965.694030	2539.035108
965.993189	2535.728111
966.292309	2537.737011
966.591393	2537.792463
966.890439	2536.257432
967.189447	2535.917154
967.488419	2539.236754
967.787353	2535.992772
968.086249	2533.832637
968.385108	2541.275901
968.683930	2535.100487
968.982714	2537.706764
969.281462	2541.845551
969.580172	2536.169212
969.878844	2537.817669
970.177480	2538.568801
970.476078	2536.448996
970.774639	2538.258770
971.073162	2539.801363
971.371649	2538.609130
971.670098	2534.157792
971.968510	2535.831455
972.266885	2534.006557
972.565223	2536.622916
972.863524	2538.004192
973.161788	2537.174922
973.460014	2535.816331
973.758204	2539.128369
974.056356	2538.228523
974.354471	2539.267001
974.652550	2539.161137
974.950591	2537.870601
975.248595	2538.205838
975.546563	2537.820190
975.844493	2538.256250
976.142386	2541.472506
976.440243	2537.343801
976.738062	2539.834131
977.035845	2539.307330
977.333590	2537.245498
977.631299	2535.314736
977.928971	2538.924203
978.226606	2534.881197
978.524204	2537.628626
978.821765	2538.281455
979.119290	2537.253060
979.416777	2532.882380
979.714228	2536.721218
980.011642	2536.426311
980.309020	2542.062321
980.606360	2535.251722
980.903664	2540.335726
981.200931	2537.860519
981.498162	2539.571991
981.795356	2541.031405
982.092513	2542.490819
982.389633	2546.818649
982.686717	2551.453990
982.983764	2552.505071
983.280775	2554.035061
983.577749	2555.413817
983.874686	2553.961964
984.171587	2548.956099
984.468451	2546.927034
984.765279	2543.690613
985.062070	2542.949564
985.358824	2539.256919
985.655543	2539.181301
985.952224	2540.053421
986.248869	2535.783564
986.545478	2534.646783
986.842050	2531.964890
987.138586	2532.617719
987.435086	2528.000022
987.731549	2528.962882
988.027975	2534.893800
988.324366	2532.534540
988.620719	2536.015457
988.917037	2535.092926
989.213318	2533.701567
989.509563	2533.721732
989.805772	2533.777184
990.101944	2534.659386
990.398080	2533.381454
990.694180	2530.203006
990.990244	2533.550332
991.286271	2534.427493
991.582262	2533.015970
991.878217	2533.499921
992.174136	2532.441279
992.470019	2533.368851
992.765865	2534.596372
993.061676	2534.029242
993.357450	2535.521424
993.653188	2535.624767
993.948890	2535.304654
994.244556	2534.634181
994.540186	2535.425642
994.835780	2534.614016
995.131337	2536.834644
995.426859	2532.133768
995.722345	2535.158461
996.017795	2539.350180
996.313208	2537.066537
996.608586	2536.174253
996.903928	2539.347659
997.199234	2538.941847
997.494504	2535.070240
997.789738	2537.729449
998.084936	2538.125180
998.380099	2537.822710
998.675225	2534.772812
998.970316	2535.534027
999.265371	2537.270704
999.560390	2532.101001
999.855373	2536.653163
1000.150320	2532.176618
1000.445232	2533.527647
1000.740108	2534.712318
1001.034948	2533.615867
1001.329752	2530.266021
1001.624521	2533.071423
1001.919254	2526.792666
1002.213951	2530.991947
1002.508613	2529.862728
1002.803239	2532.456402
1003.097829	2527.753006
1003.392384	2532.300126
1003.686903	2530.477749
1003.981386	2533.240302
1004.275834	2532.055630
1004.570246	2533.094108
1004.864623	2532.005219
1005.158964	2532.930271
1005.453270	2531.712832
1005.747540	2530.596216
1006.041775	2531.465815
1006.335974	2530.881042
1006.630138	2530.011442
1006.924266	2530.266021
1007.218359	2532.610157
1007.512416	2529.673685
1007.806438	2530.593696
1008.100425	2531.241484
1008.394376	2529.522451
1008.688292	2533.643594
1008.982172	2530.656710
1009.276017	2531.049920
1009.569827	2531.715352
1009.863602	2533.414221
1010.157341	2531.957328
1010.451045	2532.552184
1010.744714	2530.918850
1011.038347	2532.418593
1011.331945	2528.925074
1011.625508	2533.076464
1011.919036	2532.438758
1012.212528	2533.091588
1012.505986	2529.804755
1012.799408	2532.479087
1013.092795	2530.029087
1013.386147	2531.546474
1013.679464	2529.111597
1013.972745	2530.941535
1014.265992	2534.984541
1014.559204	2529.955990
1014.852380	2531.057482
1015.145521	2529.313243
1015.438628	2531.662420
1015.731699	2530.064375
1016.024736	2528.907430
1016.317737	2531.516227
1016.610703	2531.526309
1016.903635	2526.328880
1017.196531	2526.893489
1017.489393	2528.050434
1017.782219	2527.127903
1018.075011	2530.739889
1018.367768	2531.380116
1018.660490	2533.757020
1018.953177	2533.757020
1019.245829	2533.757020
