Dividing Wavelength (nm)	Counts (n)	Blue Motor Position (mm): 39.800000	Red Motor Position (mm): 0.000000	
326.493990	2132.488735
326.888308	2132.488735
327.282561	2132.488735
327.676750	2099.471698
328.070874	2096.996492
328.464933	2099.479260
328.858929	2106.793974
329.252859	2115.757146
329.646726	2127.505555
330.040528	2141.461989
330.434265	2154.808444
330.827938	2174.070693
331.221547	2194.384022
331.615091	2212.179295
332.008571	2230.677809
332.401986	2248.843607
332.795338	2268.073089
333.188625	2290.886830
333.581847	2307.890642
333.975006	2329.587768
334.368100	2346.982270
334.761129	2359.204547
335.154095	2375.709285
335.546996	2404.461506
335.939833	2425.213416
336.332606	2441.740839
336.725315	2453.350616
337.117960	2463.750516
337.510540	2472.980869
337.903056	2482.049905
338.295508	2488.694146
338.687896	2499.600682
339.080220	2506.358349
339.472480	2512.259019
339.864676	2517.416120
340.256807	2523.377284
340.648875	2524.977850
341.040879	2528.209230
341.432818	2525.766791
341.824694	2531.972451
342.216506	2530.074457
342.608253	2532.335414
342.999937	2531.564118
343.391557	2529.963552
343.783113	2533.320960
344.174605	2530.457585
344.566033	2526.903571
344.957397	2526.497758
345.348697	2522.568179
345.739934	2521.542304
346.131106	2521.403672
346.522215	2522.013652
346.913260	2516.387724
347.304241	2513.395799
347.695159	2513.398320
348.086012	2509.826663
348.476802	2506.330622
348.867528	2510.817249
349.258191	2505.529079
349.648789	2507.832886
350.039324	2504.198214
350.429796	2504.382216
350.820203	2501.022287
351.210548	2502.085971
351.600828	2500.634118
351.991045	2498.768892
352.381198	2499.814931
352.771288	2498.151350
353.161314	2497.503562
353.551276	2498.398367
353.941175	2497.629591
354.331010	2497.793428
354.720782	2496.901144
355.110490	2499.701505
355.500135	2498.221926
355.889717	2500.384581
356.279235	2499.852740
356.668689	2497.475836
357.058080	2499.572956
357.447408	2495.708911
357.836672	2493.629435
358.225873	2497.730414
358.615010	2495.668582
359.004084	2501.927174
359.393095	2499.953563
359.782043	2502.065806
360.170927	2503.358862
360.559748	2502.721156
360.948505	2502.345590
361.337199	2503.182422
361.725830	2505.967659
362.114398	2502.706033
362.502903	2504.165447
362.891344	2504.790550
363.279722	2505.554285
363.668037	2508.034532
364.056289	2508.125273
364.444478	2507.182577
364.832603	2509.113339
365.220665	2509.012516
365.608665	2508.064779
365.996601	2510.267763
366.384474	2511.643998
366.772284	2511.187774
367.160031	2512.107785
367.547715	2511.628875
367.935336	2511.603669
368.322893	2511.170130
368.710388	2512.788340
369.097820	2514.643485
369.485189	2514.948475
369.872495	2513.085768
370.259738	2515.006448
370.646918	2514.101561
371.034035	2512.500995
371.421090	2513.491581
371.808081	2517.269926
372.195010	2511.913700
372.581875	2515.729854
372.968678	2516.947292
373.355418	2516.654905
373.742096	2516.891840
374.128710	2520.027437
374.515262	2519.175482
374.901751	2518.550379
375.288177	2522.081708
375.674540	2519.432581
376.060841	2521.403672
376.447079	2522.147243
376.833254	2520.123219
377.219367	2516.296983
377.605417	2517.532066
377.991404	2516.037364
378.377329	2519.185565
378.763191	2516.685152
379.148991	2524.655217
379.534727	2522.548014
379.920402	2523.291584
380.306013	2523.780576
380.691563	2524.803931
381.077049	2524.685463
381.462474	2526.359127
381.847835	2529.048582
382.233134	2524.824095
382.618371	2524.362830
383.003545	2525.996163
383.388657	2526.903571
383.773706	2528.509179
384.158693	2527.599250
384.543618	2528.673016
384.928480	2529.005732
385.313280	2529.267872
385.698017	2529.126720
386.082692	2531.271731
386.467305	2531.453213
386.851856	2530.276103
387.236344	2537.011085
387.620770	2538.263811
388.005133	2537.610982
388.389435	2540.103832
388.773674	2544.287990
389.157851	2548.336037
389.541965	2553.190668
389.926018	2559.093859
390.310008	2570.862433
390.693936	2578.865264
391.077802	2589.842377
391.461606	2600.234716
391.845348	2613.941613
392.229027	2630.159005
392.612645	2644.211221
392.996200	2664.733758
393.379694	2687.275278
393.763125	2713.426263
394.146494	2730.505693
394.529801	2759.535177
394.913047	2788.395783
395.296230	2808.048721
395.679351	2840.314626
396.062410	2872.368803
396.445408	2896.445354
396.828343	2932.502207
397.211217	2966.461940
397.594028	2974.061479
397.976778	3021.960002
398.359466	3063.978020
398.742092	3106.623661
399.124656	3114.636575
399.507158	3174.533044
399.889598	3219.429560
400.271977	3284.941875
400.654294	3306.071871
401.036549	3343.078982
401.418742	3368.803990
401.800874	3454.783389
402.182944	3502.412211
402.564952	3575.554312
402.946898	3609.244343
403.328783	3646.415291
403.710606	3626.837970
404.092367	3786.435860
404.474067	3798.542191
404.855705	3838.460567
405.237282	3826.916325
405.618797	3938.598047
406.000250	3997.390504
406.381642	4086.387034
406.762972	4089.560440
407.144240	4132.511071
407.525447	4163.796472
407.906593	4240.842947
408.287677	4306.950118
408.668700	4278.039100
409.049661	4346.487887
409.430560	4410.041714
409.811399	4370.566959
410.192176	4531.868758
410.572891	4502.791383
410.953545	4612.628043
411.334138	4527.727450
411.714669	4607.838947
412.095139	4530.852966
412.475547	4677.994164
412.855894	4674.258669
413.236180	4698.551990
413.616405	4668.738606
413.996568	4760.737143
414.376670	4720.463365
414.756711	4681.671686
415.136691	4723.651895
415.516609	4808.023166
415.896466	4852.808777
416.276262	4894.428543
416.655997	4881.192993
417.035670	5059.775868
417.415283	5154.637781
417.794834	5100.296663
418.174324	5062.712341
418.553753	4973.599864
418.933121	5155.777082
419.312428	5227.434563
419.691674	5174.358775
420.070859	5299.260923
420.449983	5215.726483
420.829045	5329.528011
421.208047	5234.691304
421.586988	5311.500845
421.965867	5322.747659
422.344686	5459.199091
422.723444	5311.417666
423.102141	5133.243124
423.480777	5432.511222
423.859352	5202.939597
424.237866	5462.226303
424.616319	5452.469150
424.994712	5561.726077
425.373044	5433.610194
425.751314	5580.310291
426.129524	5384.864757
426.507673	5578.271144
426.885762	5664.023692
427.263789	5597.790492
427.641756	5478.259693
428.019662	5599.486840
428.397508	5602.665288
428.775292	5552.394902
429.153016	5654.483308
429.530679	5578.326597
429.908282	5664.353887
430.285824	5531.834556
430.663305	5812.203368
431.040726	5545.967431
431.418086	5547.036155
431.795385	5646.651876
432.172624	5667.393703
432.549802	5657.079503
432.926920	5673.309497
433.303977	5675.706566
433.680974	5715.219130
434.057910	5735.479527
434.434786	5740.908850
434.811601	5710.795517
435.188355	5942.970899
435.565050	5817.892310
435.941683	5794.559330
436.318257	6009.700652
436.694770	5991.577704
437.071222	6031.861565
437.447614	5957.920441
437.823946	5874.769128
438.200218	6034.407347
438.576429	5891.760338
438.952580	5995.270349
439.328670	6039.488830
439.704700	5946.416528
440.080670	5931.184681
440.456580	6203.986722
440.832429	6083.387198
441.208218	5934.264826
441.583947	6083.785449
441.959616	6091.508497
442.335224	6017.522002
442.710773	6152.083002
443.086261	6182.816396
443.461689	5973.709334
443.837057	6123.292972
444.212365	6283.279030
444.587612	6173.744840
444.962800	6325.778478
445.337927	6307.219470
445.712995	5921.190594
446.088002	6494.205948
446.462949	6320.805380
446.837837	6259.757007
447.212664	6429.243119
447.587431	6574.042702
447.962139	7118.129395
448.336786	8043.032412
448.711374	7785.815099
449.085901	6850.875145
449.460369	6775.109123
449.834776	6708.349123
450.209124	7103.056345
450.583412	7253.653255
450.957640	7396.834627
451.331808	7160.956518
451.705917	6712.256017
452.079965	6637.682228
452.453954	6849.287181
452.827883	6728.244036
453.201752	6822.977399
453.575562	6615.380163
453.949311	6824.998902
454.323001	6709.974895
454.696632	6789.189066
455.070202	6922.283089
455.443713	7082.415341
455.817164	7181.199271
456.190556	7258.394460
456.563888	7339.254568
456.937160	7381.796865
457.310373	7035.053701
457.683526	7062.890952
458.056619	6955.078315
458.429653	6943.768487
458.802628	6875.188630
459.175542	6988.430589
459.548398	7341.192891
459.921194	7501.950246
460.293930	7502.764393
460.666607	8028.385340
461.039224	8337.874377
461.411782	8463.197462
461.784280	8484.400555
462.156719	8377.979277
462.529099	8251.360615
462.901419	7840.541865
463.273680	7737.636792
463.645882	7749.604491
464.018024	7612.399407
464.390106	7779.223790
464.762130	8171.894387
465.134094	8636.756827
465.505999	9656.816664
465.877845	10879.039373
466.249631	11517.584686
466.621358	11134.088990
466.993026	10518.906903
467.364634	10263.159087
467.736184	9895.553107
468.107674	9567.086646
468.479105	9601.694167
468.850477	9362.362868
469.221790	9133.189493
469.593043	8810.447262
469.964238	8664.752875
470.335373	8677.970780
470.706449	8739.145182
471.077467	8714.438487
471.448425	10025.246872
471.819324	11094.485685
472.190164	11121.067689
472.560945	9870.491011
472.931667	9085.003624
473.302330	8948.239641
473.672934	8599.296013
474.043479	8954.102503
474.413965	8895.357937
474.784393	8777.891491
475.154761	8933.708515
475.525070	9018.674642
475.895321	8853.803706
476.265513	9031.942959
476.635645	9196.461015
477.005719	9192.208802
477.375734	9311.167430
477.745691	9541.490187
478.115588	9678.057565
478.485427	9923.564278
478.855207	10464.981681
479.224928	11281.038624
479.594591	11903.774879
479.964194	11715.855787
480.333739	11650.663586
480.703226	11563.582694
481.072653	11659.465441
481.442022	11897.783468
481.811333	12085.987385
482.180584	11893.314485
482.549777	11604.615166
482.918912	11420.928123
483.287988	11443.951073
483.657005	11462.439504
484.025964	11144.491411
484.394864	11270.192582
484.763706	11241.314332
485.132489	10995.338792
485.501213	10965.684204
485.869879	11043.249918
486.238487	10878.409228
486.607036	10987.615744
486.975527	10773.563311
487.343959	10964.983484
487.712333	11008.886893
488.080648	10944.927253
488.448905	10989.601959
488.817104	10923.998903
489.185244	11191.810201
489.553326	11342.759991
489.921350	11886.108156
490.289315	12934.970625
490.657222	13284.499027
491.025070	13188.964120
491.392861	13065.284452
491.760593	12685.993078
492.128267	12327.839262
492.495883	12012.137002
492.863440	11672.373315
493.230939	11334.484937
493.598380	11279.044848
493.965763	11136.733075
494.333088	11033.825481
494.700354	10958.664398
495.067563	11018.076916
495.434713	10844.724238
495.801805	10972.870369
496.168839	10903.597353
496.535815	10833.351395
496.902733	10836.852477
497.269593	10763.037381
497.636395	10863.898267
498.003139	10859.865344
498.369825	10727.782072
498.736453	10889.182174
499.103023	10810.265431
499.469535	10845.634167
499.835989	10827.158338
500.202385	10795.409151
500.568723	10644.582869
500.935003	10867.961437
501.301226	10671.386684
501.667390	10927.106774
502.033497	11024.012875
502.399546	10884.642615
502.765537	10790.912442
503.131470	10862.892557
503.497345	11044.565659
503.863163	10650.879270
504.228923	10967.075563
504.594625	11019.690085
504.960269	10773.810327
505.325856	10993.196301
505.691385	10786.176278
506.056856	10940.271748
506.422270	10962.929214
506.787625	10854.413336
507.152924	10972.948507
507.518164	10953.948398
507.883347	10876.775894
508.248472	10796.160283
508.613540	11021.434325
508.978550	10906.864021
509.343503	10887.707637
509.708398	11005.910091
510.073236	11117.571649
510.438016	11122.827052
510.802738	11071.883672
511.167403	11117.997627
511.532010	11022.777792
511.896561	11246.305074
512.261053	11324.884060
512.625488	11196.047291
512.989866	11176.336379
513.354186	11156.701085
513.718449	11065.274719
514.082655	11264.153279
514.446803	11154.722432
514.810894	11273.285330
515.174927	11145.890331
515.538904	11165.139977
515.902822	11319.205200
516.266684	11198.923269
516.630488	11147.201031
516.994235	11196.425377
517.357925	11260.339647
517.721558	11355.277176
518.085133	11372.296112
518.448651	11379.124355
518.812112	11259.230593
519.175516	11271.835998
519.538863	11390.630788
519.902152	11311.414097
520.265385	11472.720937
520.628560	11381.982689
520.991678	11363.680780
521.354739	11426.158320
521.717743	11362.362518
522.080690	11339.334527
522.443580	11468.935031
522.806413	11432.784917
523.169189	11460.571757
523.531908	11514.557473
523.894569	11339.032058
524.257174	11342.570948
524.619722	11462.068979
524.982213	11401.076059
525.344647	11457.867178
525.707025	11413.285734
526.069345	11505.193530
526.431608	11429.424988
526.793815	11536.829291
527.155964	11317.153450
527.518057	11369.745288
527.880093	11322.933133
528.242072	11386.202135
528.603995	11295.746191
528.965860	11214.923892
529.327669	11269.844742
529.689421	11220.080992
530.051117	11187.295848
530.412755	11291.582197
530.774337	11186.227123
531.135862	11160.653350
531.497331	11183.739314
531.858743	11040.764629
532.220098	11209.224867
532.581396	11069.486603
532.942638	11059.658874
533.303824	11018.016422
533.664953	11038.982581
534.026025	10946.737028
534.387040	11042.329907
534.747999	11048.223016
535.108902	11111.938160
535.469748	10867.757270
535.830537	10974.894392
536.191270	10950.953953
536.551947	10974.208795
536.912567	10972.381377
537.273131	10892.216949
537.633638	10877.411080
537.994089	10866.340706
538.354483	10815.225927
538.714821	10965.893412
539.075103	10972.998918
539.435328	10931.759759
539.795497	10764.950499
540.155609	10919.739128
540.515665	11011.513334
540.875665	10734.748947
541.235609	10809.758795
541.595496	10805.178907
541.955328	10959.564243
542.315102	10842.871614
542.674821	10794.436208
543.034483	10793.521239
543.394090	10802.212188
543.753640	10728.487833
544.113134	10940.982550
544.472571	10800.543566
544.831953	10946.157295
545.191278	10749.390978
545.550548	10775.473908
545.909761	10910.886862
546.268918	10896.103678
546.628019	10974.869187
546.987064	10838.810965
547.346053	10760.859603
547.704986	10859.217556
548.063863	10845.654331
548.422684	10837.429689
548.781449	10759.737946
549.140158	10853.556340
549.498811	10731.048740
549.857408	10592.240568
550.215949	10823.516104
550.574434	10668.578761
550.932864	10775.206727
551.291237	10833.482465
551.649555	10773.006263
552.007817	10789.654674
552.366022	10753.214693
552.724173	10746.426779
553.082267	10734.353216
553.440305	10868.319359
553.798288	10661.458131
554.156215	10824.567185
554.514086	10795.603235
554.871902	10644.121603
555.229661	10685.804384
555.587365	10659.053501
555.945014	10562.182689
556.302606	10678.635863
556.660143	10575.274565
557.017625	10733.072763
557.375050	10622.479930
557.732421	10763.785993
558.089735	10678.419093
558.446994	10673.912302
558.804197	10708.093846
559.161345	10710.823630
559.518437	10553.554754
559.875474	10647.375668
560.232455	10672.372229
560.589381	10632.466456
560.946251	10624.841710
561.303065	10732.540921
561.659825	10667.978864
562.016528	10608.566345
562.373177	10475.510131
562.729770	10602.055695
563.086307	10510.155460
563.442789	10606.350758
563.799216	10485.705864
564.155587	10531.298060
564.511904	10488.347429
564.868164	10478.507097
565.224370	10492.730712
565.580520	10414.315564
565.936615	10426.056411
566.292654	10291.361822
566.648638	10423.908880
567.004567	10375.586900
567.360441	10366.129695
567.716260	10269.594119
568.072023	10368.405776
568.427732	10316.955760
568.783385	10228.869158
569.138982	10293.690835
569.494525	10320.282921
569.850013	10191.012613
570.205445	10273.193503
570.560823	10168.289612
570.916145	10090.406306
571.271412	10159.858283
571.626625	10100.566752
571.981782	10075.613040
572.336884	10047.730418
572.691931	10055.231655
573.046923	10003.179221
573.401860	9955.600811
573.756743	9894.854907
574.111570	9933.729765
574.466342	9918.863402
574.821059	9948.013874
575.175722	9840.733079
575.530330	9844.294655
575.884882	9843.450261
576.239380	9772.405280
576.593823	9748.898380
576.948211	9762.466645
577.302544	9650.507660
577.656823	9661.605760
578.011047	9663.463425
578.365216	9635.124579
578.719330	9558.189009
579.073389	9569.425741
579.427394	9519.906487
579.781344	9496.230708
580.135239	9443.253222
580.489080	9451.235889
580.842866	9354.665026
581.196597	9362.146098
581.550273	9397.782014
581.903895	9373.332418
582.257463	9434.703425
582.610975	9310.864960
582.964434	9336.799176
583.317837	9263.478114
583.671186	9239.013395
584.024481	9235.832427
584.377721	9157.671857
584.730906	9141.141913
585.084037	9163.862394
585.437113	9103.300492
585.790135	9120.914283
586.143103	9018.112554
586.496016	8991.878389
586.848874	9050.655722
587.201679	9040.626347
587.554428	8923.399355
587.907124	8971.849885
588.259765	8944.841903
588.612352	8945.446842
588.964884	8821.736926
589.317362	8836.888114
589.669786	8839.038166
590.022155	8886.414930
590.374470	8897.533195
590.726731	8831.582300
591.078937	8692.282616
591.431090	8801.138772
591.783188	8675.490532
592.135232	8663.905961
592.487222	8664.430241
592.839157	8719.973674
593.191038	8648.454824
593.542866	8597.700487
593.894639	8499.143409
594.246358	8551.160555
594.598022	8565.958862
594.949633	8468.835992
595.301190	8442.621992
595.652692	8467.295920
596.004141	8577.883712
596.355535	8356.314918
596.706876	8340.389913
597.058162	8270.126311
597.409395	8351.694700
597.760573	8407.984224
598.111698	8319.673291
598.462768	8306.591497
598.813785	8275.525386
599.164748	8241.835355
599.515657	8233.824962
599.866511	8140.440107
600.217312	8263.522399
600.568060	8123.164073
600.918753	8233.575425
601.269392	8193.583951
601.619978	8107.438194
601.970510	8169.830034
602.320988	8164.352821
602.671412	8226.195175
603.021783	8156.639855
603.372100	8137.876681
603.722363	8136.752503
604.072572	8108.204449
604.422728	8126.279506
604.772830	8050.127836
605.122878	8053.729741
605.472872	8054.995070
605.822813	8088.468332
606.172701	8029.675875
606.522534	8105.371321
606.872314	8102.502904
607.222041	8074.373266
607.571714	8125.440154
607.921333	8089.000173
608.270899	8092.103004
608.620411	8186.768311
608.969870	8092.667613
609.319276	8083.054132
609.668627	8098.003674
610.017926	8135.114128
610.367171	8182.148094
610.716362	8159.538519
611.065500	8145.758525
611.414585	8172.297679
611.763616	8158.936101
612.112594	8148.170717
612.461518	8163.500866
612.810389	8220.670071
613.159207	8160.531626
613.507971	8110.402392
613.856682	8230.099549
614.205340	8182.906787
614.553945	8262.204137
614.902496	8162.401894
615.250994	8221.804330
615.599439	8192.416924
615.947830	8205.344963
616.296169	8176.491919
616.644454	8196.515382
616.992686	8196.114610
617.340864	8246.561437
617.688990	8158.699167
618.037063	8245.296107
618.385082	8193.707459
618.733048	8274.355839
619.080961	8221.441367
619.428821	8233.693892
619.776628	8239.748318
620.124382	8191.174280
620.472083	8176.272629
620.819731	8203.474695
621.167326	8098.986699
621.514868	8103.334694
621.862357	7995.585072
622.209793	8007.240220
622.557176	7940.800333
622.904506	7915.403000
623.251783	7849.260541
623.599007	7804.308572
623.946179	7803.885115
624.293297	7762.716532
624.640363	7683.126795
624.987376	7662.405132
625.334336	7611.116433
625.681243	7560.672127
626.028097	7546.297277
626.374899	7524.569904
626.721647	7514.963985
627.068343	7449.912936
627.414987	7419.827330
627.761577	7377.164045
628.108115	7418.882113
628.454600	7304.886501
628.801032	7361.324739
629.147412	7318.810168
629.493739	7309.045453
629.840014	7246.399034
630.186236	7299.694113
630.532405	7185.471649
630.878521	7236.152889
631.224585	7192.463729
631.570597	7115.999508
631.916556	7146.967316
632.262462	7144.386245
632.608316	7103.131963
632.954117	7084.290650
633.299866	7072.290183
633.645562	7063.659728
633.991206	6983.137378
634.336797	6922.038593
634.682336	6878.571244
635.027823	6850.315577
635.373257	6836.202867
635.718639	6773.170799
636.063968	6787.457429
636.409245	6679.170924
636.754470	6676.292425
637.099642	6638.398072
637.444762	6580.734834
637.789829	6590.270176
638.134845	6531.898656
638.479808	6513.274113
638.824719	6520.661924
639.169577	6448.875893
639.514383	6470.147042
639.859137	6399.386886
640.203839	6403.543317
640.548489	6389.889352
640.893086	6367.136104
641.237632	6337.804150
641.582125	6361.767275
641.926566	6329.970197
642.270955	6342.474779
642.615292	6336.062432
642.959576	6351.773188
643.303809	6343.006621
643.647990	6355.387695
643.992118	6339.089645
644.336195	6285.615605
644.680219	6318.675492
645.024192	6299.957688
645.368112	6396.957050
645.711981	6423.090391
646.055797	6498.314489
646.399562	6455.182377
646.743274	6581.841367
647.086935	6639.562578
647.430544	6631.894983
647.774101	6651.069012
648.117606	6654.950701
648.461059	6647.681357
648.804460	6610.885975
649.147810	6519.686461
649.491108	6489.374003
649.834354	6460.967101
650.177548	6378.208998
650.520690	6295.483664
650.863781	6276.889368
651.206820	6291.216327
651.549807	6216.347631
651.892742	6152.861860
652.235626	6169.154869
652.578458	6143.555890
652.921238	6053.389812
653.263967	6095.518735
653.606644	6030.881060
653.949269	6031.685124
654.291843	5981.762578
654.634365	6033.762080
654.976836	5983.098483
655.319255	5977.394418
655.661622	5959.301717
656.003938	5952.304595
656.346203	5914.614408
656.688416	5943.621208
657.030577	5903.574282
657.372687	5865.150607
657.714746	5856.905800
658.056753	5899.175875
658.398708	5841.442060
658.740612	5830.888405
659.082465	5876.493203
659.424266	5868.699579
659.766016	5867.308221
660.107715	5837.089024
660.449362	5859.650708
660.790958	5854.992682
661.132503	5841.663871
661.473996	5877.090580
661.815438	5863.227407
662.156829	5861.856213
662.498168	5847.768708
662.839456	5827.465461
663.180693	5865.642119
663.521879	5868.021544
663.863013	5856.300861
664.204097	5875.951279
664.545129	5917.203041
664.886110	5912.063585
665.227040	5943.018790
665.567918	5907.508902
665.908746	5935.938489
666.249522	5947.114727
666.590248	5924.255615
666.930922	5952.110511
667.271545	5971.314786
667.612118	5970.603984
667.952639	5945.935097
668.293109	5970.903932
668.633528	5924.618578
668.973896	5922.859216
669.314213	5917.455099
669.654480	5901.842645
669.994695	5894.054063
670.334859	5886.499893
670.674973	5875.076639
671.015035	5882.121651
671.355047	5876.583944
671.695008	5862.700606
672.034918	5838.644220
672.374777	5849.086970
672.714585	5834.732285
673.054342	5838.734961
673.394049	5828.027550
673.733705	5861.689855
674.073310	5848.106466
674.412864	5808.094828
674.752368	5799.814733
675.091820	5802.257172
675.431223	5741.077728
675.770574	5747.265745
676.109875	5695.036870
676.449125	5700.206574
676.788324	5663.824566
677.127473	5612.180466
677.466571	5601.276450
677.805619	5586.110139
678.144616	5572.262089
678.483562	5553.667793
678.822458	5522.029512
679.161303	5515.465929
679.500098	5506.817830
679.838842	5489.924923
680.177535	5494.706458
680.516179	5513.893089
680.854771	5522.868864
681.193314	5601.374752
681.531805	5706.051792
681.870247	5861.037025
682.208638	5966.276153
682.546978	5979.005067
682.885268	5949.947856
683.223508	5868.724785
683.561697	5812.611702
683.899836	5786.450634
684.237925	5741.995218
684.575963	5702.810330
684.913951	5660.850286
685.251889	5727.713630
685.589776	5693.390934
685.927614	5666.120812
686.265401	5735.217387
686.603137	5721.076951
686.940824	5795.191994
687.278460	5821.617723
687.616046	5830.306152
687.953582	5894.623713
688.291068	5879.260797
688.628504	5943.583399
688.965889	5903.654940
689.303224	5844.580179
689.640510	5800.727181
689.977745	5725.702209
690.314930	5627.364421
690.652065	5572.430968
690.989150	5474.930011
691.326185	5408.112037
691.663170	5348.074416
692.000105	5268.832518
692.336990	5191.526424
692.673825	5171.553373
693.010610	5098.559986
693.347345	5031.583216
693.684030	5015.799363
694.020665	4973.501562
694.357251	4885.082244
694.693786	4894.305035
695.030272	4860.163820
695.366707	4826.879602
695.703093	4791.881391
696.039429	4817.863498
696.375716	4797.411537
696.711952	4770.380870
697.048139	4758.511473
697.384276	4739.435747
697.720363	4749.253394
698.056400	4758.342595
698.392388	4708.236046
698.728326	4687.040515
699.064214	4665.512267
699.400053	4659.553623
699.735842	4626.173623
700.071581	4606.379533
700.407270	4576.392229
700.742910	4562.725661
701.078501	4504.817927
701.414042	4506.516796
701.749533	4472.753668
702.084974	4405.184562
702.420366	4463.304025
702.755709	4403.470570
703.091002	4347.654914
703.426246	4397.877410
703.761440	4357.459959
704.096584	4316.982014
704.431679	4336.392977
704.766725	4326.582891
705.101721	4315.182322
705.436668	4343.274152
705.771565	4287.919762
706.106413	4318.575018
706.441212	4349.469730
706.775961	4356.227397
707.110661	4335.493131
707.445311	4361.727295
707.779913	4389.037746
708.114465	4399.661978
708.448967	4424.940844
708.783421	4486.616841
709.117825	4526.444477
709.452180	4529.406155
709.786485	4573.642280
710.120742	4667.143081
710.454949	4643.119462
710.789107	4711.233012
711.123216	4787.114980
711.457275	4779.530564
711.791286	4852.445814
712.125247	4867.864183
712.459159	4770.590078
712.793023	4845.390719
713.126837	4803.647444
713.460602	4797.877844
713.794318	4716.231316
714.127985	4726.606011
714.461602	4643.961335
714.795171	4610.924133
715.128691	4546.160429
715.462162	4489.853262
715.795584	4440.709573
716.128957	4425.177778
716.462281	4372.129716
716.795556	4343.294316
717.128782	4307.630673
717.461960	4240.583327
717.795088	4243.713884
718.128167	4203.568655
718.461198	4147.148061
718.794180	4141.693533
719.127113	4121.712920
719.459997	4099.688118
719.792833	4056.654309
720.125619	4047.328174
720.458357	4011.062113
720.791046	4017.406405
721.123686	3993.314731
721.456278	3949.519707
721.788821	3964.827171
722.121315	3938.666103
722.453761	3912.048811
722.786158	3929.009773
723.118506	3953.605562
723.450805	3901.530443
723.783056	3923.981222
724.115259	3940.589303
724.447412	3942.260446
724.779518	3936.851287
725.111574	3942.910754
725.443582	3972.739262
725.775542	3955.992549
726.107453	4010.457175
726.439315	4007.588758
726.771129	4021.159544
727.102895	4059.202612
727.434612	4106.914613
727.766281	4120.223259
728.097901	4119.749390
728.429473	4122.663177
728.760996	4131.306235
729.092471	4124.641830
729.423897	4109.465436
729.755276	4116.434832
730.086606	4117.407774
730.417887	4153.252899
730.749120	4216.015264
731.080305	4285.189977
731.411442	4310.741065
731.742530	4279.019605
732.073570	4280.121097
732.404562	4334.063964
732.735506	4328.138087
733.066401	4291.630051
733.397249	4230.188468
733.728048	4148.864574
734.058798	4064.369795
734.389501	3992.072087
734.720156	3935.669137
735.050762	3887.047208
735.381320	3882.996641
735.711831	3831.710462
736.042293	3801.077891
736.372707	3824.362981
736.703073	3794.421047
737.033391	3785.967032
737.363661	3806.247594
737.693883	3829.759536
738.024056	3837.414528
738.354182	3832.706090
738.684260	3895.670102
739.014290	3918.735901
739.344272	3909.911361
739.674207	3954.933906
740.004093	3962.979588
740.333931	3957.361222
740.663722	3954.868371
740.993464	3952.425932
741.323159	3925.415430
741.652806	3901.679157
741.982405	3870.935680
742.311956	3838.400073
742.641460	3831.584433
742.970915	3810.542657
743.300323	3769.258128
743.629683	3733.438209
743.958996	3724.671643
744.288260	3699.170966
744.617477	3664.074453
744.946647	3650.450735
745.275768	3624.763535
745.604842	3617.645426
745.933869	3572.164136
746.262847	3563.624421
746.591778	3602.131275
746.920662	3574.248653
747.249498	3544.437790
747.578286	3589.843462
747.907027	3609.299796
748.235720	3607.331225
748.564365	3630.119761
748.892963	3630.855770
749.221514	3615.666773
749.550017	3587.133842
749.878473	3586.380190
750.206881	3556.705438
750.535242	3554.182340
750.863555	3556.392886
751.191821	3550.414078
751.520039	3531.434133
751.848210	3512.345804
752.176334	3541.526523
752.504411	3551.210580
752.832440	3509.883201
753.160421	3493.970799
753.488356	3499.130420
753.816243	3509.532841
754.144082	3471.648569
754.471875	3455.479068
754.799620	3473.992706
755.127318	3464.659010
755.454969	3465.561376
755.782572	3472.213179
756.110129	3446.652008
756.437638	3437.187242
756.765100	3452.474541
757.092515	3461.404945
757.419882	3470.521872
757.747203	3443.448355
758.074477	3443.841565
758.401703	3459.733802
758.728882	3478.524703
759.056014	3487.407216
759.383099	3490.444512
759.710138	3489.683297
760.037129	3501.305677
760.364073	3536.195503
760.690970	3523.358205
761.017820	3501.809793
761.344623	3516.890405
761.671379	3563.974782
761.998088	3613.267184
762.324751	3738.043303
762.651366	3985.430367
762.977935	4461.658088
763.304456	4903.626128
763.630931	5002.778063
763.957359	4639.134430
764.283740	4299.426196
764.610074	4102.922019
764.936362	3908.252822
765.262602	3747.291300
765.588796	3637.550422
765.914943	3548.543810
766.241044	3459.915284
766.567097	3431.382353
766.893104	3382.510887
767.219064	3353.551979
767.544978	3321.699448
767.870845	3270.166253
768.196665	3252.527256
768.522438	3258.236362
768.848165	3253.732092
769.173846	3218.829663
769.499479	3200.560521
769.825066	3185.686597
770.150607	3165.728669
770.476101	3185.240455
770.801548	3175.208559
771.126949	3135.333032
771.452303	3115.591873
771.777611	3122.072277
772.102872	3127.456229
772.428087	3102.893207
772.753256	3094.555138
773.078378	3086.534662
773.403453	3052.665670
773.728482	3042.255688
774.053465	3061.051630
774.378401	3045.708878
774.703291	3016.729805
775.028135	3016.744929
775.352932	3011.388703
775.677683	3001.533247
776.002388	2998.760612
776.327046	2999.428565
776.651658	2988.461535
776.976224	2977.567602
777.300743	2976.158599
777.625216	2967.102166
777.949643	2960.919191
778.274024	2964.715180
778.598359	2953.909467
778.922647	2959.633697
779.246889	2956.034313
779.571086	2940.540327
779.895236	2936.948504
780.219339	2946.405709
780.543397	2958.922894
780.867409	2965.904892
781.191374	2956.898871
781.515294	2953.682615
781.839167	2954.153963
782.162995	2944.406892
782.486776	2955.769652
782.810511	2949.561471
783.134201	2936.550253
783.457844	2942.493774
783.781441	2936.527568
784.104993	2916.287335
784.428498	2916.201636
784.751958	2929.137237
785.075372	2925.575661
785.398739	2908.009761
785.722061	2925.195054
786.045337	2935.045469
786.368568	2918.868406
786.691752	2913.076120
787.014891	2963.306177
787.337983	2990.588902
787.661030	3018.564785
787.984031	3085.539035
788.306987	3128.320787
788.629897	3123.461114
788.952760	3107.982252
789.275579	3091.381732
789.598351	3033.287475
789.921078	2988.275012
790.243759	2978.129690
790.566395	2959.855508
790.888984	2935.910027
791.211529	2924.280085
791.534027	2914.081831
791.856480	2901.859553
792.178888	2886.809188
792.501249	2880.762324
792.823566	2873.397198
793.145836	2873.324102
793.468062	2870.972403
793.790241	2866.087525
794.112375	2874.203783
794.434464	2886.105947
794.756507	2889.385218
795.078505	2894.922925
795.400457	2908.773496
795.722364	2948.480144
796.044226	2972.329843
796.366042	2972.619709
796.687812	2963.036476
797.009538	2983.979949
797.331218	2968.929584
797.652852	2955.706638
797.974442	2938.486056
798.295986	2934.294337
798.617484	2927.221598
798.938938	2914.278436
799.260346	2898.618091
799.581709	2893.216495
799.903026	2887.739281
800.224299	2882.773745
800.545526	2870.594317
800.866708	2854.810464
801.187845	2846.817715
801.508936	2844.854185
801.829983	2854.525639
802.150984	2840.826303
802.471940	2824.888696
802.792851	2826.920281
803.113717	2827.184941
803.434538	2834.998730
803.755314	2826.511947
804.076045	2819.930721
804.396731	2817.818477
804.717372	2818.751091
805.037967	2814.362766
805.358518	2821.551452
805.679024	2833.009994
805.999485	2828.268789
806.319901	2832.331959
806.640272	2823.295691
806.960598	2829.602174
807.280879	2838.073833
807.601115	2846.217817
807.921306	2835.099553
808.241453	2828.014211
808.561554	2834.131651
808.881611	2839.422342
809.201623	2833.680468
809.521590	2831.749706
809.841513	2825.667554
810.161390	2829.418172
810.481223	2826.360712
810.801011	2817.410144
811.120755	2810.493681
811.440453	2813.548620
811.760107	2814.801347
812.079716	2812.850420
812.399281	2803.065541
812.718801	2797.636218
813.038276	2792.151442
813.357707	2799.491362
813.677093	2803.572177
813.996434	2799.556897
814.315731	2795.178655
814.634983	2789.436781
814.954191	2792.786628
815.273354	2806.790953
815.592473	2811.267498
815.911547	2814.241779
816.230577	2822.360557
816.549562	2834.723987
816.868502	2833.619974
817.187399	2842.104236
817.506250	2859.700383
817.825058	2851.296780
818.143821	2861.565610
818.462539	2879.504556
818.781213	2907.034298
819.099843	2944.424536
819.418429	3000.209944
819.736970	3062.737896
820.055466	3136.852940
820.373919	3238.008733
820.692327	3382.596587
821.010691	3552.606980
821.329011	3992.596367
821.647286	4896.109768
821.965517	6283.521006
822.283704	7028.943822
822.601847	7014.682398
822.919945	6374.418051
823.237999	5869.236462
823.556010	5282.277276
823.873976	4730.462493
824.191897	4319.938651
824.509775	4022.656767
824.827609	3750.898246
825.145398	3626.114564
825.463144	3611.470012
825.780845	3705.124569
826.098502	3808.679951
826.416116	4093.290894
826.733685	4410.634049
827.051210	4475.886745
827.368692	4359.531873
827.686129	4091.105554
828.003522	3767.879372
828.320872	3506.452696
828.638177	3311.627223
828.955439	3176.017664
829.272656	3088.967019
829.589830	3022.542256
829.906960	2971.835810
830.224046	2926.631783
830.541088	2893.982750
830.858086	2876.159751
831.175041	2858.293902
831.491952	2858.104858
831.808819	2872.235212
832.125642	2894.963255
832.442421	2941.523352
832.759157	3026.441588
833.075849	3199.857280
833.392497	3482.834890
833.709101	3689.807023
834.025662	3640.494456
834.342179	3478.575115
834.658653	3301.295378
834.975083	3153.193840
835.291469	3055.312276
835.607811	2968.483442
835.924110	2911.331881
836.240366	2862.283975
836.556578	2818.982984
836.872746	2792.406021
837.188871	2773.436159
837.504952	2757.097779
837.820990	2744.721747
838.136984	2734.014336
838.452935	2725.378839
838.768842	2723.984960
839.084706	2738.299317
839.400526	2822.569765
839.716303	2951.628344
840.032037	3037.612785
840.347727	3020.026720
840.663373	2958.809468
840.978977	2882.476317
841.294537	2812.031233
841.610054	2761.629777
841.925527	2736.849985
842.240957	2716.024978
842.556344	2695.434385
842.871687	2682.289577
843.186987	2670.972186
843.502244	2668.529747
843.817458	2661.709066
844.132629	2650.590801
844.447756	2642.225007
844.762840	2636.704943
845.077881	2638.998668
845.392879	2632.480456
845.707833	2632.059520
846.022745	2626.103397
846.337613	2629.337297
846.652438	2628.255969
846.967221	2626.970475
847.281960	2623.986112
847.596656	2623.066101
847.911309	2621.621811
848.225919	2618.942437
848.540485	2616.026130
848.855009	2614.970008
849.169490	2614.828856
849.483928	2618.113168
849.798323	2613.792899
850.112675	2615.910183
850.426984	2615.663167
850.741251	2612.308279
851.055474	2612.981273
851.369654	2616.162241
851.683792	2615.522015
851.997887	2611.925151
852.311938	2612.124277
852.625947	2614.491099
852.939914	2617.427571
853.253837	2617.999742
853.567718	2613.669391
853.881555	2611.267281
854.195350	2614.385234
854.509103	2613.180399
854.822812	2614.186109
855.136479	2613.124946
855.450103	2615.050667
855.763685	2618.271964
856.077224	2614.251644
856.390720	2609.845675
856.704173	2613.497991
857.017584	2621.089969
857.330953	2618.874382
857.644278	2621.886471
857.957561	2620.008642
858.270802	2615.295163
858.584000	2616.835235
858.897155	2619.144084
859.210268	2620.482510
859.523339	2618.710544
859.836367	2610.806015
860.149352	2613.160234
860.462295	2615.280039
860.775195	2609.265943
861.088054	2608.182095
861.400869	2611.499174
861.713642	2607.985490
862.026373	2607.335181
862.339062	2610.924482
862.651708	2616.694083
862.964312	2616.714247
863.276873	2613.674432
863.589392	2619.570061
863.901869	2623.539970
864.214303	2627.605660
864.526696	2629.884262
864.839045	2632.432565
865.151353	2632.848460
865.463619	2635.737042
865.775842	2633.158491
866.088023	2636.200828
866.400162	2634.940539
866.712258	2632.697226
867.024313	2631.005919
867.336325	2630.501803
867.648296	2631.474746
867.960224	2636.596558
868.272110	2636.175622
868.583954	2630.766464
868.895755	2628.613891
869.207515	2636.034470
869.519233	2643.689462
869.830909	2637.564460
870.142542	2633.622277
870.454134	2636.369706
870.765684	2641.700727
871.077191	2642.509832
871.388657	2646.963691
871.700081	2643.777682
872.011463	2644.483443
872.322803	2647.518218
872.634101	2646.610810
872.945357	2655.493323
873.256571	2659.949703
873.567744	2657.960968
873.878874	2656.917449
874.189963	2657.068684
874.501010	2662.150167
874.812015	2668.191990
875.122979	2665.129489
875.433900	2659.674961
875.744780	2657.718993
876.055618	2665.510096
876.366415	2669.490087
876.677169	2667.629901
876.987882	2664.363234
877.298554	2662.223264
877.609183	2672.378668
877.919771	2679.665656
878.230317	2686.534228
878.540822	2696.180476
878.851285	2712.213866
879.161707	2735.340159
879.472087	2775.634102
879.782425	2821.478355
880.092722	2937.666869
880.402977	3126.062350
880.713191	3389.190416
881.023363	3687.873740
881.333494	3878.447000
881.643583	4051.371179
881.953631	4049.200963
882.263637	3873.889797
882.573602	3655.610356
882.883526	3518.455683
883.193408	3403.328332
883.503248	3300.140954
883.813048	3184.010413
884.122806	3070.166036
884.432522	2980.612458
884.742197	2917.383786
885.051831	2878.340050
885.361424	2843.193125
885.670975	2808.983855
885.980485	2777.890018
886.289954	2756.765063
886.599382	2743.847106
886.908768	2735.083060
887.218113	2712.813763
887.527417	2700.997299
887.836680	2691.973633
888.145901	2686.554393
888.455082	2677.684483
888.764221	2665.684016
889.073319	2661.260403
889.382376	2658.507933
889.691392	2659.957265
890.000366	2659.324600
890.309300	2658.964158
890.618193	2657.454332
890.927044	2663.385250
891.235855	2662.298881
891.544625	2659.248983
891.853353	2660.262255
892.162041	2670.372289
892.470687	2690.393232
892.779293	2702.779347
893.087858	2710.530121
893.396381	2734.649521
893.704864	2775.888680
894.013306	2846.797550
894.321707	2941.684668
894.630068	2992.335662
894.938387	3013.455576
895.246665	3006.919720
895.554903	2961.486321
895.863100	2919.858993
896.171256	2857.860362
896.479371	2798.772998
896.787446	2760.213212
897.095480	2737.621281
897.403473	2731.687843
897.711425	2718.449773
898.019336	2698.819520
898.327207	2683.340657
898.635038	2685.102541
898.942827	2683.242355
899.250576	2671.650222
899.558284	2659.375012
899.865952	2656.617501
900.173579	2650.159783
900.481165	2650.459731
900.788711	2641.720891
901.096216	2634.895169
901.403681	2633.166053
901.711105	2631.782256
902.018489	2631.192441
902.325832	2635.502628
902.633135	2635.527834
902.940397	2653.872592
903.247619	2691.310722
903.554800	2758.411000
903.861941	2888.976884
904.169041	3018.065711
904.476101	3080.465113
904.783121	3073.873805
905.090100	3016.165196
905.397039	2939.859771
905.703938	2865.986702
906.010796	2801.490180
906.317614	2749.074783
906.624391	2714.512632
906.931129	2685.034485
907.237826	2664.771567
907.544483	2644.160810
907.851099	2631.028604
908.157675	2616.653754
908.464211	2611.410954
908.770707	2602.236054
909.077163	2598.727411
909.383578	2594.812955
909.689954	2593.487131
909.996289	2591.226174
910.302584	2591.374888
910.608839	2588.067891
910.915054	2589.829774
911.221229	2589.660895
911.527363	2593.953438
911.833458	2591.440423
912.139513	2590.575865
912.445527	2591.390011
912.751502	2599.322267
913.057436	2603.723194
913.363331	2611.335336
913.669186	2623.068622
913.975000	2635.323667
914.280775	2653.585247
914.586510	2672.663493
914.892205	2711.666901
915.197859	2774.693927
915.503475	2861.356403
915.809050	2929.091866
916.114585	2947.303034
916.420081	2958.217133
916.725536	2970.383957
917.030952	2941.972014
917.336328	2895.240518
917.641665	2844.864268
917.946961	2792.194292
918.252218	2761.143305
918.557435	2731.778584
918.862612	2709.622713
919.167750	2694.141329
919.472848	2675.796571
919.777906	2659.359888
920.082925	2647.384627
920.387904	2633.052627
920.692843	2631.363841
920.997743	2626.219343
921.302603	2621.233642
921.607423	2611.685697
921.912204	2605.671600
922.216946	2603.965169
922.521647	2603.972731
922.826310	2595.009560
923.130932	2593.587954
923.435516	2588.224167
923.740059	2586.734506
924.044564	2585.761563
924.349028	2583.913980
924.653454	2571.638770
924.957840	2573.451065
925.262186	2570.542319
925.566493	2572.785633
925.870761	2569.259346
926.174989	2567.898234
926.479178	2565.445713
926.783328	2563.209961
927.087438	2562.710887
927.391509	2562.022769
927.695541	2560.696946
927.999533	2557.566389
928.303486	2557.621842
928.607400	2555.935576
928.911275	2558.655279
929.215110	2558.047820
929.518906	2556.036399
929.822663	2557.672254
930.126381	2556.404403
930.430060	2555.065977
930.733699	2556.583364
931.037299	2557.805844
931.340861	2556.285936
931.644383	2558.688046
931.947866	2556.976574
932.251309	2557.571431
932.554714	2554.017417
932.858080	2559.280382
933.161407	2558.773746
933.464694	2557.483210
933.767943	2554.897098
934.071153	2555.980947
934.374323	2556.825340
934.677455	2554.420709
934.980548	2552.305945
935.283602	2554.657644
935.586617	2550.748229
935.889593	2556.815257
936.192530	2550.647406
936.495428	2552.482386
936.798287	2554.524053
937.101108	2556.553117
937.403890	2561.183417
937.706632	2561.001936
938.009336	2564.918912
938.312002	2570.829665
938.614628	2572.437793
938.917216	2575.888463
939.219765	2576.339646
939.522275	2578.933320
939.824747	2577.559606
940.127179	2575.971642
940.429573	2569.876887
940.731929	2571.371589
941.034246	2567.099211
941.336524	2566.489232
941.638763	2566.607699
941.940964	2567.626012
942.243126	2565.773388
942.545250	2565.859088
942.847335	2565.450754
943.149381	2560.381874
943.451389	2559.683674
943.753359	2558.670402
944.055290	2559.358520
944.357182	2557.886503
944.659036	2559.870197
944.960851	2556.492624
945.262628	2555.267623
945.564367	2560.296174
945.866067	2556.464897
946.167729	2556.991698
946.469352	2558.015052
946.770937	2556.606050
947.072484	2557.102603
947.373992	2555.857438
947.675462	2555.910370
947.976893	2558.239383
948.278286	2554.554300
948.579641	2553.740154
948.880958	2555.401214
949.182236	2552.721841
949.483476	2555.494475
949.784678	2553.674619
950.085841	2554.841646
950.386967	2554.387942
950.688054	2553.788045
950.989103	2555.287788
951.290114	2556.212840
951.591087	2560.071843
951.892021	2559.325752
952.192917	2562.083263
952.493776	2561.443037
952.794596	2561.763150
953.095378	2560.817934
953.396122	2562.559652
953.696828	2558.935063
953.997496	2555.718807
954.298126	2558.683005
954.598718	2557.526060
954.899272	2556.437171
955.199788	2554.546738
955.500266	2553.772921
955.800706	2550.448280
956.101108	2544.703885
956.401472	2545.886036
956.701798	2543.935109
957.002087	2543.703216
957.302337	2545.613814
957.602550	2546.591797
957.902724	2543.604914
958.202861	2544.721529
958.502960	2542.596683
958.803022	2542.332022
959.103045	2544.149358
959.403031	2544.671118
959.702979	2539.864378
960.002889	2544.025850
960.302762	2539.209028
960.602596	2543.415871
960.902393	2540.469316
961.202153	2542.211035
961.501875	2540.174409
961.801559	2540.678524
962.101205	2540.093750
962.400814	2540.297917
962.700385	2541.938813
962.999918	2542.916796
963.299414	2542.223638
963.598873	2537.613502
963.898293	2538.548637
964.197677	2537.091743
964.497022	2538.601569
964.796331	2540.413863
965.095601	2538.954449
965.394835	2537.089223
965.694030	2537.754655
965.993189	2540.638195
966.292309	2537.583256
966.591393	2539.191384
966.890439	2539.216589
967.189447	2537.356404
967.488419	2539.705581
967.787353	2539.665252
968.086249	2538.553678
968.385108	2538.712474
968.683930	2536.214582
968.982714	2537.250539
969.281462	2540.373534
969.580172	2537.081661
969.878844	2541.447300
970.177480	2538.467978
970.476078	2538.601569
970.774639	2539.698020
971.073162	2540.197094
971.371649	2537.605941
971.670098	2537.401774
971.968510	2539.844213
972.266885	2534.745086
972.565223	2539.556867
972.863524	2540.635674
973.161788	2538.609130
973.460014	2539.103163
973.758204	2542.949564
974.056356	2537.484953
974.354471	2540.615510
974.652550	2540.764224
974.950591	2539.743390
975.248595	2538.687268
975.546563	2540.365973
975.844493	2539.070396
976.142386	2536.441434
976.440243	2538.359593
976.738062	2538.412525
977.035845	2537.003523
977.333590	2534.661907
977.631299	2538.770447
977.928971	2538.162988
978.226606	2538.354552
978.524204	2539.093081
978.821765	2536.842206
979.119290	2536.317926
979.416777	2532.262318
979.714228	2535.082843
980.011642	2539.451003
980.309020	2540.741538
980.606360	2537.127031
980.903664	2535.871784
981.200931	2537.628626
981.498162	2540.242464
981.795356	2539.932433
982.092513	2546.191026
982.389633	2546.617003
982.686717	2549.757642
982.983764	2553.969526
983.280775	2555.101265
983.577749	2550.055070
983.874686	2551.113713
984.171587	2548.676315
984.468451	2549.155224
984.765279	2544.928217
985.062070	2545.328988
985.358824	2540.131559
985.655543	2537.908410
985.952224	2541.084337
986.248869	2540.232382
986.545478	2534.266176
986.842050	2535.518903
987.138586	2534.336753
987.435086	2530.689478
987.731549	2529.497245
988.027975	2535.564273
988.324366	2536.529654
988.620719	2534.629139
988.917037	2534.709798
989.213318	2536.567463
989.509563	2534.319108
989.805772	2534.213244
990.101944	2535.155940
990.398080	2535.037473
990.694180	2534.205682
990.990244	2535.370189
991.286271	2534.530837
991.582262	2534.908923
991.878217	2535.443286
992.174136	2532.673172
992.470019	2534.067051
992.765865	2533.598223
993.061676	2536.877494
993.357450	2536.320447
993.653188	2536.761547
993.948890	2532.370702
994.244556	2535.118131
994.540186	2534.412370
994.835780	2537.578214
995.131337	2533.900693
995.426859	2537.502597
995.722345	2536.680889
996.017795	2538.334388
996.313208	2538.425128
996.608586	2541.356559
996.903928	2540.497043
997.199234	2539.251877
997.494504	2538.036959
997.789738	2537.109387
998.084936	2535.702905
998.380099	2534.805580
998.675225	2535.344983
998.970316	2533.683923
999.265371	2536.446475
999.560390	2538.911600
999.855373	2536.910262
1000.150320	2535.425642
1000.445232	2537.036290
1000.740108	2536.312885
1001.034948	2535.317257
1001.329752	2533.925898
1001.624521	2533.278110
1001.919254	2529.419107
1002.213951	2531.652338
1002.508613	2531.196114
1002.803239	2531.329704
1003.097829	2525.363499
1003.392384	2530.568490
1003.686903	2533.860363
1003.981386	2533.943543
1004.275834	2532.216947
1004.570246	2534.767771
1004.864623	2531.491021
1005.158964	2531.768285
1005.453270	2533.318439
1005.747540	2533.883049
1006.041775	2530.949097
1006.335974	2531.934643
1006.630138	2531.841381
1006.924266	2533.502442
1007.218359	2531.614529
1007.512416	2536.489325
1007.806438	2529.887934
1008.100425	2534.732483
1008.394376	2529.918181
1008.688292	2535.791125
1008.982172	2530.477749
1009.276017	2531.949766
1009.569827	2532.325332
1009.863602	2532.269879
1010.157341	2532.504293
1010.451045	2532.912627
1010.744714	2533.305837
1011.038347	2533.164684
1011.331945	2532.053110
1011.625508	2535.176105
1011.919036	2532.965559
1012.212528	2531.518748
1012.505986	2532.864736
1012.799408	2532.859694
1013.092795	2530.119827
1013.386147	2530.873480
1013.679464	2531.301978
1013.972745	2532.968079
1014.265992	2533.573018
1014.559204	2533.721732
1014.852380	2532.184180
1015.145521	2534.082174
1015.438628	2531.758202
1015.731699	2529.308202
1016.024736	2532.597554
1016.317737	2534.029242
1016.610703	2534.263656
1016.903635	2530.218130
1017.196531	2528.201668
1017.489393	2532.095960
1017.782219	2527.944569
1018.075011	2529.706453
1018.367768	2533.273069
1018.660490	2532.549663
1018.953177	2532.549663
1019.245829	2532.549663
