Dividing Wavelength (nm)	Counts (n)	Blue Motor Position (mm): 48.200000	Red Motor Position (mm): 0.000000	
326.493990	2129.022942
326.888308	2129.022942
327.282561	2129.022942
327.676750	2094.609505
328.070874	2096.285689
328.464933	2099.842223
328.858929	2107.335898
329.252859	2115.603391
329.646726	2126.270472
330.040528	2138.054169
330.434265	2156.761891
330.827938	2175.625889
331.221547	2192.717921
331.615091	2211.521425
332.008571	2230.259394
332.401986	2249.753536
332.795338	2268.151227
333.188625	2287.932714
333.581847	2303.940898
333.975006	2324.649958
334.368100	2344.156703
334.761129	2363.030783
335.154095	2379.585932
335.546996	2401.169632
335.939833	2424.958837
336.332606	2439.588266
336.725315	2453.161573
337.117960	2464.539457
337.510540	2467.727987
337.903056	2481.734833
338.295508	2486.269351
338.687896	2496.346617
339.080220	2506.600324
339.472480	2512.054853
339.864676	2517.070801
340.256807	2524.198992
340.648875	2524.284692
341.040879	2528.168901
341.432818	2528.221833
341.824694	2531.806093
342.216506	2531.541433
342.608253	2532.451361
342.999937	2530.906247
343.391557	2531.291896
343.783113	2530.878521
344.174605	2527.712676
344.566033	2524.506502
344.957397	2525.660927
345.348697	2521.784279
345.739934	2523.745288
346.131106	2519.150277
346.522215	2518.167252
346.913260	2515.709689
347.304241	2516.412930
347.695159	2513.778927
348.086012	2513.055522
348.476802	2512.984945
348.867528	2509.314985
349.258191	2506.300375
349.648789	2509.453617
350.039324	2502.655621
350.429796	2504.979593
350.820203	2500.271155
351.210548	2499.882987
351.600828	2499.462050
351.991045	2501.165960
352.381198	2498.612616
352.771288	2501.907010
353.161314	2496.278562
353.551276	2498.859632
353.941175	2496.071874
354.331010	2499.308295
354.720782	2497.264107
355.110490	2499.351145
355.500135	2497.685043
355.889717	2501.773419
356.279235	2499.189828
356.668689	2500.440034
357.058080	2497.811072
357.447408	2497.133037
357.836672	2498.894920
358.225873	2498.050527
358.615010	2498.683192
359.004084	2501.375168
359.393095	2501.039931
359.782043	2502.287617
360.170927	2504.266270
360.559748	2506.413801
360.948505	2507.490088
361.337199	2506.466733
361.725830	2506.993534
362.114398	2510.454286
362.502903	2508.979749
362.891344	2510.575274
363.279722	2507.235509
363.668037	2510.673576
364.056289	2509.430932
364.444478	2508.823473
364.832603	2511.427229
365.220665	2510.814729
365.608665	2514.048629
365.996601	2511.084430
366.384474	2515.815553
366.772284	2515.896212
367.160031	2518.079031
367.547715	2516.816222
367.935336	2516.508712
368.322893	2518.752025
368.710388	2517.458969
369.097820	2523.848632
369.485189	2518.973836
369.872495	2525.731503
370.259738	2527.442975
370.646918	2529.414066
371.034035	2535.531506
371.421090	2541.414532
371.808081	2547.105995
372.195010	2548.958619
372.581875	2560.492779
372.968678	2571.537947
373.355418	2577.211766
373.742096	2595.934611
374.128710	2601.041300
374.515262	2617.170472
374.901751	2631.003398
375.288177	2642.368679
375.674540	2661.459529
376.060841	2675.882270
376.447079	2695.840198
376.833254	2712.717981
377.219367	2725.099055
377.605417	2759.779673
377.991404	2769.993051
378.377329	2795.314767
378.763191	2810.886891
379.148991	2847.757890
379.534727	2871.607589
379.920402	2901.242012
380.306013	2917.282963
380.691563	2969.050572
381.077049	2991.508913
381.462474	3011.749145
381.847835	3050.923952
382.233134	3077.435380
382.618371	3080.460072
383.003545	3148.354332
383.388657	3162.005777
383.773706	3195.889892
384.158693	3219.671536
384.543618	3248.416195
384.928480	3284.462965
385.313280	3333.820903
385.698017	3335.494566
386.082692	3393.309039
386.467305	3404.187849
386.851856	3437.948456
387.236344	3460.283288
387.620770	3493.333093
388.005133	3523.075900
388.389435	3549.176474
388.773674	3568.584917
389.157851	3612.357256
389.541965	3627.896612
389.926018	3591.353288
390.310008	3663.058660
390.693936	3681.962987
391.077802	3727.575347
391.461606	3716.394068
391.845348	3782.705406
392.229027	3779.279942
392.612645	3794.738640
392.996200	3872.069940
393.379694	3912.590735
393.763125	3976.016012
394.146494	3944.806228
394.529801	4008.576824
394.913047	4054.491654
395.296230	4019.727857
395.679351	4077.796908
396.062410	4100.915639
396.445408	4077.766661
396.828343	4114.153709
397.211217	4142.454747
397.594028	4061.014907
397.976778	4124.770379
398.359466	4147.455572
398.742092	4182.572249
399.124656	4104.441927
399.507158	4183.976211
399.889598	4207.306671
400.271977	4269.242287
400.654294	4241.649531
401.036549	4248.114811
401.418742	4219.864185
401.800874	4320.049556
402.182944	4340.002443
402.564952	4409.716559
402.946898	4391.417171
403.328783	4387.578332
403.710606	4305.241167
404.092367	4496.406762
404.474067	4460.135660
404.855705	4469.118996
405.237282	4395.855907
405.618797	4505.717773
406.000250	4541.525088
406.381642	4621.976863
406.762972	4585.393209
407.144240	4596.720682
407.525447	4591.626596
407.906593	4650.598014
408.287677	4693.120146
408.668700	4624.361328
409.049661	4677.225388
409.430560	4716.780802
409.811399	4645.025018
410.192176	4803.498730
410.572891	4741.490017
410.953545	4845.640256
411.334138	4726.676587
411.714669	4795.233759
412.095139	4689.193087
412.475547	4834.136343
412.855894	4810.999967
413.236180	4821.556143
413.616405	4780.783291
413.996568	4862.122308
414.376670	4803.251714
414.756711	4755.915279
415.136691	4793.255106
415.516609	4871.766036
415.896466	4908.629473
416.276262	4940.045944
416.655997	4920.299744
417.035670	5104.382518
417.415283	5194.364594
417.794834	5141.707221
418.174324	5091.651084
418.553753	4998.578781
418.933121	5182.827913
419.312428	5253.565384
419.691674	5193.275705
420.070859	5318.800435
420.449983	5232.359770
420.829045	5346.897306
421.208047	5251.281741
421.586988	5322.251105
421.965867	5332.595553
422.344686	5469.178055
422.723444	5323.246733
423.102141	5138.191017
423.480777	5439.561276
423.859352	5206.302046
424.237866	5467.804340
424.616319	5456.532320
424.994712	5565.295214
425.373044	5441.265186
425.751314	5584.537299
426.129524	5387.612185
426.507673	5583.881949
426.885762	5666.234238
427.263789	5600.384166
427.641756	5481.959900
428.019662	5605.604281
428.397508	5608.941524
428.775292	5555.565787
429.153016	5653.192773
429.530679	5582.248615
429.908282	5662.902035
430.285824	5535.943096
430.663305	5812.699922
431.040726	5542.483993
431.418086	5549.022370
431.795385	5653.981713
432.172624	5664.023692
432.549802	5653.268390
432.926920	5673.987532
433.303977	5684.866343
433.680974	5716.222319
434.057910	5736.011369
434.434786	5741.740640
434.811601	5707.218819
435.188355	5940.409993
435.565050	5817.456250
435.941683	5798.980422
436.318257	6013.869687
436.694770	5998.037943
437.071222	6034.719899
437.447614	5961.734073
437.823946	5875.182503
438.200218	6032.632861
438.576429	5898.051698
438.952580	5999.300752
439.328670	6042.039654
439.704700	5948.599347
440.080670	5935.920845
440.456580	6205.204160
440.832429	6087.420121
441.208218	5931.182161
441.583947	6093.426656
441.959616	6091.211069
442.335224	6022.366551
442.710773	6158.197921
443.086261	6181.442682
443.461689	5980.245190
443.837057	6126.189115
444.212365	6284.209123
444.587612	6174.077556
444.962800	6329.161092
445.337927	6311.751467
445.712995	5918.899389
446.088002	6499.002606
446.462949	6323.673796
446.837837	6253.715184
447.212664	6427.889570
447.587431	6576.301139
447.962139	7121.103676
448.336786	8041.000827
448.711374	7782.893750
449.085901	6856.112904
449.460369	6773.238855
449.834776	6712.518157
450.209124	7098.751200
450.583412	7252.844150
450.957640	7399.216572
451.331808	7165.848958
451.705917	6722.093829
452.079965	6633.944213
452.453954	6855.684406
452.827883	6724.274128
453.201752	6824.784653
453.575562	6618.770339
453.949311	6819.183931
454.323001	6718.270113
454.696632	6789.244518
455.070202	6929.597803
455.443713	7082.511123
455.817164	7184.410486
456.190556	7262.228257
456.563888	7342.619538
456.937160	7386.356589
457.310373	7038.365739
457.683526	7062.245684
458.056619	6954.536391
458.429653	6939.186078
458.802628	6881.094342
459.175542	6990.903275
459.548398	7342.445618
459.921194	7505.867223
460.293930	7506.565423
460.666607	8038.263481
461.039224	8344.291766
461.411782	8469.972773
461.784280	8487.604208
462.156719	8381.024133
462.529099	8261.573993
462.901419	7845.449428
463.273680	7732.825010
463.645882	7752.858556
464.018024	7616.109696
464.390106	7787.791231
464.762130	8178.233638
465.134094	8643.554823
465.505999	9663.387808
465.877845	10887.430373
466.249631	11539.483458
466.621358	11153.648667
466.993026	10527.434015
467.364634	10266.748388
467.736184	9909.035673
468.107674	9572.619312
468.479105	9603.687943
468.850477	9369.037355
469.221790	9141.194845
469.593043	8808.546747
469.964238	8673.257301
470.335373	8683.601749
470.706449	8741.257426
471.077467	8717.629537
471.448425	10038.507627
471.819324	11110.882038
472.190164	11129.458690
472.560945	9883.033401
472.931667	9096.794883
473.302330	8959.100807
473.672934	8606.025953
474.043479	8963.418555
474.413965	8902.962517
474.784393	8783.610680
475.154761	8944.652860
475.525070	9027.259727
475.895321	8856.382256
476.265513	9029.775263
476.635645	9202.986789
477.005719	9197.040748
477.375734	9316.140528
477.745691	9557.967198
478.115588	9693.024751
478.485427	9934.921998
478.855207	10470.668102
479.224928	11280.226998
479.594591	11918.744586
479.964194	11727.972201
480.333739	11661.761686
480.703226	11581.007443
481.072653	11673.058912
481.442022	11908.183368
481.811333	12095.873088
482.180584	11897.735577
482.549777	11607.856628
482.918912	11430.045050
483.287988	11451.386774
483.657005	11468.677932
484.025964	11144.088118
484.394864	11280.789087
484.763706	11248.550908
485.132489	11007.533343
485.501213	10969.054216
485.869879	11046.783767
486.238487	10887.551361
486.607036	11002.514874
486.975527	10781.520772
487.343959	10973.966820
487.712333	11015.684889
488.080648	10950.717018
488.448905	10994.232258
488.817104	10928.450242
489.185244	11197.884792
489.553326	11354.221055
489.921350	11896.656770
490.289315	12954.956279
490.657222	13298.926809
491.025070	13210.129405
491.392861	13075.200402
491.760593	12692.322246
492.128267	12346.161335
492.495883	12018.750996
492.863440	11672.312821
493.230939	11345.031031
493.598380	11273.229877
493.965763	11141.464198
494.333088	11046.869466
494.700354	10961.946189
495.067563	11023.100426
495.434713	10855.469458
495.801805	10977.639301
496.168839	10909.394680
496.535815	10844.197438
496.902733	10844.991419
497.269593	10773.611202
497.636395	10876.168435
498.003139	10863.068997
498.369825	10732.377084
498.736453	10892.900025
499.103023	10817.222223
499.469535	10846.045021
499.835989	10834.127733
500.202385	10802.618001
500.568723	10649.185442
500.935003	10873.640297
501.301226	10672.896509
501.667390	10938.245204
502.033497	11030.105109
502.399546	10896.965716
502.765537	10810.141923
503.131470	10873.524350
503.497345	11043.648169
503.863163	10657.417647
504.228923	10965.157404
504.594625	11036.028465
504.960269	10781.092274
505.325856	11001.289874
505.691385	10796.563575
506.056856	10944.677716
506.422270	10972.567900
506.787625	10857.606907
507.152924	10983.638274
507.518164	10965.472476
507.883347	10873.594926
508.248472	10797.627258
508.613540	11033.903619
508.978550	10914.032542
509.343503	10893.215097
509.708398	11014.003664
510.073236	11125.430808
510.438016	11130.025820
510.802738	11080.584703
511.167403	11136.032354
511.532010	11031.783813
511.896561	11259.066755
512.261053	11337.423930
512.625488	11201.305214
512.989866	11177.558859
513.354186	11174.808910
513.718449	11071.165307
514.082655	11267.094793
514.446803	11156.317957
514.810894	11286.145313
515.174927	11150.974334
515.538904	11177.682367
515.902822	11332.965029
516.266684	11208.156142
516.630488	11157.588328
516.994235	11206.568179
517.357925	11273.681060
517.721558	11358.443021
518.085133	11373.531194
518.448651	11387.384285
518.812112	11263.921386
519.175516	11282.576176
519.538863	11400.413147
519.902152	11319.971455
520.265385	11481.149747
520.628560	11392.072558
520.991678	11372.028931
521.354739	11439.650968
521.717743	11370.405679
522.080690	11349.900786
522.443580	11482.110087
522.806413	11440.258427
523.169189	11464.811367
523.531908	11523.669359
523.894569	11346.253511
524.257174	11348.332987
524.619722	11469.119033
524.982213	11416.363358
525.344647	11466.633744
525.707025	11421.903586
526.069345	11519.550736
526.431608	11434.395565
526.793815	11542.427492
527.155964	11324.248874
527.518057	11379.479756
527.880093	11325.131076
528.242072	11402.099413
528.603995	11302.556789
528.965860	11227.347815
529.327669	11278.830599
529.689421	11226.382434
530.051117	11193.330109
530.412755	11290.417691
530.774337	11193.995541
531.135862	11173.094918
531.497331	11191.926148
531.858743	11048.815352
532.220098	11213.343490
532.581396	11079.609240
532.942638	11071.777807
533.303824	11024.726198
533.664953	11040.056347
534.026025	10953.101484
534.387040	11052.059334
534.747999	11058.426312
535.108902	11116.533171
535.469748	10876.286903
535.830537	10979.917902
536.191270	10956.418563
536.551947	10979.401184
536.912567	10981.372275
537.273131	10911.252346
537.633638	10887.034643
537.994089	10872.306912
538.354483	10820.919910
538.714821	10968.877775
539.075103	10980.026287
539.435328	10944.917171
539.795497	10769.028793
540.155609	10929.337485
540.515665	11010.323622
540.875665	10744.170863
541.235609	10811.538323
541.595496	10815.104939
541.955328	10970.828702
542.315102	10848.008550
542.674821	10804.316870
543.034483	10796.263626
543.394090	10803.411983
543.753640	10734.166693
544.113134	10955.367483
544.472571	10809.577314
544.831953	10950.810280
545.191278	10751.931719
545.550548	10786.997986
545.909761	10914.259394
546.268918	10897.850438
546.628019	10982.340177
546.987064	10845.170380
547.346053	10766.992167
547.704986	10870.242559
548.063863	10857.324602
548.422684	10841.084525
548.781449	10757.272822
549.140158	10862.232166
549.498811	10741.075595
549.857408	10597.879099
550.215949	10827.352422
550.574434	10679.936481
550.932864	10777.528178
551.291237	10838.120327
551.649555	10788.822883
552.007817	10798.580037
552.366022	10762.999573
552.724173	10749.232182
553.082267	10736.543597
553.440305	10881.940557
553.798288	10682.131903
554.156215	10832.736374
554.514086	10805.609926
554.871902	10656.132152
555.229661	10693.048522
555.587365	10667.210088
555.945014	10566.006404
556.302606	10695.087669
556.660143	10581.717160
557.017625	10730.305169
557.375050	10637.487445
557.732421	10767.297156
558.089735	10679.381954
558.446994	10686.545433
558.804197	10714.677592
559.161345	10717.109949
559.518437	10570.041848
559.875474	10661.158183
560.232455	10687.223469
560.589381	10633.051229
560.946251	10629.141815
561.303065	10743.994423
561.659825	10675.452374
562.016528	10607.023752
562.373177	10486.066307
562.729770	10602.642989
563.086307	10515.476398
563.442789	10613.257139
563.799216	10490.484878
564.155587	10537.475994
564.511904	10495.606690
564.868164	10487.634106
565.224370	10501.479635
565.580520	10421.758828
565.936615	10433.023286
566.292654	10293.968098
566.648638	10432.647720
567.004567	10386.717767
567.360441	10369.802176
567.716260	10279.126941
568.072023	10374.303926
568.427732	10325.371966
568.783385	10242.772660
569.138982	10306.621394
569.494525	10321.097068
569.850013	10196.547800
570.205445	10276.681982
570.560823	10172.957721
570.916145	10090.605432
571.271412	10165.872379
571.626625	10105.086146
571.981782	10082.181663
572.336884	10057.288446
572.691931	10061.424712
573.046923	10002.297019
573.401860	9964.828643
573.756743	9893.289629
574.111570	9934.372512
574.466342	9924.771635
574.821059	9953.322209
575.175722	9843.745169
575.530330	9854.142549
575.884882	9851.727836
576.239380	9777.007854
576.593823	9751.061035
576.948211	9765.022510
577.302544	9647.109922
577.656823	9667.589609
578.011047	9667.541718
578.365216	9636.382347
578.719330	9559.966016
579.073389	9573.458664
579.427394	9528.579792
579.781344	9497.932097
580.135239	9450.109191
580.489080	9465.265420
580.842866	9359.494451
581.196597	9365.017035
581.550273	9407.909693
581.903895	9373.924754
582.257463	9439.711812
582.610975	9315.873347
582.964434	9344.799488
583.317837	9266.021376
583.671186	9247.215352
584.024481	9247.933716
584.377721	9161.636724
584.730906	9142.422366
585.084037	9173.163323
585.437113	9101.858722
585.790135	9125.204305
586.143103	9024.799644
586.496016	9002.512703
586.848874	9054.834839
587.201679	9047.593221
587.554428	8931.374461
587.907124	8976.376841
588.259765	8944.098333
588.612352	8951.791134
588.964884	8824.663316
589.317362	8836.550357
589.669786	8839.968259
590.022155	8889.212770
590.374470	8911.565247
590.726731	8835.123710
591.078937	8695.342596
591.431090	8802.250346
591.783188	8681.063528
592.135232	8672.133124
592.487222	8672.637239
592.839157	8727.437102
593.191038	8655.091503
593.542866	8599.757278
593.894639	8503.254470
594.246358	8549.292808
594.598022	8570.475736
594.949633	8469.130900
595.301190	8439.040252
595.652692	8470.144172
596.004141	8587.555165
596.355535	8360.219292
596.706876	8341.370417
597.058162	8272.699820
597.409395	8349.748815
597.760573	8417.801871
598.111698	8328.190321
598.462768	8309.243144
598.813785	8273.181250
599.164748	8238.926609
599.515657	8233.366217
599.866511	8145.773648
600.217312	8267.089015
600.568060	8129.268910
600.918753	8230.074343
601.269392	8196.089405
601.619978	8111.718133
601.970510	8177.119543
602.320988	8171.773399
602.671412	8223.780463
603.021783	8167.558994
603.372100	8136.197976
603.722363	8137.700240
604.072572	8117.626366
604.422728	8124.265565
604.772830	8055.350472
605.122878	8063.123931
605.472872	8059.022952
605.822813	8083.845594
606.172701	8030.200155
606.522534	8107.526414
606.872314	8105.101619
607.222041	8075.381496
607.571714	8124.618446
607.921333	8090.368847
608.270899	8095.914116
608.620411	8191.242335
608.969870	8090.099145
609.319276	8083.759894
609.668627	8100.279755
610.017926	8131.902913
610.367171	8181.800254
610.716362	8162.492635
611.065500	8154.046182
611.414585	8176.849841
611.763616	8164.667893
612.112594	8149.504102
612.461518	8159.891399
612.810389	8224.090494
613.159207	8159.878797
613.507971	8107.221424
613.856682	8234.901248
614.205340	8183.862086
614.553945	8262.882173
614.902496	8161.519692
615.250994	8219.765184
615.599439	8196.838016
615.947830	8214.973567
616.296169	8184.540121
616.644454	8193.404990
616.992686	8194.360289
617.340864	8257.041996
617.688990	8154.038620
618.037063	8245.245696
618.385082	8197.828603
618.733048	8282.220039
619.080961	8218.895585
619.428821	8237.207576
619.776628	8239.337463
620.124382	8189.480452
620.472083	8170.548399
620.819731	8204.094757
621.167326	8097.333201
621.514868	8102.765044
621.862357	7993.709763
622.209793	8012.707351
622.557176	7945.743184
622.904506	7912.574912
623.251783	7850.619132
623.599007	7803.749004
623.946179	7809.173285
624.293297	7761.526820
624.640363	7681.034716
624.987376	7667.549630
625.334336	7609.536031
625.681243	7556.346817
626.028097	7548.961527
626.374899	7526.417487
626.721647	7518.674274
627.068343	7449.179448
627.414987	7418.594767
627.761577	7376.967440
628.108115	7418.299860
628.454600	7308.261554
628.801032	7358.965479
629.147412	7317.527195
629.493739	7310.371277
629.840014	7245.499188
630.186236	7303.658980
630.532405	7176.468148
630.878521	7233.077785
631.224585	7193.565222
631.570597	7114.865248
631.916556	7147.998232
632.262462	7145.838098
632.608316	7103.285718
632.954117	7082.780825
633.299866	7069.976294
633.645562	7061.108904
633.991206	6980.379867
634.336797	6921.418531
634.682336	6884.171966
635.027823	6848.893971
635.373257	6843.855338
635.718639	6778.141377
636.063968	6782.053313
636.409245	6682.372057
636.754470	6673.499626
637.099642	6636.958823
637.444762	6580.636531
637.789829	6589.302275
638.134845	6530.119128
638.479808	6515.716552
638.824719	6518.892479
639.169577	6447.363547
639.514383	6467.558409
639.859137	6397.115846
640.203839	6405.476600
640.548489	6389.092850
640.893086	6370.427977
641.237632	6337.277350
641.582125	6361.154775
641.926566	6328.982131
642.270955	6340.922104
642.615292	6336.440518
642.959576	6350.371747
643.303809	6343.994687
643.647990	6350.250759
643.992118	6341.247258
644.336195	6284.078053
644.680219	6311.721220
645.024192	6302.984901
645.368112	6397.441000
645.711981	6420.078302
646.055797	6493.777450
646.399562	6454.476615
646.743274	6581.090235
647.086935	6634.153420
647.430544	6629.800384
647.774101	6651.071533
648.117606	6657.836761
648.461059	6645.949720
648.804460	6612.524350
649.147810	6518.010277
649.491108	6483.939639
649.834354	6466.640919
650.177548	6377.455346
650.520690	6293.154651
650.863781	6268.248830
651.206820	6290.621471
651.549807	6214.673968
651.892742	6160.090874
652.235626	6164.060783
652.578458	6143.951620
652.921238	6051.060799
653.263967	6094.843220
653.606644	6036.600249
653.949269	6037.613521
654.291843	5977.585982
654.634365	6023.483167
654.976836	5977.701928
655.319255	5980.366178
655.661622	5959.495801
656.003938	5957.870029
656.346203	5914.314460
656.688416	5950.940963
657.030577	5898.142438
657.372687	5864.936358
657.714746	5850.629563
658.056753	5896.655298
658.398708	5838.682029
658.740612	5828.728270
659.082465	5878.328183
659.424266	5868.381987
659.766016	5870.078335
660.107715	5841.310990
660.449362	5861.147931
660.790958	5852.681313
661.132503	5838.508109
661.473996	5880.206013
661.815438	5860.996696
662.156829	5856.096695
662.498168	5851.562177
662.839456	5827.268856
663.180693	5859.852354
663.521879	5864.520463
663.863013	5857.586356
664.204097	5874.174272
664.545129	5917.099697
664.886110	5912.708852
665.227040	5941.672802
665.567918	5914.448050
665.908746	5939.774807
666.249522	5940.735147
666.590248	5926.030101
666.930922	5957.839782
667.271545	5968.693386
667.612118	5971.957533
667.952639	5945.415858
668.293109	5969.240352
668.633528	5924.404329
668.973896	5929.054794
669.314213	5920.308392
669.654480	5901.381380
669.994695	5892.191356
670.334859	5883.608792
670.674973	5878.580241
671.015035	5880.800869
671.355047	5877.975302
671.695008	5866.012644
672.034918	5833.603066
672.374777	5852.308268
672.714585	5835.001986
673.054342	5837.162121
673.394049	5829.282797
673.733705	5862.226738
674.073310	5853.240881
674.412864	5805.223891
674.752368	5800.442356
675.091820	5804.190454
675.431223	5741.685188
675.770574	5742.688377
676.109875	5694.230286
676.449125	5697.691038
676.788324	5669.021996
677.127473	5608.939004
677.466571	5599.882571
677.805619	5588.250108
678.144616	5575.314508
678.483562	5552.606630
678.822458	5518.977093
679.161303	5514.422410
679.500098	5506.752295
679.838842	5487.802597
680.177535	5497.552189
680.516179	5517.552967
680.854771	5517.731928
681.193314	5604.727120
681.531805	5710.682091
681.870247	5863.303024
682.208638	5964.960412
682.546978	5976.963399
682.885268	5954.242919
683.223508	5868.676894
683.561697	5812.982226
683.899836	5785.223113
684.237925	5741.254169
684.575963	5705.305701
684.913951	5664.366490
685.251889	5726.496191
685.589776	5696.327406
685.927614	5661.140152
686.265401	5735.237552
686.603137	5720.167022
686.940824	5802.262213
687.278460	5820.853988
687.616046	5829.915462
687.953582	5898.661677
688.291068	5877.713162
688.628504	5944.654644
688.965889	5906.248614
689.303224	5853.147620
689.640510	5801.014527
689.977745	5726.113063
690.314930	5627.513135
690.652065	5569.993570
690.989150	5479.015866
691.326185	5400.986367
691.663170	5346.025187
692.000105	5271.169093
692.336990	5192.484243
692.673825	5169.715872
693.010610	5098.870017
693.347345	5030.022978
693.684030	5012.993961
694.020665	4975.649093
694.357251	4885.019229
694.693786	4895.769490
695.030272	4861.938306
695.366707	4825.349612
695.703093	4791.586484
696.039429	4812.529957
696.375716	4790.966422
696.711952	4773.629894
697.048139	4761.871402
697.384276	4738.881220
697.720363	4751.199280
698.056400	4761.027009
698.392388	4707.157239
698.728326	4689.016647
699.064214	4668.214326
699.400053	4658.943644
699.735842	4626.317296
700.071581	4605.310808
700.407270	4576.684616
700.742910	4561.770362
701.078501	4505.805993
701.414042	4502.057895
701.749533	4473.963545
702.084974	4407.644645
702.420366	4465.955672
702.755709	4407.448040
703.091002	4349.222713
703.426246	4400.004777
703.761440	4354.067262
704.096584	4318.141479
704.431679	4339.667206
704.766725	4325.511646
705.101721	4316.001509
705.436668	4341.696271
705.771565	4288.504536
706.106413	4316.341787
706.441212	4349.532744
706.775961	4354.639433
707.110661	4335.394828
707.445311	4365.150239
707.779913	4385.211511
708.114465	4402.701794
708.448967	4427.955454
708.783421	4486.029546
709.117825	4526.815002
709.452180	4533.902864
709.786485	4579.618567
710.120742	4666.311290
710.454949	4645.317405
710.789107	4719.147624
711.123216	4792.715702
711.457275	4779.243219
711.791286	4856.687945
712.125247	4867.977609
712.459159	4773.874390
712.793023	4847.500442
713.126837	4808.670954
713.460602	4800.259789
713.794318	4721.683324
714.127985	4727.079879
714.461602	4644.634329
714.795171	4614.657107
715.128691	4547.824010
715.462162	4492.134384
715.795584	4439.847536
716.128957	4423.032767
716.462281	4376.704563
716.795556	4345.048638
717.128782	4307.907937
717.461960	4237.258686
717.795088	4248.976848
718.128167	4208.183832
718.461198	4152.158968
718.794180	4144.572032
719.127113	4125.133343
719.459997	4102.367492
719.792833	4059.676480
720.125619	4050.786406
720.458357	4012.801311
720.791046	4015.470602
721.123686	3993.924711
721.456278	3953.575315
721.788821	3968.043427
722.121315	3942.825055
722.453761	3914.120725
722.786158	3923.958537
723.118506	3950.941312
723.450805	3902.959610
723.783056	3921.102723
724.115259	3942.318419
724.447412	3944.355045
724.779518	3938.030917
725.111574	3944.261784
725.443582	3973.820589
725.775542	3959.286943
726.107453	4011.520858
726.439315	4009.171681
726.771129	4026.178013
727.102895	4060.742684
727.434612	4106.150878
727.766281	4118.975573
728.097901	4122.101088
728.429473	4127.553096
728.760996	4129.317500
729.092471	4128.241214
729.423897	4113.982310
729.755276	4117.924493
730.086606	4120.039257
730.417887	4158.311697
730.749120	4221.507601
731.080305	4286.808188
731.411442	4314.000171
731.742530	4282.054379
732.073570	4287.319865
732.404562	4341.615612
732.735506	4329.141277
733.066401	4292.408909
733.397249	4229.003797
733.728048	4152.819359
734.058798	4064.147984
734.389501	3997.503930
734.720156	3933.151081
735.050762	3889.487127
735.381320	3885.239954
735.711831	3832.832119
736.042293	3804.833551
736.372707	3825.338444
736.703073	3801.367757
737.033391	3786.824028
737.363661	3809.020229
737.693883	3833.124506
738.024056	3843.075744
738.354182	3834.919157
738.684260	3902.445413
739.014290	3921.158176
739.344272	3917.760438
739.674207	3959.165955
740.004093	3962.858600
740.333931	3961.784834
740.663722	3956.068166
740.993464	3953.648412
741.323159	3931.805092
741.652806	3900.199578
741.982405	3871.520454
742.311956	3842.750589
742.641460	3832.005370
742.970915	3809.846978
743.300323	3771.340124
743.629683	3734.101121
743.958996	3722.209039
744.288260	3698.964279
744.617477	3666.728620
744.946647	3651.249757
745.275768	3628.246973
745.604842	3624.677836
745.933869	3576.013057
746.262847	3567.458219
746.591778	3606.945577
746.920662	3577.507759
747.249498	3547.419632
747.578286	3590.264399
747.907027	3610.794498
748.235720	3605.776029
748.564365	3631.188486
748.892963	3632.289978
749.221514	3615.593676
749.550017	3590.513936
749.878473	3590.871858
750.206881	3557.345664
750.535242	3553.577402
750.863555	3557.602763
751.191821	3550.149417
751.520039	3534.811707
751.848210	3511.387985
752.176334	3546.431566
752.504411	3552.929613
752.832440	3510.016791
753.160421	3491.873679
753.488356	3503.175946
753.816243	3516.897966
754.144082	3474.446410
754.471875	3457.399748
754.799620	3479.197697
755.127318	3469.337200
755.454969	3466.796459
755.782572	3474.529589
756.110129	3449.505301
756.437638	3443.181174
756.765100	3452.930765
757.092515	3464.785038
757.419882	3470.373157
757.747203	3444.953139
758.074477	3447.869447
758.401703	3461.047023
758.728882	3487.296311
759.056014	3492.075325
759.383099	3492.463494
759.710138	3489.007783
760.037129	3511.319930
760.364073	3539.593241
760.690970	3520.814943
761.017820	3502.306347
761.344623	3517.409643
761.671379	3563.110224
761.998088	3615.180302
762.324751	3745.055548
762.651366	3992.402282
762.977935	4467.591526
763.304456	4916.627264
763.630931	5009.260986
763.957359	4655.029188
764.283740	4300.643634
764.610074	4110.476188
764.936362	3910.264242
765.262602	3751.674583
765.588796	3641.623674
765.914943	3552.745611
766.241044	3462.299750
766.567097	3431.372271
766.893104	3385.021382
767.219064	3352.773121
767.544978	3327.101045
767.870845	3270.395626
768.196665	3249.915938
768.522438	3261.482866
768.848165	3257.870879
769.173846	3220.457956
769.499479	3202.541695
769.825066	3187.120805
770.150607	3170.772343
770.476101	3185.391689
770.801548	3179.175947
771.126949	3136.038793
771.452303	3114.046760
771.777611	3124.600415
772.102872	3128.020838
772.428087	3104.637446
772.753256	3093.549428
773.078378	3084.208170
773.403453	3052.007800
773.728482	3040.324926
774.053465	3061.699418
774.378401	3052.446380
774.703291	3016.939013
775.028135	3018.814322
775.352932	3011.824762
775.677683	3001.450068
776.002388	2996.913029
776.327046	2998.647186
776.651658	2990.719972
776.976224	2976.657673
777.300743	2978.056593
777.625216	2967.933957
777.949643	2960.110086
778.274024	2967.727269
778.598359	2956.755198
778.922647	2959.369036
779.246889	2960.682257
779.571086	2944.096861
779.895236	2938.783484
780.219339	2949.417798
780.543397	2958.980867
780.867409	2967.197948
781.191374	2955.966257
781.515294	2954.297635
781.839167	2954.816874
782.162995	2948.414609
782.486776	2956.561113
782.810511	2951.915690
783.134201	2939.549740
783.457844	2945.833538
783.781441	2935.965479
784.104993	2917.618200
784.428498	2919.148190
784.751958	2930.019438
785.075372	2923.337389
785.398739	2907.520769
785.722061	2923.675146
786.045337	2939.527055
786.368568	2923.559200
786.691752	2914.205339
787.014891	2962.587813
787.337983	2994.619304
787.661030	3021.438243
787.984031	3086.973243
788.306987	3136.379071
788.629897	3126.639562
788.952760	3109.943260
789.275579	3093.705704
789.598351	3033.973072
789.921078	2990.334324
790.243759	2979.642036
790.566395	2963.729634
790.888984	2942.914710
791.211529	2921.184816
791.534027	2910.744587
791.856480	2904.831313
792.178888	2886.118550
792.501249	2881.147973
792.823566	2877.246119
793.145836	2876.147148
793.468062	2870.490973
793.790241	2867.849409
794.112375	2878.198898
794.434464	2886.277347
794.756507	2892.172976
795.078505	2896.026938
795.400457	2912.004875
795.722364	2948.553241
796.044226	2972.418063
796.366042	2976.120790
796.687812	2965.766260
797.009538	2981.865185
797.331218	2972.488639
797.652852	2955.966257
797.974442	2940.573094
798.295986	2935.509255
798.617484	2929.754778
798.938938	2911.752818
799.260346	2898.849984
799.581709	2895.472411
799.903026	2888.626524
800.224299	2881.125287
800.545526	2872.278062
800.866708	2857.084025
801.187845	2847.843590
801.508936	2845.950636
801.829983	2857.084025
802.150984	2841.453927
802.471940	2827.852894
802.792851	2829.115703
803.113717	2827.989005
803.434538	2834.386229
803.755314	2825.977585
804.076045	2819.739157
804.396731	2819.766883
804.717372	2820.903663
805.037967	2815.060966
805.358518	2822.892399
805.679024	2838.172136
805.999485	2829.544201
806.319901	2832.831033
806.640272	2826.209478
806.960598	2830.030672
807.280879	2842.021057
807.601115	2847.697396
807.921306	2833.249449
808.241453	2829.473625
808.561554	2836.211127
808.881611	2838.245233
809.201623	2836.690037
809.521590	2835.835561
809.841513	2829.413131
810.161390	2833.461178
810.481223	2826.418686
810.801011	2815.940647
811.120755	2811.438897
811.440453	2814.758497
811.760107	2816.313693
812.079716	2814.904690
812.399281	2802.493370
812.718801	2800.287865
813.038276	2793.842750
813.357707	2800.302988
813.677093	2806.087712
813.996434	2798.241156
814.315731	2795.657565
814.634983	2789.681277
814.954191	2793.058850
815.273354	2807.307672
815.592473	2812.951243
815.911547	2814.385452
816.230577	2824.626556
816.549562	2834.219871
816.868502	2829.957576
817.187399	2844.544154
817.506250	2861.968903
817.825058	2850.548169
818.143821	2863.332535
818.462539	2883.474465
818.781213	2908.518917
819.099843	2944.122066
819.418429	3003.070799
819.736970	3066.811148
820.055466	3141.021974
820.373919	3251.375352
820.692327	3388.131774
821.010691	3559.924214
821.329011	4010.169829
821.647286	4922.875774
821.965517	6322.090874
822.283704	7078.727737
822.601847	7063.442958
822.919945	6422.830772
823.237999	5903.657461
823.556010	5310.749713
823.873976	4752.870422
824.191897	4336.002287
824.509775	4036.651010
824.827609	3761.439298
825.145398	3635.952376
825.463144	3621.857310
825.780845	3715.489181
826.098502	3821.451714
826.416116	4106.029890
826.733685	4434.193882
827.051210	4496.197554
827.368692	4379.822517
827.686129	4108.437041
828.003522	3776.461937
828.320872	3518.543903
828.638177	3320.734067
828.955439	3179.962367
829.272656	3095.896085
829.589830	3027.200282
829.906960	2976.012406
830.224046	2927.551794
830.541088	2894.610374
830.858086	2878.496326
831.175041	2862.853625
831.491952	2861.941176
831.808819	2877.750235
832.125642	2899.293606
832.442421	2946.380503
832.759157	3025.831608
833.075849	3207.822303
833.392497	3494.084225
833.709101	3703.309753
834.025662	3650.362514
834.342179	3489.272443
834.658653	3308.506749
834.975083	3160.435457
835.291469	3061.197823
835.607811	2972.907055
835.924110	2912.057807
836.240366	2861.588296
836.556578	2818.829229
836.872746	2794.336783
837.188871	2772.659821
837.504952	2757.231370
837.820990	2747.953126
838.136984	2733.621126
838.452935	2726.959241
838.768842	2725.126782
839.084706	2742.238978
839.400526	2823.807368
839.716303	2957.536577
840.032037	3041.071017
840.347727	3024.538553
840.663373	2962.728965
840.978977	2886.587377
841.294537	2811.998465
841.610054	2765.929881
841.925527	2741.628999
842.240957	2718.981615
842.556344	2695.651155
842.871687	2682.387879
843.186987	2672.789522
843.502244	2666.099911
843.817458	2660.141267
844.132629	2649.098620
844.447756	2642.537558
844.762840	2637.793832
845.077881	2640.521097
845.392879	2635.984058
845.707833	2632.989613
846.022745	2624.306225
846.337613	2627.245218
846.652438	2625.163221
846.967221	2628.510547
847.281960	2626.625156
847.596656	2621.833539
847.911309	2622.516616
848.225919	2620.820267
848.540485	2615.332971
848.855009	2616.318517
849.169490	2613.508074
849.483928	2614.927158
849.798323	2614.607045
850.112675	2612.492281
850.426984	2613.258537
850.741251	2613.228290
851.055474	2611.930192
851.369654	2617.508229
851.683792	2614.629730
851.997887	2614.707868
852.311938	2613.833228
852.625947	2616.434463
852.939914	2616.250461
853.253837	2616.426902
853.567718	2611.189143
853.881555	2614.291973
854.195350	2616.832715
854.509103	2615.307766
854.822812	2613.288783
855.136479	2610.412805
855.450103	2614.849021
855.763685	2616.053856
856.077224	2613.129987
856.390720	2611.365583
856.704173	2612.565378
857.017584	2616.734412
857.330953	2619.202057
857.644278	2621.896554
857.957561	2621.296656
858.270802	2618.506378
858.584000	2616.575616
858.897155	2619.665843
859.210268	2621.092490
859.523339	2617.881275
859.836367	2610.748042
860.149352	2614.319699
860.462295	2614.365070
860.775195	2610.206118
861.088054	2608.754266
861.400869	2608.293000
861.713642	2605.732094
862.026373	2608.340891
862.339062	2611.811725
862.651708	2619.088631
862.964312	2616.268105
863.276873	2614.170985
863.589392	2617.417488
863.901869	2623.401338
864.214303	2627.794704
864.526696	2629.763274
864.839045	2630.584982
865.151353	2632.838378
865.463619	2634.081022
865.775842	2634.882566
866.088023	2633.821403
866.400162	2634.491877
866.712258	2633.231588
867.024313	2633.743265
867.336325	2628.152626
867.648296	2631.752009
867.960224	2636.795684
868.272110	2636.828451
868.583954	2629.775877
868.895755	2630.211937
869.207515	2632.485497
869.519233	2641.355407
869.830909	2640.518576
870.142542	2634.537247
870.454134	2636.420118
870.765684	2641.332722
871.077191	2641.990593
871.388657	2645.491674
871.700081	2644.261633
872.011463	2644.591828
872.322803	2645.892446
872.634101	2648.786068
872.945357	2655.548776
873.256571	2661.731751
873.567744	2659.659837
873.878874	2658.500372
874.189963	2660.602533
874.501010	2664.892555
874.812015	2668.365910
875.122979	2669.180056
875.433900	2662.278717
875.744780	2661.114210
876.055618	2665.704181
876.366415	2670.793225
876.677169	2670.311795
876.987882	2663.705363
877.298554	2664.138902
877.609183	2673.901097
877.919771	2681.780420
878.230317	2684.900894
878.540822	2699.124510
878.851285	2712.271839
879.161707	2739.153792
879.472087	2778.328599
879.782425	2826.537153
880.092722	2945.052159
880.402977	3136.605923
880.713191	3404.313878
881.023363	3705.974003
881.333494	3906.435486
881.643583	4081.998710
881.953631	4074.903286
882.263637	3897.923497
882.573602	3676.737831
882.883526	3538.781615
883.193408	3419.984304
883.503248	3314.399858
883.813048	3196.457022
884.122806	3076.258270
884.432522	2990.725013
884.742197	2924.930394
885.051831	2884.913714
885.361424	2847.962057
885.670975	2811.701037
885.980485	2782.661470
886.289954	2760.603902
886.599382	2745.475399
886.908768	2736.834861
887.218113	2716.861810
887.527417	2702.431507
887.836680	2692.868438
888.145901	2687.514733
888.455082	2678.276818
888.764221	2668.320539
889.073319	2660.370640
889.382376	2659.972389
889.691392	2661.280568
890.000366	2662.654282
890.309300	2659.576658
890.618193	2662.167811
890.927044	2664.027997
891.235855	2664.645538
891.544625	2663.871721
891.853353	2665.235353
892.162041	2672.802125
892.470687	2693.367512
892.779293	2702.923019
893.087858	2713.597663
893.396381	2736.741600
893.704864	2780.370266
894.013306	2854.286184
894.321707	2948.160031
894.630068	3006.027436
894.938387	3025.047709
895.246665	3013.967253
895.554903	2971.067034
895.863100	2923.831422
896.171256	2864.781867
896.479371	2803.201652
896.787446	2762.910230
897.095480	2740.681262
897.403473	2735.405694
897.711425	2722.679301
898.019336	2701.728266
898.327207	2687.000535
898.635038	2685.904084
898.942827	2684.036337
899.250576	2673.575942
899.558284	2659.727893
899.865952	2657.250166
900.173579	2653.678508
900.481165	2651.359577
900.788711	2643.399595
901.096216	2637.584624
901.403681	2632.576238
901.711105	2633.854171
902.018489	2629.632204
902.325832	2634.693523
902.633135	2636.886425
902.940397	2655.006852
903.247619	2692.999508
903.554800	2761.430651
903.861941	2897.536764
904.169041	3028.500899
904.476101	3090.527256
904.783121	3087.384097
905.090100	3022.766587
905.397039	2947.895370
905.703938	2873.475336
906.010796	2803.909934
906.317614	2751.862541
906.624391	2714.411809
906.931129	2687.565144
907.237826	2661.608243
907.544483	2644.299441
907.851099	2630.476597
908.157675	2617.901439
908.464211	2611.925151
908.770707	2601.172370
909.077163	2596.779005
909.383578	2593.797162
909.689954	2592.935125
909.996289	2592.700711
910.302584	2591.387491
910.608839	2586.298446
910.915054	2588.524115
911.221229	2589.968406
911.527363	2593.943356
911.833458	2590.238107
912.139513	2591.190886
912.445527	2593.101483
912.751502	2602.026846
913.057436	2606.934409
913.363331	2609.739811
913.669186	2623.038375
913.975000	2639.480098
914.280775	2654.429640
914.586510	2674.304389
914.892205	2712.554144
915.197859	2779.283897
915.503475	2869.419728
915.809050	2937.591252
916.114585	2956.450208
916.420081	2969.390850
916.725536	2979.654639
917.030952	2951.071297
917.336328	2904.796025
917.641665	2852.362984
917.946961	2798.820889
918.252218	2765.957607
918.557435	2734.271435
918.862612	2712.445759
919.167750	2695.550332
919.472848	2679.648012
919.777906	2665.641166
920.082925	2647.732467
920.387904	2637.864408
920.692843	2633.614716
920.997743	2627.792183
921.302603	2619.784310
921.607423	2614.425564
921.912204	2608.817280
922.216946	2603.440889
922.521647	2605.016250
922.826310	2598.331680
923.130932	2596.108531
923.435516	2590.371698
923.740059	2585.622931
924.044564	2583.321644
924.349028	2582.283167
924.653454	2574.877712
924.957840	2570.927968
925.262186	2569.740776
925.566493	2570.181877
925.870761	2564.855898
926.174989	2567.951166
926.479178	2563.862791
926.783328	2563.787173
927.087438	2566.211968
927.391509	2562.090825
927.695541	2559.774415
927.999533	2557.480690
928.303486	2557.364743
928.607400	2558.017573
928.911275	2557.644527
929.215110	2555.620504
929.518906	2555.834753
929.822663	2556.361554
930.126381	2554.655123
930.430060	2557.205947
930.733699	2555.423899
931.037299	2557.279044
931.340861	2560.071843
931.644383	2559.275341
931.947866	2557.906667
932.251309	2558.418344
932.554714	2557.188303
932.858080	2558.199054
933.161407	2556.381718
933.464694	2557.458005
933.767943	2555.466749
934.071153	2553.392314
934.374323	2555.154197
934.677455	2552.467262
934.980548	2552.444577
935.283602	2551.486758
935.586617	2554.637479
935.889593	2554.624876
936.192530	2554.035061
936.495428	2552.661347
936.798287	2553.750236
937.101108	2555.895247
937.403890	2560.160063
937.706632	2562.657955
938.009336	2567.477298
938.312002	2570.433935
938.614628	2570.834706
938.917216	2577.380645
939.219765	2577.758731
939.522275	2576.710171
939.824747	2578.358628
940.127179	2569.589541
940.429573	2570.252453
940.731929	2568.659448
941.034246	2569.667679
941.336524	2569.632391
941.638763	2567.469736
941.940964	2566.574931
942.243126	2565.314643
942.545250	2565.289437
942.847335	2565.274314
943.149381	2560.986812
943.451389	2558.171328
943.753359	2558.360371
944.055290	2559.219888
944.357182	2557.427758
944.659036	2558.372974
944.960851	2558.370453
945.262628	2557.165618
945.564367	2557.752912
945.866067	2556.061605
946.167729	2560.661658
946.469352	2556.026317
946.770937	2556.790052
947.072484	2559.081256
947.373992	2556.636297
947.675462	2554.919784
947.976893	2556.243087
948.278286	2555.900288
948.579641	2552.520194
948.880958	2557.400031
949.182236	2555.383570
949.483476	2553.319217
949.784678	2555.741492
950.085841	2553.788045
950.386967	2553.664536
950.688054	2555.509599
950.989103	2553.210832
951.290114	2556.744681
951.591087	2558.836760
951.892021	2557.120247
952.192917	2561.309446
952.493776	2560.124775
952.794596	2562.148798
953.095378	2561.997564
953.396122	2563.121741
953.696828	2559.149312
953.997496	2557.342058
954.298126	2556.439692
954.598718	2558.420865
954.899272	2552.336192
955.199788	2553.818292
955.500266	2551.829556
955.800706	2549.072045
956.101108	2544.540048
956.401472	2547.799154
956.701798	2542.044677
957.002087	2542.609286
957.302337	2545.293700
957.602550	2543.430994
957.902724	2541.709440
958.202861	2542.737835
958.502960	2542.836138
958.803022	2545.119781
959.103045	2541.066693
959.403031	2541.560726
959.702979	2539.987886
960.002889	2539.962680
960.302762	2540.126518
960.602596	2540.481919
960.902393	2540.360931
961.202153	2537.598379
961.501875	2538.967052
961.801559	2538.588966
962.101205	2542.619368
962.400814	2538.808256
962.700385	2538.813297
962.999918	2541.001158
963.299414	2537.207690
963.598873	2538.553678
963.898293	2536.814480
964.197677	2537.878163
964.497022	2537.870601
964.796331	2540.323123
965.095601	2539.995448
965.394835	2538.248688
965.694030	2535.612164
965.993189	2538.473019
966.292309	2537.137113
966.591393	2534.853471
966.890439	2536.544778
967.189447	2537.621064
967.488419	2537.021167
967.787353	2535.350024
968.086249	2535.844057
968.385108	2540.507125
968.683930	2534.530837
968.982714	2536.801877
969.281462	2536.625436
969.580172	2534.949253
969.878844	2538.843544
970.177480	2539.892104
970.476078	2539.196425
970.774639	2538.694830
971.073162	2537.936136
971.371649	2534.767771
971.670098	2532.519417
971.968510	2534.591331
972.266885	2533.358769
972.565223	2539.093081
972.863524	2537.966383
973.161788	2537.462268
973.460014	2539.413194
973.758204	2538.447813
974.056356	2539.183822
974.354471	2536.557381
974.652550	2539.035108
974.950591	2537.205169
975.248595	2540.164326
975.546563	2536.305323
975.844493	2537.384130
976.142386	2540.575180
976.440243	2537.978986
976.738062	2538.352032
977.035845	2535.869263
977.333590	2537.986548
977.631299	2535.196269
977.928971	2538.188194
978.226606	2538.483102
978.524204	2537.578214
978.821765	2533.625950
979.119290	2533.250384
979.416777	2535.753317
979.714228	2534.016639
980.011642	2534.039324
980.309020	2537.613502
980.606360	2538.042001
980.903664	2539.221631
981.200931	2535.496218
981.498162	2539.549306
981.795356	2541.147351
982.092513	2544.398896
982.389633	2545.381921
982.686717	2547.015254
982.983764	2553.818292
983.280775	2552.275698
983.577749	2553.856100
983.874686	2551.859803
984.171587	2549.336706
984.468451	2546.291849
984.765279	2544.272867
985.062070	2542.599204
985.358824	2538.790612
985.655543	2539.461085
985.952224	2537.852957
986.248869	2540.275232
986.545478	2530.535722
986.842050	2534.737524
987.138586	2533.797349
987.435086	2531.259128
987.731549	2528.743592
988.027975	2536.133924
988.324366	2535.327339
988.620719	2532.705939
988.917037	2534.359438
989.213318	2534.404808
989.509563	2533.671320
989.805772	2532.380785
990.101944	2534.621578
990.398080	2535.380271
990.694180	2533.875487
990.990244	2533.489839
991.286271	2533.935981
991.582262	2535.803728
991.878217	2533.446989
992.174136	2533.575538
992.470019	2531.760723
992.765865	2534.992103
993.061676	2534.896321
993.357450	2533.714170
993.653188	2533.678882
993.948890	2534.009078
994.244556	2532.645445
994.540186	2536.811959
994.835780	2535.791125
995.131337	2535.866743
995.426859	2536.915303
995.722345	2537.338760
996.017795	2538.374717
996.313208	2538.047042
996.608586	2538.432690
996.903928	2537.162319
997.199234	2536.635519
997.494504	2536.988399
997.789738	2536.353214
998.084936	2534.729963
998.380099	2534.160312
998.675225	2535.677699
998.970316	2536.723739
999.265371	2535.929757
999.560390	2533.240302
999.855373	2534.951773
1000.150320	2531.770805
1000.445232	2536.693492
1000.740108	2530.961700
1001.034948	2532.572349
1001.329752	2528.025228
1001.624521	2532.786598
1001.919254	2526.452388
1002.213951	2526.878365
1002.508613	2527.218643
1002.803239	2529.028417
1003.097829	2527.281658
1003.392384	2532.748789
1003.686903	2531.012112
1003.981386	2533.535209
1004.275834	2532.552184
1004.570246	2530.200486
1004.864623	2531.420445
1005.158964	2531.299457
1005.453270	2530.913809
1005.747540	2529.842564
1006.041775	2532.542102
1006.335974	2530.853315
1006.630138	2531.758202
1006.924266	2528.819210
1007.218359	2530.631504
1007.512416	2530.024045
1007.806438	2531.377595
1008.100425	2531.455733
1008.394376	2529.777029
1008.688292	2530.747451
1008.982172	2528.811648
1009.276017	2531.102852
1009.569827	2532.529499
1009.863602	2533.658717
1010.157341	2531.952287
1010.451045	2531.307019
1010.744714	2531.117976
1011.038347	2533.517565
1011.331945	2530.787780
1011.625508	2530.853315
1011.919036	2532.007739
1012.212528	2532.358100
1012.505986	2530.203006
1012.799408	2532.106042
1013.092795	2528.168901
1013.386147	2531.876669
1013.679464	2529.197296
1013.972745	2531.722914
1014.265992	2529.794673
1014.559204	2530.515558
1014.852380	2529.903058
1015.145521	2531.818696
1015.438628	2531.145702
1015.731699	2530.578572
1016.024736	2529.371216
1016.317737	2529.739220
1016.610703	2530.460105
1016.903635	2529.386339
1017.196531	2528.657893
1017.489393	2529.789632
1017.782219	2525.643283
1018.075011	2529.850126
1018.367768	2530.823068
1018.660490	2531.130579
1018.953177	2531.130579
1019.245829	2531.130579
