Dividing Wavelength (nm)	Counts (n)	Blue Motor Position (mm): 41.900000	Red Motor Position (mm): 0.000000	
326.493990	2129.262397
326.888308	2129.262397
327.282561	2129.262397
327.676750	2097.387181
328.070874	2096.958683
328.464933	2099.819538
328.858929	2106.678028
329.252859	2116.019286
329.646726	2127.147633
330.040528	2142.281177
330.434265	2156.814823
330.827938	2171.638336
331.221547	2190.525019
331.615091	2211.677701
332.008571	2231.993551
332.401986	2250.519791
332.795338	2273.255395
333.188625	2289.611418
333.581847	2306.811835
333.975006	2325.128868
334.368100	2344.146621
334.761129	2360.371574
335.154095	2378.144162
335.546996	2400.078223
335.939833	2426.856832
336.332606	2442.822166
336.725315	2452.412961
337.117960	2464.116000
337.510540	2471.269397
337.903056	2483.166520
338.295508	2487.164155
338.687896	2500.434993
339.080220	2505.738287
339.472480	2514.489730
339.864676	2517.577437
340.256807	2522.638755
340.648875	2524.022552
341.040879	2525.950793
341.432818	2530.376926
341.824694	2530.802904
342.216506	2533.439427
342.608253	2528.829292
342.999937	2530.881042
343.391557	2529.396422
343.783113	2526.301153
344.174605	2529.041020
344.566033	2526.845598
344.957397	2525.789476
345.348697	2521.592716
345.739934	2521.706142
346.131106	2520.713034
346.522215	2518.714217
346.913260	2517.365708
347.304241	2513.385717
347.695159	2513.279853
348.086012	2510.945799
348.476802	2509.498987
348.867528	2508.314316
349.258191	2507.122083
349.648789	2505.352638
350.039324	2505.619820
350.429796	2503.557988
350.820203	2501.710405
351.210548	2502.635457
351.600828	2499.809890
351.991045	2499.157060
352.381198	2498.489108
352.771288	2497.488438
353.161314	2499.575476
353.551276	2498.680671
353.941175	2498.569766
354.331010	2496.810403
354.720782	2496.586072
355.110490	2497.140599
355.500135	2499.484735
355.889717	2497.410301
356.279235	2496.485249
356.668689	2497.788387
357.058080	2499.751917
357.447408	2496.147492
357.836672	2496.502893
358.225873	2496.558346
358.615010	2497.485918
359.004084	2500.760147
359.393095	2501.791063
359.782043	2504.924140
360.170927	2500.828203
360.559748	2502.748883
360.948505	2502.854747
361.337199	2502.698471
361.725830	2502.867350
362.114398	2506.149141
362.502903	2504.840961
362.891344	2506.121414
363.279722	2507.220386
363.668037	2509.413288
364.056289	2507.054028
364.444478	2507.301044
364.832603	2509.486385
365.220665	2510.592918
365.608665	2508.057217
365.996601	2510.000582
366.384474	2510.998731
366.772284	2513.501664
367.160031	2510.073679
367.547715	2510.971004
367.935336	2512.793382
368.322893	2512.604338
368.710388	2514.756911
369.097820	2517.138856
369.485189	2514.943434
369.872495	2516.065090
370.259738	2516.304545
370.646918	2511.979235
371.034035	2516.135667
371.421090	2518.885616
371.808081	2518.719258
372.195010	2515.681963
372.581875	2519.230935
372.968678	2518.378980
373.355418	2516.496109
373.742096	2519.377128
374.128710	2515.566016
374.515262	2517.486696
374.901751	2517.458969
375.288177	2520.687828
375.674540	2519.223373
376.060841	2521.199506
376.447079	2521.839732
376.833254	2523.258817
377.219367	2518.101717
377.605417	2519.341840
377.991404	2520.990298
378.377329	2520.241686
378.763191	2517.282529
379.148991	2523.873838
379.534727	2527.140505
379.920402	2526.117151
380.306013	2526.409538
380.691563	2527.115300
381.077049	2528.675537
381.462474	2527.369878
381.847835	2529.058664
382.233134	2536.970755
382.618371	2535.907072
383.003545	2540.991076
383.388657	2544.620706
383.773706	2553.455328
384.158693	2561.196020
384.543618	2568.760272
384.928480	2578.729153
385.313280	2593.010742
385.698017	2599.473501
386.082692	2617.989659
386.467305	2629.712863
386.851856	2648.281953
387.236344	2663.531443
387.620770	2683.587674
388.005133	2702.791949
388.389435	2728.305229
388.773674	2744.489853
389.157851	2768.868873
389.541965	2797.363996
389.926018	2806.357414
390.310008	2845.920389
390.693936	2876.167312
391.077802	2910.921027
391.461606	2933.210489
391.845348	2982.631441
392.229027	3009.599093
392.612645	3039.019267
392.996200	3099.606374
393.379694	3150.355670
393.763125	3207.051007
394.146494	3223.613718
394.529801	3286.131587
394.913047	3345.503777
395.296230	3355.376877
395.679351	3422.424223
396.062410	3471.106645
396.445408	3491.049450
396.828343	3543.321174
397.211217	3595.275306
397.594028	3571.206317
397.976778	3650.838903
398.359466	3700.234649
398.742092	3751.619131
399.124656	3722.493864
399.507158	3813.305210
399.889598	3854.690562
400.271977	3931.903395
400.654294	3931.018672
401.036549	3964.373467
401.418742	3964.444043
401.800874	4071.167791
402.182944	4112.437197
402.564952	4191.910987
402.946898	4200.538922
403.328783	4211.992423
403.710606	4153.842714
404.092367	4340.912371
404.474067	4326.713961
404.855705	4351.655070
405.237282	4292.028302
405.618797	4409.356117
406.000250	4449.113177
406.381642	4535.531157
406.762972	4512.626674
407.144240	4529.794323
407.525447	4541.474677
407.906593	4600.519191
408.287677	4649.592303
408.668700	4583.371707
409.049661	4640.334224
409.430560	4684.086399
409.811399	4617.293631
410.192176	4780.400163
410.572891	4718.988827
410.953545	4823.839786
411.334138	4709.723187
411.714669	4777.836737
412.095139	4674.346889
412.475547	4816.255370
412.855894	4799.838853
413.236180	4809.812776
413.616405	4762.514150
413.996568	4851.296431
414.376670	4794.109581
414.756711	4750.143158
415.136691	4782.504845
415.516609	4862.704562
415.896466	4899.300818
416.276262	4933.121919
416.655997	4913.698353
417.035670	5091.217545
417.415283	5186.767575
417.794834	5130.919152
418.174324	5084.351493
418.553753	4994.359336
418.933121	5176.798693
419.312428	5244.156070
419.691674	5183.702553
420.070859	5309.481862
420.449983	5223.409202
420.829045	5338.468497
421.208047	5241.491821
421.586988	5315.029652
421.965867	5329.258309
422.344686	5458.422753
422.723444	5314.490249
423.102141	5135.756139
423.480777	5432.639772
423.859352	5200.696283
424.237866	5461.364266
424.616319	5449.121824
424.994712	5559.865892
425.373044	5436.163538
425.751314	5581.414304
426.129524	5380.960383
426.507673	5574.381894
426.885762	5659.484133
427.263789	5591.940233
427.641756	5477.012008
428.019662	5594.871664
428.397508	5598.604638
428.775292	5549.264345
429.153016	5652.350900
429.530679	5575.652265
429.908282	5661.263660
430.285824	5528.961098
430.663305	5808.215815
431.040726	5537.334455
431.418086	5537.886461
431.795385	5646.936701
432.172624	5658.664945
432.549802	5650.573893
432.926920	5663.688455
433.303977	5670.690618
433.680974	5711.687802
434.057910	5729.626748
434.434786	5734.604887
434.811601	5704.468869
435.188355	5938.476710
435.565050	5811.485004
435.941683	5795.623013
436.318257	6005.622359
436.694770	5987.978320
437.071222	6025.507190
437.447614	5954.434483
437.823946	5869.521287
438.200218	6019.379668
438.576429	5890.358897
438.952580	5986.828937
439.328670	6032.862234
439.704700	5943.568276
440.080670	5927.234937
440.456580	6194.791657
440.832429	6077.960396
441.208218	5922.110604
441.583947	6083.853505
441.959616	6087.299133
442.335224	6011.505385
442.710773	6151.465460
443.086261	6178.105438
443.461689	5969.043747
443.837057	6120.033866
444.212365	6275.616477
444.587612	6172.325755
444.962800	6321.579197
445.337927	6304.116640
445.712995	5910.173152
446.088002	6489.820145
446.462949	6321.896789
446.837837	6250.640080
447.212664	6423.952428
447.587431	6569.336785
447.962139	7112.483303
448.336786	8036.736011
448.711374	7771.415043
449.085901	6849.914805
449.460369	6772.550738
449.834776	6703.779317
450.209124	7096.419666
450.583412	7249.214519
450.957640	7393.532671
451.331808	7155.348234
451.705917	6709.438012
452.079965	6633.664428
452.453954	6842.383321
452.827883	6722.214816
453.201752	6815.826523
453.575562	6617.489886
453.949311	6817.638818
454.323001	6706.022630
454.696632	6777.896881
455.070202	6921.088336
455.443713	7077.467448
455.817164	7172.079824
456.190556	7255.901609
456.563888	7328.519431
456.937160	7380.370218
457.310373	7031.169492
457.683526	7055.871145
458.056619	6947.894671
458.429653	6937.078876
458.802628	6872.133691
459.175542	6979.777449
459.548398	7332.113773
459.921194	7494.945563
460.293930	7499.054103
460.666607	8032.564456
461.039224	8334.859767
461.411782	8457.503478
461.784280	8477.201787
462.156719	8365.840178
462.529099	8246.876509
462.901419	7833.819486
463.273680	7724.761685
463.645882	7745.463183
464.018024	7611.456711
464.390106	7774.437215
464.762130	8161.968355
465.134094	8635.763720
465.505999	9658.540738
465.877845	10874.784639
466.249631	11520.301868
466.621358	11135.326593
466.993026	10510.732672
467.364634	10246.939174
467.736184	9890.426253
468.107674	9559.255213
468.479105	9589.320655
468.850477	9354.140746
469.221790	9128.231518
469.593043	8794.544942
469.964238	8657.791041
470.335373	8675.828290
470.706449	8730.176969
471.077467	8717.309424
471.448425	10018.869812
471.819324	11086.908831
472.190164	11111.159301
472.560945	9863.582109
472.931667	9079.415505
473.302330	8936.609699
473.672934	8591.454498
474.043479	8946.364332
474.413965	8887.781083
474.784393	8772.409236
475.154761	8928.800952
475.525070	9015.319754
475.895321	8842.801387
476.265513	9028.338534
476.635645	9193.884985
477.005719	9186.653450
477.375734	9303.086460
477.745691	9540.975989
478.115588	9679.358183
478.485427	9923.183671
478.855207	10456.575557
479.224928	11273.121492
479.594591	11905.992987
479.964194	11709.120806
480.333739	11649.070581
480.703226	11564.134701
481.072653	11650.540078
481.442022	11890.839279
481.811333	12082.524112
482.180584	11881.777805
482.549777	11594.905904
482.918912	11414.546022
483.287988	11440.732296
483.657005	11452.863832
484.025964	11139.500668
484.394864	11261.786458
484.763706	11236.406769
485.132489	10994.691003
485.501213	10957.467123
485.869879	11032.300532
486.238487	10871.497806
486.607036	10989.730508
486.975527	10768.010480
487.343959	10958.931579
487.712333	11004.281799
488.080648	10941.698394
488.448905	10974.410442
488.817104	10919.429097
489.185244	11187.210148
489.553326	11340.751092
489.921350	11872.035775
490.289315	12941.050257
490.657222	13279.883851
491.025070	13192.079553
491.392861	13058.574676
491.760593	12673.291891
492.128267	12332.794716
492.495883	12000.985970
492.863440	11668.416009
493.230939	11332.400420
493.598380	11262.588001
493.965763	11133.045471
494.333088	11026.896415
494.700354	10946.628643
495.067563	11006.111738
495.434713	10843.955462
495.801805	10970.712755
496.168839	10889.527493
496.535815	10832.101189
496.902733	10831.836528
497.269593	10765.028637
497.636395	10868.339523
498.003139	10855.625733
498.369825	10721.195804
498.736453	10881.585155
499.103023	10805.282251
499.469535	10836.479431
499.835989	10822.197842
500.202385	10785.609148
500.568723	10644.366099
500.935003	10854.655311
501.301226	10666.146404
501.667390	10931.641292
502.033497	11017.114056
502.399546	10882.641277
502.765537	10789.752976
503.131470	10856.449962
503.497345	11043.864939
503.863163	10645.291151
504.228923	10954.495363
504.594625	11015.337049
504.960269	10767.317321
505.325856	10987.580456
505.691385	10776.083888
506.056856	10934.363515
506.422270	10966.137908
506.787625	10845.772798
507.152924	10971.075718
507.518164	10948.859353
507.883347	10864.097393
508.248472	10794.433688
508.613540	11020.930209
508.978550	10909.049361
509.343503	10881.262521
509.708398	11005.947900
510.073236	11117.909406
510.438016	11120.883687
510.802738	11069.163969
511.167403	11121.312185
511.532010	11013.214723
511.896561	11251.873029
512.261053	11321.851806
512.625488	11189.183760
512.989866	11169.256079
513.354186	11157.273256
513.718449	11059.449666
514.082655	11255.285890
514.446803	11146.079374
514.810894	11270.563107
515.174927	11136.944803
515.538904	11158.258802
515.902822	11316.609006
516.266684	11203.621625
516.630488	11141.708694
516.994235	11198.313290
517.357925	11256.251271
517.721558	11346.331649
518.085133	11359.776406
518.448651	11377.092770
518.812112	11255.525345
519.175516	11270.477407
519.538863	11385.209027
519.902152	11308.187758
520.265385	11468.688014
520.628560	11373.203519
520.991678	11357.828000
521.354739	11420.668503
521.717743	11355.783812
522.080690	11328.075110
522.443580	11467.205915
522.806413	11425.467682
523.169189	11451.379213
523.531908	11513.960097
523.894569	11337.373518
524.257174	11334.517705
524.619722	11458.557816
524.982213	11399.561192
525.344647	11456.102774
525.707025	11406.520505
526.069345	11498.231697
526.431608	11416.282700
526.793815	11527.868640
527.155964	11308.916205
527.518057	11365.966943
527.880093	11312.250928
528.242072	11379.298274
528.603995	11289.137238
528.965860	11208.103210
529.327669	11260.891653
529.689421	11214.139992
530.051117	11181.516165
530.412755	11281.273038
530.774337	11171.297746
531.135862	11151.785960
531.497331	11177.213540
531.858743	11025.764676
532.220098	11189.907166
532.581396	11070.167159
532.942638	11053.238964
533.303824	11009.171718
533.664953	11028.247444
534.026025	10945.086050
534.387040	11037.429906
534.747999	11044.202696
535.108902	11105.228384
535.469748	10858.383245
535.830537	10964.527259
536.191270	10943.198138
536.551947	10967.214194
536.912567	10966.125305
537.273131	10888.741073
537.633638	10875.729855
537.994089	10861.130673
538.354483	10811.707201
538.714821	10950.447317
539.075103	10963.075407
539.435328	10924.306413
539.795497	10756.204097
540.155609	10912.167315
540.515665	10996.634368
540.875665	10739.840512
541.235609	10801.453494
541.595496	10793.768255
541.955328	10949.915475
542.315102	10826.208080
542.674821	10782.755855
543.034483	10783.401122
543.394090	10790.604931
543.753640	10716.988962
544.113134	10937.909967
544.472571	10796.424943
544.831953	10934.227404
545.191278	10744.062478
545.550548	10771.889647
545.909761	10907.905019
546.268918	10878.568025
546.628019	10966.921808
546.987064	10824.604993
547.346053	10744.453168
547.704986	10854.357883
548.063863	10841.639052
548.422684	10832.413741
548.781449	10752.488767
549.140158	10849.278921
549.498811	10723.310568
549.857408	10588.489950
550.215949	10811.452623
550.574434	10665.591877
550.932864	10765.716755
551.291237	10816.448406
551.649555	10770.263875
552.007817	10782.370206
552.366022	10743.820503
552.724173	10741.030224
553.082267	10728.553368
553.440305	10860.843328
553.798288	10661.443008
554.156215	10815.656945
554.514086	10791.945878
554.871902	10639.461057
555.229661	10669.239152
555.587365	10650.697788
555.945014	10542.670903
556.302606	10672.069760
556.660143	10571.448329
557.017625	10720.832841
557.375050	10625.539910
557.732421	10748.934753
558.089735	10661.921917
558.446994	10668.097331
558.804197	10701.568072
559.161345	10706.115193
559.518437	10552.443179
559.875474	10643.229319
560.232455	10669.718062
560.589381	10622.573191
560.946251	10618.447007
561.303065	10729.937165
561.659825	10654.763479
562.016528	10593.689900
562.373177	10467.547628
562.729770	10587.837121
563.086307	10504.491724
563.442789	10591.504560
563.799216	10474.574997
564.155587	10522.665084
564.511904	10479.921140
564.868164	10466.602412
565.224370	10482.711419
565.580520	10404.565972
565.936615	10411.908413
566.292654	10281.760944
566.648638	10415.956460
567.004567	10369.207319
567.360441	10354.822387
567.716260	10264.310990
568.072023	10363.604077
568.427732	10312.756479
568.783385	10216.367097
569.138982	10285.231779
569.494525	10306.691971
569.850013	10180.423670
570.205445	10266.140929
570.560823	10153.282097
570.916145	10079.676210
571.271412	10149.339915
571.626625	10084.992107
571.981782	10063.090814
572.336884	10039.566269
572.691931	10051.226458
573.046923	9990.999793
573.401860	9944.386764
573.756743	9885.856447
574.111570	9930.538715
574.466342	9911.062217
574.821059	9940.739489
575.175722	9834.368623
575.530330	9841.136372
575.884882	9834.451802
576.239380	9761.541594
576.593823	9738.352286
576.948211	9755.391386
577.302544	9633.584506
577.656823	9653.718875
578.011047	9659.546448
578.365216	9624.744843
578.719330	9551.227176
579.073389	9560.848218
579.427394	9502.012911
579.781344	9488.842897
580.135239	9434.370709
580.489080	9440.372203
580.842866	9343.191359
581.196597	9351.660498
581.550273	9389.925376
581.903895	9357.709883
582.257463	9420.668853
582.610975	9301.609402
582.964434	9328.478752
583.317837	9251.112164
583.671186	9237.571625
584.024481	9229.992250
584.377721	9147.390423
584.730906	9123.898647
585.084037	9161.871138
585.437113	9091.970499
585.790135	9113.647460
586.143103	9015.380248
586.496016	8985.312286
586.848874	9042.355462
587.201679	9032.391622
587.554428	8915.330988
587.907124	8959.178945
588.259765	8931.036703
588.612352	8931.596271
588.964884	8812.909866
589.317362	8828.708842
589.669786	8826.021907
590.022155	8872.188794
590.374470	8891.446002
590.726731	8827.219181
591.078937	8682.331378
591.431090	8793.098131
591.783188	8668.579111
592.135232	8659.865476
592.487222	8658.902616
592.839157	8712.338847
593.191038	8642.133217
593.542866	8591.585568
593.894639	8486.565730
594.246358	8540.075058
594.598022	8558.991988
594.949633	8451.915359
595.301190	8429.635980
595.652692	8459.235115
596.004141	8572.595541
596.355535	8343.097013
596.706876	8330.209303
597.058162	8257.523426
597.409395	8335.142072
597.760573	8401.002226
598.111698	8304.963204
598.462768	8299.521279
598.813785	8262.544415
599.164748	8227.798262
599.515657	8218.431798
599.866511	8127.007953
600.217312	8257.198272
600.568060	8116.063608
600.918753	8212.455511
601.269392	8183.428547
601.619978	8098.472502
601.970510	8163.861308
602.320988	8154.986357
602.671412	8215.389462
603.021783	8153.524422
603.372100	8123.998384
603.722363	8124.852860
604.072572	8100.355372
604.422728	8115.902291
604.772830	8040.035446
605.122878	8047.869399
605.472872	8047.995428
605.822813	8074.272442
606.172701	8017.047785
606.522534	8096.014939
606.872314	8096.561904
607.222041	8056.260400
607.571714	8113.691745
607.921333	8074.602638
608.270899	8081.400634
608.620411	8172.355652
608.969870	8071.212462
609.319276	8073.480981
609.668627	8085.554545
610.017926	8120.673743
610.367171	8163.425248
610.716362	8144.283987
611.065500	8134.879715
611.414585	8163.208479
611.763616	8150.693814
612.112594	8128.048951
612.461518	8147.734657
612.810389	8207.842855
613.159207	8147.883371
613.507971	8098.964014
613.856682	8217.358033
614.205340	8169.983789
614.553945	8250.334741
614.902496	8147.278433
615.250994	8198.546967
615.599439	8185.830657
615.947830	8197.395063
616.296169	8167.707708
616.644454	8180.892846
616.992686	8183.420985
617.340864	8239.314778
617.688990	8147.691807
618.037063	8235.617092
618.385082	8183.083228
618.733048	8272.145293
619.080961	8206.786733
619.428821	8223.828354
619.776628	8226.537974
620.124382	8180.182044
620.472083	8162.129672
620.819731	8194.524126
621.167326	8081.975326
621.514868	8086.658557
621.862357	7980.897670
622.209793	7991.534505
622.557176	7928.184845
622.904506	7901.807008
623.251783	7835.180598
623.599007	7788.938094
623.946179	7789.396839
624.293297	7748.366887
624.640363	7670.619692
624.987376	7649.640931
625.334336	7606.375228
625.681243	7542.201339
626.028097	7534.934516
626.374899	7518.943976
626.721647	7508.193715
627.068343	7438.678724
627.414987	7403.282263
627.761577	7363.202569
628.108115	7401.769917
628.454600	7293.811086
628.801032	7341.825556
629.147412	7307.409599
629.493739	7295.550284
629.840014	7234.320430
630.186236	7291.167001
630.532405	7177.932603
630.878521	7227.887918
631.224585	7176.884043
631.570597	7105.740760
631.916556	7138.006665
632.262462	7133.749411
632.608316	7094.572083
632.954117	7069.383958
633.299866	7058.512710
633.645562	7051.293778
633.991206	6971.378886
634.336797	6912.692294
634.682336	6868.879626
635.027823	6838.257137
635.373257	6827.232133
635.718639	6763.532113
636.063968	6780.571213
636.409245	6672.685480
636.754470	6666.452093
637.099642	6626.949612
637.444762	6567.577422
637.789829	6580.031593
638.134845	6516.661768
638.479808	6507.776735
638.824719	6512.258320
639.169577	6441.624193
639.514383	6459.283355
639.859137	6386.413476
640.203839	6395.149796
640.548489	6383.333331
640.893086	6358.616554
641.237632	6330.751576
641.582125	6351.647159
641.926566	6320.417211
642.270955	6339.724830
642.615292	6330.544889
642.959576	6344.627352
643.303809	6331.288459
643.647990	6342.235325
643.992118	6333.423388
644.336195	6278.557990
644.680219	6302.256454
645.024192	6291.894362
645.368112	6388.336677
645.711981	6409.093627
646.055797	6484.907540
646.399562	6447.146777
646.743274	6569.838380
647.086935	6626.604293
647.430544	6618.185566
647.774101	6640.706920
648.117606	6641.362270
648.461059	6639.159286
648.804460	6603.475479
649.147810	6507.386045
649.491108	6480.985522
649.834354	6454.058199
650.177548	6370.299428
650.520690	6286.422190
650.863781	6262.023005
651.206820	6285.164422
651.549807	6202.870106
651.892742	6147.803062
652.235626	6152.821531
652.578458	6140.518595
652.921238	6046.049892
653.263967	6087.878866
653.606644	6027.231265
653.949269	6029.925762
654.291843	5968.164065
654.634365	6020.897055
654.976836	5970.286391
655.319255	5973.071628
655.661622	5950.222599
656.003938	5946.033400
656.346203	5906.687194
656.688416	5941.098110
657.030577	5891.956943
657.372687	5862.178847
657.714746	5846.384912
658.056753	5889.484257
658.398708	5833.192212
658.740612	5825.769113
659.082465	5870.907605
659.424266	5868.182861
659.766016	5861.281521
660.107715	5835.511143
660.449362	5851.960428
660.790958	5839.927194
661.132503	5830.863199
661.473996	5869.700248
661.815438	5858.725656
662.156829	5855.847158
662.498168	5847.418348
662.839456	5819.732331
663.180693	5856.648701
663.521879	5857.407395
663.863013	5847.453636
664.204097	5869.057501
664.545129	5908.030662
664.886110	5905.036216
665.227040	5935.545279
665.567918	5903.420526
665.908746	5928.265853
666.249522	5933.052429
666.590248	5922.402991
666.930922	5948.037258
667.271545	5961.766841
667.612118	5965.124249
667.952639	5935.318427
668.293109	5958.346418
668.633528	5916.988792
668.973896	5923.113794
669.314213	5908.645682
669.654480	5896.657818
669.994695	5887.669441
670.334859	5874.592688
670.674973	5865.745463
671.015035	5873.586978
671.355047	5869.203695
671.695008	5859.199525
672.034918	5832.302448
672.374777	5842.115054
672.714585	5828.531665
673.054342	5831.100133
673.394049	5824.483619
673.733705	5856.482343
674.073310	5841.116906
674.412864	5802.599970
674.752368	5789.508093
675.091820	5801.241379
675.431223	5734.115895
675.770574	5734.667901
676.109875	5686.555129
676.449125	5696.191295
676.788324	5657.964225
677.127473	5599.139001
677.466571	5594.637250
677.805619	5583.718111
678.144616	5571.674795
678.483562	5551.346342
678.822458	5519.060272
679.161303	5509.580382
679.500098	5503.646944
679.838842	5482.796732
680.177535	5488.291589
680.516179	5507.795814
680.854771	5516.164129
681.193314	5595.038022
681.531805	5701.958375
681.870247	5854.392785
682.208638	5952.581859
682.546978	5970.142718
682.885268	5950.411642
683.223508	5862.098188
683.561697	5806.078366
683.899836	5778.251197
684.237925	5733.977263
684.575963	5698.477458
684.913951	5654.964738
685.251889	5722.309513
685.589776	5686.028328
685.927614	5662.871788
686.265401	5728.555502
686.603137	5713.358944
686.940824	5789.210665
687.278460	5816.193441
687.616046	5827.145348
687.953582	5891.218413
688.291068	5872.893819
688.628504	5941.216577
688.965889	5898.969188
689.303224	5844.933059
689.640510	5794.231655
689.977745	5717.807762
690.314930	5621.209172
690.652065	5566.169855
690.989150	5476.931349
691.326185	5395.748608
691.663170	5340.613508
692.000105	5266.667343
692.336990	5183.450496
692.673825	5165.758566
693.010610	5096.372125
693.347345	5028.029202
693.684030	5012.111759
694.020665	4970.338238
694.357251	4882.077716
694.693786	4893.974839
695.030272	4854.275752
695.366707	4824.969005
695.703093	4787.959374
696.039429	4809.870749
696.375716	4795.359787
696.711952	4769.150829
697.048139	4755.663222
697.384276	4735.198657
697.720363	4748.572839
698.056400	4759.872585
698.392388	4704.303946
698.728326	4689.356925
699.064214	4662.512781
699.400053	4659.833407
699.735842	4625.989621
700.071581	4600.322586
700.407270	4575.361313
700.742910	4555.567223
701.078501	4500.991691
701.414042	4498.942462
701.749533	4470.243173
702.084974	4403.052154
702.420366	4461.537100
702.755709	4406.908637
703.091002	4350.540975
703.426246	4397.688366
703.761440	4351.793702
704.096584	4315.061334
704.431679	4336.153522
704.766725	4322.552489
705.101721	4310.141168
705.436668	4339.188297
705.771565	4286.969504
706.106413	4310.113442
706.441212	4344.436138
706.775961	4355.776213
707.110661	4333.874920
707.445311	4363.700907
707.779913	4385.549268
708.114465	4399.694746
708.448967	4422.422788
708.783421	4481.948732
709.117825	4526.797357
709.452180	4527.475393
709.786485	4575.189914
710.120742	4661.623017
710.454949	4645.269514
710.789107	4713.093198
711.123216	4784.503663
711.457275	4776.518475
711.791286	4852.944888
712.125247	4867.160942
712.459159	4773.100573
712.793023	4845.148743
713.126837	4804.963186
713.460602	4797.325837
713.794318	4717.587387
714.127985	4727.054673
714.461602	4638.519409
714.795171	4612.703660
715.128691	4544.630439
715.462162	4486.326974
715.795584	4436.268317
716.128957	4420.923044
716.462281	4371.562587
716.795556	4345.958566
717.128782	4306.279644
717.461960	4234.075198
717.795088	4246.972990
718.128167	4205.322977
718.461198	4145.076147
718.794180	4137.559787
719.127113	4122.776603
719.459997	4102.059981
719.792833	4059.081624
720.125619	4044.711815
720.458357	4015.536137
720.791046	4019.339688
721.123686	3991.469669
721.456278	3951.258905
721.788821	3965.951348
722.121315	3938.414045
722.453761	3911.164088
722.786158	3924.568516
723.118506	3945.645580
723.450805	3903.463726
723.783056	3924.102209
724.115259	3940.294396
724.447412	3943.424952
724.779518	3937.025207
725.111574	3938.777008
725.443582	3971.196669
725.775542	3954.485244
726.107453	4008.685209
726.439315	4008.284437
726.771129	4021.086448
727.102895	4056.558527
727.434612	4105.815641
727.766281	4117.117908
728.097901	4119.598156
728.429473	4125.541676
728.760996	4133.365547
729.092471	4127.422026
729.423897	4111.769244
729.755276	4117.899287
730.086606	4118.174030
730.417887	4155.818846
730.749120	4220.426274
731.080305	4281.893063
731.411442	4308.278462
731.742530	4280.408443
732.073570	4281.182260
732.404562	4338.104448
732.735506	4332.665043
733.066401	4295.236997
733.397249	4229.535639
733.728048	4154.016633
734.058798	4062.159249
734.389501	3996.911594
734.720156	3934.262655
735.050762	3891.490985
735.381320	3881.406157
735.711831	3832.108713
736.042293	3801.786173
736.372707	3823.064883
736.703073	3799.280720
737.033391	3788.457362
737.363661	3804.581493
737.693883	3830.268692
738.024056	3840.285465
738.354182	3834.621729
738.684260	3898.057088
739.014290	3918.224224
739.344272	3914.380344
739.674207	3960.343064
740.004093	3961.883137
740.333931	3956.589925
740.663722	3958.981953
740.993464	3957.809885
741.323159	3929.982715
741.652806	3899.574475
741.982405	3873.088253
742.311956	3840.789580
742.641460	3826.777693
742.970915	3808.732883
743.300323	3771.103190
743.629683	3730.131212
743.958996	3720.129563
744.288260	3697.499823
744.617477	3664.422292
744.946647	3647.794047
745.275768	3626.595995
745.604842	3621.201960
745.933869	3576.779312
746.262847	3566.543249
746.591778	3603.928446
746.920662	3574.745207
747.249498	3543.434600
747.578286	3588.520160
747.907027	3608.891462
748.235720	3609.108232
748.564365	3630.356695
748.892963	3632.148826
749.221514	3612.964715
749.550017	3593.949482
749.878473	3588.074017
750.206881	3559.891447
750.535242	3553.864747
750.863555	3556.904563
751.191821	3550.454407
751.520039	3536.165256
751.848210	3508.358252
752.176334	3546.108932
752.504411	3551.729819
752.832440	3510.868746
753.160421	3491.765294
753.488356	3503.291892
753.816243	3515.834283
754.144082	3469.899289
754.471875	3455.443780
754.799620	3479.215341
755.127318	3468.407108
755.454969	3469.606902
755.782572	3472.689568
756.110129	3448.862554
756.437638	3438.641615
756.765100	3457.440077
757.092515	3462.637507
757.419882	3473.203765
757.747203	3441.699074
758.074477	3444.055814
758.401703	3461.190696
758.728882	3483.407061
759.056014	3488.009634
759.383099	3491.064573
759.710138	3489.393431
760.037129	3505.946060
760.364073	3538.169115
760.690970	3523.194368
761.017820	3497.693691
761.344623	3518.939634
761.671379	3563.170718
761.998088	3613.751135
762.324751	3741.534302
762.651366	3990.771469
762.977935	4465.834684
763.304456	4910.688785
763.630931	5007.259648
763.957359	4647.026356
764.283740	4300.515085
764.610074	4107.597689
764.936362	3908.494797
765.262602	3751.742639
765.588796	3636.204434
765.914943	3548.768141
766.241044	3462.803865
766.567097	3431.528547
766.893104	3384.124056
767.219064	3352.866382
767.544978	3326.254131
767.870845	3272.747324
768.196665	3253.011207
768.522438	3260.792227
768.848165	3256.177051
769.173846	3215.898232
769.499479	3200.691591
769.825066	3183.100485
770.150607	3165.600119
770.476101	3181.845238
770.801548	3179.067562
771.126949	3135.958135
771.452303	3117.119343
771.777611	3123.239304
772.102872	3129.263482
772.428087	3103.115018
772.753256	3092.248810
773.078378	3084.924014
773.403453	3051.037378
773.728482	3041.570091
774.053465	3060.892833
774.378401	3051.349929
774.703291	3017.175947
775.028135	3020.056967
775.352932	3010.204032
775.677683	3001.515603
776.002388	2997.540653
776.327046	3000.192300
776.651658	2990.432626
776.976224	2977.547437
777.300743	2978.800164
777.625216	2970.215079
777.949643	2965.463791
778.274024	2967.797845
778.598359	2954.688325
778.922647	2958.564972
779.246889	2959.807617
779.571086	2944.064093
779.895236	2937.719801
780.219339	2949.299331
780.543397	2959.109417
780.867409	2964.914305
781.191374	2956.787965
781.515294	2953.601956
781.839167	2952.276133
782.162995	2947.267746
782.486776	2954.413582
782.810511	2951.703962
783.134201	2938.929678
783.457844	2943.696089
783.781441	2936.933381
784.104993	2916.735998
784.428498	2916.758683
784.751958	2931.252001
785.075372	2926.793100
785.398739	2910.880698
785.722061	2924.695980
786.045337	2936.288113
786.368568	2922.760177
786.691752	2911.500760
787.014891	2961.476238
787.337983	2988.191833
787.661030	3019.270547
787.984031	3085.783531
788.306987	3131.884882
788.629897	3127.035292
788.952760	3108.279680
789.275579	3094.424068
789.598351	3034.280582
789.921078	2988.338027
790.243759	2981.061121
790.566395	2963.457412
790.888984	2936.431786
791.211529	2923.130702
791.534027	2914.429670
791.856480	2905.398443
792.178888	2888.540825
792.501249	2880.167468
792.823566	2879.197046
793.145836	2874.574308
793.468062	2870.022146
793.790241	2869.765047
794.112375	2875.506921
794.434464	2887.343551
794.756507	2891.585682
795.078505	2894.199520
795.400457	2913.302972
795.722364	2949.044753
796.044226	2973.910244
796.366042	2973.801860
796.687812	2963.197793
797.009538	2982.192860
797.331218	2968.395222
797.652852	2957.090435
797.974442	2937.392126
798.295986	2933.611261
798.617484	2928.297884
798.938938	2914.406985
799.260346	2898.897875
799.581709	2889.798593
799.903026	2886.799106
800.224299	2880.003631
800.545526	2872.073896
800.866708	2855.274250
801.187845	2845.091120
801.508936	2846.684124
801.829983	2853.603108
802.150984	2842.404185
802.471940	2826.723676
802.792851	2828.334324
803.113717	2828.717452
803.434538	2833.133503
803.755314	2828.195692
804.076045	2821.594302
804.396731	2820.981801
804.717372	2818.985504
805.037967	2814.703044
805.358518	2822.133705
805.679024	2832.702484
805.999485	2831.890858
806.319901	2834.015705
806.640272	2826.131340
806.960598	2832.294151
807.280879	2840.075172
807.601115	2847.077334
807.921306	2834.219871
808.241453	2831.054027
808.561554	2837.930161
808.881611	2837.859584
809.201623	2833.461178
809.521590	2830.141578
809.841513	2825.609581
810.161390	2831.560663
810.481223	2825.599498
810.801011	2815.885195
811.120755	2812.621048
811.440453	2816.807726
811.760107	2814.042653
812.079716	2812.893270
812.399281	2805.112249
812.718801	2798.828451
813.038276	2792.232101
813.357707	2796.020528
813.677093	2806.150727
813.996434	2796.958183
814.315731	2794.941721
814.634983	2794.402318
814.954191	2792.819395
815.273354	2803.655356
815.592473	2812.401757
815.911547	2814.577015
816.230577	2822.957934
816.549562	2832.095025
816.868502	2831.172494
817.187399	2842.847806
817.506250	2859.528984
817.825058	2851.160669
818.143821	2866.783205
818.462539	2880.117057
818.781213	2908.556726
819.099843	2942.682817
819.418429	3005.097343
819.736970	3065.041703
820.055466	3138.599699
820.373919	3244.146337
820.692327	3387.794016
821.010691	3560.478741
821.329011	4004.848891
821.647286	4912.324639
821.965517	6302.400127
822.283704	7056.997843
822.601847	7041.511419
822.919945	6399.522997
823.237999	5885.910078
823.556010	5298.875275
823.873976	4740.030603
824.191897	4327.898633
824.509775	4027.831512
824.827609	3754.046446
825.145398	3632.010194
825.463144	3621.897639
825.780845	3710.155640
826.098502	3815.331753
826.416116	4103.186679
826.733685	4422.289197
827.051210	4491.660515
827.368692	4372.578379
827.686129	4102.276751
828.003522	3772.920526
828.320872	3514.357225
828.638177	3313.943633
828.955439	3175.430369
829.272656	3092.306784
829.589830	3025.574510
829.906960	2974.472333
830.224046	2926.291505
830.541088	2892.886299
830.858086	2878.090513
831.175041	2861.089221
831.491952	2862.651979
831.808819	2873.664380
832.125642	2900.485839
832.442421	2945.208435
832.759157	3027.517874
833.075849	3206.330122
833.392497	3489.083400
833.709101	3697.353630
834.025662	3648.789674
834.342179	3486.681290
834.658653	3307.405257
834.975083	3156.263902
835.291469	3057.550548
835.607811	2973.779174
835.924110	2915.800864
836.240366	2862.236084
836.556578	2815.781851
836.872746	2796.360806
837.188871	2770.194697
837.504952	2756.235742
837.820990	2746.833990
838.136984	2734.599110
838.452935	2727.115517
838.768842	2722.772563
839.084706	2741.757548
839.400526	2822.584888
839.716303	2954.975671
840.032037	3039.278886
840.347727	3024.954448
840.663373	2961.584623
840.978977	2885.241389
841.294537	2812.452169
841.610054	2762.416197
841.925527	2741.369379
842.240957	2722.220556
842.556344	2699.318594
842.871687	2679.635409
843.186987	2672.512259
843.502244	2669.061589
843.817458	2665.303409
844.132629	2650.043836
844.447756	2642.834986
844.762840	2633.965076
845.077881	2639.296096
845.392879	2637.584624
845.707833	2634.330560
846.022745	2624.439816
846.337613	2629.042389
846.652438	2624.921246
846.967221	2625.813530
847.281960	2624.613736
847.596656	2622.599795
847.911309	2622.035185
848.225919	2618.065277
848.540485	2615.559823
848.855009	2615.509412
849.169490	2615.970677
849.483928	2616.588219
849.798323	2615.174175
850.112675	2612.162086
850.426984	2616.217694
850.741251	2611.302569
851.055474	2612.875409
851.369654	2615.610235
851.683792	2614.465893
851.997887	2613.671911
852.311938	2611.143772
852.625947	2613.311469
852.939914	2617.563682
853.253837	2616.472272
853.567718	2610.271653
853.881555	2613.109822
854.195350	2614.470934
854.509103	2614.546551
854.822812	2612.706530
855.136479	2612.330964
855.450103	2615.731222
855.763685	2616.815071
856.077224	2612.489761
856.390720	2611.337857
856.704173	2614.612086
857.017584	2617.208281
857.330953	2617.863631
857.644278	2621.379835
857.957561	2621.760442
858.270802	2614.808691
858.584000	2616.714248
858.897155	2619.247427
859.210268	2619.207098
859.523339	2616.691562
859.836367	2609.306272
860.149352	2614.402878
860.462295	2615.522015
860.775195	2612.530090
861.088054	2608.585387
861.400869	2611.015223
861.713642	2605.661518
862.026373	2607.347784
862.339062	2611.473968
862.651708	2613.379524
862.964312	2618.685339
863.276873	2614.113012
863.589392	2618.587036
863.901869	2623.310597
864.214303	2629.533902
864.526696	2628.903757
864.839045	2633.982720
865.151353	2634.507000
865.463619	2634.202010
865.775842	2633.904582
866.088023	2632.634211
866.400162	2636.173101
866.712258	2635.419449
867.024313	2634.320477
867.336325	2628.437451
867.648296	2628.752523
867.960224	2639.175108
868.272110	2634.804428
868.583954	2627.532564
868.895755	2628.203037
869.207515	2634.486835
869.519233	2641.761220
869.830909	2638.197125
870.142542	2632.871146
870.454134	2636.488173
870.765684	2641.647794
871.077191	2642.688793
871.388657	2645.337919
871.700081	2643.661735
872.011463	2645.675676
872.322803	2644.559061
872.634101	2648.982673
872.945357	2656.998108
873.256571	2663.090342
873.567744	2660.879796
873.878874	2659.075063
874.189963	2660.007677
874.501010	2665.356341
874.812015	2667.934891
875.122979	2668.262566
875.433900	2659.062460
875.744780	2658.369302
876.055618	2664.184273
876.366415	2669.515293
876.677169	2667.261897
876.987882	2663.596978
877.298554	2665.137051
877.609183	2672.524862
877.919771	2681.367046
878.230317	2687.870134
878.540822	2698.411187
878.851285	2715.036912
879.161707	2735.932495
879.472087	2777.411109
879.782425	2822.219405
880.092722	2940.268104
880.402977	3134.670120
880.713191	3399.093763
881.023363	3695.415306
881.333494	3894.235893
881.643583	4065.597316
881.953631	4066.827357
882.263637	3883.420098
882.573602	3664.558404
882.883526	3529.538660
883.193408	3410.267480
883.503248	3306.286120
883.813048	3191.234387
884.122806	3075.101326
884.432522	2990.508243
884.742197	2923.435692
885.051831	2884.555793
885.361424	2846.169927
885.670975	2811.522076
885.980485	2777.862292
886.289954	2758.524426
886.599382	2744.305851
886.908768	2735.403174
887.218113	2713.615307
887.527417	2700.702391
887.836680	2693.753161
888.145901	2688.623787
888.455082	2676.895542
888.764221	2669.608554
889.073319	2660.804179
889.382376	2659.627070
889.691392	2660.335352
890.000366	2662.177893
890.309300	2657.648417
890.618193	2657.875269
890.927044	2662.797955
891.235855	2662.041782
891.544625	2661.898109
891.853353	2664.154026
892.162041	2672.744152
892.470687	2689.793334
892.779293	2705.161292
893.087858	2713.179247
893.396381	2737.071796
893.704864	2779.286418
894.013306	2852.292408
894.321707	2946.481326
894.630068	3000.746827
894.938387	3022.512009
895.246665	3011.290400
895.554903	2967.346662
895.863100	2919.889240
896.171256	2863.458564
896.479371	2800.842392
896.787446	2761.546597
897.095480	2738.952146
897.403473	2735.667834
897.711425	2718.699310
898.019336	2702.434027
898.327207	2686.551872
898.635038	2685.447860
898.942827	2683.053312
899.250576	2673.845644
899.558284	2660.355516
899.865952	2655.730258
900.173579	2650.812612
900.481165	2651.193219
900.788711	2643.205511
901.096216	2635.691671
901.403681	2633.839047
901.711105	2632.959366
902.018489	2634.249901
902.325832	2635.522792
902.633135	2638.308030
902.940397	2656.274702
903.247619	2693.175948
903.554800	2763.182452
903.861941	2893.264386
904.169041	3023.948738
904.476101	3088.561206
904.783121	3081.309507
905.090100	3022.519570
905.397039	2943.524690
905.703938	2867.778833
906.010796	2803.015129
906.317614	2751.625607
906.624391	2715.135215
906.931129	2686.546831
907.237826	2660.985661
907.544483	2645.312713
907.851099	2630.693367
908.157675	2618.675256
908.464211	2614.390276
908.770707	2603.781167
909.077163	2599.995261
909.383578	2594.752461
909.689954	2594.480238
909.996289	2590.283478
910.302584	2595.175918
910.608839	2586.137129
910.915054	2590.006214
911.221229	2590.656523
911.527363	2594.797831
911.833458	2592.844384
912.139513	2592.118458
912.445527	2593.015783
912.751502	2600.935436
913.057436	2605.996754
913.363331	2611.617641
913.669186	2622.294805
913.975000	2635.505148
914.280775	2655.238745
914.586510	2674.400171
914.892205	2712.801160
915.197859	2782.611059
915.503475	2866.755478
915.809050	2936.424224
916.114585	2952.278653
916.420081	2965.998153
916.725536	2977.771768
917.030952	2948.318827
917.336328	2897.912330
917.641665	2851.074969
917.946961	2795.776032
918.252218	2763.106835
918.557435	2736.560118
918.862612	2711.697148
919.167750	2693.511185
919.472848	2680.784792
919.777906	2661.028510
920.082925	2649.136428
920.387904	2635.626136
920.692843	2632.427524
920.997743	2627.837553
921.302603	2620.492592
921.607423	2614.826335
921.912204	2606.536158
922.216946	2605.152361
922.521647	2602.210848
922.826310	2597.507451
923.130932	2596.297574
923.435516	2586.414392
923.740059	2587.112592
924.044564	2584.206367
924.349028	2581.491706
924.653454	2572.780592
924.957840	2571.895869
925.262186	2570.317988
925.566493	2571.485015
925.870761	2566.680796
926.174989	2566.804304
926.479178	2564.792883
926.783328	2561.367419
927.087438	2563.275496
927.391509	2561.589230
927.695541	2558.713252
927.999533	2558.471277
928.303486	2556.986657
928.607400	2557.274003
928.911275	2557.765515
929.215110	2555.423899
929.518906	2553.404917
929.822663	2555.877603
930.126381	2555.796944
930.430060	2561.138047
930.733699	2557.178221
931.037299	2556.497665
931.340861	2557.397511
931.644383	2560.321380
931.947866	2560.394477
932.251309	2557.533622
932.554714	2559.204764
932.858080	2557.337017
933.161407	2557.954558
933.464694	2557.185782
933.767943	2555.330638
934.071153	2554.208981
934.374323	2552.459701
934.677455	2555.713765
934.980548	2553.455328
935.283602	2554.486244
935.586617	2553.924156
935.889593	2555.804506
936.192530	2552.298384
936.495428	2551.199412
936.798287	2553.606563
937.101108	2557.271482
937.403890	2559.025803
937.706632	2562.262224
938.009336	2566.506876
938.312002	2567.885631
938.614628	2572.163050
938.917216	2580.198650
939.219765	2575.865778
939.522275	2579.016499
939.824747	2578.018351
940.127179	2572.397464
940.429573	2569.808832
940.731929	2567.837740
941.034246	2566.549726
941.336524	2568.583831
941.638763	2567.139541
941.940964	2569.420663
942.243126	2564.742472
942.545250	2565.796073
942.847335	2563.653583
943.149381	2562.582338
943.451389	2558.713252
943.753359	2560.878428
944.055290	2560.243242
944.357182	2558.748540
944.659036	2557.079918
944.960851	2555.484393
945.262628	2555.875082
945.564367	2559.151832
945.866067	2558.128478
946.167729	2558.211657
946.469352	2556.235525
946.770937	2560.936401
947.072484	2558.120916
947.373992	2555.484393
947.675462	2557.896585
947.976893	2555.446584
948.278286	2553.573796
948.579641	2552.379042
948.880958	2554.776111
949.182236	2556.653941
949.483476	2552.638662
949.784678	2555.791903
950.085841	2554.554300
950.386967	2556.255689
950.688054	2552.230328
950.989103	2557.533622
951.290114	2557.248797
951.591087	2558.451112
951.892021	2559.333314
952.192917	2560.321380
952.493776	2562.365568
952.794596	2561.866494
953.095378	2562.436144
953.396122	2563.845147
953.696828	2561.657286
953.997496	2561.874055
954.298126	2557.337017
954.598718	2555.060936
954.899272	2554.443395
955.199788	2555.076059
955.500266	2551.610266
955.800706	2549.709751
956.101108	2545.830583
956.401472	2546.964843
956.701798	2543.189019
957.002087	2544.882846
957.302337	2543.471323
957.602550	2541.301107
957.902724	2542.934440
958.202861	2542.349667
958.502960	2541.578370
958.803022	2542.105171
959.103045	2543.143648
959.403031	2541.464944
959.702979	2539.745911
960.002889	2541.747249
960.302762	2538.747762
960.602596	2541.041487
960.902393	2538.583925
961.202153	2540.436549
961.501875	2539.738349
961.801559	2535.491177
962.101205	2539.715664
962.400814	2538.296579
962.700385	2537.757175
962.999918	2542.669780
963.299414	2541.338915
963.598873	2539.451003
963.898293	2537.192566
964.197677	2538.344470
964.497022	2536.902700
964.796331	2536.494366
965.095601	2536.461599
965.394835	2539.932433
965.694030	2538.909079
965.993189	2538.278935
966.292309	2538.846065
966.591393	2537.495035
966.890439	2537.474871
967.189447	2538.528472
967.488419	2538.657021
967.787353	2534.001516
968.086249	2537.437062
968.385108	2539.186342
968.683930	2536.063348
968.982714	2539.703061
969.281462	2538.273894
969.580172	2538.130221
969.878844	2540.043339
970.177480	2538.901517
970.476078	2538.349511
970.774639	2539.561908
971.073162	2537.275745
971.371649	2535.350024
971.670098	2537.053934
971.968510	2536.416228
972.266885	2533.386495
972.565223	2541.162475
972.863524	2538.349511
973.161788	2540.728936
973.460014	2538.520910
973.758204	2539.244316
974.056356	2537.502597
974.354471	2542.752959
974.652550	2537.658873
974.950591	2539.829090
975.248595	2540.933102
975.546563	2538.213400
975.844493	2537.026208
976.142386	2538.694830
976.440243	2537.638708
976.738062	2536.156609
977.035845	2539.962680
977.333590	2534.432534
977.631299	2537.089223
977.928971	2536.491846
978.226606	2538.379758
978.524204	2535.748276
978.821765	2535.138296
979.119290	2537.273225
979.416777	2537.300951
979.714228	2536.746424
980.011642	2539.461085
980.309020	2539.992927
980.606360	2539.269522
980.903664	2539.090561
981.200931	2539.080478
981.498162	2537.885725
981.795356	2539.314892
982.092513	2546.246478
982.389633	2546.196067
982.686717	2549.150183
982.983764	2552.129505
983.280775	2556.003632
983.577749	2554.788714
983.874686	2553.621687
984.171587	2546.286808
984.468451	2548.956099
984.765279	2543.373021
985.062070	2540.101312
985.358824	2541.767413
985.655543	2540.930582
985.952224	2537.716846
986.248869	2536.718698
986.545478	2533.149561
986.842050	2534.177956
987.138586	2534.104859
987.435086	2533.414221
987.731549	2531.249046
988.027975	2536.146527
988.324366	2534.916485
988.620719	2535.793646
988.917037	2533.847761
989.213318	2533.300795
989.509563	2532.514375
989.805772	2535.808769
990.101944	2533.474715
990.398080	2536.169212
990.694180	2533.872966
990.990244	2537.157278
991.286271	2535.927237
991.582262	2534.949253
991.878217	2536.456558
992.174136	2533.878008
992.470019	2534.228368
992.765865	2536.121321
993.061676	2531.458254
993.357450	2532.479087
993.653188	2534.699716
993.948890	2532.476567
994.244556	2533.058820
994.540186	2535.120652
994.835780	2535.387833
995.131337	2532.259797
995.426859	2533.033614
995.722345	2534.961856
996.017795	2537.946219
996.313208	2537.177443
996.608586	2538.384799
996.903928	2539.778678
997.199234	2538.614172
997.494504	2537.719367
997.789738	2537.802546
998.084936	2536.121321
998.380099	2534.112421
998.675225	2537.749614
998.970316	2533.688964
999.265371	2536.822041
999.560390	2533.144520
999.855373	2535.261804
1000.150320	2534.505631
1000.445232	2533.946063
1000.740108	2535.811290
1001.034948	2531.533871
1001.329752	2533.222658
1001.624521	2534.407329
1001.919254	2530.392050
1002.213951	2532.063192
1002.508613	2529.182173
1002.803239	2529.479601
1003.097829	2526.096987
1003.392384	2531.821217
1003.686903	2531.904396
1003.981386	2532.221988
1004.275834	2532.126207
1004.570246	2534.735004
1004.864623	2529.255269
1005.158964	2534.331711
1005.453270	2532.537061
1005.747540	2533.792308
1006.041775	2530.429858
1006.335974	2529.782070
1006.630138	2533.353728
1006.924266	2529.116638
1007.218359	2532.554705
1007.512416	2531.508665
1007.806438	2530.455064
1008.100425	2531.301978
1008.394376	2532.461443
1008.688292	2532.443799
1008.982172	2530.485311
1009.276017	2534.056968
1009.569827	2529.971113
1009.863602	2534.830786
1010.157341	2530.618902
1010.451045	2531.450692
1010.744714	2533.701567
1011.038347	2531.881711
1011.331945	2531.327184
1011.625508	2533.081505
1011.919036	2534.490508
1012.212528	2531.259128
1012.505986	2530.563449
1012.799408	2532.355579
1013.092795	2529.978675
1013.386147	2532.269879
1013.679464	2531.949766
1013.972745	2534.082174
1014.265992	2532.143851
1014.559204	2533.625950
1014.852380	2532.237112
1015.145521	2531.745599
1015.438628	2530.145033
1015.731699	2534.114942
1016.024736	2532.612678
1016.317737	2531.324663
1016.610703	2531.062523
1016.903635	2530.192924
1017.196531	2527.563962
1017.489393	2531.785929
1017.782219	2527.062368
1018.075011	2530.185362
1018.367768	2533.469674
1018.660490	2532.985723
1018.953177	2532.985723
1019.245829	2532.985723
