Dividing Wavelength (nm)	Counts (n)	Blue Motor Position (mm): 34.400000	Red Motor Position (mm): 0.000000	
326.493990	2130.747017
326.888308	2130.747017
327.282561	2130.747017
327.676750	2097.432552
328.070874	2097.906420
328.464933	2097.856008
328.858929	2103.406319
329.252859	2115.865531
329.646726	2128.538991
330.040528	2141.572895
330.434265	2157.225677
330.827938	2175.252843
331.221547	2191.775225
331.615091	2211.859182
332.008571	2228.807541
332.401986	2253.352919
332.795338	2268.272214
333.188625	2287.824329
333.581847	2308.964408
333.975006	2327.064671
334.368100	2345.505212
334.761129	2364.948942
335.154095	2380.465614
335.546996	2399.813562
335.939833	2423.577561
336.332606	2440.873760
336.725315	2451.651747
337.117960	2463.387553
337.510540	2468.945425
337.903056	2483.889926
338.295508	2488.326141
338.687896	2495.063643
339.080220	2506.040756
339.472480	2512.236334
339.864676	2517.862262
340.256807	2520.130781
340.648875	2524.133457
341.040879	2527.412728
341.432818	2528.065557
341.824694	2527.760567
342.216506	2532.239633
342.608253	2532.078316
342.999937	2531.702750
343.391557	2529.164529
343.783113	2528.063037
344.174605	2527.503468
344.566033	2523.798220
344.957397	2526.717048
345.348697	2521.161697
345.739934	2519.901408
346.131106	2517.685821
346.522215	2518.494927
346.913260	2518.263033
347.304241	2514.341016
347.695159	2514.678773
348.086012	2510.156858
348.476802	2508.415139
348.867528	2507.691734
349.258191	2506.038235
349.648789	2507.946312
350.039324	2501.728049
350.429796	2502.093533
350.820203	2503.570591
351.210548	2499.363748
351.600828	2500.185456
351.991045	2498.118583
352.381198	2499.068840
352.771288	2498.320229
353.161314	2495.782008
353.551276	2498.219406
353.941175	2499.106649
354.331010	2496.253356
354.720782	2495.111534
355.110490	2497.281751
355.500135	2495.779487
355.889717	2496.180259
356.279235	2496.167656
356.668689	2495.431648
357.058080	2496.018942
357.447408	2494.972903
357.836672	2493.470639
358.225873	2497.342245
358.615010	2493.420227
359.004084	2499.522544
359.393095	2499.333501
359.782043	2501.012205
360.170927	2501.327277
360.559748	2502.355672
360.948505	2505.395488
361.337199	2505.448420
361.725830	2505.884480
362.114398	2504.074706
362.502903	2504.344408
362.891344	2503.454644
363.279722	2505.859274
363.668037	2505.413132
364.056289	2503.810045
364.444478	2506.895232
364.832603	2506.547392
365.220665	2508.629388
365.608665	2506.950684
365.996601	2507.046466
366.384474	2508.281549
366.772284	2511.913700
367.160031	2510.781961
367.547715	2510.038391
367.935336	2509.425891
368.322893	2511.759945
368.710388	2508.735253
369.097820	2515.704648
369.485189	2510.194667
369.872495	2511.243227
370.259738	2511.275994
370.646918	2509.803977
371.034035	2512.178361
371.421090	2515.132477
371.808081	2512.117867
372.195010	2514.819925
372.581875	2512.054853
372.968678	2512.957219
373.355418	2512.470748
373.742096	2514.512415
374.128710	2516.589370
374.515262	2513.352950
374.901751	2513.302538
375.288177	2517.942920
375.674540	2515.147600
376.060841	2515.558454
376.447079	2514.575429
376.833254	2513.050480
377.219367	2512.311951
377.605417	2514.121726
377.991404	2512.901766
378.377329	2515.094668
378.763191	2511.006293
379.148991	2520.453415
379.534727	2517.700945
379.920402	2520.471059
380.306013	2517.093486
380.691563	2517.264885
381.077049	2519.818229
381.462474	2520.584485
381.847835	2519.583816
382.233134	2518.729340
382.618371	2521.149094
383.003545	2519.256141
383.388657	2518.147087
383.773706	2521.063394
384.158693	2520.072808
384.543618	2518.573064
384.928480	2522.805113
385.313280	2522.089269
385.698017	2519.351923
386.082692	2523.425175
386.467305	2521.683456
386.851856	2522.578261
387.236344	2522.023734
387.620770	2524.095648
388.005133	2521.842253
388.389435	2525.061029
388.773674	2523.760412
389.157851	2524.708149
389.541965	2525.761750
389.926018	2527.516071
390.310008	2525.224867
390.693936	2525.108920
391.077802	2526.187727
391.461606	2526.278468
391.845348	2530.661751
392.229027	2528.244518
392.612645	2527.503468
392.996200	2528.645290
393.379694	2528.075639
393.763125	2531.491021
394.146494	2531.221319
394.529801	2531.188552
394.913047	2534.246012
395.296230	2528.441123
395.679351	2529.071267
396.062410	2531.412883
396.445408	2530.346679
396.828343	2532.809283
397.211217	2526.573376
397.594028	2530.152595
397.976778	2530.366844
398.359466	2532.645445
398.742092	2532.678213
399.124656	2532.814324
399.507158	2536.116280
399.889598	2536.653163
400.271977	2535.526465
400.654294	2538.145344
401.036549	2536.753986
401.418742	2537.258101
401.800874	2537.951260
402.182944	2540.353370
402.564952	2538.841023
402.946898	2540.058462
403.328783	2540.799512
403.710606	2542.957126
404.092367	2541.447300
404.474067	2545.076931
404.855705	2544.356046
405.237282	2547.862168
405.618797	2550.470965
406.000250	2553.311656
406.381642	2558.816596
406.762972	2563.882955
407.144240	2568.714901
407.525447	2578.174626
407.906593	2578.305696
408.287677	2590.747264
408.668700	2597.590630
409.049661	2610.891715
409.430560	2620.578292
409.811399	2630.617750
410.192176	2649.300266
410.572891	2660.484066
410.953545	2678.541479
411.334138	2686.093127
411.714669	2706.834955
412.095139	2716.302242
412.475547	2743.958012
412.855894	2762.645569
413.236180	2782.951337
413.616405	2800.166877
413.996568	2832.170642
414.376670	2846.469875
414.756711	2863.294726
415.136691	2893.871845
415.516609	2931.372988
415.896466	2965.640232
416.276262	3001.835716
416.655997	3025.708100
417.035670	3093.516661
417.415283	3149.591935
417.794834	3171.034483
418.174324	3195.383256
418.553753	3208.623847
418.933121	3291.172741
419.312428	3353.388141
419.691674	3377.278169
420.070859	3457.316569
420.449983	3470.100935
420.829045	3556.707958
421.208047	3562.684246
421.586988	3641.411946
421.965867	3690.764842
422.344686	3795.920791
422.723444	3777.467647
423.102141	3737.927357
423.480777	3920.235644
423.859352	3862.930328
424.237866	4038.191083
424.616319	4081.562650
424.994712	4189.188764
425.373044	4168.003315
425.751314	4306.763595
426.129524	4237.311618
426.507673	4404.672885
426.885762	4498.372812
427.263789	4512.026777
427.641756	4475.123010
428.019662	4603.407772
428.397508	4654.111698
428.775292	4671.168442
429.153016	4778.918064
429.530679	4771.731899
429.908282	4871.723186
430.285824	4811.572138
430.663305	5064.784255
431.040726	4903.096807
431.418086	4933.043781
431.795385	5054.633892
432.172624	5102.237507
432.549802	5130.591477
432.926920	5171.281150
433.303977	5206.160894
433.680974	5275.696049
434.057910	5318.737421
434.434786	5351.235219
434.811601	5351.237740
435.188355	5585.139717
435.565050	5496.312065
435.941683	5507.773128
436.318257	5725.745059
436.694770	5732.200257
437.071222	5782.954593
437.447614	5737.037244
437.823946	5681.496331
438.200218	5841.227811
438.576429	5730.176233
438.952580	5839.077759
439.328670	5897.280401
439.704700	5817.184028
440.080670	5818.300644
440.456580	6090.394402
440.832429	5986.430686
441.208218	5846.705025
441.583947	6006.801989
441.959616	6016.400346
442.335224	5950.893072
442.710773	6092.199135
443.086261	6123.630729
443.461689	5925.989772
443.837057	6080.632207
444.212365	6241.046764
444.587612	6127.005782
444.962800	6288.257170
445.337927	6274.235200
445.712995	5887.825717
446.088002	6464.407688
446.462949	6295.808818
446.837837	6232.282718
447.212664	6401.393265
447.587431	6547.425410
447.962139	7090.955056
448.336786	8010.269953
448.711374	7756.029441
449.085901	6830.178688
449.460369	6755.854436
449.834776	6694.380085
450.209124	7079.877120
450.583412	7230.342959
450.957640	7377.128757
451.331808	7142.493292
451.705917	6693.976793
452.079965	6623.246884
452.453954	6834.803946
452.827883	6712.906326
453.201752	6803.198432
453.575562	6600.183605
453.949311	6810.792931
454.323001	6702.357711
454.696632	6772.444873
455.070202	6913.352685
455.443713	7070.621562
455.817164	7165.629667
456.190556	7249.484221
456.563888	7321.900396
456.937160	7369.761110
457.310373	7025.203286
457.683526	7051.802934
458.056619	6933.136693
458.429653	6932.342712
458.802628	6866.984152
459.175542	6973.060111
459.548398	7330.871129
459.921194	7488.071950
460.293930	7490.653021
460.666607	8016.873865
461.039224	8323.514650
461.411782	8451.234804
461.784280	8468.639387
462.156719	8351.525822
462.529099	8236.940395
462.901419	7829.123652
463.273680	7720.096097
463.645882	7732.678817
464.018024	7603.017819
464.390106	7772.332533
464.762130	8154.603229
465.134094	8621.668653
465.505999	9640.652204
465.877845	10864.490603
466.249631	11505.001966
466.621358	11116.210538
466.993026	10497.078707
467.364634	10241.449357
467.736184	9880.046518
468.107674	9546.637205
468.479105	9582.999048
468.850477	9352.038584
469.221790	9116.616700
469.593043	8790.159138
469.964238	8650.380545
470.335373	8664.031990
470.706449	8721.291936
471.077467	8699.791415
471.448425	10008.449747
471.819324	11077.829713
472.190164	11100.827457
472.560945	9850.626344
472.931667	9067.286489
473.302330	8932.365047
473.672934	8581.432684
474.043479	8938.485008
474.413965	8878.449907
474.784393	8762.808358
475.154761	8914.365608
475.525070	9000.624791
475.895321	8828.650869
476.265513	9007.016974
476.635645	9180.616668
477.005719	9171.882869
477.375734	9285.981825
477.745691	9522.777424
478.115588	9662.732458
478.485427	9903.729858
478.855207	10442.714904
479.224928	11248.308933
479.594591	11872.686084
479.964194	11684.880418
480.333739	11620.731735
480.703226	11538.203005
481.072653	11635.557768
481.442022	11873.288502
481.811333	12056.370606
482.180584	11866.281298
482.549777	11577.604664
482.918912	11394.071376
483.287988	11411.778429
483.657005	11430.375245
484.025964	11112.452357
484.394864	11247.111659
484.763706	11217.724252
485.132489	10973.986985
485.501213	10943.727459
485.869879	11012.503921
486.238487	10857.054901
486.607036	10968.960954
486.975527	10748.327294
487.343959	10932.052146
487.712333	10986.688172
488.080648	10918.337687
488.448905	10958.770262
488.817104	10900.509647
489.185244	11165.949082
489.553326	11319.371558
489.921350	11860.834331
490.289315	12918.864138
490.657222	13260.104883
491.025070	13168.529803
491.392861	13041.764949
491.760593	12661.243533
492.128267	12312.398207
492.495883	11984.942497
492.863440	11645.362813
493.230939	11313.619602
493.598380	11248.102246
493.965763	11119.267997
494.333088	11013.295382
494.700354	10942.003384
495.067563	11001.466314
495.434713	10834.039513
495.801805	10950.129724
496.168839	10879.649352
496.535815	10816.340022
496.902733	10817.907820
497.269593	10751.162943
497.636395	10844.890596
498.003139	10835.007414
498.369825	10710.082581
498.736453	10860.969357
499.103023	10790.020157
499.469535	10821.408902
499.835989	10805.337703
500.202385	10769.449729
500.568723	10621.418767
500.935003	10841.326501
501.301226	10649.452623
501.667390	10909.450133
502.033497	11005.973106
502.399546	10864.057063
502.765537	10771.519123
503.131470	10845.734990
503.497345	11021.855261
503.863163	10630.457556
504.228923	10934.960892
504.594625	11003.482776
504.960269	10756.554458
505.325856	10971.181583
505.691385	10762.407237
506.056856	10923.056207
506.422270	10944.108066
506.787625	10837.540594
507.152924	10947.475557
507.518164	10926.874881
507.883347	10852.043994
508.248472	10773.210430
508.613540	10998.403813
508.978550	10884.597245
509.343503	10857.266629
509.708398	10983.897893
510.073236	11099.257137
510.438016	11103.083373
510.802738	11044.094311
511.167403	11094.465520
511.532010	10997.998000
511.896561	11227.617517
512.261053	11304.795062
512.625488	11172.495020
512.989866	11152.874849
513.354186	11140.702983
513.718449	11045.508355
514.082655	11236.492468
514.446803	11128.092537
514.810894	11250.191804
515.174927	11117.664910
515.538904	11144.814044
515.902822	11298.339864
516.266684	11179.300578
516.630488	11123.240427
516.994235	11178.937615
517.357925	11243.965979
517.721558	11327.394554
518.085133	11342.901144
518.448651	11356.353463
518.812112	11240.704352
519.175516	11249.347411
519.538863	11369.770494
519.902152	11286.266301
520.265385	11449.163626
520.628560	11360.646005
520.991678	11337.587767
521.354739	11405.784497
521.717743	11337.091214
522.080690	11311.593058
522.443580	11454.608072
522.806413	11406.954044
523.169189	11441.001997
523.531908	11494.511325
523.894569	11313.891824
524.257174	11317.463481
524.619722	11438.244486
524.982213	11386.875129
525.344647	11427.980697
525.707025	11385.609799
526.069345	11476.877369
526.431608	11399.384752
526.793815	11500.820329
527.155964	11289.966508
527.518057	11343.047337
527.880093	11297.739967
528.242072	11362.281860
528.603995	11270.406831
528.965860	11190.749038
529.327669	11242.357851
529.689421	11198.613238
530.051117	11157.457258
530.412755	11270.568148
530.774337	11159.287197
531.135862	11141.295319
531.497331	11160.013123
531.858743	11011.919147
532.220098	11172.164825
532.581396	11040.462160
532.942638	11033.081911
533.303824	10996.213432
533.664953	11012.667758
534.026025	10925.554099
534.387040	11018.099601
534.747999	11027.095540
535.108902	11081.529920
535.469748	10847.980824
535.830537	10943.762747
536.191270	10926.242217
536.551947	10950.452358
536.912567	10949.741555
537.273131	10871.903619
537.633638	10854.569612
537.994089	10836.434061
538.354483	10794.138780
538.714821	10926.337998
539.075103	10942.368868
539.435328	10909.755123
539.795497	10735.510161
540.155609	10895.256764
540.515665	10983.071144
540.875665	10711.448733
541.235609	10785.004209
541.595496	10783.927923
541.955328	10936.652199
542.315102	10819.614251
542.674821	10771.251942
543.034483	10767.055181
543.394090	10773.424679
543.753640	10704.585203
544.113134	10925.299521
544.472571	10778.773343
544.831953	10919.754252
545.191278	10731.472197
545.550548	10761.048646
545.909761	10892.358101
546.268918	10871.081911
546.628019	10942.799886
546.987064	10815.306585
547.346053	10736.636859
547.704986	10835.057826
548.063863	10825.179685
548.422684	10814.290793
548.781449	10726.249561
549.140158	10839.879689
549.498811	10711.728518
549.857408	10571.143340
550.215949	10796.969388
550.574434	10644.156891
550.932864	10752.551781
551.291237	10810.333487
551.649555	10755.248799
552.007817	10771.556931
552.366022	10729.980015
552.724173	10728.031609
553.082267	10712.446882
553.440305	10843.960503
553.798288	10646.188476
554.156215	10803.086828
554.514086	10777.051789
554.871902	10632.703390
555.229661	10661.059880
555.587365	10640.123968
555.945014	10526.955106
556.302606	10655.774230
556.660143	10555.974508
557.017625	10704.834740
557.375050	10605.851684
557.732421	10734.058308
558.089735	10650.808694
558.446994	10650.496142
558.804197	10691.069869
559.161345	10688.481237
559.518437	10540.115038
559.875474	10634.218257
560.232455	10653.961936
560.589381	10604.394790
560.946251	10605.128278
561.303065	10711.857067
561.659825	10645.530606
562.016528	10578.427807
562.373177	10453.631523
562.729770	10573.986550
563.086307	10490.613427
563.442789	10579.057951
563.799216	10456.633530
564.155587	10505.000881
564.511904	10460.462286
564.868164	10448.126583
565.224370	10467.255241
565.580520	10392.298325
565.936615	10397.258820
566.292654	10266.642524
566.648638	10399.131609
567.004567	10354.368683
567.360441	10345.239153
567.716260	10250.896480
568.072023	10343.285706
568.427732	10301.265168
568.783385	10206.982989
569.138982	10280.946798
569.494525	10292.634713
569.850013	10165.469087
570.205445	10250.735163
570.560823	10146.572322
570.916145	10065.437471
571.271412	10133.246031
571.626625	10074.907278
571.981782	10052.322909
572.336884	10022.552375
572.691931	10036.526454
573.046923	9984.668104
573.401860	9937.407287
573.756743	9868.267862
574.111570	9914.215458
574.466342	9896.014373
574.821059	9929.424620
575.175722	9820.565943
575.530330	9831.217902
575.884882	9818.627620
576.239380	9753.649667
576.593823	9730.717458
576.948211	9743.451413
577.302544	9623.562692
577.656823	9641.862081
578.011047	9640.778233
578.365216	9612.860323
578.719330	9535.226553
579.073389	9551.736332
579.427394	9497.503599
579.781344	9477.195311
580.135239	9418.130632
580.489080	9432.485317
580.842866	9335.044855
581.196597	9341.227830
581.550273	9376.173108
581.903895	9347.718316
582.257463	9410.180732
582.610975	9292.452146
582.964434	9318.633378
583.317837	9237.221264
583.671186	9223.514367
584.024481	9218.052277
584.377721	9134.842992
584.730906	9108.097150
585.084037	9147.834045
585.437113	9083.387934
585.790135	9102.171273
586.143103	8998.741920
586.496016	8972.235533
586.848874	9027.098410
587.201679	9022.974747
587.554428	8906.834124
587.907124	8952.539745
588.259765	8926.197196
588.612352	8926.255169
588.964884	8805.746386
589.317362	8821.366401
589.669786	8816.569743
590.022155	8869.637970
590.374470	8880.403354
590.726731	8821.704159
591.078937	8670.998864
591.431090	8787.658726
591.783188	8658.650558
592.135232	8646.483733
592.487222	8654.572265
592.839157	8707.801808
593.191038	8633.096949
593.542866	8581.755318
593.894639	8478.076427
594.246358	8534.970890
594.598022	8545.421202
594.949633	8446.634751
595.301190	8421.829753
595.652692	8451.257489
596.004141	8558.157677
596.355535	8341.151127
596.706876	8318.302097
597.058162	8251.496727
597.409395	8331.333480
597.760573	8397.503665
598.111698	8298.974313
598.462768	8283.379504
598.813785	8248.852641
599.164748	8223.354485
599.515657	8209.138431
599.866511	8118.556458
600.217312	8251.516891
600.568060	8106.472813
600.918753	8212.389976
601.269392	8179.980397
601.619978	8087.417251
601.970510	8160.135895
602.320988	8151.961664
602.671412	8210.653298
603.021783	8141.496229
603.372100	8115.380532
603.722363	8117.883464
604.072572	8092.987726
604.422728	8107.334850
604.772830	8034.669138
605.122878	8045.159779
605.472872	8034.288531
605.822813	8066.592245
606.172701	8011.167279
606.522534	8088.080163
606.872314	8085.060512
607.222041	8053.213022
607.571714	8107.559181
607.921333	8070.758758
608.270899	8072.462668
608.620411	8166.157554
608.969870	8066.317502
609.319276	8067.318171
609.668627	8080.780572
610.017926	8114.649564
610.367171	8163.407604
610.716362	8136.152606
611.065500	8130.672872
611.414585	8157.269999
611.763616	8145.025037
612.112594	8128.366544
612.461518	8143.394223
612.810389	8203.260446
613.159207	8137.324674
613.507971	8088.574196
613.856682	8212.805871
614.205340	8169.071341
614.553945	8243.146055
614.902496	8145.372876
615.250994	8195.781894
615.599439	8174.568719
615.947830	8192.432047
616.296169	8161.355855
616.644454	8176.509563
616.992686	8173.507556
617.340864	8235.813697
617.688990	8132.084395
618.037063	8226.880772
618.385082	8168.932709
618.733048	8261.052234
619.080961	8196.787604
619.428821	8215.371818
619.776628	8216.090182
620.124382	8172.121239
620.472083	8155.750092
620.819731	8184.787138
621.167326	8070.153820
621.514868	8087.132426
621.862357	7972.320147
622.209793	7989.896130
622.557176	7926.299454
622.904506	7896.647387
623.251783	7827.613826
623.599007	7781.131867
623.946179	7788.244935
624.293297	7746.005107
624.640363	7662.931933
624.987376	7647.994994
625.334336	7592.973320
625.681243	7540.575567
626.028097	7531.599793
626.374899	7512.544231
626.721647	7498.209710
627.068343	7430.953156
627.414987	7401.805205
627.761577	7361.017229
628.108115	7393.583083
628.454600	7285.916639
628.801032	7341.588622
629.147412	7296.876108
629.493739	7292.066847
629.840014	7229.359934
630.186236	7285.173069
630.532405	7166.474061
630.878521	7219.625466
631.224585	7175.016296
631.570597	7098.990655
631.916556	7130.931406
632.262462	7130.308823
632.608316	7086.924653
632.954117	7064.252064
633.299866	7054.638583
633.645562	7047.699435
633.991206	6968.485264
634.336797	6908.114926
634.682336	6865.093719
635.027823	6837.523649
635.373257	6824.676268
635.718639	6755.882162
636.063968	6765.906497
636.409245	6663.240878
636.754470	6659.250805
637.099642	6623.284693
637.444762	6563.736063
637.789829	6569.402320
638.134845	6517.049937
638.479808	6497.719633
638.824719	6508.288412
639.169577	6434.470796
639.514383	6453.286903
639.859137	6383.570266
640.203839	6388.616461
640.548489	6375.350664
640.893086	6356.433734
641.237632	6323.986348
641.582125	6344.851683
641.926566	6319.260266
642.270955	6330.489436
642.615292	6323.540206
642.959576	6334.650909
643.303809	6328.034394
643.647990	6334.923131
643.992118	6325.894424
644.336195	6272.508605
644.680219	6296.801926
645.024192	6289.411594
645.368112	6381.551283
645.711981	6410.006076
646.055797	6483.803528
646.399562	6443.043278
646.743274	6562.826135
647.086935	6619.004753
647.430544	6613.746830
647.774101	6636.895808
648.117606	6643.293032
648.461059	6630.392720
648.804460	6594.981134
649.147810	6505.079717
649.491108	6473.930428
649.834354	6447.953362
650.177548	6361.994127
650.520690	6279.876252
650.863781	6257.120483
651.206820	6280.521519
651.549807	6202.494540
651.892742	6140.203522
652.235626	6148.685264
652.578458	6132.961905
652.921238	6037.721906
653.263967	6082.565490
653.606644	6015.997053
653.949269	6023.215986
654.291843	5966.102233
654.634365	6012.848853
654.976836	5966.240865
655.319255	5963.690041
655.661622	5945.330159
656.003938	5942.018121
656.346203	5897.366101
656.688416	5934.284991
657.030577	5882.915633
657.372687	5851.617629
657.714746	5845.830385
658.056753	5886.479729
658.398708	5824.206355
658.740612	5812.810827
659.082465	5861.964598
659.424266	5855.549729
659.766016	5855.612744
660.107715	5832.282284
660.449362	5845.041444
660.790958	5842.611608
661.132503	5828.899670
661.473996	5865.692531
661.815438	5846.581517
662.156829	5849.838102
662.498168	5842.475497
662.839456	5817.962886
663.180693	5849.792732
663.521879	5851.055541
663.863013	5843.854253
664.204097	5859.620461
664.545129	5902.490433
664.886110	5896.456172
665.227040	5933.385145
665.567918	5893.219752
665.908746	5924.734525
666.249522	5928.331388
666.590248	5911.070477
666.930922	5942.192041
667.271545	5956.408094
667.612118	5954.807528
667.952639	5931.681235
668.293109	5953.516993
668.633528	5911.211630
668.973896	5918.846457
669.314213	5907.095527
669.654480	5885.877311
669.994695	5878.895313
670.334859	5871.497420
670.674973	5861.888980
671.015035	5864.434763
671.355047	5865.448035
671.695008	5851.930181
672.034918	5821.469009
672.374777	5836.186658
672.714585	5816.425334
673.054342	5822.673845
673.394049	5815.028935
673.733705	5853.518144
674.073310	5834.444939
674.412864	5796.530421
674.752368	5783.047855
675.091820	5794.095543
675.431223	5724.699020
675.770574	5726.178598
676.109875	5680.528430
676.449125	5688.170819
676.788324	5651.382999
677.127473	5593.419812
677.466571	5583.587041
677.805619	5573.416513
678.144616	5562.658691
678.483562	5537.261358
678.822458	5509.855125
679.161303	5503.102499
679.500098	5496.455738
679.838842	5481.637266
680.177535	5483.031145
680.516179	5496.919524
680.854771	5504.607284
681.193314	5584.514613
681.531805	5696.009813
681.870247	5847.146126
682.208638	5950.013391
682.546978	5960.725843
682.885268	5936.815650
683.223508	5856.988979
683.561697	5799.787006
683.899836	5770.810454
684.237925	5727.002827
684.575963	5693.078382
684.913951	5652.655890
685.251889	5712.065888
685.589776	5676.853428
685.927614	5652.542464
686.265401	5723.940326
686.603137	5703.143046
686.940824	5783.022649
687.278460	5806.574920
687.616046	5814.408873
687.953582	5881.247011
688.291068	5866.725968
688.628504	5928.230565
688.965889	5894.585904
689.303224	5832.224311
689.640510	5789.034225
689.977745	5712.590168
690.314930	5614.184324
690.652065	5558.966046
690.989150	5462.836283
691.326185	5388.675869
691.663170	5337.437581
692.000105	5260.814563
692.336990	5179.649466
692.673825	5157.095343
693.010610	5089.223769
693.347345	5019.504611
693.684030	5007.879710
694.020665	4965.007217
694.357251	4878.022108
694.693786	4886.879415
695.030272	4854.084189
695.366707	4812.837468
695.703093	4783.949136
696.039429	4801.661230
696.375716	4788.662615
696.711952	4762.821660
697.048139	4749.518055
697.384276	4726.243048
697.720363	4739.168566
698.056400	4747.340277
698.392388	4696.999314
698.728326	4681.338970
699.064214	4660.007327
699.400053	4647.275893
699.735842	4616.688692
700.071581	4595.969550
700.407270	4568.737237
700.742910	4550.137900
701.078501	4493.561030
701.414042	4491.075741
701.749533	4469.237463
702.084974	4401.202051
702.420366	4454.759269
702.755709	4397.910177
703.091002	4341.033359
703.426246	4391.454980
703.761440	4347.231458
704.096584	4313.080161
704.431679	4332.123119
704.766725	4318.428825
705.101721	4303.794355
705.436668	4333.486752
705.771565	4279.606899
706.106413	4308.192762
706.441212	4340.660313
706.775961	4347.654914
707.110661	4331.104806
707.445311	4353.374103
707.779913	4379.837641
708.114465	4394.346081
708.448967	4414.026746
708.783421	4478.230881
709.117825	4517.937530
709.452180	4524.682593
709.786485	4566.388059
710.120742	4656.473478
710.454949	4639.008401
710.789107	4705.334862
711.123216	4776.059730
711.457275	4770.146457
711.791286	4843.265872
712.125247	4858.696844
712.459159	4763.875261
712.793023	4837.765974
713.126837	4798.245848
713.460602	4789.018016
713.794318	4710.423907
714.127985	4716.299372
714.461602	4631.978512
714.795171	4605.063792
715.128691	4537.406466
715.462162	4481.000995
715.795584	4429.195578
716.128957	4413.010953
716.462281	4365.243500
716.795556	4339.125282
717.128782	4301.271258
717.461960	4230.158221
717.795088	4239.643152
718.128167	4197.388201
718.461198	4140.148419
718.794180	4139.425014
719.127113	4116.192856
719.459997	4093.681584
719.792833	4050.405798
720.125619	4040.666289
720.458357	4003.959127
720.791046	4011.228471
721.123686	3983.300479
721.456278	3943.470322
721.788821	3956.688228
722.121315	3935.301133
722.453761	3909.729880
722.786158	3921.972322
723.118506	3942.991413
723.450805	3896.615318
723.783056	3917.422681
724.115259	3933.899692
724.447412	3938.015794
724.779518	3931.986574
725.111574	3935.780042
725.443582	3968.300526
725.775542	3951.901652
726.107453	4000.468128
726.439315	4002.124147
726.771129	4017.439173
727.102895	4051.950912
727.434612	4100.782049
727.766281	4116.117239
728.097901	4112.056589
728.429473	4117.828711
728.760996	4126.960761
729.092471	4117.775778
729.423897	4105.971917
729.755276	4106.095425
730.086606	4111.759161
730.417887	4143.926764
730.749120	4210.596024
731.080305	4273.686064
731.411442	4305.127741
731.742530	4269.794293
732.073570	4274.490128
732.404562	4330.522553
732.735506	4321.788754
733.066401	4280.763844
733.397249	4221.215214
733.728048	4142.464829
734.058798	4059.679001
734.389501	3986.012620
734.720156	3927.525153
735.050762	3883.828431
735.381320	3876.838872
735.711831	3824.942713
736.042293	3795.983805
736.372707	3818.631189
736.703073	3790.030202
737.033391	3779.635343
737.363661	3800.054537
737.693883	3824.914987
738.024056	3830.316583
738.354182	3827.299453
738.684260	3890.611304
739.014290	3913.296496
739.344272	3906.009508
739.674207	3950.023822
740.004093	3953.040953
740.333931	3951.062300
740.663722	3950.107002
740.993464	3948.947536
741.323159	3925.420471
741.652806	3895.675143
741.982405	3865.869321
742.311956	3834.210875
742.641460	3827.075121
742.970915	3803.439672
743.300323	3762.891151
743.629683	3727.794638
743.958996	3718.468503
744.288260	3692.619987
744.617477	3660.275943
744.946647	3646.972338
745.275768	3621.214563
745.604842	3617.438739
745.933869	3572.630443
746.262847	3562.041499
746.591778	3597.763115
746.920662	3570.853436
747.249498	3538.698436
747.578286	3585.384562
747.907027	3603.222685
748.235720	3601.531378
748.564365	3626.527939
748.892963	3626.749750
749.221514	3608.256277
749.550017	3586.791044
749.878473	3583.277360
750.206881	3555.813153
750.535242	3550.441804
750.863555	3550.484654
751.191821	3546.665980
751.520039	3531.199720
751.848210	3502.354237
752.176334	3536.301368
752.504411	3545.420815
752.832440	3505.197448
753.160421	3489.320334
753.488356	3499.513547
753.816243	3509.162316
754.144082	3465.730255
754.471875	3451.584777
754.799620	3471.638487
755.127318	3462.405614
755.454969	3465.717652
755.782572	3471.366265
756.110129	3442.271245
756.437638	3436.509207
756.765100	3449.033953
757.092515	3459.564924
757.419882	3464.265800
757.747203	3437.908127
758.074477	3442.301492
758.401703	3456.116774
758.728882	3476.954384
759.056014	3484.357318
759.383099	3486.083913
759.710138	3482.781958
760.037129	3504.181656
760.364073	3533.170811
760.690970	3518.526259
761.017820	3493.280161
761.344623	3512.053418
761.671379	3558.416909
761.998088	3605.667644
762.324751	3734.973241
762.651366	3983.663442
762.977935	4452.296665
763.304456	4895.993821
763.630931	4993.283049
763.957359	4635.073780
764.283740	4289.444711
764.610074	4096.537397
764.936362	3901.842995
765.262602	3744.223758
765.588796	3632.108496
765.914943	3543.752193
766.241044	3455.466466
766.567097	3428.677774
766.893104	3381.560630
767.219064	3348.750280
767.544978	3321.144921
767.870845	3266.019904
768.196665	3246.757655
768.522438	3256.161928
768.848165	3251.443408
769.173846	3214.799260
769.499479	3195.975592
769.825066	3182.843386
770.150607	3163.261024
770.476101	3179.105371
770.801548	3176.947757
771.126949	3128.635859
771.452303	3113.600618
771.777611	3117.822584
772.102872	3124.184520
772.428087	3098.933380
772.753256	3091.469952
773.078378	3080.545772
773.403453	3047.271636
773.728482	3037.789225
774.053465	3058.853687
774.378401	3045.098898
774.703291	3012.477592
775.028135	3013.437932
775.352932	3010.390554
775.677683	2997.543174
776.002388	2997.850684
776.327046	2993.369098
776.651658	2986.586226
776.976224	2971.941674
777.300743	2976.733291
777.625216	2966.151909
777.949643	2963.157463
778.274024	2963.313739
778.598359	2953.274281
778.922647	2956.845939
779.246889	2956.672019
779.571086	2943.426387
779.895236	2933.868359
780.219339	2948.235648
780.543397	2958.290229
780.867409	2962.366002
781.191374	2953.586833
781.515294	2948.384362
781.839167	2950.899898
782.162995	2943.348249
782.486776	2951.918211
782.810511	2947.469393
783.134201	2936.754420
783.457844	2942.806325
783.781441	2933.575973
784.104993	2913.522263
784.428498	2915.858837
784.751958	2929.285951
785.075372	2923.110537
785.398739	2906.063875
785.722061	2921.537697
786.045337	2935.221909
786.368568	2921.109199
786.691752	2908.944895
787.014891	2957.488686
787.337983	2987.838953
787.661030	3014.909949
787.984031	3083.023499
788.306987	3126.511013
788.629897	3121.769807
788.952760	3104.385388
789.275579	3091.290991
789.598351	3034.930891
789.921078	2987.203767
790.243759	2977.804536
790.566395	2958.691001
790.888984	2937.016560
791.211529	2920.872265
791.534027	2912.267015
791.856480	2900.437948
792.178888	2885.344733
792.501249	2877.883825
792.823566	2875.670759
793.145836	2871.070706
793.468062	2869.563401
793.790241	2864.842360
794.112375	2871.456354
794.434464	2880.580843
794.756507	2887.648540
795.078505	2893.309756
795.400457	2907.248547
795.722364	2945.452931
796.044226	2967.664255
796.366042	2974.328660
796.687812	2959.243007
797.009538	2981.242603
797.331218	2968.070068
797.652852	2955.580609
797.974442	2937.548402
798.295986	2930.440375
798.617484	2927.377874
798.938938	2912.894639
799.260346	2897.642628
799.581709	2892.258676
799.903026	2884.976729
800.224299	2878.410626
800.545526	2871.539533
800.866708	2852.733509
801.187845	2841.181705
801.508936	2846.066583
801.829983	2854.245855
802.150984	2840.654904
802.471940	2823.908191
802.792851	2826.602688
803.113717	2826.138902
803.434538	2832.415138
803.755314	2822.952892
804.076045	2820.911225
804.396731	2816.999290
804.717372	2817.483241
805.037967	2812.119453
805.358518	2820.296204
805.679024	2834.073678
805.999485	2826.093531
806.319901	2830.023111
806.640272	2822.937769
806.960598	2828.788028
807.280879	2836.536282
807.601115	2845.806963
807.921306	2829.594613
808.241453	2829.161073
808.561554	2836.874039
808.881611	2836.979903
809.201623	2829.808862
809.521590	2831.840447
809.841513	2828.200734
810.161390	2829.728203
810.481223	2825.730568
810.801011	2812.394196
811.120755	2810.564257
811.440453	2812.575677
811.760107	2813.084834
812.079716	2812.263126
812.399281	2802.664769
812.718801	2793.741927
813.038276	2786.790175
813.357707	2792.690846
813.677093	2803.516724
813.996434	2797.026238
814.315731	2792.980712
814.634983	2789.651030
814.954191	2789.104065
815.273354	2802.392547
815.592473	2811.829587
815.911547	2812.328661
816.230577	2822.519353
816.549562	2830.877586
816.868502	2830.398677
817.187399	2839.434945
817.506250	2854.497913
817.825058	2848.415761
818.143821	2863.226671
818.462539	2880.376676
818.781213	2906.194945
819.099843	2942.597117
819.418429	2996.250118
819.736970	3057.485013
820.055466	3133.016622
820.373919	3237.809607
820.692327	3379.574415
821.010691	3548.243861
821.329011	3990.569823
821.647286	4889.523500
821.965517	6270.386279
822.283704	7022.125662
822.601847	6997.512228
822.919945	6365.550661
823.237999	5856.956211
823.556010	5274.677736
823.873976	4717.277356
824.191897	4312.195438
824.509775	4011.616640
824.827609	3741.993047
825.145398	3619.893781
825.463144	3610.532358
825.780845	3699.796069
826.098502	3804.465546
826.416116	4087.496088
826.733685	4405.665992
827.051210	4469.451712
827.368692	4355.176316
827.686129	4090.361984
828.003522	3760.915018
828.320872	3503.329701
828.638177	3305.603044
828.955439	3169.176818
829.272656	3086.806885
829.589830	3020.795496
829.906960	2969.423618
830.224046	2924.355702
830.541088	2887.648540
830.858086	2873.782847
831.175041	2856.519415
831.491952	2859.176103
831.808819	2869.155068
832.125642	2897.619943
832.442421	2938.261725
832.759157	3020.843387
833.075849	3199.968186
833.392497	3479.737101
833.709101	3686.830221
834.025662	3636.685864
834.342179	3473.778457
834.658653	3297.479225
834.975083	3148.737460
835.291469	3053.787327
835.607811	2966.913123
835.924110	2908.405491
836.240366	2857.797348
836.556578	2813.883857
836.872746	2792.116154
837.188871	2768.591610
837.504952	2751.935638
837.820990	2744.746952
838.136984	2733.427041
838.452935	2725.711555
838.768842	2725.671226
839.084706	2741.596231
839.400526	2817.838642
839.716303	2950.839404
840.032037	3030.756816
840.347727	3017.654857
840.663373	2956.142698
840.978977	2882.141080
841.294537	2809.435038
841.610054	2762.040631
841.925527	2738.430387
842.240957	2715.949361
842.556344	2696.273737
842.871687	2679.837055
843.186987	2668.766682
843.502244	2664.794252
843.817458	2663.780980
844.132629	2648.171047
844.447756	2640.407671
844.762840	2632.109931
845.077881	2639.722074
845.392879	2636.483132
845.707833	2631.557925
846.022745	2622.138529
846.337613	2626.461318
846.652438	2625.473252
846.967221	2625.064919
847.281960	2623.890330
847.596656	2620.784979
847.911309	2619.134001
848.225919	2617.588888
848.540485	2615.746346
848.855009	2615.776593
849.169490	2613.714761
849.483928	2615.854731
849.798323	2614.675101
850.112675	2613.820625
850.426984	2614.269288
850.741251	2612.497322
851.055474	2610.679986
851.369654	2615.126284
851.683792	2616.215173
851.997887	2611.539503
852.311938	2610.967332
852.625947	2613.750049
852.939914	2616.258023
853.253837	2616.878085
853.567718	2612.719133
853.881555	2608.396344
854.195350	2614.861623
854.509103	2612.588063
854.822812	2612.701489
855.136479	2610.420367
855.450103	2612.288114
855.763685	2616.041253
856.077224	2612.671242
856.390720	2612.484719
856.704173	2613.810543
857.017584	2617.790534
857.330953	2619.582664
857.644278	2620.175000
857.957561	2617.472941
858.270802	2616.424381
858.584000	2614.596963
858.897155	2619.123919
859.210268	2620.709362
859.523339	2616.963785
859.836367	2609.991869
860.149352	2612.494802
860.462295	2613.220728
860.775195	2610.760645
861.088054	2609.018926
861.400869	2609.921293
861.713642	2604.008019
862.026373	2605.858123
862.339062	2612.772065
862.651708	2614.854062
862.964312	2616.310955
863.276873	2615.920266
863.589392	2618.372787
863.901869	2625.143057
864.214303	2627.363685
864.526696	2628.918881
864.839045	2631.124386
865.151353	2631.807462
865.463619	2634.857360
865.775842	2633.234109
866.088023	2630.000208
866.400162	2634.872484
866.712258	2632.558594
867.024313	2633.148409
867.336325	2626.015176
867.648296	2631.646145
867.960224	2636.652011
868.272110	2635.890797
868.583954	2626.907461
868.895755	2630.373254
869.207515	2635.089253
869.519233	2640.856333
869.830909	2634.605302
870.142542	2632.064561
870.454134	2632.041876
870.765684	2639.921199
871.077191	2639.407002
871.388657	2649.000317
871.700081	2642.101498
872.011463	2642.288021
872.322803	2642.093937
872.634101	2645.816829
872.945357	2655.606749
873.256571	2661.265445
873.567744	2656.829229
873.878874	2657.063643
874.189963	2657.393838
874.501010	2659.591782
874.812015	2668.171825
875.122979	2666.997237
875.433900	2659.405259
875.744780	2656.882161
876.055618	2661.562873
876.366415	2667.551763
876.677169	2665.321053
876.987882	2660.816782
877.298554	2660.778973
877.609183	2671.930006
877.919771	2679.300172
878.230317	2681.616583
878.540822	2694.887420
878.851285	2709.617672
879.161707	2731.312277
879.472087	2771.586055
879.782425	2820.384425
880.092722	2935.589913
880.402977	3122.473048
880.713191	3385.094478
881.023363	3681.322761
881.333494	3868.707490
881.643583	4048.442269
881.953631	4043.907751
882.263637	3864.780432
882.573602	3638.979589
882.883526	3512.071062
883.193408	3398.539236
883.503248	3293.305149
883.813048	3178.296265
884.122806	3065.306364
884.432522	2978.273363
884.742197	2912.997983
885.051831	2874.962477
885.361424	2844.733198
885.670975	2805.639050
885.980485	2774.706530
886.289954	2757.130547
886.599382	2745.031777
886.908768	2731.781105
887.218113	2711.503063
887.527417	2701.685416
887.836680	2688.452387
888.145901	2685.994825
888.455082	2676.456962
888.764221	2665.016063
889.073319	2659.470794
889.382376	2658.709580
889.691392	2658.457522
890.000366	2659.974909
890.309300	2654.860659
890.618193	2658.744868
890.927044	2663.486073
891.235855	2663.110507
891.544625	2659.453150
891.853353	2659.092707
892.162041	2668.010508
892.470687	2689.790814
892.779293	2699.071578
893.087858	2709.723536
893.396381	2733.628687
893.704864	2773.894904
894.013306	2845.842252
894.321707	2939.479164
894.630068	2989.706700
894.938387	3011.171933
895.246665	2999.927639
895.554903	2957.493727
895.863100	2913.270205
896.171256	2858.654344
896.479371	2794.508182
896.787446	2757.319590
897.095480	2739.466344
897.403473	2731.140878
897.711425	2715.082282
898.019336	2697.675178
898.327207	2680.736901
898.635038	2682.869309
898.942827	2680.517611
899.250576	2669.391785
899.558284	2658.954076
899.865952	2650.863024
900.173579	2651.687252
900.481165	2651.533497
900.788711	2642.398926
901.096216	2636.594038
901.403681	2631.487349
901.711105	2631.986423
902.018489	2629.334776
902.325832	2634.204531
902.633135	2634.217134
902.940397	2651.687252
903.247619	2688.558252
903.554800	2757.518716
903.861941	2885.672408
904.169041	3012.749814
904.476101	3076.966553
904.783121	3068.444482
905.090100	3011.920544
905.397039	2933.084460
905.703938	2858.931608
906.010796	2800.202165
906.317614	2744.812487
906.624391	2706.971066
906.931129	2683.360822
907.237826	2658.064312
907.544483	2639.492701
907.851099	2628.729838
908.157675	2617.868672
908.464211	2611.133690
908.770707	2598.876125
909.077163	2598.155240
909.383578	2590.570824
909.689954	2589.388673
909.996289	2592.720876
910.302584	2587.992273
910.608839	2587.604105
910.915054	2586.016141
911.221229	2589.111410
911.527363	2590.401945
911.833458	2588.337592
912.139513	2592.592326
912.445527	2593.837491
912.751502	2598.921495
913.057436	2603.836620
913.363331	2611.826849
913.669186	2619.960751
913.975000	2634.527165
914.280775	2652.319917
914.586510	2673.278514
914.892205	2705.362938
915.197859	2776.105450
915.503475	2858.803058
915.809050	2926.175559
916.114585	2940.661314
916.420081	2954.070783
916.725536	2963.280972
917.030952	2937.684513
917.336328	2889.453273
917.641665	2838.698937
917.946961	2789.638427
918.252218	2758.574837
918.557435	2731.894531
918.862612	2708.196066
919.167750	2692.326514
919.472848	2675.085768
919.777906	2656.781338
920.082925	2643.139976
920.387904	2632.059520
920.692843	2627.635907
920.997743	2623.781945
921.302603	2616.653754
921.607423	2610.553957
921.912204	2604.486929
922.216946	2600.837133
922.521647	2603.055241
922.826310	2595.259097
923.130932	2588.874475
923.435516	2588.398086
923.740059	2586.190061
924.044564	2582.502457
924.349028	2582.588157
924.653454	2573.627506
924.957840	2573.327557
925.262186	2570.693554
925.566493	2570.819583
925.870761	2565.894376
926.174989	2568.120045
926.479178	2564.041752
926.783328	2562.458829
927.087438	2561.672409
927.391509	2562.047975
927.695541	2561.742985
927.999533	2560.099569
928.303486	2558.367933
928.607400	2558.423386
928.911275	2557.284085
929.215110	2556.301060
929.518906	2554.995401
929.822663	2559.308108
930.126381	2555.655792
930.430060	2555.098745
930.733699	2552.351316
931.037299	2557.178221
931.340861	2559.439178
931.644383	2559.020762
931.947866	2555.096224
932.251309	2557.896585
932.554714	2554.839125
932.858080	2558.130999
933.161407	2556.588406
933.464694	2557.188303
933.767943	2556.182593
934.071153	2553.725030
934.374323	2555.058415
934.677455	2555.723848
934.980548	2550.178578
935.283602	2553.634289
935.586617	2552.938610
935.889593	2554.483724
936.192530	2550.223949
936.495428	2552.686552
936.798287	2551.781665
937.101108	2555.267623
937.403890	2559.897923
937.706632	2563.068809
938.009336	2560.588561
938.312002	2567.968810
938.614628	2571.376630
938.917216	2576.634554
939.219765	2574.797053
939.522275	2578.464493
939.824747	2575.275963
940.127179	2572.924265
940.429573	2569.382854
940.731929	2570.070972
941.034246	2562.597461
941.336524	2568.261197
941.638763	2567.865467
941.940964	2565.884293
942.243126	2564.533264
942.545250	2565.982596
942.847335	2564.074519
943.149381	2561.611915
943.451389	2560.452450
943.753359	2559.688715
944.055290	2560.414641
944.357182	2559.403890
944.659036	2556.225443
944.960851	2557.432799
945.262628	2555.184444
945.564367	2553.485575
945.866067	2555.449105
946.167729	2556.611091
946.469352	2555.696121
946.770937	2556.074208
947.072484	2556.064126
947.373992	2559.376164
947.675462	2556.391801
947.976893	2558.534291
948.278286	2554.410627
948.579641	2553.455328
948.880958	2555.126471
949.182236	2555.423899
949.483476	2551.842159
949.784678	2557.127809
950.085841	2552.043805
950.386967	2553.258723
950.688054	2552.066491
950.989103	2555.507078
951.290114	2557.503375
951.591087	2558.347768
951.892021	2559.590413
952.192917	2559.250135
952.493776	2561.337172
952.794596	2559.086297
953.095378	2562.148798
953.396122	2562.670558
953.696828	2558.322562
953.997496	2555.562531
954.298126	2558.088149
954.598718	2555.224773
954.899272	2555.476831
955.199788	2555.877603
955.500266	2553.021789
955.800706	2548.232693
956.101108	2544.114070
956.401472	2544.754297
956.701798	2545.709596
957.002087	2543.776313
957.302337	2545.828063
957.602550	2548.207487
957.902724	2544.734132
958.202861	2546.962322
958.502960	2543.846889
958.803022	2541.943854
959.103045	2541.245654
959.403031	2541.659028
959.702979	2539.566950
960.002889	2539.771116
960.302762	2540.255067
960.602596	2543.345294
960.902393	2539.541744
961.202153	2541.490150
961.501875	2542.233720
961.801559	2539.796322
962.101205	2539.198945
962.400814	2539.879501
962.700385	2538.294058
962.999918	2539.929913
963.299414	2538.546116
963.598873	2538.962011
963.898293	2537.570653
964.197677	2536.111239
964.497022	2538.145344
964.796331	2540.277752
965.095601	2540.383617
965.394835	2538.954449
965.694030	2537.001002
965.993189	2540.786909
966.292309	2537.805066
966.591393	2540.199614
966.890439	2539.362783
967.189447	2539.917310
967.488419	2536.433873
967.787353	2537.676517
968.086249	2537.260622
968.385108	2539.226672
968.683930	2540.073586
968.982714	2536.627957
969.281462	2537.489994
969.580172	2538.326826
969.878844	2536.736342
970.177480	2537.058976
970.476078	2538.956970
970.774639	2538.926723
971.073162	2538.412525
971.371649	2536.874973
971.670098	2535.143337
971.968510	2536.086033
972.266885	2535.226516
972.565223	2538.704912
972.863524	2538.972093
973.161788	2538.924203
973.460014	2538.137782
973.758204	2539.440921
974.056356	2537.696682
974.354471	2539.594676
974.652550	2539.067875
974.950591	2541.094419
975.248595	2539.559388
975.546563	2538.717515
975.844493	2536.968235
976.142386	2539.670293
976.440243	2537.653832
976.738062	2537.290869
977.035845	2538.624254
977.333590	2539.635005
977.631299	2536.393543
977.928971	2538.120138
978.226606	2536.675848
978.524204	2535.526465
978.821765	2535.680220
979.119290	2537.860519
979.416777	2536.716177
979.714228	2538.788091
980.011642	2535.350024
980.309020	2542.294214
980.606360	2539.569470
980.903664	2539.294727
981.200931	2538.473019
981.498162	2536.607792
981.795356	2543.735984
982.092513	2544.015768
982.389633	2544.928217
982.686717	2547.975594
982.983764	2552.694114
983.280775	2555.179403
983.577749	2552.268137
983.874686	2554.680329
984.171587	2547.320244
984.468451	2548.136911
984.765279	2543.977959
985.062070	2542.642053
985.358824	2540.086188
985.655543	2541.452341
985.952224	2540.585263
986.248869	2538.495704
986.545478	2531.808614
986.842050	2534.004036
987.138586	2532.262318
987.435086	2533.333563
987.731549	2531.138140
988.027975	2534.261135
988.324366	2533.860363
988.620719	2537.023687
988.917037	2534.029242
989.213318	2536.421270
989.509563	2533.157123
989.805772	2534.593851
990.101944	2536.075951
990.398080	2535.710467
990.694180	2535.110570
990.990244	2533.005888
991.286271	2534.798018
991.582262	2538.064686
991.878217	2535.160981
992.174136	2537.106867
992.470019	2532.448840
992.765865	2535.092926
993.061676	2532.595034
993.357450	2535.360107
993.653188	2536.736342
993.948890	2534.291382
994.244556	2535.798687
994.540186	2535.576876
994.835780	2535.188707
995.131337	2533.706608
995.426859	2535.972607
995.722345	2535.644932
996.017795	2538.931764
996.313208	2538.982176
996.608586	2535.778522
996.903928	2538.082330
997.199234	2539.070396
997.494504	2538.644418
997.789738	2537.071578
998.084936	2535.670138
998.380099	2535.450847
998.675225	2536.648122
998.970316	2535.312216
999.265371	2536.781712
999.560390	2535.100487
999.855373	2535.803728
1000.150320	2533.754499
1000.445232	2533.651156
1000.740108	2534.576207
1001.034948	2532.877338
1001.329752	2531.798532
1001.624521	2533.714170
1001.919254	2530.132430
1002.213951	2530.051772
1002.508613	2528.226874
1002.803239	2531.208717
1003.097829	2526.966586
1003.392384	2534.382123
1003.686903	2532.451361
1003.981386	2531.609488
1004.275834	2535.632329
1004.570246	2533.348686
1004.864623	2534.487987
1005.158964	2532.993285
1005.453270	2533.114273
1005.747540	2533.598223
1006.041775	2531.783408
1006.335974	2531.382636
1006.630138	2533.630991
1006.924266	2531.967410
1007.218359	2533.192411
1007.512416	2533.588141
1007.806438	2529.789632
1008.100425	2531.672503
1008.394376	2532.385826
1008.688292	2531.216278
1008.982172	2533.101670
1009.276017	2532.405991
1009.569827	2535.216434
1009.863602	2533.013450
1010.157341	2532.653007
1010.451045	2531.707791
1010.744714	2532.010260
1011.038347	2533.900693
1011.331945	2531.561597
1011.625508	2533.056299
1011.919036	2530.928932
1012.212528	2531.569159
1012.505986	2532.524458
1012.799408	2533.772143
1013.092795	2531.120496
1013.386147	2531.967410
1013.679464	2531.218799
1013.972745	2531.760723
1014.265992	2530.276103
1014.559204	2532.567307
1014.852380	2534.291382
1015.145521	2533.174767
1015.438628	2530.747451
1015.731699	2534.127545
1016.024736	2532.789118
1016.317737	2532.068233
1016.610703	2532.055630
1016.903635	2527.110258
1017.196531	2527.921884
1017.489393	2530.505476
1017.782219	2526.943900
1018.075011	2528.574714
1018.367768	2532.955476
1018.660490	2530.646628
1018.953177	2530.646628
1019.245829	2530.646628
