Dividing Wavelength (nm)	Counts (n)	Blue Motor Position (mm): 2.200000	Red Motor Position (mm): 0.000000	
326.493990	2144.879892
326.888308	2144.879892
327.282561	2144.879892
327.676750	2112.286311
328.070874	2111.731784
328.464933	2112.702207
328.858929	2120.523557
329.252859	2129.622839
329.646726	2140.032822
330.040528	2153.238125
330.434265	2172.691937
330.827938	2189.040399
331.221547	2206.724767
331.615091	2225.245966
332.008571	2244.069635
332.401986	2265.638211
332.795338	2281.669081
333.188625	2303.293110
333.581847	2322.462098
333.975006	2339.972545
334.368100	2356.527695
334.761129	2377.808926
335.154095	2395.458005
335.546996	2409.404357
335.939833	2428.069229
336.332606	2439.053904
336.725315	2451.346757
337.117960	2461.648355
337.510540	2471.168574
337.903056	2479.229379
338.295508	2489.707418
338.687896	2498.050527
339.080220	2503.918430
339.472480	2509.675428
339.864676	2517.244720
340.256807	2521.171779
340.648875	2523.712521
341.040879	2524.672861
341.432818	2527.511030
341.824694	2530.160157
342.216506	2528.612522
342.608253	2529.850126
342.999937	2530.588655
343.391557	2528.748633
343.783113	2527.732841
344.174605	2526.449867
344.566033	2523.354599
344.957397	2525.260155
345.348697	2522.300998
345.739934	2521.509537
346.131106	2518.976357
346.522215	2516.453259
346.913260	2515.797909
347.304241	2512.180881
347.695159	2510.396313
348.086012	2512.284225
348.476802	2507.185098
348.867528	2506.812053
349.258191	2505.592093
349.648789	2506.907834
350.039324	2502.486743
350.429796	2501.344921
350.820203	2501.302071
351.210548	2499.288130
351.600828	2499.877945
351.991045	2497.185969
352.381198	2498.587410
352.771288	2495.824858
353.161314	2497.251504
353.551276	2493.941987
353.941175	2499.595641
354.331010	2498.990702
354.720782	2494.667913
355.110490	2496.631442
355.500135	2496.525578
355.889717	2497.553973
356.279235	2498.736124
356.668689	2499.081443
357.058080	2499.530106
357.447408	2495.729076
357.836672	2494.980464
358.225873	2494.070536
358.615010	2496.681854
359.004084	2499.441886
359.393095	2500.477843
359.782043	2502.542195
360.170927	2499.036073
360.559748	2500.727380
360.948505	2502.005312
361.337199	2503.825169
361.725830	2504.359531
362.114398	2504.573780
362.502903	2502.075888
362.891344	2501.360045
363.279722	2504.586383
363.668037	2506.164264
364.056289	2503.532782
364.444478	2510.184584
364.832603	2503.747031
365.220665	2505.428256
365.608665	2508.029491
365.996601	2506.146620
366.384474	2508.596621
366.772284	2506.249964
367.160031	2511.129801
367.547715	2507.343894
367.935336	2510.746673
368.322893	2508.798267
368.710388	2510.698782
369.097820	2510.482012
369.485189	2509.362876
369.872495	2510.010665
370.259738	2511.187774
370.646918	2510.250119
371.034035	2509.884636
371.421090	2511.200377
371.808081	2512.710203
372.195010	2510.499657
372.581875	2513.942765
372.968678	2514.015861
373.355418	2513.607528
373.742096	2510.902949
374.128710	2512.080058
374.515262	2510.040912
374.901751	2511.868330
375.288177	2514.608197
375.674540	2512.725326
376.060841	2513.254647
376.447079	2507.737104
376.833254	2513.053001
377.219367	2510.139214
377.605417	2513.668022
377.991404	2509.693072
378.377329	2511.903618
378.763191	2513.741118
379.148991	2516.357477
379.534727	2515.263547
379.920402	2517.892509
380.306013	2515.475275
380.691563	2515.460152
381.077049	2514.749349
381.462474	2515.253465
381.847835	2516.223887
382.233134	2517.058198
382.618371	2516.070132
383.003545	2518.815040
383.388657	2515.245903
383.773706	2516.702796
384.158693	2520.564320
384.543618	2518.610873
384.928480	2518.368898
385.313280	2518.651202
385.698017	2515.298835
386.082692	2520.014834
386.467305	2516.470903
386.851856	2517.118692
387.236344	2519.873682
387.620770	2520.002232
388.005133	2519.767818
388.389435	2520.952489
388.773674	2520.108096
389.157851	2523.087418
389.541965	2523.468025
389.926018	2521.842253
390.310008	2522.177489
390.693936	2522.079187
391.077802	2520.178672
391.461606	2524.100690
391.845348	2519.036851
392.229027	2521.602798
392.612645	2520.118178
392.996200	2522.616070
393.379694	2524.425844
393.763125	2523.462984
394.146494	2524.584640
394.529801	2524.491379
394.913047	2523.780576
395.296230	2521.232273
395.679351	2524.065402
396.062410	2521.592716
396.445408	2526.694363
396.828343	2524.322500
397.211217	2522.734537
397.594028	2523.432737
397.976778	2521.005421
398.359466	2522.452232
398.742092	2522.132119
399.124656	2526.124713
399.507158	2525.623118
399.889598	2527.223684
400.271977	2524.919877
400.654294	2528.040351
401.036549	2525.280320
401.418742	2525.255114
401.800874	2528.153777
402.182944	2528.615043
402.564952	2528.504138
402.946898	2525.824764
403.328783	2529.635877
403.710606	2527.271575
404.092367	2528.045393
404.474067	2527.286699
404.855705	2526.744775
405.237282	2531.047400
405.618797	2529.436751
406.000250	2528.904909
406.381642	2527.911802
406.762972	2531.269210
407.144240	2527.750485
407.525447	2530.581093
407.906593	2529.474560
408.287677	2525.618077
408.668700	2529.308202
409.049661	2529.305681
409.430560	2527.778211
409.811399	2534.296423
410.192176	2530.928932
410.572891	2531.634694
410.953545	2530.031607
411.334138	2530.351720
411.714669	2528.625125
412.095139	2531.639735
412.475547	2529.835002
412.855894	2532.806762
413.236180	2532.209386
413.616405	2533.963707
413.996568	2532.325332
414.376670	2531.962369
414.756711	2530.941535
415.136691	2533.162164
415.516609	2532.867256
415.896466	2532.375744
416.276262	2532.176618
416.655997	2529.222502
417.035670	2530.707122
417.415283	2532.612678
417.794834	2528.216792
418.174324	2533.197452
418.553753	2533.562935
418.933121	2534.919006
419.312428	2533.537730
419.691674	2531.982534
420.070859	2534.127545
420.449983	2535.413039
420.829045	2533.993954
421.208047	2533.777184
421.586988	2534.858512
421.965867	2537.404295
422.344686	2536.086033
422.723444	2535.856660
423.102141	2536.106198
423.480777	2537.001002
423.859352	2535.082843
424.237866	2534.099818
424.616319	2534.321629
424.994712	2535.292051
425.373044	2537.444624
425.751314	2535.592000
426.129524	2534.069571
426.507673	2537.399253
426.885762	2536.716177
427.263789	2534.770292
427.641756	2539.977804
428.019662	2536.852288
428.397508	2538.684748
428.775292	2541.059131
429.153016	2537.555529
429.530679	2539.030067
429.908282	2536.426311
430.285824	2539.246836
430.663305	2535.140817
431.040726	2536.270035
431.418086	2536.610313
431.795385	2537.961342
432.172624	2538.243647
432.549802	2539.229192
432.926920	2538.944367
433.303977	2538.168029
433.680974	2537.588297
434.057910	2540.474357
434.434786	2538.525951
434.811601	2539.203987
435.188355	2539.138452
435.565050	2538.805735
435.941683	2539.831610
436.318257	2541.245654
436.694770	2534.472864
437.071222	2538.682227
437.447614	2536.726259
437.823946	2534.684592
438.200218	2539.229192
438.576429	2536.484284
438.952580	2535.874304
439.328670	2540.731456
439.704700	2540.282793
440.080670	2540.159285
440.456580	2540.875129
440.832429	2541.671631
441.208218	2542.309337
441.583947	2541.855633
441.959616	2541.107022
442.335224	2541.212886
442.710773	2540.852444
443.086261	2540.310520
443.461689	2538.276414
443.837057	2540.093750
444.212365	2541.883360
444.587612	2540.015612
444.962800	2540.118956
445.337927	2542.878988
445.712995	2541.701878
446.088002	2543.151210
446.462949	2541.626261
446.837837	2543.544420
447.212664	2542.813453
447.587431	2541.890922
447.962139	2543.158772
448.336786	2544.315717
448.711374	2542.090047
449.085901	2545.109698
449.460369	2542.332023
449.834776	2544.524924
450.209124	2542.243802
450.583412	2543.597352
450.957640	2543.539379
451.331808	2544.063659
451.705917	2542.064841
452.079965	2544.918134
452.453954	2543.383103
452.827883	2545.344112
453.201752	2544.033412
453.575562	2544.106509
453.949311	2544.524924
454.323001	2541.832948
454.696632	2546.097764
455.070202	2546.304452
455.443713	2543.675490
455.817164	2542.301776
456.190556	2540.975952
456.563888	2540.388658
456.937160	2539.307330
457.310373	2542.455531
457.683526	2544.540048
458.056619	2542.848741
458.429653	2545.366797
458.802628	2545.913762
459.175542	2547.514329
459.548398	2543.942671
459.921194	2545.626417
460.293930	2545.870912
460.666607	2544.512322
461.039224	2546.067517
461.411782	2547.443752
461.784280	2546.218752
462.156719	2543.546941
462.529099	2547.398382
462.901419	2545.923845
463.273680	2545.591128
463.645882	2544.015768
464.018024	2545.465100
464.390106	2547.123639
464.762130	2547.799154
465.134094	2546.987528
465.505999	2544.323278
465.877845	2546.692621
466.249631	2545.543238
466.621358	2545.341591
466.993026	2550.171017
467.364634	2549.187992
467.736184	2548.653629
468.107674	2543.640202
468.479105	2545.258412
468.850477	2548.177240
469.221790	2548.003321
469.593043	2544.557692
469.964238	2545.543238
470.335373	2545.933927
470.706449	2545.439894
471.077467	2545.649102
471.448425	2548.174720
471.819324	2545.550799
472.190164	2546.775800
472.560945	2548.893084
472.931667	2548.613300
473.302330	2547.531973
473.672934	2545.739843
474.043479	2546.677497
474.413965	2547.670604
474.784393	2541.033925
475.154761	2544.386293
475.525070	2541.296065
475.895321	2544.129194
476.265513	2542.468134
476.635645	2546.455686
477.005719	2545.891077
477.375734	2550.251675
477.745691	2547.410985
478.115588	2546.904349
478.485427	2548.799823
478.855207	2549.694628
479.224928	2548.580533
479.594591	2546.455686
479.964194	2549.170348
480.333739	2547.131201
480.703226	2550.675132
481.072653	2548.144473
481.442022	2548.363763
481.811333	2547.393341
482.180584	2549.739998
482.549777	2546.914431
482.918912	2548.436860
483.287988	2549.263609
483.657005	2547.589946
484.025964	2552.552962
484.394864	2549.374514
484.763706	2549.803012
485.132489	2547.121119
485.501213	2548.207487
485.869879	2547.252189
486.238487	2548.484751
486.607036	2547.068187
486.975527	2552.326110
487.343959	2548.935934
487.712333	2547.199257
488.080648	2547.587425
488.448905	2547.579864
488.817104	2550.692776
489.185244	2553.210832
489.553326	2546.369987
489.921350	2551.368291
490.289315	2548.940975
490.657222	2550.765873
491.025070	2552.275698
491.392861	2550.251675
491.760593	2551.670760
492.128267	2549.929041
492.495883	2548.933413
492.863440	2550.561706
493.230939	2549.480379
493.598380	2550.483568
493.965763	2546.301931
494.333088	2547.665563
494.700354	2547.607590
495.067563	2550.039947
495.434713	2545.402085
495.801805	2551.348126
496.168839	2550.959957
496.535815	2551.862324
496.902733	2550.561706
497.269593	2552.958775
497.636395	2547.451314
498.003139	2550.133208
498.369825	2550.208825
498.736453	2551.872406
499.103023	2550.022303
499.469535	2553.036913
499.835989	2551.658157
500.202385	2549.324103
500.568723	2550.654967
500.935003	2551.065822
501.301226	2549.291335
501.667390	2550.357539
502.033497	2549.951727
502.399546	2549.815615
502.765537	2550.569268
503.131470	2552.943651
503.497345	2549.639175
503.863163	2548.298228
504.228923	2548.900646
504.594625	2551.501881
504.960269	2553.268806
505.325856	2551.128836
505.691385	2551.075904
506.056856	2549.180430
506.422270	2550.382745
506.787625	2552.189999
507.152924	2549.145142
507.518164	2553.016748
507.883347	2551.254865
508.248472	2552.177396
508.613540	2550.851572
508.978550	2550.786037
509.343503	2552.847869
509.708398	2553.762839
510.073236	2552.411810
510.438016	2551.146480
510.802738	2547.289997
511.167403	2551.007848
511.532010	2549.140101
511.896561	2550.589433
512.261053	2552.502550
512.625488	2549.520708
512.989866	2548.555327
513.354186	2551.217056
513.718449	2546.798485
514.082655	2549.019113
514.446803	2551.191850
514.810894	2551.348126
515.174927	2555.244938
515.538904	2549.999617
515.902822	2551.451470
516.266684	2550.261758
516.630488	2551.527087
516.994235	2551.292673
517.357925	2551.045657
517.721558	2553.437684
518.085133	2552.338713
518.448651	2551.340564
518.812112	2550.566747
519.175516	2555.202088
519.538863	2551.307797
519.902152	2554.713096
520.265385	2552.283260
520.628560	2549.056922
520.991678	2550.297046
521.354739	2552.900802
521.717743	2552.124464
522.080690	2551.101110
522.443580	2550.334854
522.806413	2553.619166
523.169189	2552.658826
523.531908	2552.989022
523.894569	2550.609597
524.257174	2551.320400
524.619722	2552.799978
524.982213	2554.909701
525.344647	2553.906512
525.707025	2554.085473
526.069345	2551.950544
526.431608	2554.203940
526.793815	2548.930893
527.155964	2552.467262
527.518057	2551.355688
527.880093	2553.457849
528.242072	2555.098745
528.603995	2553.493137
528.965860	2553.939279
529.327669	2551.113712
529.689421	2553.649413
530.051117	2551.219577
530.412755	2550.975081
530.774337	2551.501881
531.135862	2554.100596
531.497331	2549.994576
531.858743	2547.269833
532.220098	2551.577499
532.581396	2548.184802
532.942638	2550.501212
533.303824	2552.502550
533.664953	2551.534649
534.026025	2552.668908
534.387040	2553.294012
534.747999	2553.916594
535.108902	2554.627397
535.469748	2556.696790
535.830537	2553.848538
536.191270	2554.488765
536.551947	2553.097407
536.912567	2551.753939
537.273131	2552.142108
537.633638	2553.954403
537.994089	2550.181099
538.354483	2553.654454
538.714821	2554.428271
539.075103	2553.639331
539.435328	2551.890050
539.795497	2553.331820
540.155609	2553.735112
540.515665	2552.598332
540.875665	2552.391645
541.235609	2553.049516
541.595496	2554.153528
541.955328	2554.171172
542.315102	2550.869217
542.674821	2551.985832
543.034483	2556.921122
543.394090	2555.885165
543.753640	2555.993549
544.113134	2550.987684
544.472571	2554.997922
544.831953	2553.457849
545.191278	2555.030689
545.550548	2553.571275
545.909761	2552.457180
546.268918	2552.084135
546.628019	2553.878785
546.987064	2555.053374
547.346053	2552.880637
547.704986	2553.120092
548.063863	2553.268806
548.422684	2552.137067
548.781449	2555.181924
549.140158	2551.610266
549.498811	2555.973385
549.857408	2553.939279
550.215949	2550.171017
550.574434	2549.482899
550.932864	2552.091696
551.291237	2548.273022
551.649555	2550.783517
552.007817	2552.820143
552.366022	2554.534135
552.724173	2555.234856
553.082267	2554.640000
553.440305	2552.931048
553.798288	2553.523384
554.156215	2553.936759
554.514086	2555.244938
554.871902	2554.453477
555.229661	2554.024979
555.587365	2554.592109
555.945014	2555.910370
556.302606	2555.560010
556.660143	2552.714279
557.017625	2553.793086
557.375050	2555.693601
557.732421	2554.516491
558.089735	2554.410627
558.446994	2555.348282
558.804197	2552.797458
559.161345	2556.487582
559.518437	2554.352654
559.875474	2555.358364
560.232455	2554.609753
560.589381	2553.041954
560.946251	2555.063457
561.303065	2554.498847
561.659825	2554.607232
562.016528	2554.193858
562.373177	2551.121274
562.729770	2551.290153
563.086307	2554.173693
563.442789	2552.258054
563.799216	2555.648230
564.155587	2555.625545
564.511904	2554.516491
564.868164	2555.123950
565.224370	2556.724517
565.580520	2556.175031
565.936615	2553.856100
566.292654	2553.478014
566.648638	2555.300391
567.004567	2551.832077
567.360441	2551.572458
567.716260	2554.483724
568.072023	2555.600339
568.427732	2550.092879
568.783385	2551.401058
569.138982	2549.155224
569.494525	2552.021120
569.850013	2548.618341
570.205445	2555.209650
570.560823	2552.437015
570.916145	2555.612942
571.271412	2553.689742
571.626625	2551.486758
571.981782	2558.521688
572.336884	2554.710576
572.691931	2553.490617
573.046923	2553.828374
573.401860	2554.387942
573.756743	2555.615463
574.111570	2554.871893
574.466342	2555.615463
574.821059	2555.368446
575.175722	2554.014897
575.530330	2553.304094
575.884882	2553.649413
576.239380	2553.291491
576.593823	2554.687891
576.948211	2554.224104
577.302544	2552.293342
577.656823	2553.435164
578.011047	2552.497509
578.365216	2554.355174
578.719330	2557.193344
579.073389	2555.922973
579.427394	2554.108158
579.781344	2553.979608
580.135239	2556.003632
580.489080	2553.427602
580.842866	2554.080432
581.196597	2558.405742
581.550273	2555.544887
581.903895	2553.903991
582.257463	2555.554969
582.610975	2555.592778
582.964434	2554.251831
583.317837	2558.685526
583.671186	2555.547407
584.024481	2555.171841
584.377721	2554.198899
584.730906	2553.515822
585.084037	2556.606050
585.437113	2555.136553
585.790135	2555.277706
586.143103	2555.653272
586.496016	2555.948179
586.848874	2553.089845
587.201679	2554.725699
587.554428	2553.906512
587.907124	2549.971891
588.259765	2549.498023
588.612352	2554.781152
588.964884	2553.956923
589.317362	2554.791234
589.669786	2554.529094
590.022155	2557.561348
590.374470	2552.076573
590.726731	2553.258723
591.078937	2554.660164
591.431090	2555.870041
591.783188	2555.030689
592.135232	2554.307283
592.487222	2555.234856
592.839157	2556.759805
593.191038	2555.416337
593.542866	2555.272664
593.894639	2554.861810
594.246358	2555.950700
594.598022	2555.305432
594.949633	2556.812737
595.301190	2553.067160
595.652692	2555.716286
596.004141	2554.322407
596.355535	2557.848694
596.706876	2553.130174
597.058162	2553.969526
597.409395	2554.145967
597.760573	2554.009855
598.111698	2553.195709
598.462768	2556.384239
598.813785	2552.590771
599.164748	2554.108158
599.515657	2552.429454
599.866511	2555.532284
600.217312	2553.838456
600.568060	2555.552448
600.918753	2555.895247
601.269392	2555.111347
601.619978	2554.093034
601.970510	2555.985988
602.320988	2553.543549
602.671412	2554.972716
603.021783	2556.611091
603.372100	2554.687891
603.722363	2555.693601
604.072572	2555.812068
604.422728	2555.597819
604.772830	2551.534649
605.122878	2549.586243
605.472872	2550.559186
605.822813	2552.444577
606.172701	2552.084135
606.522534	2556.230484
606.872314	2554.312325
607.222041	2557.823488
607.571714	2554.017417
607.921333	2556.351471
608.270899	2552.918446
608.620411	2555.527243
608.969870	2554.571944
609.319276	2557.047151
609.668627	2561.072512
610.017926	2557.558828
610.367171	2562.037893
610.716362	2561.712738
611.065500	2561.385063
611.414585	2558.385577
611.763616	2557.132850
612.112594	2555.902809
612.461518	2554.887016
612.810389	2556.696790
613.159207	2555.585216
613.507971	2557.989846
613.856682	2557.072356
614.205340	2556.469938
614.553945	2555.585216
614.902496	2553.961964
615.250994	2553.828374
615.599439	2554.617314
615.947830	2553.762839
616.296169	2555.675957
616.644454	2555.880123
616.992686	2554.312325
617.340864	2554.614794
617.688990	2556.391801
618.037063	2553.732592
618.385082	2554.014897
618.733048	2554.670247
619.080961	2554.042623
619.428821	2556.714434
619.776628	2557.571431
620.124382	2555.098745
620.472083	2556.129661
620.819731	2554.740823
621.167326	2557.258879
621.514868	2554.597150
621.862357	2553.891388
622.209793	2551.479196
622.557176	2555.577654
622.904506	2550.390307
623.251783	2551.217056
623.599007	2552.444577
623.946179	2551.269988
624.293297	2550.806202
624.640363	2552.290822
624.987376	2554.869372
625.334336	2553.120092
625.681243	2554.539177
626.028097	2554.730740
626.374899	2556.694270
626.721647	2554.970195
627.068343	2554.944989
627.414987	2555.993549
627.761577	2555.862479
628.108115	2553.707386
628.454600	2555.686039
628.801032	2554.733261
629.147412	2555.325597
629.493739	2555.544887
629.840014	2556.301060
630.186236	2556.114537
630.532405	2553.780483
630.878521	2553.500699
631.224585	2554.319886
631.570597	2554.350133
631.916556	2557.707542
632.262462	2553.009186
632.608316	2555.048333
632.954117	2553.848538
633.299866	2552.129505
633.645562	2554.692932
633.991206	2554.140925
634.336797	2554.687891
634.682336	2555.146636
635.027823	2552.885678
635.373257	2555.159238
635.718639	2554.642520
636.063968	2554.670247
636.409245	2552.638662
636.754470	2556.353992
637.099642	2552.608415
637.444762	2553.989691
637.789829	2552.822664
638.134845	2554.166131
638.479808	2554.370298
638.824719	2554.176213
639.169577	2555.517160
639.514383	2553.593960
639.859137	2554.322407
640.203839	2555.378529
640.548489	2553.417520
640.893086	2551.602704
641.237632	2548.946016
641.582125	2552.880637
641.926566	2549.147663
642.270955	2554.796275
642.615292	2555.345761
642.959576	2556.537994
643.303809	2554.050185
643.647990	2553.087324
643.992118	2557.619322
644.336195	2553.977088
644.680219	2552.794937
645.024192	2555.910370
645.368112	2555.499516
645.711981	2552.331151
646.055797	2553.321738
646.399562	2554.738302
646.743274	2555.285267
647.086935	2553.561193
647.430544	2556.298539
647.774101	2555.580175
648.117606	2551.811912
648.461059	2554.571944
648.804460	2558.743499
649.147810	2553.321738
649.491108	2553.253682
649.834354	2555.212171
650.177548	2554.670247
650.520690	2556.278375
650.863781	2554.327448
651.206820	2555.189485
651.549807	2551.471634
651.892742	2553.064639
652.235626	2554.922304
652.578458	2552.391645
652.921238	2553.082283
653.263967	2552.951213
653.606644	2553.321738
653.949269	2553.959444
654.291843	2555.769218
654.634365	2555.060936
654.976836	2554.461039
655.319255	2554.672767
655.661622	2551.544731
656.003938	2552.686553
656.346203	2555.418858
656.688416	2551.527087
657.030577	2555.544887
657.372687	2553.936759
657.714746	2554.692932
658.056753	2553.193188
658.398708	2546.622044
658.740612	2552.507592
659.082465	2550.347457
659.424266	2549.924000
659.766016	2546.947199
660.107715	2552.152190
660.449362	2550.130688
660.790958	2552.764690
661.132503	2554.869372
661.473996	2555.955741
661.815438	2551.469114
662.156829	2553.929197
662.498168	2554.874413
662.839456	2554.677808
663.180693	2552.797458
663.521879	2554.282078
663.863013	2555.335679
664.204097	2553.301573
664.545129	2553.808209
664.886110	2553.001625
665.227040	2551.050698
665.567918	2551.290153
665.908746	2552.719320
666.249522	2552.837787
666.590248	2553.336861
666.930922	2550.546583
667.271545	2556.086811
667.612118	2554.735782
667.952639	2553.188147
668.293109	2556.580844
668.633528	2551.549772
668.973896	2550.861655
669.314213	2555.754095
669.654480	2554.985319
669.994695	2553.740154
670.334859	2555.958261
670.674973	2552.883157
671.015035	2553.261244
671.355047	2553.533466
671.695008	2553.798127
672.034918	2551.837118
672.374777	2553.263765
672.714585	2553.200750
673.054342	2555.030689
673.394049	2552.875596
673.733705	2552.434495
674.073310	2555.033210
674.412864	2552.547921
674.752368	2553.362067
675.091820	2554.274516
675.431223	2553.838456
675.770574	2554.453477
676.109875	2549.830739
676.449125	2550.836449
676.788324	2549.341747
677.127473	2550.407951
677.466571	2548.938455
677.805619	2551.849721
678.144616	2554.443395
678.483562	2553.712427
678.822458	2555.698642
679.161303	2554.037582
679.500098	2553.125133
679.838842	2551.970709
680.177535	2554.839125
680.516179	2552.061449
680.854771	2551.781665
681.193314	2556.127140
681.531805	2552.842828
681.870247	2553.707386
682.208638	2550.269319
682.546978	2553.472972
682.885268	2551.443908
683.223508	2551.905174
683.561697	2553.563713
683.899836	2550.171017
684.237925	2552.497509
684.575963	2554.647561
684.913951	2554.274516
685.251889	2554.889537
685.589776	2555.882644
685.927614	2551.191850
686.265401	2551.154042
686.603137	2552.469783
686.940824	2553.790565
687.278460	2554.849207
687.616046	2550.995245
687.953582	2552.487427
688.291068	2550.589432
688.628504	2554.087993
688.965889	2553.924156
689.303224	2550.687735
689.640510	2553.283929
689.977745	2552.840308
690.314930	2554.367777
690.652065	2556.275854
690.989150	2553.203271
691.326185	2552.812581
691.663170	2550.589432
692.000105	2553.299053
692.336990	2556.081770
692.673825	2553.437684
693.010610	2551.887530
693.347345	2550.705379
693.684030	2546.972405
694.020665	2551.242262
694.357251	2549.893753
694.693786	2551.262427
695.030272	2551.169165
695.366707	2553.770401
695.703093	2551.126315
696.039429	2552.626059
696.375716	2550.954916
696.711952	2553.351985
697.048139	2553.442726
697.384276	2551.912735
697.720363	2552.875596
698.056400	2554.571944
698.392388	2551.675801
698.728326	2552.923487
699.064214	2551.978270
699.400053	2553.944320
699.735842	2552.610935
700.071581	2550.949875
700.407270	2552.648744
700.742910	2551.088507
701.078501	2552.610935
701.414042	2552.512633
701.749533	2551.731254
702.084974	2553.409958
702.420366	2554.380380
702.755709	2554.019938
703.091002	2554.619835
703.426246	2554.398024
703.761440	2549.918959
704.096584	2550.342416
704.431679	2550.617159
704.766725	2553.767880
705.101721	2551.310317
705.436668	2553.601522
705.771565	2553.102448
706.106413	2553.059598
706.441212	2552.999104
706.775961	2554.297201
707.110661	2551.912735
707.445311	2554.584547
707.779913	2554.009855
708.114465	2551.958106
708.448967	2552.474824
708.783421	2551.257385
709.117825	2551.154042
709.452180	2551.607746
709.786485	2552.958775
710.120742	2552.658826
710.454949	2554.725699
710.789107	2549.908877
711.123216	2549.520708
711.457275	2550.095399
711.791286	2549.548434
712.125247	2546.208670
712.459159	2551.443908
712.793023	2553.510781
713.126837	2552.265616
713.460602	2549.518187
713.794318	2551.199412
714.127985	2550.506253
714.461602	2550.503733
714.795171	2552.555482
715.128691	2552.200081
715.462162	2552.386604
715.795584	2549.878630
716.128957	2554.806358
716.462281	2550.498692
716.795556	2552.265616
717.128782	2550.246634
717.461960	2553.619166
717.795088	2552.610935
718.128167	2550.259237
718.461198	2554.592109
718.794180	2553.387273
719.127113	2552.258054
719.459997	2553.924156
719.792833	2551.985832
720.125619	2554.171172
720.458357	2554.350133
720.791046	2549.024154
721.123686	2549.964329
721.456278	2552.805020
721.788821	2554.259393
722.121315	2552.043805
722.453761	2552.880637
722.786158	2552.691594
723.118506	2549.976932
723.450805	2555.209650
723.783056	2552.212684
724.115259	2551.169165
724.447412	2551.890050
724.779518	2552.724361
725.111574	2553.115051
725.443582	2552.545400
725.775542	2551.998435
726.107453	2553.359547
726.439315	2552.348795
726.771129	2553.765359
727.102895	2552.346275
727.434612	2552.691594
727.766281	2551.854762
728.097901	2550.135729
728.429473	2547.761345
728.760996	2549.460214
729.092471	2548.628424
729.423897	2551.002807
729.755276	2550.430636
730.086606	2550.934752
730.417887	2554.292160
730.749120	2552.356357
731.080305	2552.109340
731.411442	2549.969371
731.742530	2550.246634
732.073570	2552.797458
732.404562	2548.691438
732.735506	2552.583209
733.066401	2549.457693
733.397249	2551.088507
733.728048	2548.257899
734.058798	2552.555482
734.389501	2551.010369
734.720156	2552.805020
735.050762	2554.171172
735.381320	2550.695297
735.711831	2552.406768
736.042293	2551.580019
736.372707	2551.559855
736.703073	2550.012220
737.033391	2548.910728
737.363661	2552.883157
737.693883	2553.876265
738.024056	2554.236707
738.354182	2549.230842
738.684260	2550.201264
739.014290	2551.416182
739.344272	2547.731098
739.674207	2548.900646
740.004093	2551.663198
740.333931	2554.032541
740.663722	2549.429967
740.993464	2550.385266
741.323159	2553.306614
741.652806	2551.748898
741.982405	2550.163455
742.311956	2551.975750
742.641460	2550.584391
742.970915	2552.094217
743.300323	2551.116233
743.629683	2550.871737
743.958996	2552.996583
744.288260	2554.012376
744.617477	2550.584391
744.946647	2548.089020
745.275768	2550.604556
745.604842	2549.445091
745.933869	2548.938455
746.262847	2546.889226
746.591778	2551.280071
746.920662	2552.769732
747.249498	2550.017262
747.578286	2552.870555
747.907027	2550.899463
748.235720	2550.780996
748.564365	2553.551110
748.892963	2553.157900
749.221514	2549.296377
749.550017	2554.640000
749.878473	2551.091027
750.206881	2552.936090
750.535242	2551.113712
750.863555	2551.075904
751.191821	2552.159752
751.520039	2551.189330
751.848210	2551.867365
752.176334	2551.995914
752.504411	2549.220759
752.832440	2551.161603
753.160421	2549.737478
753.488356	2549.492982
753.816243	2552.981460
754.144082	2550.324772
754.471875	2551.058260
754.799620	2549.349309
755.127318	2549.437529
755.454969	2552.132026
755.782572	2549.704710
756.110129	2553.515822
756.437638	2548.562889
756.765100	2552.179917
757.092515	2550.309648
757.419882	2552.431974
757.747203	2551.542211
758.074477	2549.407282
758.401703	2549.729916
758.728882	2548.520039
759.056014	2550.067673
759.383099	2551.829556
759.710138	2553.311656
760.037129	2551.035575
760.364073	2549.679504
760.690970	2550.879299
761.017820	2549.417364
761.344623	2550.019782
761.671379	2552.268137
761.998088	2545.623896
762.324751	2550.203784
762.651366	2547.763866
762.977935	2547.932744
763.304456	2548.464586
763.630931	2549.835780
763.957359	2551.106151
764.283740	2550.586912
764.610074	2551.038095
764.936362	2553.513302
765.262602	2551.645554
765.588796	2550.571788
765.914943	2549.878630
766.241044	2551.559855
766.567097	2548.915769
766.893104	2548.477189
767.219064	2549.402241
767.544978	2551.416182
767.870845	2547.610111
768.196665	2550.753270
768.522438	2547.862168
768.848165	2551.305276
769.173846	2550.816284
769.499479	2551.375853
769.825066	2552.026161
770.150607	2551.176727
770.476101	2549.442570
770.801548	2551.317879
771.126949	2552.757129
771.452303	2551.776624
771.777611	2547.670604
772.102872	2551.567416
772.428087	2548.454504
772.753256	2552.328631
773.078378	2550.521377
773.403453	2550.339895
773.728482	2547.786551
774.053465	2549.906356
774.378401	2550.481048
774.703291	2550.743188
775.028135	2550.440718
775.352932	2550.470965
775.677683	2551.862324
776.002388	2550.118085
776.327046	2550.896943
776.651658	2549.866027
776.976224	2550.118085
777.300743	2548.033568
777.625216	2551.527087
777.949643	2552.318548
778.274024	2550.176058
778.598359	2547.390820
778.922647	2545.573484
779.246889	2548.630944
779.571086	2545.631458
779.895236	2551.877447
780.219339	2549.803013
780.543397	2552.401727
780.867409	2547.920142
781.191374	2550.365101
781.515294	2550.319731
781.839167	2549.561037
782.162995	2548.530121
782.486776	2551.554813
782.810511	2552.139587
783.134201	2551.106151
783.457844	2548.699000
783.781441	2551.227138
784.104993	2548.323434
784.428498	2554.035061
784.751958	2552.500030
785.075372	2550.140770
785.398739	2550.062632
785.722061	2550.846531
786.045337	2547.869730
786.368568	2549.167827
786.691752	2553.263765
787.014891	2550.428116
787.337983	2550.171017
787.661030	2550.612118
787.984031	2549.397200
788.306987	2550.932231
788.629897	2552.835267
788.952760	2549.581202
789.275579	2549.855945
789.598351	2552.109340
789.921078	2548.825029
790.243759	2549.291335
790.566395	2548.729247
790.888984	2550.783517
791.211529	2547.194215
791.534027	2550.649926
791.856480	2552.439536
792.178888	2550.972560
792.501249	2547.683207
792.823566	2551.489278
793.145836	2549.853424
793.468062	2550.735626
793.790241	2551.930379
794.112375	2551.592622
794.434464	2550.128167
794.756507	2553.717468
795.078505	2550.871737
795.400457	2548.635985
795.722364	2544.966025
796.044226	2548.855276
796.366042	2544.590459
796.687812	2546.801005
797.009538	2550.849052
797.331218	2551.887530
797.652852	2548.663712
797.974442	2549.495502
798.295986	2550.949875
798.617484	2549.165307
798.938938	2549.308979
799.260346	2548.996428
799.581709	2551.471634
799.903026	2550.644885
800.224299	2550.123126
800.545526	2551.910215
800.866708	2551.048177
801.187845	2549.256047
801.508936	2549.994576
801.829983	2548.416695
802.150984	2550.289484
802.471940	2548.565409
802.792851	2549.124977
803.113717	2550.370142
803.434538	2550.024823
803.755314	2547.753783
804.076045	2550.095399
804.396731	2545.896118
804.717372	2549.132539
805.037967	2551.960626
805.358518	2550.269319
805.679024	2549.772766
805.999485	2547.431150
806.319901	2551.910215
806.640272	2547.090872
806.960598	2549.482899
807.280879	2547.494164
807.601115	2548.459545
807.921306	2548.817467
808.241453	2546.967363
808.561554	2546.412837
808.881611	2551.035575
809.201623	2549.981973
809.521590	2548.966181
809.841513	2547.327806
810.161390	2549.397200
810.481223	2549.077086
810.801011	2546.664894
811.120755	2548.068856
811.440453	2549.286294
811.760107	2550.786037
812.079716	2546.559030
812.399281	2543.582229
812.718801	2548.721685
813.038276	2544.560212
813.357707	2550.050029
813.677093	2550.652447
813.996434	2547.637837
814.315731	2548.293187
814.634983	2549.898794
814.954191	2548.862837
815.273354	2545.477703
815.592473	2547.784030
815.911547	2549.881150
816.230577	2546.523742
816.549562	2546.324616
816.868502	2552.066491
817.187399	2546.090203
817.506250	2550.934752
817.825058	2550.181099
818.143821	2549.233362
818.462539	2547.897456
818.781213	2550.095399
819.099843	2548.769576
819.418429	2552.005997
819.736970	2549.818136
820.055466	2549.525749
820.373919	2550.672612
820.692327	2551.126315
821.010691	2548.139432
821.329011	2548.361242
821.647286	2553.518343
821.965517	2553.268806
822.283704	2548.678835
822.601847	2549.369473
822.919945	2546.891746
823.237999	2547.347971
823.556010	2551.194371
823.873976	2549.344267
824.191897	2548.126829
824.509775	2548.880481
824.827609	2546.271684
825.145398	2545.104657
825.463144	2549.359391
825.780845	2550.163455
826.098502	2548.857796
826.416116	2546.785882
826.733685	2551.645554
827.051210	2548.943496
827.368692	2549.772766
827.686129	2549.082127
828.003522	2548.857796
828.320872	2542.503422
828.638177	2546.450645
828.955439	2546.284287
829.272656	2546.629606
829.589830	2543.599873
829.906960	2549.014072
830.224046	2546.982487
830.541088	2548.323434
830.858086	2546.979966
831.175041	2551.038095
831.491952	2548.182282
831.808819	2548.341078
832.125642	2547.957950
832.442421	2548.555327
832.759157	2547.244627
833.075849	2548.210008
833.392497	2546.556509
833.709101	2548.106664
834.025662	2550.193702
834.342179	2550.518856
834.658653	2548.734288
834.975083	2549.729916
835.291469	2553.384752
835.607811	2548.550286
835.924110	2550.251675
836.240366	2549.631613
836.556578	2547.937786
836.872746	2551.663198
837.188871	2550.208825
837.504952	2549.719833
837.820990	2549.046839
838.136984	2548.623382
838.452935	2549.659340
838.768842	2551.595143
839.084706	2549.225800
839.400526	2551.927859
839.716303	2546.228834
840.032037	2546.417878
840.347727	2549.732436
840.663373	2550.284443
840.978977	2546.475851
841.294537	2551.695966
841.610054	2546.475851
841.925527	2550.234031
842.240957	2550.014741
842.556344	2549.737477
842.871687	2551.355688
843.186987	2547.675646
843.502244	2547.968032
843.817458	2549.855945
844.132629	2550.569268
844.447756	2550.488609
844.762840	2541.522917
845.077881	2544.262784
845.392879	2544.587939
845.707833	2544.857641
846.022745	2546.561551
846.337613	2547.950388
846.652438	2550.700338
846.967221	2548.036088
847.281960	2549.959288
847.596656	2548.764535
847.911309	2549.082128
848.225919	2547.010213
848.540485	2548.537683
848.855009	2545.432332
849.169490	2547.635316
849.483928	2546.140614
849.798323	2546.364946
850.112675	2547.884853
850.426984	2546.745553
850.741251	2549.717313
851.055474	2547.622713
851.369654	2547.597508
851.683792	2547.254709
851.997887	2548.731767
852.311938	2546.869061
852.625947	2548.330996
852.939914	2549.558517
853.253837	2549.059442
853.567718	2547.441232
853.881555	2548.421736
854.195350	2547.408464
854.509103	2549.417364
854.822812	2549.797971
855.136479	2548.146993
855.450103	2549.825698
855.763685	2545.767569
856.077224	2547.431150
856.390720	2547.453835
856.704173	2547.184133
857.017584	2547.826880
857.330953	2549.472817
857.644278	2548.172199
857.957561	2551.776624
858.270802	2548.993907
858.584000	2549.898794
858.897155	2549.200595
859.210268	2546.864020
859.523339	2549.354350
859.836367	2548.777138
860.149352	2548.371325
860.462295	2549.485420
860.775195	2546.047353
861.088054	2544.903011
861.400869	2541.921168
861.713642	2542.213555
862.026373	2546.213711
862.339062	2545.011396
862.651708	2549.808054
862.964312	2548.938455
863.276873	2550.826367
863.589392	2550.198743
863.901869	2546.727909
864.214303	2548.189843
864.526696	2545.308824
864.839045	2550.428116
865.151353	2546.801005
865.463619	2548.048691
865.775842	2548.358722
866.088023	2548.255378
866.400162	2548.192364
866.712258	2549.402241
867.024313	2549.498023
867.336325	2546.977446
867.648296	2550.533980
867.960224	2549.649257
868.272110	2551.007848
868.583954	2546.732950
868.895755	2545.530635
869.207515	2547.824360
869.519233	2548.174720
869.830909	2547.221942
870.142542	2547.786551
870.454134	2546.642209
870.765684	2546.990049
871.077191	2549.770245
871.388657	2547.678166
871.700081	2547.668084
872.011463	2545.840666
872.322803	2547.186654
872.634101	2547.277394
872.945357	2547.857127
873.256571	2548.759494
873.567744	2546.785882
873.878874	2547.146324
874.189963	2548.182282
874.501010	2550.508774
874.812015	2548.121788
875.122979	2547.988197
875.433900	2546.896787
875.744780	2547.118598
876.055618	2547.252189
876.366415	2550.087838
876.677169	2545.785213
876.987882	2547.484082
877.298554	2541.754810
877.609183	2543.544420
877.919771	2544.489636
878.230317	2543.299924
878.540822	2551.330482
878.851285	2548.265461
879.161707	2546.838814
879.472087	2544.444266
879.782425	2548.575492
880.092722	2546.921993
880.402977	2545.775131
880.713191	2548.933413
881.023363	2548.361242
881.333494	2547.000131
881.643583	2544.993752
881.953631	2545.215563
882.263637	2546.415357
882.573602	2548.973743
882.883526	2549.452652
883.193408	2547.794113
883.503248	2546.445604
883.813048	2548.469627
884.122806	2548.152035
884.432522	2547.655481
884.742197	2548.953578
885.051831	2548.517518
885.361424	2549.379556
885.670975	2546.125491
885.980485	2547.446273
886.289954	2548.237734
886.599382	2547.630275
886.908768	2549.223280
887.218113	2545.828063
887.527417	2548.565409
887.836680	2549.364432
888.145901	2547.476520
888.455082	2547.468958
888.764221	2547.224462
889.073319	2544.945861
889.382376	2546.591797
889.691392	2545.331509
890.000366	2546.561551
890.309300	2548.935934
890.618193	2549.175389
890.927044	2549.432488
891.235855	2549.593805
891.544625	2547.617672
891.853353	2548.870399
892.162041	2549.114895
892.470687	2551.035575
892.779293	2547.887374
893.087858	2548.522559
893.396381	2546.102806
893.704864	2543.390665
894.013306	2541.008720
894.321707	2546.909390
894.630068	2545.470141
894.938387	2544.789585
895.246665	2545.709596
895.554903	2546.193546
895.863100	2546.034750
896.171256	2546.080120
896.479371	2545.139945
896.787446	2547.932744
897.095480	2546.433001
897.403473	2545.714637
897.711425	2547.206818
898.019336	2544.691282
898.327207	2547.753783
898.635038	2549.561037
898.942827	2548.993907
899.250576	2547.733619
899.558284	2547.048022
899.865952	2546.012065
900.173579	2546.823691
900.481165	2546.291849
900.788711	2545.709596
901.096216	2547.456355
901.403681	2544.817311
901.711105	2547.935265
902.018489	2544.971067
902.325832	2550.236552
902.633135	2547.461397
902.940397	2546.843855
903.247619	2546.811088
903.554800	2542.881508
903.861941	2544.018288
904.169041	2547.118598
904.476101	2546.140614
904.783121	2547.226983
905.090100	2544.343443
905.397039	2548.020965
905.703938	2547.151366
906.010796	2546.720347
906.317614	2549.026675
906.624391	2549.198074
906.931129	2546.924514
907.237826	2547.012734
907.544483	2547.884853
907.851099	2544.398896
908.157675	2549.697148
908.464211	2547.191695
908.770707	2543.317568
909.077163	2546.574153
909.383578	2541.951415
909.689954	2540.814635
909.996289	2544.414019
910.302584	2546.985008
910.608839	2546.400234
910.915054	2548.777138
911.221229	2546.052394
911.527363	2546.632127
911.833458	2545.623896
912.139513	2547.083310
912.445527	2546.614483
912.751502	2547.584905
913.057436	2544.177085
913.363331	2546.105326
913.669186	2545.129863
913.975000	2545.775131
914.280775	2547.247147
914.586510	2547.496685
914.892205	2547.630275
915.197859	2545.719678
915.503475	2544.842517
915.809050	2545.462579
916.114585	2546.178423
916.420081	2545.699513
916.725536	2547.105995
917.030952	2547.539534
917.336328	2548.116747
917.641665	2547.171530
917.946961	2548.469627
918.252218	2545.661705
918.557435	2546.778320
918.862612	2546.506098
919.167750	2548.542724
919.472848	2545.959133
919.777906	2543.804039
920.082925	2546.029709
920.387904	2545.263453
920.692843	2547.320244
920.997743	2544.484595
921.302603	2548.588094
921.607423	2545.964174
921.912204	2548.474668
922.216946	2548.265461
922.521647	2547.017775
922.826310	2546.034750
923.130932	2547.421067
923.435516	2546.070038
923.740059	2546.760676
924.044564	2548.396531
924.349028	2547.264792
924.653454	2541.691796
924.957840	2543.614996
925.262186	2541.230530
925.566493	2547.000131
925.870761	2542.992414
926.174989	2546.112888
926.479178	2548.570450
926.783328	2546.238917
927.087438	2547.199257
927.391509	2547.413506
927.695541	2543.809081
927.999533	2544.363608
928.303486	2546.064997
928.607400	2544.655994
928.911275	2544.023330
929.215110	2545.908721
929.518906	2546.659853
929.822663	2546.420398
930.126381	2545.540717
930.430060	2548.968702
930.733699	2542.150541
931.037299	2545.505429
931.340861	2547.317724
931.644383	2546.460727
931.947866	2545.666746
932.251309	2548.469627
932.554714	2543.622558
932.858080	2547.746222
933.161407	2544.817311
933.464694	2545.223124
933.767943	2544.560213
934.071153	2547.463917
934.374323	2544.275387
934.677455	2546.133053
934.980548	2543.612476
935.283602	2547.476520
935.586617	2545.502908
935.889593	2545.399565
936.192530	2544.817311
936.495428	2544.983669
936.798287	2546.448125
937.101108	2548.212528
937.403890	2543.020140
937.706632	2546.342260
938.009336	2545.346632
938.312002	2547.340409
938.614628	2543.549461
938.917216	2545.926365
939.219765	2544.461910
939.522275	2546.400234
939.824747	2547.458876
940.127179	2541.142310
940.429573	2542.208514
940.731929	2544.219935
941.034246	2537.827752
941.336524	2543.791437
941.638763	2546.306972
941.940964	2545.868392
942.243126	2548.026006
942.545250	2546.067518
942.847335	2546.143135
943.149381	2544.724050
943.451389	2544.482075
943.753359	2546.586756
944.055290	2545.654143
944.357182	2548.046170
944.659036	2543.310006
944.960851	2547.894936
945.262628	2546.256561
945.564367	2545.565923
945.866067	2545.147507
946.167729	2546.979966
946.469352	2544.345963
946.770937	2546.808567
947.072484	2543.526776
947.373992	2546.667415
947.675462	2545.114739
947.976893	2544.280428
948.278286	2544.154400
948.579641	2546.745553
948.880958	2547.153886
949.182236	2546.727909
949.483476	2544.630789
949.784678	2545.127342
950.085841	2546.339740
950.386967	2548.182282
950.688054	2544.807229
950.989103	2547.264792
951.290114	2543.292362
951.591087	2544.318237
951.892021	2546.130532
952.192917	2546.153217
952.493776	2545.107178
952.794596	2546.102806
953.095378	2545.591128
953.396122	2546.007024
953.696828	2545.878474
953.997496	2545.825542
954.298126	2545.903680
954.598718	2545.104657
954.899272	2546.264123
955.199788	2546.264122
955.500266	2544.295552
955.800706	2540.900335
956.101108	2540.688606
956.401472	2544.295552
956.701798	2539.778678
957.002087	2540.325643
957.302337	2543.894780
957.602550	2545.472661
957.902724	2544.431663
958.202861	2547.491643
958.502960	2546.059956
958.803022	2545.644061
959.103045	2545.129863
959.403031	2543.123484
959.702979	2543.955274
960.002889	2546.521221
960.302762	2546.193546
960.602596	2544.832435
960.902393	2545.326468
961.202153	2542.881508
961.501875	2541.573329
961.801559	2547.549617
962.101205	2544.509801
962.400814	2545.137425
962.700385	2542.788247
962.999918	2548.721685
963.299414	2544.550130
963.598873	2545.898639
963.898293	2545.805377
964.197677	2543.289842
964.497022	2544.812270
964.796331	2545.018957
965.095601	2544.252702
965.394835	2546.677497
965.694030	2546.435522
965.993189	2545.870913
966.292309	2545.747404
966.591393	2545.490305
966.890439	2543.967877
967.189447	2543.272198
967.488419	2540.736497
967.787353	2543.927548
968.086249	2546.904349
968.385108	2548.797302
968.683930	2546.029709
968.982714	2545.460058
969.281462	2545.311344
969.580172	2541.490150
969.878844	2544.887887
970.177480	2544.567774
970.476078	2545.502908
970.774639	2545.858310
971.073162	2541.147351
971.371649	2544.658515
971.670098	2539.294727
971.968510	2544.018288
972.266885	2542.349667
972.565223	2546.614483
972.863524	2541.288504
973.161788	2545.805378
973.460014	2541.333874
973.758204	2542.682383
974.056356	2544.930737
974.354471	2544.088865
974.652550	2542.836138
974.950591	2544.406457
975.248595	2546.921993
975.546563	2545.155069
975.844493	2544.338402
976.142386	2548.547765
976.440243	2543.748587
976.738062	2544.056097
977.035845	2544.809750
977.333590	2545.376879
977.631299	2546.874102
977.928971	2544.030891
978.226606	2545.833104
978.524204	2543.703216
978.821765	2545.480223
979.119290	2545.898639
979.416777	2542.402599
979.714228	2543.582229
980.011642	2544.837476
980.309020	2546.072559
980.606360	2544.015768
980.903664	2546.682538
981.200931	2545.875954
981.498162	2545.475182
981.795356	2543.806560
982.092513	2544.114070
982.389633	2545.518032
982.686717	2544.842517
982.983764	2542.465613
983.280775	2544.966025
983.577749	2547.025337
983.874686	2541.704399
984.171587	2543.756148
984.468451	2545.185316
984.765279	2542.523586
985.062070	2545.606252
985.358824	2545.281097
985.655543	2545.560882
985.952224	2545.001313
986.248869	2540.159285
986.545478	2542.674821
986.842050	2543.080634
987.138586	2540.544933
987.435086	2542.213555
987.731549	2538.064686
988.027975	2547.090872
988.324366	2542.004348
988.620719	2542.422763
988.917037	2543.672969
989.213318	2543.047866
989.509563	2545.449976
989.805772	2546.803526
990.101944	2543.357897
990.398080	2544.920655
990.694180	2542.732794
990.990244	2543.191539
991.286271	2545.891077
991.582262	2545.530635
991.878217	2545.938968
992.174136	2543.446118
992.470019	2546.765717
992.765865	2542.591642
993.061676	2542.110212
993.357450	2544.935778
993.653188	2543.854451
993.948890	2543.965356
994.244556	2544.038453
994.540186	2543.138607
994.835780	2544.635830
995.131337	2545.175233
995.426859	2542.233720
995.722345	2543.367980
996.017795	2542.140459
996.313208	2545.737322
996.608586	2543.234389
996.903928	2542.742877
997.199234	2543.909904
997.494504	2545.404606
997.789738	2543.269677
998.084936	2542.536189
998.380099	2545.213042
998.675225	2542.561395
998.970316	2546.145655
999.265371	2543.494008
999.560390	2544.255223
999.855373	2547.289997
1000.150320	2542.483257
1000.445232	2543.549461
1000.740108	2542.853782
1001.034948	2545.797816
1001.329752	2543.080634
1001.624521	2542.453010
1001.919254	2540.345808
1002.213951	2542.649615
1002.508613	2539.077958
1002.803239	2544.245140
1003.097829	2539.831610
1003.392384	2546.274205
1003.686903	2542.453010
1003.981386	2546.007024
1004.275834	2544.519883
1004.570246	2545.654143
1004.864623	2543.186498
1005.158964	2545.921324
1005.453270	2543.947712
1005.747540	2541.522917
1006.041775	2542.294214
1006.335974	2542.707588
1006.630138	2539.831610
1006.924266	2544.093906
1007.218359	2542.173226
1007.512416	2544.131714
1007.806438	2542.737835
1008.100425	2544.015768
1008.394376	2542.891591
1008.688292	2544.726571
1008.982172	2545.916283
1009.276017	2545.901159
1009.569827	2543.171375
1009.863602	2546.707744
1010.157341	2544.066179
1010.451045	2545.369318
1010.744714	2542.374872
1011.038347	2542.752959
1011.331945	2543.219266
1011.625508	2545.581046
1011.919036	2543.587270
1012.212528	2542.243802
1012.505986	2542.573998
1012.799408	2543.025181
1013.092795	2542.211035
1013.386147	2542.374872
1013.679464	2543.378062
1013.972745	2541.805222
1014.265992	2541.401930
1014.559204	2542.715150
1014.852380	2542.863864
1015.145521	2544.010727
1015.438628	2543.050387
1015.731699	2544.925696
1016.024736	2541.419574
1016.317737	2544.981149
1016.610703	2542.344625
1016.903635	2540.726415
1017.196531	2540.466796
1017.489393	2542.573998
1017.782219	2539.841692
1018.075011	2540.993596
1018.367768	2539.357742
1018.660490	2545.981818
1018.953177	2545.981818
1019.245829	2545.981818
