Dividing Wavelength (nm)	Counts (n)	Blue Motor Position (mm): 47.600000	Red Motor Position (mm): 0.000000	
326.493990	2130.623508
326.888308	2130.623508
327.282561	2130.623508
327.676750	2099.050762
328.070874	2095.889958
328.464933	2098.597058
328.858929	2104.311206
329.252859	2113.531476
329.646726	2126.676285
330.040528	2139.609365
330.434265	2156.114103
330.827938	2173.624551
331.221547	2189.854546
331.615091	2209.520087
332.008571	2228.918447
332.401986	2249.640110
332.795338	2270.313882
333.188625	2286.591767
333.581847	2306.315282
333.975006	2325.645586
334.368100	2343.584532
334.761129	2362.841740
335.154095	2376.606610
335.546996	2400.277348
335.939833	2423.867428
336.332606	2439.847885
336.725315	2452.700307
337.117960	2463.707667
337.510540	2470.908955
337.903056	2479.564616
338.295508	2489.775473
338.687896	2497.685043
339.080220	2505.019922
339.472480	2509.224245
339.864676	2517.713548
340.256807	2520.082890
340.648875	2525.121523
341.040879	2525.534898
341.432818	2527.173273
341.824694	2531.790970
342.216506	2531.750641
342.608253	2530.951618
342.999937	2529.179652
343.391557	2529.656041
343.783113	2530.271062
344.174605	2528.975485
344.566033	2524.012469
344.957397	2525.673530
345.348697	2523.389887
345.739934	2523.571368
346.131106	2522.263189
346.522215	2518.787313
346.913260	2515.984432
347.304241	2516.601973
347.695159	2512.639626
348.086012	2510.716426
348.476802	2509.486385
348.867528	2510.308093
349.258191	2506.015550
349.648789	2505.198883
350.039324	2503.389109
350.429796	2503.426918
350.820203	2500.820641
351.210548	2502.834582
351.600828	2499.131855
351.991045	2497.072543
352.381198	2499.630929
352.771288	2499.346104
353.161314	2497.778305
353.551276	2497.009529
353.941175	2496.696977
354.331010	2497.818634
354.720782	2499.774602
355.110490	2497.271669
355.500135	2498.864673
355.889717	2498.007677
356.279235	2501.670076
356.668689	2499.303254
357.058080	2498.176556
357.447408	2495.776967
357.836672	2495.792090
358.225873	2500.036742
358.615010	2497.208654
359.004084	2499.724190
359.393095	2502.451454
359.782043	2502.121259
360.170927	2502.040600
360.559748	2503.510097
360.948505	2505.329953
361.337199	2507.563184
361.725830	2507.253153
362.114398	2508.407578
362.502903	2506.605365
362.891344	2508.624347
363.279722	2510.068638
363.668037	2506.149141
364.056289	2509.246930
364.444478	2510.774399
364.832603	2511.465037
365.220665	2514.633403
365.608665	2510.159379
365.996601	2513.292456
366.384474	2511.228103
366.772284	2514.260357
367.160031	2514.446880
367.547715	2518.373939
367.935336	2512.561488
368.322893	2516.884278
368.710388	2514.540141
369.097820	2516.745646
369.485189	2517.403517
369.872495	2520.029958
370.259738	2523.644465
370.646918	2524.622449
371.034035	2527.226205
371.421090	2531.909437
371.808081	2533.474715
372.195010	2540.325643
372.581875	2544.272867
372.968678	2556.837943
373.355418	2560.903633
373.742096	2571.681620
374.128710	2582.194947
374.515262	2592.753643
374.901751	2604.585231
375.288177	2615.811881
375.674540	2631.583131
376.060841	2647.193064
376.447079	2663.700322
376.833254	2681.634227
377.219367	2694.025383
377.605417	2720.211657
377.991404	2734.473081
378.377329	2754.320103
378.763191	2774.169647
379.148991	2807.872281
379.534727	2830.912874
379.920402	2860.136443
380.306013	2878.760986
380.691563	2923.171031
381.077049	2949.269084
381.462474	2967.971765
381.847835	3011.116480
382.233134	3033.267310
382.618371	3040.642518
383.003545	3109.902931
383.388657	3123.267030
383.773706	3159.878410
384.158693	3183.632327
384.543618	3214.617779
384.928480	3251.249323
385.313280	3303.339566
385.698017	3311.841472
386.082692	3365.857435
386.467305	3373.895555
386.851856	3411.951226
387.236344	3436.128599
387.620770	3478.204590
388.005133	3506.608971
388.389435	3534.584855
388.773674	3553.569840
389.157851	3594.151128
389.541965	3616.801033
389.926018	3584.736774
390.310008	3655.736384
390.693936	3677.362934
391.077802	3720.792475
391.461606	3713.444993
391.845348	3773.510341
392.229027	3775.272224
392.612645	3790.975419
392.996200	3868.954507
393.379694	3908.169643
393.763125	3972.640959
394.146494	3943.598872
394.529801	4005.169004
394.913047	4055.593146
395.296230	4019.863968
395.679351	4073.073347
396.062410	4096.766770
396.445408	4080.511569
396.828343	4112.414511
397.211217	4140.299654
397.594028	4055.832601
397.976778	4124.107468
398.359466	4151.574194
398.742092	4181.967311
399.124656	4103.940332
399.507158	4181.793391
399.889598	4208.413204
400.271977	4268.992750
400.654294	4243.935695
401.036549	4251.197477
401.418742	4217.908217
401.800874	4317.211386
402.182944	4343.072506
402.564952	4406.094490
402.946898	4392.823653
403.328783	4390.865165
403.710606	4303.086073
404.092367	4493.558510
404.474067	4460.415444
404.855705	4467.236125
405.237282	4395.039240
405.618797	4508.210623
406.000250	4539.969893
406.381642	4619.292448
406.762972	4583.293569
407.144240	4594.759673
407.525447	4592.690279
407.906593	4653.194208
408.287677	4696.449828
408.668700	4623.726143
409.049661	4673.532743
409.430560	4713.534299
409.811399	4642.748937
410.192176	4801.399090
410.572891	4741.537908
410.953545	4847.916337
411.334138	4727.901587
411.714669	4794.457421
412.095139	4687.342984
412.475547	4831.701466
412.855894	4813.250842
413.236180	4818.445752
413.616405	4775.101911
413.996568	4864.617680
414.376670	4803.539060
414.756711	4757.460393
415.136691	4793.930620
415.516609	4865.336044
415.896466	4906.595368
416.276262	4941.646510
416.655997	4923.926855
417.035670	5102.602991
417.415283	5195.824008
417.794834	5139.884844
418.174324	5094.088482
418.553753	5000.938041
418.933121	5186.833110
419.312428	5249.547584
419.691674	5192.910221
420.070859	5317.885466
420.449983	5227.058997
420.829045	5344.084342
421.208047	5250.870887
421.586988	5321.051311
421.965867	5332.378783
422.344686	5467.900122
422.723444	5322.460313
423.102141	5140.371316
423.480777	5440.110762
423.859352	5206.334814
424.237866	5467.164114
424.616319	5458.178257
424.994712	5569.696142
425.373044	5444.635197
425.751314	5584.935550
426.129524	5388.862392
426.507673	5585.734573
426.885762	5667.416388
427.263789	5599.073466
427.641756	5480.676927
428.019662	5598.377787
428.397508	5608.225681
428.775292	5555.427156
429.153016	5655.826776
429.530679	5579.728038
429.908282	5668.283467
430.285824	5538.403179
430.663305	5812.422658
431.040726	5546.728645
431.418086	5547.608326
431.795385	5653.046579
432.172624	5663.002858
432.549802	5660.620913
432.926920	5670.854455
433.303977	5681.551784
433.680974	5721.911262
434.057910	5736.099589
434.434786	5741.917081
434.811601	5714.347010
435.188355	5949.284944
435.565050	5818.126724
435.941683	5803.184744
436.318257	6013.834398
436.694770	6000.135063
437.071222	6034.402306
437.447614	5964.819260
437.823946	5880.959665
438.200218	6029.159506
438.576429	5893.416357
438.952580	5992.374207
439.328670	6043.488986
439.704700	5951.087157
440.080670	5930.186533
440.456580	6204.682401
440.832429	6088.816521
441.208218	5935.240289
441.583947	6081.947949
441.959616	6091.483291
442.335224	6021.696078
442.710773	6155.503424
443.086261	6181.747671
443.461689	5980.139326
443.837057	6127.303210
444.212365	6283.377333
444.587612	6175.289953
444.962800	6327.936092
445.337927	6310.249203
445.712995	5922.735707
446.088002	6496.214848
446.462949	6325.241595
446.837837	6257.281800
447.212664	6429.865702
447.587431	6577.085038
447.962139	7116.954807
448.336786	8042.188019
448.711374	7780.957947
449.085901	6856.009560
449.460369	6781.438292
449.834776	6710.973043
450.209124	7108.510874
450.583412	7252.980261
450.957640	7401.946357
451.331808	7161.153123
451.705917	6726.696402
452.079965	6638.846735
452.453954	6851.406987
452.827883	6727.326546
453.201752	6827.859757
453.575562	6617.595751
453.949311	6828.512586
454.323001	6711.116716
454.696632	6789.501617
455.070202	6927.140241
455.443713	7081.926349
455.817164	7183.429982
456.190556	7266.293948
456.563888	7337.661563
456.937160	7387.221147
457.310373	7039.623507
457.683526	7066.868422
458.056619	6955.043027
458.429653	6944.048271
458.802628	6880.128961
459.175542	6991.624160
459.548398	7345.351843
459.921194	7507.248499
460.293930	7508.561720
460.666607	8040.254736
461.039224	8343.250768
461.411782	8466.864901
461.784280	8485.570103
462.156719	8374.117753
462.529099	8259.895289
462.901419	7848.050664
463.273680	7739.232317
463.645882	7755.061540
464.018024	7617.765715
464.390106	7779.019623
464.762130	8174.898914
465.134094	8644.164803
465.505999	9664.622890
465.877845	10889.172092
466.249631	11535.677387
466.621358	11145.582820
466.993026	10527.088696
467.364634	10267.421382
467.736184	9907.750179
468.107674	9577.355476
468.479105	9602.074774
468.850477	9372.316626
469.221790	9143.571749
469.593043	8815.657295
469.964238	8672.796036
470.335373	8684.839352
470.706449	8745.489474
471.077467	8727.905930
471.448425	10033.960506
471.819324	11109.843560
472.190164	11131.558330
472.560945	9880.255726
472.931667	9097.916540
473.302330	8957.273388
473.672934	8605.244574
474.043479	8960.272875
474.413965	8902.639884
474.784393	8790.522102
475.154761	8944.708312
475.525070	9030.130664
475.895321	8855.540383
476.265513	9039.061068
476.635645	9204.219351
477.005719	9205.285555
477.375734	9325.466663
477.745691	9555.116426
478.115588	9690.599956
478.485427	9932.482079
478.855207	10469.059974
479.224928	11285.313523
479.594591	11911.417269
479.964194	11718.295706
480.333739	11667.967347
480.703226	11571.726678
481.072653	11670.762666
481.442022	11912.937177
481.811333	12095.706730
482.180584	11897.188612
482.549777	11608.020466
482.918912	11437.500916
483.287988	11457.562188
483.657005	11469.502161
484.025964	11150.324026
484.394864	11278.646597
484.763706	11254.786816
485.132489	11015.556339
485.501213	10971.579834
485.869879	11055.973790
486.238487	10887.488346
486.607036	11006.275575
486.975527	10784.729466
487.343959	10975.680812
487.712333	11020.708398
488.080648	10954.142483
488.448905	10993.284522
488.817104	10931.820253
489.185244	11200.032323
489.553326	11350.233502
489.921350	11893.445555
490.289315	12959.347124
490.657222	13291.392805
491.025070	13207.039177
491.392861	13082.028644
491.760593	12694.772247
492.128267	12350.794156
492.495883	12019.991120
492.863440	11679.912361
493.230939	11343.531288
493.598380	11282.989551
493.965763	11147.266566
494.333088	11049.223685
494.700354	10964.229831
495.067563	11030.457990
495.434713	10854.342760
495.801805	10987.018367
496.168839	10912.726883
496.535815	10846.622233
496.902733	10847.844713
497.269593	10774.485842
497.636395	10878.915864
498.003139	10871.051664
498.369825	10727.784592
498.736453	10888.673017
499.103023	10820.927472
499.469535	10850.120793
499.835989	10837.971613
500.202385	10805.496500
500.568723	10651.214507
500.935003	10872.397652
501.301226	10684.594507
501.667390	10935.951479
502.033497	11034.997549
502.399546	10898.273895
502.765537	10804.450460
503.131470	10874.157015
503.497345	11049.836185
503.863163	10662.300004
504.228923	10963.244286
504.594625	11033.515450
504.960269	10781.306523
505.325856	11003.369350
505.691385	10790.317585
506.056856	10948.355238
506.422270	10976.457150
506.787625	10862.781651
507.152924	10982.990485
507.518164	10964.189502
507.883347	10884.458613
508.248472	10803.893413
508.613540	11036.010821
508.978550	10917.546226
509.343503	10901.096941
509.708398	11012.428303
510.073236	11124.725046
510.438016	11134.482200
510.802738	11075.846019
511.167403	11133.022786
511.532010	11036.023424
511.896561	11263.586150
512.261053	11339.203457
512.625488	11208.710669
512.989866	11187.091681
513.354186	11176.336379
513.718449	11078.719476
514.082655	11270.900864
514.446803	11166.032261
514.810894	11285.593307
515.174927	11151.901907
515.538904	11181.241422
515.902822	11332.513846
516.266684	11208.829137
516.630488	11155.347535
516.994235	11214.326515
517.357925	11269.912798
517.721558	11362.982580
518.085133	11379.817513
518.448651	11389.070551
518.812112	11264.911973
519.175516	11286.155395
519.538863	11403.941955
519.902152	11324.188381
520.265385	11486.311888
520.628560	11391.114739
520.991678	11369.193282
521.354739	11431.176789
521.717743	11366.783610
522.080690	11347.581855
522.443580	11483.405663
522.806413	11441.896802
523.169189	11466.036367
523.531908	11532.521625
523.894569	11347.024807
524.257174	11351.289624
524.619722	11468.143570
524.982213	11413.174828
525.344647	11473.303191
525.707025	11421.006261
526.069345	11509.574293
526.431608	11429.818198
526.793815	11546.314222
527.155964	11329.738691
527.518057	11386.207176
527.880093	11324.884060
528.242072	11396.780996
528.603995	11302.410596
528.965860	11222.790612
529.327669	11283.246650
529.689421	11227.922507
530.051117	11190.554954
530.412755	11301.165431
530.774337	11191.175016
531.135862	11168.673826
531.497331	11200.102899
531.858743	11050.262163
532.220098	11213.996319
532.581396	11083.311968
532.942638	11069.521891
533.303824	11029.260716
533.664953	11045.669672
534.026025	10954.777668
534.387040	11057.251723
534.747999	11058.305324
535.108902	11116.704571
535.469748	10872.322035
535.830537	10974.755761
536.191270	10959.029881
536.551947	10979.444034
536.912567	10982.829168
537.273131	10905.581048
537.633638	10883.019363
537.994089	10881.005423
538.354483	10825.789664
538.714821	10967.824174
539.075103	10978.622326
539.435328	10945.562439
539.795497	10766.818247
540.155609	10926.370766
540.515665	11020.292503
540.875665	10745.534495
541.235609	10815.072171
541.595496	10810.542695
541.955328	10967.960285
542.315102	10850.914775
542.674821	10805.882148
543.034483	10799.754625
543.394090	10803.031375
543.753640	10737.740871
544.113134	10958.830756
544.472571	10810.933384
544.831953	10951.606782
545.191278	10759.518656
545.550548	10786.549323
545.909761	10919.318192
546.268918	10899.025027
546.628019	10976.994033
546.987064	10847.322953
547.346053	10768.595253
547.704986	10865.481189
548.063863	10853.478202
548.422684	10848.532830
548.781449	10766.044430
549.140158	10866.539832
549.498811	10745.080791
549.857408	10604.011663
550.215949	10828.947947
550.574434	10680.957314
550.932864	10781.281317
551.291237	10839.420944
551.649555	10785.392378
552.007817	10798.753956
552.366022	10763.975036
552.724173	10753.239899
553.082267	10743.651624
553.440305	10879.460309
553.798288	10677.249546
554.156215	10836.255100
554.514086	10808.939608
554.871902	10652.666359
555.229661	10694.611280
555.587365	10667.688997
555.945014	10561.328213
556.302606	10688.516525
556.660143	10583.000133
557.017625	10732.787938
557.375050	10640.451643
557.732421	10768.620459
558.089735	10677.143682
558.446994	10682.346152
558.804197	10716.603313
559.161345	10722.960208
559.518437	10573.459750
559.875474	10660.054170
560.232455	10687.377224
560.589381	10637.525253
560.946251	10634.175407
561.303065	10737.791283
561.659825	10678.565287
562.016528	10607.038876
562.373177	10490.938582
562.729770	10601.518812
563.086307	10516.938333
563.442789	10610.124062
563.799216	10484.543878
564.155587	10537.221415
564.511904	10487.598818
564.868164	10480.619340
565.224370	10501.759419
565.580520	10425.196895
565.936615	10430.419530
566.292654	10299.508326
566.648638	10421.055587
567.004567	10384.255164
567.360441	10372.771415
567.716260	10280.331777
568.072023	10374.460202
568.427732	10324.865330
568.783385	10236.650179
569.138982	10303.263986
569.494525	10323.622686
569.850013	10195.043016
570.205445	10276.566035
570.560823	10167.420013
570.916145	10092.495864
571.271412	10161.027830
571.626625	10104.282082
571.981782	10085.395399
572.336884	10055.428260
572.691931	10061.671729
573.046923	10007.998564
573.401860	9962.245052
573.756743	9900.669878
574.111570	9941.256208
574.466342	9932.401421
574.821059	9960.304208
575.175722	9847.722639
575.530330	9852.904945
575.884882	9850.031488
576.239380	9772.241443
576.593823	9754.597404
576.948211	9771.545763
577.302544	9653.877671
577.656823	9665.684053
578.011047	9665.066512
578.365216	9648.569336
578.719330	9561.929545
579.073389	9571.956400
579.427394	9518.608390
579.781344	9504.301595
580.135239	9447.301269
580.489080	9464.683167
580.842866	9361.059729
581.196597	9363.834884
581.550273	9405.464733
581.903895	9377.415753
582.257463	9440.467985
582.610975	9319.623965
582.964434	9342.931740
583.317837	9262.457281
583.671186	9251.578471
584.024481	9240.228313
584.377721	9165.977158
584.730906	9135.079926
585.084037	9171.237602
585.437113	9105.052293
585.790135	9121.836815
586.143103	9022.894088
586.496016	8998.336107
586.848874	9057.844408
587.201679	9049.506339
587.554428	8927.044109
587.907124	8968.351324
588.259765	8946.530690
588.612352	8953.484961
588.964884	8828.229932
589.317362	8838.856685
589.669786	8833.813010
590.022155	8887.103047
590.374470	8900.444461
590.726731	8843.285338
591.078937	8692.847225
591.431090	8804.173546
591.783188	8682.490175
592.135232	8669.511724
592.487222	8672.743104
592.839157	8723.482317
593.191038	8657.498654
593.542866	8602.925643
593.894639	8505.402002
594.246358	8557.051143
594.598022	8569.013802
594.949633	8466.562432
595.301190	8442.863968
595.652692	8475.744894
596.004141	8584.001152
596.355535	8355.989763
596.706876	8342.043411
597.058162	8276.500850
597.409395	8351.583795
597.760573	8413.370697
598.111698	8323.519692
598.462768	8309.606107
598.813785	8277.287270
599.164748	8243.597238
599.515657	8232.615085
599.866511	8140.440107
600.217312	8268.835775
600.568060	8129.468036
600.918753	8229.678613
601.269392	8198.909930
601.619978	8112.512115
601.970510	8177.772372
602.320988	8167.687544
602.671412	8231.289261
603.021783	8162.041452
603.372100	8137.554047
603.722363	8139.885580
604.072572	8117.240717
604.422728	8130.594734
604.772830	8052.144298
605.122878	8062.539157
605.472872	8058.743168
605.822813	8084.644617
606.172701	8028.153447
606.522534	8109.812577
606.872314	8110.278884
607.222041	8073.264212
607.571714	8130.110783
607.921333	8087.586130
608.270899	8099.339580
608.620411	8186.107920
608.969870	8093.824558
609.319276	8087.661747
609.668627	8098.459899
610.017926	8137.982545
610.367171	8180.963422
610.716362	8162.099425
611.065500	8152.037282
611.414585	8174.228441
611.763616	8166.880959
612.112594	8147.021334
612.461518	8160.826533
612.810389	8225.585196
613.159207	8163.422728
613.507971	8111.211497
613.856682	8227.021925
614.205340	8186.070111
614.553945	8261.725228
614.902496	8165.108994
615.250994	8213.932569
615.599439	8196.051596
615.947830	8212.858803
616.296169	8186.773352
616.644454	8197.881535
616.992686	8194.362809
617.340864	8252.265503
617.688990	8159.351996
618.037063	8250.422961
618.385082	8194.057820
618.733048	8280.155686
619.080961	8215.306283
619.428821	8243.206549
619.776628	8243.093123
620.124382	8198.345321
620.472083	8175.455962
620.819731	8202.650466
621.167326	8096.088036
621.514868	8102.918799
621.862357	7999.330649
622.209793	8014.083586
622.557176	7945.269316
622.904506	7916.925428
623.251783	7850.893874
623.599007	7802.632388
623.946179	7806.118346
624.293297	7761.869618
624.640363	7680.021444
624.987376	7664.421594
625.334336	7609.470496
625.681243	7557.090387
626.028097	7549.246352
626.374899	7525.653752
626.721647	7521.648555
627.068343	7451.735313
627.414987	7420.674243
627.761577	7374.237655
628.108115	7415.459170
628.454600	7301.614793
628.801032	7362.547219
629.147412	7317.128943
629.493739	7304.657129
629.840014	7246.446925
630.186236	7301.796274
630.532405	7183.480393
630.878521	7236.810760
631.224585	7189.857453
631.570597	7109.597242
631.916556	7149.271123
632.262462	7150.105434
632.608316	7103.681448
632.954117	7081.470125
633.299866	7069.257929
633.645562	7058.210241
633.991206	6981.214178
634.336797	6926.820128
634.682336	6880.136522
635.027823	6852.488314
635.373257	6839.956006
635.718639	6773.858917
636.063968	6786.776874
636.409245	6679.785945
636.754470	6671.894019
637.099642	6638.612321
637.444762	6584.591316
637.789829	6590.544919
638.134845	6530.298089
638.479808	6515.280492
638.824719	6518.947932
639.169577	6454.920237
639.514383	6467.195446
639.859137	6397.604838
640.203839	6406.568009
640.548489	6391.661317
640.893086	6368.134252
641.237632	6340.677608
641.582125	6361.515217
641.926566	6329.536658
642.270955	6342.966292
642.615292	6344.811354
642.959576	6356.249732
643.303809	6344.861766
643.647990	6350.482652
643.992118	6338.537638
644.336195	6281.970851
644.680219	6314.014945
645.024192	6303.305014
645.368112	6400.354787
645.711981	6420.544608
646.055797	6497.452452
646.399562	6449.705163
646.743274	6578.143681
647.086935	6633.631661
647.430544	6628.938347
647.774101	6651.946173
648.117606	6654.441544
648.461059	6652.140257
648.804460	6611.163238
649.147810	6521.781060
649.491108	6488.567418
649.834354	6466.862730
650.177548	6379.139091
650.520690	6293.109280
650.863781	6269.501557
651.206820	6289.661131
651.549807	6213.012907
651.892742	6157.338404
652.235626	6157.850082
652.578458	6142.761908
652.921238	6060.512963
653.263967	6092.456234
653.606644	6034.994642
653.949269	6036.874992
654.291843	5980.409028
654.634365	6029.338467
654.976836	5980.910623
655.319255	5980.129244
655.661622	5953.955573
656.003938	5955.233506
656.346203	5916.151960
656.688416	5948.100273
657.030577	5898.485237
657.372687	5868.243355
657.714746	5857.475450
658.056753	5898.586060
658.398708	5841.895764
658.740612	5831.982335
659.082465	5874.701073
659.424266	5870.043047
659.766016	5866.763776
660.107715	5846.894068
660.449362	5858.874370
660.790958	5856.212641
661.132503	5843.839129
661.473996	5879.810282
661.815438	5865.107757
662.156829	5861.379824
662.498168	5853.840778
662.839456	5830.066697
663.180693	5866.751173
663.521879	5864.835535
663.863013	5855.779102
664.204097	5876.687288
664.545129	5911.433440
664.886110	5911.723307
665.227040	5943.389315
665.567918	5912.194655
665.908746	5935.825063
666.249522	5941.609787
666.590248	5925.452889
666.930922	5953.857271
667.271545	5968.491740
667.612118	5972.033151
667.952639	5946.890396
668.293109	5967.460824
668.633528	5924.953815
668.973896	5924.439617
669.314213	5923.207055
669.654480	5899.422891
669.994695	5896.201594
670.334859	5884.427979
670.674973	5875.553028
671.015035	5880.415221
671.355047	5877.579572
671.695008	5865.770669
672.034918	5839.281926
672.374777	5850.140571
672.714585	5832.995607
673.054342	5837.267985
673.394049	5835.715310
673.733705	5866.219332
674.073310	5852.154512
674.412864	5811.835364
674.752368	5803.802285
675.091820	5802.791534
675.431223	5744.732565
675.770574	5739.078911
676.109875	5690.595614
676.449125	5696.617272
676.788324	5662.907076
677.127473	5606.708293
677.466571	5601.067242
677.805619	5589.659111
678.144616	5573.620680
678.483562	5553.352721
678.822458	5522.485736
679.161303	5513.930898
679.500098	5506.101986
679.838842	5485.471064
680.177535	5496.816181
680.516179	5511.985012
680.854771	5524.799626
681.193314	5598.597077
681.531805	5711.092945
681.870247	5859.842272
682.208638	5964.534434
682.546978	5975.481300
682.885268	5955.276355
683.223508	5864.570874
683.561697	5813.478780
683.899836	5784.282938
684.237925	5740.508078
684.575963	5707.491041
684.913951	5661.644267
685.251889	5724.583073
685.589776	5694.222724
685.927614	5667.834804
686.265401	5738.950362
686.603137	5721.001333
686.940824	5793.762827
687.278460	5822.197456
687.616046	5831.621893
687.953582	5894.621192
688.291068	5878.476897
688.628504	5944.639521
688.965889	5905.346247
689.303224	5852.555284
689.640510	5799.308097
689.977745	5727.330502
690.314930	5628.937261
690.652065	5568.824022
690.989150	5480.873532
691.326185	5401.709772
691.663170	5350.428635
692.000105	5271.310246
692.336990	5194.155386
692.673825	5167.117157
693.010610	5102.207260
693.347345	5030.612793
693.684030	5018.428325
694.020665	4973.572138
694.357251	4883.960587
694.693786	4893.904263
695.030272	4860.481413
695.366707	4827.121577
695.703093	4792.866937
696.039429	4814.443075
696.375716	4799.478410
696.711952	4772.808186
697.048139	4759.519704
697.384276	4736.902567
697.720363	4756.411833
698.056400	4761.866361
698.392388	4713.272159
698.728326	4692.273232
699.064214	4667.939583
699.400053	4665.177031
699.735842	4630.617400
700.071581	4603.506075
700.407270	4579.311057
700.742910	4560.835228
701.078501	4504.462525
701.414042	4506.564687
701.749533	4472.395746
702.084974	4407.392588
702.420366	4465.345692
702.755709	4410.853340
703.091002	4350.331767
703.426246	4399.447729
703.761440	4353.618599
704.096584	4320.223476
704.431679	4340.120910
704.766725	4326.540042
705.101721	4310.330211
705.436668	4341.227443
705.771565	4289.621151
706.106413	4316.084688
706.441212	4347.087785
706.775961	4358.367366
707.110661	4337.592771
707.445311	4364.915825
707.779913	4384.447776
708.114465	4400.960075
708.448967	4426.622069
708.783421	4488.010720
709.117825	4526.560423
709.452180	4530.915980
709.786485	4575.515068
710.120742	4665.618132
710.454949	4649.909896
710.789107	4718.167119
711.123216	4791.604128
711.457275	4783.568529
711.791286	4854.008571
712.125247	4868.940469
712.459159	4775.805152
712.793023	4847.873487
713.126837	4807.524092
713.460602	4805.432013
713.794318	4723.760279
714.127985	4732.388214
714.461602	4644.977127
714.795171	4610.535964
715.128691	4551.272159
715.462162	4490.110360
715.795584	4441.329635
716.128957	4425.631482
716.462281	4371.623080
716.795556	4348.995861
717.128782	4309.657217
717.461960	4239.643152
717.795088	4248.445007
718.128167	4209.683575
718.461198	4146.553205
718.794180	4143.972134
719.127113	4126.933034
719.459997	4101.139971
719.792833	4061.743353
720.125619	4048.848082
720.458357	4013.847351
720.791046	4020.350439
721.123686	3992.961850
721.456278	3951.294193
721.788821	3968.129127
722.121315	3945.333029
722.453761	3914.639964
722.786158	3927.872992
723.118506	3950.454841
723.450805	3901.106986
723.783056	3926.252262
724.115259	3941.163995
724.447412	3942.522586
724.779518	3937.239456
725.111574	3944.229016
725.443582	3972.325887
725.775542	3959.256696
726.107453	4008.135723
726.439315	4011.387268
726.771129	4028.060884
727.102895	4059.976429
727.434612	4107.222123
727.766281	4120.830718
728.097901	4121.072693
728.429473	4129.017552
728.760996	4133.088283
729.092471	4129.118375
729.423897	4109.921661
729.755276	4119.731746
730.086606	4116.709574
730.417887	4156.149042
730.749120	4220.527097
731.080305	4284.993372
731.411442	4309.727793
731.742530	4281.172178
732.073570	4284.459010
732.404562	4339.762988
732.735506	4330.179755
733.066401	4296.083911
733.397249	4232.421699
733.728048	4152.199298
734.058798	4069.746185
734.389501	4000.178262
734.720156	3933.675361
735.050762	3892.015265
735.381320	3885.260119
735.711831	3833.149712
736.042293	3804.354641
736.372707	3826.150070
736.703073	3797.546563
737.033391	3791.756798
737.363661	3806.875218
737.693883	3829.754495
738.024056	3844.487267
738.354182	3836.555011
738.684260	3901.051533
739.014290	3921.871499
739.344272	3915.630550
739.674207	3958.001448
740.004093	3962.656954
740.333931	3960.728713
740.663722	3957.048670
740.993464	3960.832056
741.323159	3931.111934
741.652806	3901.351482
741.982405	3873.788973
742.311956	3843.526927
742.641460	3835.284640
742.970915	3811.021567
743.300323	3768.670833
743.629683	3731.958631
743.958996	3720.479923
744.288260	3700.358158
744.617477	3667.794824
744.946647	3650.889315
745.275768	3624.569451
745.604842	3623.684728
745.933869	3578.941967
746.262847	3569.295719
746.591778	3611.291052
746.920662	3578.377358
747.249498	3543.742111
747.578286	3589.412444
747.907027	3609.022532
748.235720	3608.326853
748.564365	3632.337869
748.892963	3633.076398
749.221514	3616.990076
749.550017	3594.614915
749.878473	3589.661981
750.206881	3562.154925
750.535242	3556.211405
750.863555	3558.472362
751.191821	3549.594890
751.520039	3533.662323
751.848210	3511.597193
752.176334	3543.056514
752.504411	3552.138152
752.832440	3513.739683
753.160421	3491.256137
753.488356	3502.203003
753.816243	3516.252699
754.144082	3472.089670
754.471875	3457.510653
754.799620	3473.995227
755.127318	3471.651090
755.454969	3470.468939
755.782572	3477.342553
756.110129	3450.425312
756.437638	3442.046914
756.765100	3452.993780
757.092515	3464.588433
757.419882	3472.097232
757.747203	3445.724436
758.074477	3443.758386
758.401703	3462.302270
758.728882	3482.625682
759.056014	3491.530880
759.383099	3496.393073
759.710138	3492.299656
760.037129	3510.810773
760.364073	3540.364537
760.690970	3524.852907
761.017820	3500.604957
761.344623	3518.256557
761.671379	3565.318249
761.998088	3616.909417
762.324751	3743.182760
762.651366	3990.589987
762.977935	4468.791321
763.304456	4913.655504
763.630931	5010.649824
763.957359	4645.675327
764.283740	4300.888130
764.610074	4112.291003
764.936362	3912.565529
765.262602	3752.473606
765.588796	3641.936226
765.914943	3551.573543
766.241044	3459.973257
766.567097	3432.897220
766.893104	3384.756721
767.219064	3352.657174
767.544978	3325.873524
767.870845	3269.967127
768.196665	3252.287801
768.522438	3259.668050
768.848165	3254.952051
769.173846	3219.381669
769.499479	3201.717466
769.825066	3183.266843
770.150607	3167.727486
770.476101	3180.900021
770.801548	3178.823066
771.126949	3134.286992
771.452303	3115.816205
771.777611	3122.218470
772.102872	3128.121661
772.428087	3102.903289
772.753256	3090.126485
773.078378	3087.323603
773.403453	3054.089796
773.728482	3040.660162
774.053465	3060.857545
774.378401	3050.119888
774.703291	3018.496730
775.028135	3017.758201
775.352932	3012.659073
775.677683	3002.440655
776.002388	2994.589058
776.327046	3000.875376
776.651658	2990.198213
776.976224	2975.077272
777.300743	2978.553147
777.625216	2967.150057
777.949643	2961.529171
778.274024	2967.578555
778.598359	2953.917028
778.922647	2957.632359
779.246889	2957.019858
779.571086	2941.808177
779.895236	2935.186621
780.219339	2949.750515
780.543397	2962.807103
780.867409	2963.530509
781.191374	2958.355764
781.515294	2953.685135
781.839167	2954.632872
782.162995	2945.130297
782.486776	2956.026751
782.810511	2950.042902
783.134201	2936.290634
783.457844	2943.764144
783.781441	2936.893052
784.104993	2913.396234
784.428498	2914.553178
784.751958	2930.573965
785.075372	2924.950558
785.398739	2907.964390
785.722061	2925.099272
786.045337	2940.348763
786.368568	2920.731113
786.691752	2916.877150
787.014891	2961.589664
787.337983	2991.334993
787.661030	3019.073942
787.984031	3088.107503
788.306987	3135.078453
788.629897	3125.527987
788.952760	3112.131121
789.275579	3092.508430
789.598351	3034.252856
789.921078	2988.312821
790.243759	2983.634630
790.566395	2966.081333
790.888984	2939.393464
791.211529	2925.459715
791.534027	2911.803229
791.856480	2903.898700
792.178888	2891.555435
792.501249	2880.495143
792.823566	2879.204608
793.145836	2876.560523
793.468062	2872.194883
793.790241	2868.870242
794.112375	2872.764534
794.434464	2885.130484
794.756507	2890.993346
795.078505	2897.645148
795.400457	2911.412540
795.722364	2946.352777
796.044226	2972.407981
796.366042	2978.331336
796.687812	2966.250211
797.009538	2982.505412
797.331218	2970.772126
797.652852	2958.350723
797.974442	2939.204421
798.295986	2933.860798
798.617484	2929.258224
798.938938	2913.403795
799.260346	2898.665982
799.581709	2893.050137
799.903026	2887.893036
800.224299	2881.137890
800.545526	2870.385109
800.866708	2855.047398
801.187845	2846.200173
801.508936	2846.069103
801.829983	2853.966071
802.150984	2840.380161
802.471940	2828.901454
802.792851	2826.789211
803.113717	2827.721824
803.434538	2833.917402
803.755314	2828.268789
804.076045	2820.969198
804.396731	2822.695794
804.717372	2823.424240
805.037967	2816.706903
805.358518	2820.782676
805.679024	2834.509738
805.999485	2829.261897
806.319901	2833.327587
806.640272	2825.322235
806.960598	2833.236846
807.280879	2839.404698
807.601115	2848.352746
807.921306	2833.035200
808.241453	2830.524706
808.561554	2835.480160
808.881611	2836.684996
809.201623	2832.006805
809.521590	2832.001764
809.841513	2827.018583
810.161390	2832.745334
810.481223	2826.494303
810.801011	2817.442911
811.120755	2812.381593
811.440453	2816.104485
811.760107	2816.689259
812.079716	2814.624906
812.399281	2802.934471
812.718801	2798.067237
813.038276	2794.112451
813.357707	2800.338276
813.677093	2803.347845
813.996434	2797.742082
814.315731	2794.258645
814.634983	2791.551545
814.954191	2790.802934
815.273354	2805.596200
815.592473	2813.011737
815.911547	2817.364773
816.230577	2823.464570
816.549562	2830.108810
816.868502	2833.236846
817.187399	2843.787981
817.506250	2856.995804
817.825058	2852.443642
818.143821	2865.308667
818.462539	2880.414485
818.781213	2908.667631
819.099843	2943.030657
819.418429	3001.021570
819.736970	3063.090777
820.055466	3137.583907
820.373919	3242.898652
820.692327	3386.170765
821.010691	3558.812640
821.329011	4006.073892
821.647286	4911.772633
821.965517	6310.155942
822.283704	7068.393372
822.601847	7053.159005
822.919945	6411.742754
823.237999	5899.569085
823.556010	5307.253672
823.873976	4747.872118
824.191897	4331.558510
824.509775	4031.831667
824.827609	3757.000562
825.145398	3634.162767
825.463144	3621.890078
825.780845	3710.621947
826.098502	3818.923576
826.416116	4105.281279
826.733685	4425.450001
827.051210	4490.080113
827.368692	4373.626939
827.686129	4108.220271
828.003522	3777.306330
828.320872	3516.149355
828.638177	3318.437822
828.955439	3178.051769
829.272656	3095.903647
829.589830	3025.130888
829.906960	2976.889566
830.224046	2931.761157
830.541088	2894.955693
830.858086	2879.292828
831.175041	2859.644931
831.491952	2861.641228
831.808819	2874.559184
832.125642	2897.657751
832.442421	2944.089299
832.759157	3028.563914
833.075849	3207.391285
833.392497	3489.537104
833.709101	3698.944114
834.025662	3648.043584
834.342179	3486.003255
834.658653	3309.371307
834.975083	3155.656443
835.291469	3058.001732
835.607811	2970.666262
835.924110	2915.604259
836.240366	2857.099148
836.556578	2816.999290
836.872746	2795.193779
837.188871	2772.506066
837.504952	2755.572830
837.820990	2748.134608
838.136984	2731.904613
838.452935	2726.535784
838.768842	2723.921946
839.084706	2743.161509
839.400526	2823.313335
839.716303	2956.094807
840.032037	3038.111859
840.347727	3021.037471
840.663373	2959.255610
840.978977	2885.400186
841.294537	2813.548620
841.610054	2764.893924
841.925527	2741.437435
842.240957	2717.945658
842.556344	2698.116279
842.871687	2681.961902
843.186987	2674.405212
843.502244	2668.607885
843.817458	2661.731751
844.132629	2650.837818
844.447756	2642.129225
844.762840	2634.315436
845.077881	2638.030767
845.392879	2633.932308
845.707833	2630.847122
846.022745	2622.201543
846.337613	2627.285547
846.652438	2626.796555
846.967221	2625.677419
847.281960	2624.621297
847.596656	2623.774383
847.911309	2620.427057
848.225919	2618.360184
848.540485	2618.143415
848.855009	2615.559823
849.169490	2614.193671
849.483928	2615.504371
849.798323	2617.150307
850.112675	2611.907507
850.426984	2615.524535
850.741251	2610.097733
851.055474	2612.895573
851.369654	2614.481016
851.683792	2617.026799
851.997887	2615.731223
852.311938	2613.147631
852.625947	2614.357508
852.939914	2617.387242
853.253837	2616.452107
853.567718	2612.237703
853.881555	2614.773403
854.195350	2616.729371
854.509103	2615.549741
854.822812	2611.279884
855.136479	2609.543206
855.450103	2614.150821
855.763685	2612.494802
856.077224	2612.716612
856.390720	2613.477827
856.704173	2615.060749
857.017584	2618.100565
857.330953	2618.581995
857.644278	2619.549897
857.957561	2617.931686
858.270802	2617.336830
858.584000	2618.458487
858.897155	2621.266409
859.210268	2620.429578
859.523339	2615.418671
859.836367	2607.625047
860.149352	2608.673607
860.462295	2614.329782
860.775195	2611.068155
861.088054	2610.415326
861.400869	2607.622527
861.713642	2607.541868
862.026373	2608.653442
862.339062	2608.870212
862.651708	2617.659464
862.964312	2615.292642
863.276873	2615.025461
863.589392	2616.389093
863.901869	2624.036523
864.214303	2626.201699
864.526696	2631.257976
864.839045	2631.600775
865.151353	2632.193110
865.463619	2635.048924
865.775842	2635.568163
866.088023	2631.787297
866.400162	2635.308543
866.712258	2634.128913
867.024313	2634.033132
867.336325	2630.786628
867.648296	2631.225209
867.960224	2635.038842
868.272110	2635.684109
868.583954	2624.391925
868.895755	2631.696557
869.207515	2635.628657
869.519233	2642.169554
869.830909	2638.716363
870.142542	2634.295272
870.454134	2638.156795
870.765684	2642.242651
871.077191	2640.894142
871.388657	2646.734319
871.700081	2645.292549
872.011463	2645.584936
872.322803	2647.412354
872.634101	2647.528300
872.945357	2654.638848
873.256571	2661.378871
873.567744	2658.112203
873.878874	2658.565907
874.189963	2659.223777
874.501010	2661.719148
874.812015	2668.063441
875.122979	2668.996054
875.433900	2658.838129
875.744780	2657.237563
876.055618	2665.399191
876.366415	2668.718791
876.677169	2667.463543
876.987882	2662.770229
877.298554	2663.649910
877.609183	2672.585356
877.919771	2680.900739
878.230317	2687.320648
878.540822	2700.687268
878.851285	2712.889381
879.161707	2736.673544
879.472087	2775.480347
879.782425	2826.998418
880.092722	2942.448403
880.402977	3136.190028
880.713191	3399.960841
881.023363	3698.802962
881.333494	3901.109507
881.643583	4072.687698
881.953631	4073.330446
882.263637	3893.522570
882.573602	3668.188034
882.883526	3535.726676
883.193408	3413.163623
883.503248	3309.847696
883.813048	3195.322762
884.122806	3076.825400
884.432522	2992.035713
884.742197	2921.376380
885.051831	2882.972870
885.361424	2847.457941
885.670975	2808.570481
885.980485	2780.645009
886.289954	2758.017790
886.599382	2745.188053
886.908768	2733.656414
887.218113	2714.701675
887.527417	2703.676672
887.836680	2694.103521
888.145901	2686.057839
888.455082	2677.891170
888.764221	2668.938081
889.073319	2659.838798
889.382376	2660.058088
889.691392	2661.073881
890.000366	2659.841319
890.309300	2659.425423
890.618193	2660.519354
890.927044	2661.953562
891.235855	2663.859118
891.544625	2660.347955
891.853353	2664.869870
892.162041	2673.034018
892.470687	2689.102696
892.779293	2703.679192
893.087858	2712.725543
893.396381	2736.897876
893.704864	2779.909000
894.013306	2853.739219
894.321707	2947.227417
894.630068	2998.619460
894.938387	3019.615866
895.246665	3014.035308
895.554903	2971.341777
895.863100	2921.046185
896.171256	2865.495190
896.479371	2803.214255
896.787446	2761.949890
897.095480	2744.255440
897.403473	2732.764130
897.711425	2717.711244
898.019336	2699.147195
898.327207	2685.820905
898.635038	2687.613035
898.942827	2682.947447
899.250576	2672.310613
899.558284	2659.180927
899.865952	2658.076915
900.173579	2654.127171
900.481165	2652.768580
900.788711	2644.611993
901.096216	2636.969604
901.403681	2632.495580
901.711105	2632.745117
902.018489	2630.083387
902.325832	2634.975827
902.633135	2637.430869
902.940397	2654.205309
903.247619	2689.445495
903.554800	2763.391660
903.861941	2893.466032
904.169041	3024.697349
904.476101	3091.364088
904.783121	3083.789754
905.090100	3025.050230
905.397039	2946.773713
905.703938	2870.798484
906.010796	2805.013947
906.317614	2752.162490
906.624391	2712.299566
906.931129	2686.612366
907.237826	2664.537153
907.544483	2643.984369
907.851099	2631.530199
908.157675	2618.569392
908.464211	2614.972529
908.770707	2601.789912
909.077163	2597.797318
909.383578	2593.918150
909.689954	2592.413365
909.996289	2589.887747
910.302584	2590.843046
910.608839	2588.624938
910.915054	2589.464290
911.221229	2592.584765
911.527363	2593.840012
911.833458	2589.822212
912.139513	2591.415217
912.445527	2594.008891
912.751502	2598.563573
913.057436	2604.696137
913.363331	2611.857096
913.669186	2623.527367
913.975000	2636.553708
914.280775	2655.430309
914.586510	2673.754903
914.892205	2712.319730
915.197859	2782.076697
915.503475	2868.454347
915.809050	2935.910027
916.114585	2953.317131
916.420081	2968.186014
916.725536	2978.918631
917.030952	2946.821604
917.336328	2901.040366
917.641665	2850.782582
917.946961	2798.699901
918.252218	2763.366454
918.557435	2735.758575
918.862612	2709.751262
919.167750	2693.506144
919.472848	2678.748166
919.777906	2660.657986
920.082925	2647.702220
920.387904	2638.479429
920.692843	2629.836371
920.997743	2629.664972
921.302603	2621.019393
921.607423	2612.661160
921.912204	2607.791405
922.216946	2601.946187
922.521647	2602.102463
922.826310	2597.986361
923.130932	2593.933273
923.435516	2587.596543
923.740059	2584.939855
924.044564	2582.278126
924.349028	2580.914493
924.653454	2576.233782
924.957840	2570.832186
925.262186	2569.183728
925.566493	2571.253122
925.870761	2564.969324
926.174989	2567.157185
926.479178	2563.434292
926.783328	2565.705332
927.087438	2562.010167
927.391509	2563.300702
927.695541	2558.511606
927.999533	2557.873900
928.303486	2557.337017
928.607400	2560.291133
928.911275	2555.963302
929.215110	2555.277706
929.518906	2555.854918
929.822663	2556.306101
930.126381	2554.556821
930.430060	2557.775597
930.733699	2555.895247
931.037299	2557.677295
931.340861	2557.926832
931.644383	2559.159394
931.947866	2557.175700
932.251309	2555.063457
932.554714	2554.771070
932.858080	2558.062943
933.161407	2554.745864
933.464694	2556.132181
933.767943	2555.789383
934.071153	2554.551779
934.374323	2553.490617
934.677455	2553.745195
934.980548	2554.130843
935.283602	2553.011707
935.586617	2555.678477
935.889593	2554.239228
936.192530	2553.253682
936.495428	2553.480534
936.798287	2553.752757
937.101108	2557.185782
937.403890	2559.053530
937.706632	2563.623336
938.009336	2564.717266
938.312002	2570.552402
938.614628	2571.313616
938.917216	2577.007599
939.219765	2576.329564
939.522275	2578.923238
939.824747	2577.667990
940.127179	2571.583318
940.429573	2566.809345
940.731929	2571.681620
941.034246	2567.046279
941.336524	2568.238512
941.638763	2568.591393
941.940964	2568.921588
942.243126	2566.247256
942.545250	2563.489745
942.847335	2561.133006
943.149381	2561.233829
943.451389	2558.317521
943.753359	2559.973540
944.055290	2559.527398
944.357182	2558.365412
944.659036	2554.735782
944.960851	2558.158725
945.262628	2555.010524
945.564367	2557.941955
945.866067	2556.192675
946.167729	2559.703839
946.469352	2556.333827
946.770937	2557.873900
947.072484	2558.289795
947.373992	2555.005483
947.675462	2553.939279
947.976893	2555.756615
948.278286	2555.260062
948.579641	2554.251831
948.880958	2554.140925
949.182236	2554.962633
949.483476	2552.578168
949.784678	2553.699824
950.085841	2551.635472
950.386967	2553.324258
950.688054	2554.224104
950.989103	2553.951882
951.290114	2555.537325
951.591087	2558.453632
951.892021	2560.792728
952.192917	2561.521175
952.493776	2559.771894
952.794596	2562.040413
953.095378	2564.087122
953.396122	2561.533777
953.696828	2558.695608
953.997496	2559.920608
954.298126	2557.566389
954.598718	2555.565051
954.899272	2553.578837
955.199788	2554.463559
955.500266	2553.886347
955.800706	2547.436191
956.101108	2544.426622
956.401472	2544.046015
956.701798	2543.151210
957.002087	2543.872095
957.302337	2545.424770
957.602550	2546.737991
957.902724	2541.880839
958.202861	2543.005017
958.502960	2545.187836
958.803022	2543.151210
959.103045	2541.197763
959.403031	2540.466796
959.702979	2540.973432
960.002889	2542.453010
960.302762	2539.070396
960.602596	2541.575849
960.902393	2540.116435
961.202153	2539.138452
961.501875	2537.197607
961.801559	2540.880170
962.101205	2537.369007
962.400814	2538.233564
962.700385	2540.091230
962.999918	2537.545447
963.299414	2536.542257
963.598873	2536.834644
963.898293	2537.119469
964.197677	2538.541075
964.497022	2536.406146
964.796331	2537.444624
965.095601	2535.960004
965.394835	2539.501415
965.694030	2534.760209
965.993189	2537.860519
966.292309	2537.560570
966.591393	2535.629808
966.890439	2537.182484
967.189447	2536.086033
967.488419	2536.539737
967.787353	2536.454037
968.086249	2536.217103
968.385108	2536.116280
968.683930	2538.140303
968.982714	2537.285828
969.281462	2534.104859
969.580172	2539.970242
969.878844	2537.270704
970.177480	2537.006043
970.476078	2538.359593
970.774639	2539.065355
971.073162	2536.466640
971.371649	2534.987061
971.670098	2537.883204
971.968510	2538.306661
972.266885	2534.780374
972.565223	2538.155427
972.863524	2537.621064
973.161788	2538.954449
973.460014	2538.934285
973.758204	2538.445293
974.056356	2536.937988
974.354471	2541.283463
974.652550	2541.159954
974.950591	2537.227854
975.248595	2538.631816
975.546563	2539.980324
975.844493	2536.718698
976.142386	2538.321785
976.440243	2536.179294
976.738062	2537.588297
977.035845	2537.739531
977.333590	2537.147196
977.631299	2534.964376
977.928971	2536.532175
978.226606	2538.762886
978.524204	2538.382278
978.821765	2534.510672
979.119290	2530.795342
979.416777	2535.357586
979.714228	2536.048224
980.011642	2537.371527
980.309020	2540.174409
980.606360	2536.133924
980.903664	2538.830941
981.200931	2535.057638
981.498162	2538.793133
981.795356	2541.099460
982.092513	2544.209852
982.389633	2546.624565
982.686717	2547.534493
982.983764	2551.181768
983.280775	2552.247972
983.577749	2555.726368
983.874686	2551.363250
984.171587	2548.925852
984.468451	2545.760007
984.765279	2545.749925
985.062070	2542.803370
985.358824	2537.711805
985.655543	2539.574511
985.952224	2536.789274
986.248869	2537.011085
986.545478	2533.590662
986.842050	2530.268541
987.138586	2530.336597
987.435086	2531.387677
987.731549	2531.848943
988.027975	2534.296423
988.324366	2532.751310
988.620719	2533.741896
988.917037	2532.829448
989.213318	2534.150230
989.509563	2531.859025
989.805772	2533.494880
990.101944	2530.175280
990.398080	2533.149561
990.694180	2537.147196
990.990244	2532.680733
991.286271	2532.411032
991.582262	2534.921526
991.878217	2532.799201
992.174136	2532.040507
992.470019	2530.810465
992.765865	2535.261804
993.061676	2534.843388
993.357450	2531.488501
993.653188	2534.006557
993.948890	2535.634850
994.244556	2535.647453
994.540186	2534.770292
994.835780	2534.936650
995.131337	2537.830272
995.426859	2535.619726
995.722345	2535.758358
996.017795	2537.719367
996.313208	2539.148534
996.608586	2538.243647
996.903928	2539.511497
997.199234	2537.633667
997.494504	2536.194418
997.789738	2535.274407
998.084936	2534.165353
998.380099	2534.563604
998.675225	2535.274407
998.970316	2533.429345
999.265371	2535.203831
999.560390	2531.944725
999.855373	2535.627288
1000.150320	2533.683923
1000.445232	2532.055630
1000.740108	2533.300795
1001.034948	2532.653007
1001.329752	2532.587472
1001.624521	2532.509334
1001.919254	2529.683768
1002.213951	2530.563449
1002.508613	2527.639580
1002.803239	2529.293078
1003.097829	2530.029087
1003.392384	2533.051258
1003.686903	2528.786442
1003.981386	2535.657535
1004.275834	2529.663603
1004.570246	2532.221988
1004.864623	2531.332225
1005.158964	2532.373223
1005.453270	2532.831968
1005.747540	2533.598223
1006.041775	2528.978006
1006.335974	2532.630322
1006.630138	2528.932636
1006.924266	2529.938346
1007.218359	2531.493542
1007.512416	2529.855167
1007.806438	2532.698377
1008.100425	2531.833820
1008.394376	2531.158305
1008.688292	2528.393232
1008.982172	2534.505631
1009.276017	2532.113604
1009.569827	2530.361803
1009.863602	2532.158974
1010.157341	2530.087060
1010.451045	2529.265352
1010.744714	2529.025897
1011.038347	2531.901875
1011.331945	2532.428676
1011.625508	2531.211237
1011.919036	2528.975485
1012.212528	2530.661751
1012.505986	2529.300640
1012.799408	2531.511186
1013.092795	2530.253418
1013.386147	2532.446320
1013.679464	2530.031607
1013.972745	2530.482790
1014.265992	2528.932636
1014.559204	2533.111752
1014.852380	2531.140661
1015.145521	2532.655528
1015.438628	2529.207378
1015.731699	2532.658048
1016.024736	2529.270393
1016.317737	2531.740558
1016.610703	2530.472708
1016.903635	2526.538088
1017.196531	2525.807120
1017.489393	2526.036493
1017.782219	2524.940042
1018.075011	2530.661751
1018.367768	2531.906916
1018.660490	2529.124199
1018.953177	2529.124199
1019.245829	2529.124199
