Dividing Wavelength (nm)	Counts (n)	Blue Motor Position (mm): 15.600000	Red Motor Position (mm): 0.000000	
326.493990	2138.633902
326.888308	2138.633902
327.282561	2138.633902
327.676750	2104.674169
328.070874	2103.839858
328.464933	2103.676021
328.858929	2112.808071
329.252859	2121.370471
329.646726	2132.927316
330.040528	2144.625313
330.434265	2161.314053
330.827938	2178.552279
331.221547	2197.128931
331.615091	2216.476879
332.008571	2233.344580
332.401986	2255.631521
332.795338	2274.520724
333.188625	2296.220371
333.581847	2310.809470
333.975006	2332.239415
334.368100	2349.228104
334.761129	2367.167050
335.154095	2381.604914
335.546996	2403.062586
335.939833	2422.554207
336.332606	2437.833944
336.725315	2450.835080
337.117960	2460.604836
337.510540	2467.985086
337.903056	2481.389514
338.295508	2485.235914
338.687896	2494.708242
339.080220	2500.712256
339.472480	2509.388082
339.864676	2512.556447
340.256807	2517.660616
340.648875	2520.219001
341.040879	2523.737727
341.432818	2521.766635
341.824694	2529.401463
342.216506	2527.137985
342.608253	2526.568334
342.999937	2526.611184
343.391557	2525.197141
343.783113	2523.704959
344.174605	2524.957686
344.566033	2524.362830
344.957397	2520.642458
345.348697	2518.986439
345.739934	2519.800585
346.131106	2516.806140
346.522215	2514.593073
346.913260	2510.660973
347.304241	2513.020233
347.695159	2511.603669
348.086012	2510.252640
348.476802	2506.333143
348.867528	2509.052845
349.258191	2501.907010
349.648789	2501.486073
350.039324	2498.942811
350.429796	2500.929026
350.820203	2496.029024
351.210548	2498.383243
351.600828	2495.434168
351.991045	2496.883500
352.381198	2496.102121
352.771288	2493.778149
353.161314	2491.118941
353.551276	2494.017604
353.941175	2495.444251
354.331010	2495.769405
354.720782	2493.818478
355.110490	2494.975423
355.500135	2493.778149
355.889717	2491.076091
356.279235	2494.917450
356.668689	2495.819817
357.058080	2496.205465
357.447408	2493.213540
357.836672	2491.154229
358.225873	2493.881493
358.615010	2492.454846
359.004084	2496.742348
359.393095	2499.189828
359.782043	2498.194200
360.170927	2497.811072
360.559748	2499.033552
360.948505	2497.304436
361.337199	2499.139416
361.725830	2497.727893
362.114398	2501.891886
362.502903	2497.455671
362.891344	2501.614623
363.279722	2502.622854
363.668037	2503.028667
364.056289	2503.426918
364.444478	2503.482370
364.832603	2506.867505
365.220665	2503.179901
365.608665	2502.648059
365.996601	2505.176198
366.384474	2504.835920
366.772284	2505.115704
367.160031	2506.383554
367.547715	2506.287773
367.935336	2504.485560
368.322893	2504.709891
368.710388	2505.529079
369.097820	2508.926817
369.485189	2509.090654
369.872495	2505.783657
370.259738	2508.236178
370.646918	2506.053359
371.034035	2509.738442
371.421090	2509.446055
371.808081	2507.646363
372.195010	2509.488905
372.581875	2507.099398
372.968678	2509.897239
373.355418	2508.873884
373.742096	2508.972187
374.128710	2509.519152
374.515262	2508.778103
374.901751	2509.604852
375.288177	2510.759276
375.674540	2509.342712
376.060841	2511.049142
376.447079	2510.570233
376.833254	2508.765500
377.219367	2508.914214
377.605417	2511.901097
377.991404	2505.816425
378.377329	2511.192815
378.763191	2507.031343
379.148991	2511.838083
379.534727	2513.133659
379.920402	2511.659122
380.306013	2514.013341
380.691563	2515.497961
381.077049	2512.422857
381.462474	2511.636437
381.847835	2514.280522
382.233134	2515.618948
382.618371	2514.220028
383.003545	2516.443177
383.388657	2514.005779
383.773706	2514.290604
384.158693	2515.898732
384.543618	2513.375635
384.928480	2515.019051
385.313280	2516.274298
385.698017	2515.492919
386.082692	2516.382683
386.467305	2516.972498
386.851856	2516.574247
387.236344	2517.043074
387.620770	2515.986953
388.005133	2515.934020
388.389435	2518.394103
388.773674	2519.409896
389.157851	2516.342354
389.541965	2517.227076
389.926018	2516.491068
390.310008	2518.749505
390.693936	2521.685977
391.077802	2518.472241
391.461606	2521.126409
391.845348	2517.617766
392.229027	2519.407375
392.612645	2518.303363
392.996200	2519.220853
393.379694	2520.987777
393.763125	2518.331089
394.146494	2521.958199
394.529801	2520.090452
394.913047	2524.083046
395.296230	2522.600946
395.679351	2521.343178
396.062410	2521.980884
396.445408	2520.027437
396.828343	2526.021369
397.211217	2517.169103
397.594028	2519.457787
397.976778	2519.409896
398.359466	2519.457787
398.742092	2517.842097
399.124656	2521.476769
399.507158	2522.134640
399.889598	2526.109589
400.271977	2524.191430
400.654294	2525.660927
401.036549	2524.791328
401.418742	2523.667150
401.800874	2522.631193
402.182944	2523.462984
402.564952	2523.783097
402.946898	2524.715710
403.328783	2524.130937
403.710606	2525.686132
404.092367	2526.139836
404.474067	2526.545649
404.855705	2523.387366
405.237282	2526.288550
405.618797	2524.289733
406.000250	2524.337624
406.381642	2524.330062
406.762972	2524.327542
407.144240	2527.843746
407.525447	2529.746782
407.906593	2522.185051
408.287677	2527.004394
408.668700	2526.739734
409.049661	2529.285516
409.430560	2526.618746
409.811399	2528.698222
410.192176	2526.359127
410.572891	2531.922040
410.953545	2528.693181
411.334138	2528.211751
411.714669	2528.972965
412.095139	2526.896009
412.475547	2527.006915
412.855894	2525.008097
413.236180	2530.583613
413.616405	2530.399611
413.996568	2529.643438
414.376670	2533.101670
414.756711	2529.441792
415.136691	2530.555887
415.516609	2531.483459
415.896466	2529.779549
416.276262	2532.161495
416.655997	2529.507327
417.035670	2529.270393
417.415283	2527.022038
417.794834	2526.391894
418.174324	2527.223684
418.553753	2529.950949
418.933121	2530.029087
419.312428	2531.415404
419.691674	2531.251566
420.070859	2533.104190
420.449983	2530.913809
420.829045	2529.398942
421.208047	2532.209386
421.586988	2531.276772
421.965867	2533.225178
422.344686	2530.303829
422.723444	2533.731814
423.102141	2529.913140
423.480777	2533.643594
423.859352	2529.963552
424.237866	2531.939684
424.616319	2533.111752
424.994712	2533.472195
425.373044	2532.277441
425.751314	2533.913296
426.129524	2535.367668
426.507673	2534.540919
426.885762	2532.791639
427.263789	2535.622247
427.641756	2532.138809
428.019662	2534.747607
428.397508	2533.260466
428.775292	2533.464633
429.153016	2534.024201
429.530679	2536.721218
429.908282	2532.741227
430.285824	2532.206865
430.663305	2536.254912
431.040726	2533.920857
431.418086	2537.192566
431.795385	2533.489839
432.172624	2536.176774
432.549802	2534.777853
432.926920	2536.630478
433.303977	2536.622916
433.680974	2535.841537
434.057910	2534.747607
434.434786	2536.456558
434.811601	2538.614172
435.188355	2534.790456
435.565050	2536.822041
435.941683	2539.277083
436.318257	2531.743079
436.694770	2536.796836
437.071222	2535.655014
437.447614	2532.950435
437.823946	2532.345497
438.200218	2537.553009
438.576429	2537.694161
438.952580	2536.469161
439.328670	2536.113759
439.704700	2539.249357
440.080670	2538.898997
440.456580	2536.847247
440.832429	2537.333718
441.208218	2536.980838
441.583947	2536.680889
441.959616	2538.770447
442.335224	2538.354552
442.710773	2537.116949
443.086261	2536.799356
443.461689	2537.719367
443.837057	2538.349511
444.212365	2537.633667
444.587612	2539.554347
444.962800	2537.908410
445.337927	2540.945705
445.712995	2537.966383
446.088002	2541.321271
446.462949	2542.074924
446.837837	2540.388658
447.212664	2540.212217
447.587431	2538.727598
447.962139	2538.218441
448.336786	2543.539379
448.711374	2540.890252
449.085901	2540.640715
449.460369	2539.272042
449.834776	2536.078471
450.209124	2542.077444
450.583412	2539.876981
450.957640	2540.043339
451.331808	2539.521579
451.705917	2539.173740
452.079965	2543.123484
452.453954	2541.777496
452.827883	2542.964687
453.201752	2543.269677
453.575562	2539.405633
453.949311	2540.751621
454.323001	2540.277752
454.696632	2541.084337
455.070202	2541.883360
455.443713	2542.400078
455.817164	2537.701723
456.190556	2539.458565
456.563888	2540.565098
456.937160	2539.335057
457.310373	2539.967721
457.683526	2542.725233
458.056619	2545.265974
458.429653	2541.008720
458.802628	2542.334543
459.175542	2541.016281
459.548398	2542.339584
459.921194	2540.678524
460.293930	2544.774462
460.666607	2542.740356
461.039224	2544.527445
461.411782	2543.675490
461.784280	2543.441076
462.156719	2542.183308
462.529099	2544.681200
462.901419	2542.233720
463.273680	2543.637681
463.645882	2545.318906
464.018024	2546.594318
464.390106	2544.678680
464.762130	2546.730429
465.134094	2542.097609
465.505999	2542.778165
465.877845	2543.950233
466.249631	2545.175233
466.621358	2545.029040
466.993026	2545.810419
467.364634	2550.652447
467.736184	2544.744215
468.107674	2542.896632
468.479105	2545.356715
468.850477	2542.251364
469.221790	2544.938299
469.593043	2545.964174
469.964238	2546.659853
470.335373	2545.318906
470.706449	2546.158258
471.077467	2545.039122
471.448425	2546.148176
471.819324	2548.638506
472.190164	2545.112219
472.560945	2546.299411
472.931667	2544.109029
473.302330	2545.056766
473.672934	2546.150697
474.043479	2542.755479
474.413965	2546.112888
474.784393	2544.625748
475.154761	2542.510983
475.525070	2541.490150
475.895321	2546.798485
476.265513	2541.906045
476.635645	2547.685728
477.005719	2548.043650
477.375734	2547.945347
477.745691	2546.581715
478.115588	2548.421736
478.485427	2546.551468
478.855207	2550.387786
479.224928	2548.532642
479.594591	2550.740667
479.964194	2549.301418
480.333739	2548.537683
480.703226	2550.642365
481.072653	2549.253527
481.442022	2550.642365
481.811333	2549.777807
482.180584	2546.904349
482.549777	2550.377704
482.918912	2549.137580
483.287988	2550.801161
483.657005	2549.734957
484.025964	2551.075904
484.394864	2550.420554
484.763706	2551.065822
485.132489	2549.866027
485.501213	2547.416026
485.869879	2549.729916
486.238487	2548.807385
486.607036	2548.522559
486.975527	2550.818805
487.343959	2549.382076
487.712333	2547.960471
488.080648	2550.629762
488.448905	2550.833928
488.817104	2549.293856
489.185244	2550.594474
489.553326	2549.404761
489.921350	2552.550441
490.289315	2552.048847
490.657222	2553.200750
491.025070	2550.571788
491.392861	2552.457180
491.760593	2551.829556
492.128267	2554.319886
492.495883	2551.390976
492.863440	2552.588250
493.230939	2549.780327
493.598380	2553.369629
493.965763	2546.473330
494.333088	2549.750080
494.700354	2546.465769
495.067563	2550.970040
495.434713	2546.836293
495.801805	2552.903322
496.168839	2553.351985
496.535815	2551.640513
496.902733	2551.204453
497.269593	2551.585060
497.636395	2554.546738
498.003139	2553.682180
498.369825	2555.035730
498.736453	2554.811399
499.103023	2556.563200
499.469535	2554.156049
499.835989	2553.757798
500.202385	2552.333672
500.568723	2554.274516
500.935003	2556.568241
501.301226	2553.931717
501.667390	2556.432130
502.033497	2554.720658
502.399546	2555.814588
502.765537	2553.961964
503.131470	2553.203271
503.497345	2555.612942
503.863163	2556.540515
504.228923	2553.256203
504.594625	2555.880123
504.960269	2558.637635
505.325856	2554.944989
505.691385	2555.091183
506.056856	2555.862479
506.422270	2555.983467
506.787625	2555.968344
507.152924	2557.218550
507.518164	2556.437171
507.883347	2555.401214
508.248472	2555.471790
508.613540	2555.716286
508.978550	2556.351471
509.343503	2558.123437
509.708398	2557.090000
510.073236	2559.028324
510.438016	2557.929352
510.802738	2561.289282
511.167403	2556.827860
511.532010	2561.163253
511.896561	2559.779456
512.261053	2560.641493
512.625488	2558.194013
512.989866	2558.042778
513.354186	2559.812223
513.718449	2556.129661
514.082655	2559.824826
514.446803	2563.204920
514.810894	2564.107287
515.174927	2563.184755
515.538904	2563.406566
515.902822	2562.894889
516.266684	2562.955383
516.630488	2563.502348
516.994235	2565.879252
517.357925	2566.108625
517.721558	2564.976886
518.085133	2567.842782
518.448651	2566.196845
518.812112	2567.036197
519.175516	2566.015363
519.538863	2566.070816
519.902152	2568.273800
520.265385	2567.482339
520.628560	2568.568708
520.991678	2570.799418
521.354739	2568.273800
521.717743	2568.929150
522.080690	2571.399316
522.443580	2570.726322
522.806413	2573.219172
523.169189	2572.851168
523.531908	2571.270766
523.894569	2572.039542
524.257174	2574.827300
524.619722	2575.439800
524.982213	2576.901735
525.344647	2577.645305
525.707025	2576.274111
526.069345	2578.416602
526.431608	2578.129256
526.793815	2579.208063
527.155964	2578.265367
527.518057	2582.694021
527.880093	2583.306521
528.242072	2580.213773
528.603995	2582.872982
528.965860	2583.556058
529.327669	2583.304000
529.689421	2584.818867
530.051117	2587.634352
530.412755	2587.646954
530.774337	2590.573344
531.135862	2590.926225
531.497331	2590.119640
531.858743	2589.010587
532.220098	2592.509147
532.581396	2592.418407
532.942638	2596.731114
533.303824	2600.272524
533.664953	2604.045828
534.026025	2601.948708
534.387040	2606.452979
534.747999	2608.247630
535.108902	2610.642178
535.469748	2612.338526
535.830537	2616.071500
536.191270	2615.559823
536.551947	2620.222891
536.912567	2619.849845
537.273131	2627.585496
537.633638	2626.673047
537.994089	2629.854015
538.354483	2633.970117
538.714821	2635.028759
539.075103	2639.633853
539.435328	2644.425470
539.795497	2644.801036
540.155609	2654.354023
540.515665	2655.019455
540.875665	2656.902326
541.235609	2663.125630
541.595496	2667.201403
541.955328	2671.987979
542.315102	2676.656087
542.674821	2681.251099
543.034483	2684.437108
543.394090	2690.758715
543.753640	2692.782738
544.113134	2704.011909
544.472571	2706.373689
544.831953	2712.712940
545.191278	2715.838456
545.550548	2724.146277
545.909761	2732.726321
546.268918	2736.996178
546.628019	2748.202663
546.987064	2753.019486
547.346053	2755.963520
547.704986	2767.787546
548.063863	2773.516817
548.422684	2782.674073
548.781449	2787.014507
549.140158	2800.708801
549.498811	2804.809780
549.857408	2808.242806
550.215949	2824.770228
550.574434	2827.467246
550.932864	2845.078517
551.291237	2850.341481
551.649555	2865.792618
552.007817	2874.324771
552.366022	2885.170813
552.724173	2893.861763
553.082267	2904.223854
553.440305	2926.140271
553.798288	2926.374684
554.156215	2949.362346
554.514086	2961.435909
554.871902	2963.893472
555.229661	2982.596153
555.587365	2996.320694
555.945014	3000.666168
556.302606	3026.660878
556.660143	3033.721014
557.017625	3060.303018
557.375050	3068.474729
557.732421	3092.505909
558.089735	3106.001078
558.446994	3122.684777
558.804197	3138.718167
559.161345	3158.829850
559.518437	3158.300529
559.875474	3187.453521
560.232455	3211.613251
560.589381	3223.278481
560.946251	3249.991555
561.303065	3263.325407
561.659825	3284.238634
562.016528	3292.170890
562.373177	3296.352527
562.729770	3337.735359
563.086307	3343.724249
563.442789	3377.578118
563.799216	3391.620252
564.155587	3412.326792
564.511904	3433.272786
564.868164	3455.010241
565.224370	3472.011533
565.580520	3500.995647
565.936615	3508.446472
566.292654	3529.515974
566.648638	3559.977147
567.004567	3586.168461
567.360441	3604.435082
567.716260	3622.565592
568.072023	3653.296466
568.427732	3676.258922
568.783385	3679.807894
569.138982	3726.975450
569.494525	3753.675921
569.850013	3756.869492
570.205445	3810.535096
570.560823	3809.292451
570.916145	3828.093434
571.271412	3871.401987
571.626625	3889.351015
571.981782	3907.325249
572.336884	3940.427986
572.691931	3956.037919
573.046923	3989.516222
573.401860	4008.055065
573.756743	4024.116181
574.111570	4057.589443
574.466342	4076.539140
574.821059	4116.422229
575.175722	4121.211325
575.530330	4156.368332
575.884882	4182.272301
576.239380	4196.974826
576.593823	4213.421590
576.948211	4257.332561
577.302544	4244.843102
577.656823	4293.810350
578.011047	4316.762724
578.365216	4348.083412
578.719330	4357.893498
579.073389	4398.557965
579.427394	4406.643976
579.781344	4429.228345
580.135239	4446.965645
580.489080	4477.096622
580.842866	4485.543075
581.196597	4517.786295
581.550273	4551.776275
581.903895	4584.327005
582.257463	4630.531701
582.610975	4629.989777
582.964434	4661.330630
583.317837	4677.059030
583.671186	4690.181154
584.024481	4728.647678
584.377721	4729.986104
584.730906	4752.293210
585.084037	4799.175941
585.437113	4803.163494
585.790135	4848.798539
586.143103	4841.476263
586.496016	4859.531155
586.848874	4910.000667
587.201679	4930.326599
587.554428	4925.643368
587.907124	4970.192044
588.259765	4990.906145
588.612352	5030.098596
588.964884	5007.400801
589.317362	5045.368251
589.669786	5077.024176
590.022155	5119.715188
590.374470	5162.736395
590.726731	5156.581146
591.078937	5137.588599
591.431090	5216.767482
591.783188	5186.538203
592.135232	5222.443821
592.487222	5232.556375
592.839157	5294.197084
593.191038	5291.860509
593.542866	5291.792454
593.894639	5277.916678
594.246358	5328.164379
594.598022	5367.001428
594.949633	5350.423593
595.301190	5364.168299
595.652692	5405.987191
596.004141	5494.998845
596.355535	5408.908540
596.706876	5428.233803
597.058162	5421.183749
597.409395	5491.336446
597.760573	5548.709818
598.111698	5524.172002
598.462768	5552.888935
598.813785	5552.924223
599.164748	5575.899282
599.515657	5586.518472
599.866511	5576.990691
600.217312	5657.732332
600.568060	5610.854642
600.918753	5696.085430
601.269392	5702.676739
601.619978	5683.706877
601.970510	5747.674078
602.320988	5763.309217
602.671412	5825.703578
603.021783	5811.059026
603.372100	5818.335932
603.722363	5856.394123
604.072572	5856.237847
604.422728	5887.825717
604.772830	5870.007759
605.122878	5898.749897
605.472872	5922.566829
605.822813	5960.688034
606.172701	5949.726045
606.522534	6026.371748
606.872314	6046.712804
607.222041	6058.337705
607.571714	6110.669923
607.921333	6106.919304
608.270899	6141.766280
608.620411	6219.203444
608.969870	6184.026273
609.319276	6196.523293
609.668627	6238.480817
610.017926	6283.357168
610.367171	6342.252969
610.716362	6341.562331
611.065500	6359.261822
611.414585	6405.027937
611.763616	6409.449029
612.112594	6418.591161
612.461518	6450.627694
612.810389	6508.895871
613.159207	6495.015054
613.507971	6474.812630
613.856682	6583.867911
614.205340	6567.133801
614.553945	6647.096583
614.902496	6592.936947
615.250994	6655.517830
615.599439	6652.583879
615.947830	6684.900196
616.296169	6686.639394
616.644454	6715.066460
616.992686	6726.774540
617.340864	6790.429190
617.688990	6737.925572
618.037063	6818.699980
618.385082	6797.476723
618.733048	6885.560804
619.080961	6848.596543
619.428821	6885.139868
619.776628	6907.772128
620.124382	6886.430403
620.472083	6896.616054
620.819731	6933.320695
621.167326	6868.826694
621.514868	6899.912969
621.862357	6826.226423
622.209793	6859.127514
622.557176	6826.201217
622.904506	6821.570918
623.251783	6786.318129
623.599007	6765.997238
623.946179	6785.798890
624.293297	6775.560306
624.640363	6722.850002
624.987376	6730.900724
625.334336	6697.966866
625.681243	6672.456107
626.028097	6674.094482
626.374899	6669.038205
626.721647	6678.225708
627.068343	6629.649149
627.414987	6623.168746
627.761577	6597.393327
628.108115	6636.066538
628.454600	6566.733029
628.801032	6616.398477
629.147412	6592.916782
629.493739	6597.252174
629.840014	6547.254010
630.186236	6603.140242
630.532405	6520.724938
630.878521	6572.560603
631.224585	6542.593464
631.570597	6484.542057
631.916556	6528.324478
632.262462	6533.773965
632.608316	6511.250090
632.954117	6496.988665
633.299866	6488.784188
633.645562	6502.274315
633.991206	6437.934069
634.336797	6399.157513
634.682336	6369.611311
635.027823	6347.684812
635.373257	6353.404001
635.718639	6302.006917
636.063968	6319.141799
636.409245	6235.075517
636.754470	6241.082052
637.099642	6207.944027
637.444762	6171.083110
637.789829	6187.078692
638.134845	6142.658564
638.479808	6133.501308
638.824719	6144.473380
639.169577	6084.413073
639.514383	6113.634121
639.859137	6051.065840
640.203839	6066.464045
640.548489	6058.952725
640.893086	6044.950921
641.237632	6025.532396
641.582125	6048.918309
641.926566	6025.877715
642.270955	6044.716507
642.615292	6045.666764
642.959576	6072.014355
643.303809	6056.767385
643.647990	6066.711061
643.992118	6070.403706
644.336195	6016.675089
644.680219	6051.380912
645.024192	6043.259613
645.368112	6135.782431
645.711981	6162.722357
646.055797	6228.527058
646.399562	6197.042532
646.743274	6320.533157
647.086935	6364.547472
647.430544	6366.997472
647.774101	6395.840434
648.117606	6402.038533
648.461059	6400.274129
648.804460	6367.534355
649.147810	6279.979595
649.491108	6263.752121
649.834354	6238.909315
650.177548	6163.602038
650.520690	6089.577735
650.863781	6072.001752
651.206820	6093.381286
651.549807	6021.761613
651.892742	5967.269260
652.235626	5985.175439
652.578458	5969.656247
652.921238	5885.491663
653.263967	5920.973824
653.606644	5866.788982
653.949269	5870.227049
654.291843	5818.981199
654.634365	5871.688983
654.976836	5826.754659
655.319255	5833.091389
655.661622	5811.149767
656.003938	5811.835364
656.346203	5774.556031
656.688416	5808.677081
657.030577	5765.010606
657.372687	5736.424743
657.714746	5731.834773
658.056753	5768.448673
658.398708	5714.934305
658.740612	5708.731165
659.082465	5757.353094
659.424266	5748.490745
659.766016	5750.512248
660.107715	5728.903342
660.449362	5745.317339
660.790958	5741.786011
661.132503	5725.573660
661.473996	5768.935145
661.815438	5757.491725
662.156829	5755.066930
662.498168	5749.292289
662.839456	5724.421756
663.180693	5758.716726
663.521879	5765.691162
663.863013	5756.007106
664.204097	5772.446308
664.545129	5816.536240
664.886110	5813.282175
665.227040	5847.985478
665.567918	5812.374767
665.908746	5840.625393
666.249522	5849.492783
666.590248	5839.748233
666.930922	5860.737077
667.271545	5876.790631
667.612118	5878.093769
667.952639	5857.510738
668.293109	5877.052771
668.633528	5832.587274
668.973896	5841.371484
669.314213	5833.973591
669.654480	5814.766795
669.994695	5810.426361
670.334859	5803.144415
670.674973	5794.080420
671.015035	5806.572399
671.355047	5799.335823
671.695008	5789.127486
672.034918	5764.377942
672.374777	5770.878509
672.714585	5755.845789
673.054342	5763.815853
673.394049	5753.993165
673.733705	5788.257887
674.073310	5775.413027
674.412864	5737.889199
674.752368	5727.809412
675.091820	5730.387962
675.431223	5665.974618
675.770574	5669.276574
676.109875	5628.060100
676.449125	5634.031347
676.788324	5600.719402
677.127473	5543.066247
677.466571	5537.483169
677.805619	5530.274319
678.144616	5516.461557
678.483562	5494.819884
678.822458	5462.173371
679.161303	5455.483760
679.500098	5449.885559
679.838842	5436.113127
680.177535	5439.551193
680.516179	5452.418739
680.854771	5462.858968
681.193314	5543.557759
681.531805	5656.358617
681.870247	5800.117202
682.208638	5900.151338
682.546978	5911.783801
682.885268	5890.963835
683.223508	5808.432585
683.561697	5755.674389
683.899836	5723.647939
684.237925	5682.320560
684.575963	5649.263193
684.913951	5606.957830
685.251889	5669.392521
685.589776	5633.083610
685.927614	5612.427482
686.265401	5680.472977
686.603137	5661.553527
686.940824	5740.883644
687.278460	5762.611017
687.616046	5769.003200
687.953582	5834.003838
688.291068	5821.647970
688.628504	5885.015274
688.965889	5840.635476
689.303224	5794.781140
689.640510	5745.783646
689.977745	5666.040153
690.314930	5573.146812
690.652065	5515.460888
690.989150	5422.829686
691.326185	5352.137586
691.663170	5302.842663
692.000105	5223.031115
692.336990	5147.519672
692.673825	5125.005879
693.010610	5055.301844
693.347345	4984.728211
693.684030	4973.874607
694.020665	4935.312301
694.357251	4847.122355
694.693786	4855.984704
695.030272	4821.054549
695.366707	4792.327533
695.703093	4757.835959
696.039429	4775.958907
696.375716	4758.140949
696.711952	4729.729006
697.048139	4724.549220
697.384276	4702.811765
697.720363	4715.838106
698.056400	4721.945464
698.392388	4671.405376
698.728326	4655.293848
699.064214	4631.814674
699.400053	4628.613542
699.735842	4592.080300
700.071581	4568.454932
700.407270	4542.412332
700.742910	4526.832646
701.078501	4475.160819
701.414042	4469.325683
701.749533	4438.521712
702.084974	4376.455026
702.420366	4431.476700
702.755709	4376.071899
703.091002	4319.036284
703.426246	4371.474366
703.761440	4322.181964
704.096584	4286.263743
704.431679	4308.366682
704.766725	4293.558293
705.101721	4283.274339
705.436668	4308.777536
705.771565	4262.618211
706.106413	4287.697951
706.441212	4320.425122
706.775961	4328.730423
707.110661	4307.456754
707.445311	4333.978264
707.779913	4359.597408
708.114465	4372.898492
708.448967	4396.105444
708.783421	4455.144917
709.117825	4491.557172
709.452180	4498.866845
709.786485	4544.529616
710.120742	4628.621103
710.454949	4612.454123
710.789107	4681.026418
711.123216	4748.519907
711.457275	4741.351386
711.791286	4817.838292
712.125247	4826.178882
712.459159	4734.717227
712.793023	4811.960307
713.126837	4771.177372
713.460602	4764.366774
713.794318	4681.046583
714.127985	4691.229714
714.461602	4609.769709
714.795171	4576.765274
715.128691	4512.382178
715.462162	4456.296821
715.795584	4409.290582
716.128957	4392.768200
716.462281	4337.575127
716.795556	4316.893794
717.128782	4277.953401
717.461960	4207.084860
717.795088	4218.054411
718.128167	4179.310623
718.461198	4120.175368
718.794180	4118.582363
719.127113	4098.170731
719.459997	4078.444696
719.792833	4034.909292
720.125619	4023.249103
720.458357	3989.773321
720.791046	3993.463445
721.123686	3969.369250
721.456278	3926.030451
721.788821	3946.154737
722.121315	3913.941764
722.453761	3890.205491
722.786158	3905.245773
723.118506	3930.499434
723.450805	3876.054972
723.783056	3899.713107
724.115259	3916.419491
724.447412	3921.959719
724.779518	3917.158020
725.111574	3917.931837
725.443582	3950.487609
725.775542	3933.229218
726.107453	3983.938185
726.439315	3987.721571
726.771129	3993.360102
727.102895	4032.474414
727.434612	4080.561981
727.766281	4096.156790
728.097901	4088.796706
728.429473	4093.512705
728.760996	4105.961834
729.092471	4099.569651
729.423897	4082.633895
729.755276	4089.890636
730.086606	4088.718568
730.417887	4128.858755
730.749120	4190.993497
731.080305	4253.425667
731.411442	4282.460192
731.742530	4249.571705
732.073570	4255.215276
732.404562	4309.460612
732.735506	4296.151966
733.066401	4260.687449
733.397249	4199.475238
733.728048	4121.642343
734.058798	4039.874828
734.389501	3970.412769
734.720156	3909.089653
735.050762	3866.330586
735.381320	3861.778424
735.711831	3808.082574
736.042293	3778.773306
736.372707	3801.655103
736.703073	3774.856329
737.033391	3764.930297
737.363661	3783.544758
737.693883	3807.283551
738.024056	3813.201866
738.354182	3808.014519
738.684260	3875.545816
739.014290	3895.097931
739.344272	3888.645254
739.674207	3928.243517
740.004093	3934.958334
740.333931	3931.215277
740.663722	3929.350051
740.993464	3928.198147
741.323159	3905.442378
741.652806	3874.461967
741.982405	3849.034388
742.311956	3816.952484
742.641460	3810.071309
742.970915	3783.862351
743.300323	3745.746186
743.629683	3709.338973
743.958996	3701.149619
744.288260	3677.466278
744.617477	3644.348418
744.946647	3627.899133
745.275768	3608.026904
745.604842	3604.641770
745.933869	3557.496899
746.262847	3547.512894
746.591778	3585.679469
746.920662	3554.409192
747.249498	3526.403062
747.578286	3568.080801
747.907027	3586.077721
748.235720	3588.928493
748.564365	3609.932461
748.892963	3611.316257
749.221514	3594.844287
749.550017	3572.799321
749.878473	3568.012746
750.206881	3538.521996
750.535242	3536.636604
750.863555	3537.302037
751.191821	3533.296840
751.520039	3512.713809
751.848210	3491.588853
752.176334	3526.642517
752.504411	3535.126779
752.832440	3491.959378
753.160421	3476.437666
753.488356	3484.536279
753.816243	3496.516581
754.144082	3454.518729
754.471875	3438.412242
754.799620	3458.528967
755.127318	3449.364149
755.454969	3452.817339
755.782572	3456.053760
756.110129	3429.015531
756.437638	3421.428595
756.765100	3436.564659
757.092515	3444.408695
757.419882	3453.581074
757.747203	3425.547218
758.074477	3430.172476
758.401703	3444.995989
758.728882	3462.957620
759.056014	3472.084629
759.383099	3473.360041
759.710138	3470.804176
760.037129	3489.569871
760.364073	3516.950898
760.690970	3503.422962
761.017820	3480.745332
761.344623	3500.758712
761.671379	3543.308571
761.998088	3590.760952
762.324751	3718.897001
762.651366	3964.663333
762.977935	4431.708593
763.304456	4869.379049
763.630931	4954.972801
763.957359	4596.382925
764.283740	4260.337089
764.610074	4074.396650
764.936362	3879.624109
765.262602	3723.991087
765.588796	3612.531175
765.914943	3530.410779
766.241044	3441.510031
766.567097	3414.552461
766.893104	3368.385574
767.219064	3334.685461
767.544978	3306.538178
767.870845	3251.088006
768.196665	3237.703743
768.522438	3246.452665
768.848165	3239.047210
769.173846	3208.762479
769.499479	3185.966381
769.825066	3170.558094
770.150607	3157.433450
770.476101	3169.020542
770.801548	3164.276817
771.126949	3122.888943
771.452303	3104.029987
771.777611	3110.954012
772.102872	3119.332409
772.428087	3091.979109
772.753256	3079.615679
773.078378	3071.980851
773.403453	3039.256201
773.728482	3026.267668
774.053465	3050.434960
774.378401	3039.062117
774.703291	3006.445851
775.028135	3009.120183
775.352932	3001.215654
775.677683	2991.455980
776.002388	2988.025475
776.327046	2987.433140
776.651658	2978.598518
776.976224	2964.954635
777.300743	2966.376240
777.625216	2957.758388
777.949643	2951.998869
778.274024	2954.900053
778.598359	2945.289093
778.922647	2948.366718
779.246889	2948.971656
779.571086	2936.923299
779.895236	2927.859304
780.219339	2938.286931
780.543397	2952.681946
780.867409	2954.224539
781.191374	2947.093827
781.515294	2942.902107
781.839167	2943.635595
782.162995	2937.755089
782.486776	2943.310441
782.810511	2941.112498
783.134201	2931.090684
783.457844	2937.939091
783.781441	2927.783687
784.104993	2905.915161
784.428498	2907.682086
784.751958	2921.177255
785.075372	2915.899167
785.398739	2898.550036
785.722061	2914.162489
786.045337	2927.798810
786.368568	2912.415729
786.691752	2904.876684
787.014891	2953.067594
787.337983	2984.295021
787.661030	3008.016171
787.984031	3077.775658
788.306987	3119.929786
788.629897	3110.487705
788.952760	3094.953389
789.275579	3082.300093
789.598351	3021.874303
789.921078	2977.701192
790.243759	2969.975624
790.566395	2952.283694
790.888984	2929.389294
791.211529	2916.413364
791.534027	2903.442475
791.856480	2893.503841
792.178888	2880.396841
792.501249	2870.037269
792.823566	2869.180273
793.145836	2868.025849
793.468062	2862.460415
793.790241	2858.737523
794.112375	2863.700539
794.434464	2877.341901
794.756507	2879.882643
795.078505	2886.468910
795.400457	2902.840058
795.722364	2940.343722
796.044226	2964.619398
796.366042	2964.856332
796.687812	2952.381997
797.009538	2972.279431
797.331218	2961.261989
797.652852	2943.073506
797.974442	2927.279571
798.295986	2925.240425
798.617484	2923.791093
798.938938	2903.671848
799.260346	2892.818244
799.581709	2881.934392
799.903026	2879.118908
800.224299	2874.591952
800.545526	2865.346476
800.866708	2847.770493
801.187845	2840.584328
801.508936	2840.085254
801.829983	2848.783765
802.150984	2833.065447
802.471940	2821.165803
802.792851	2821.203612
803.113717	2818.546924
803.434538	2828.173007
803.755314	2817.238745
804.076045	2812.401757
804.396731	2812.147179
804.717372	2814.337561
805.037967	2808.172229
805.358518	2814.211532
805.679024	2825.738130
805.999485	2823.136895
806.319901	2826.491782
806.640272	2816.648930
806.960598	2822.771411
807.280879	2835.459995
807.601115	2837.995696
807.921306	2824.923984
808.241453	2823.242759
808.561554	2829.655107
808.881611	2830.890189
809.201623	2825.594457
809.521590	2825.556648
809.841513	2822.965495
810.161390	2824.901298
810.481223	2818.655309
810.801011	2805.787764
811.120755	2803.809111
811.440453	2806.798515
811.760107	2805.873463
812.079716	2806.339770
812.399281	2798.185704
812.718801	2786.369239
813.038276	2783.042077
813.357707	2789.638427
813.677093	2796.575055
813.996434	2791.450722
814.315731	2787.773200
814.634983	2783.026954
814.954191	2786.477624
815.273354	2797.474901
815.592473	2806.191056
815.911547	2809.155254
816.230577	2815.582726
816.549562	2825.541525
816.868502	2824.694611
817.187399	2834.688699
817.506250	2851.437932
817.825058	2842.376458
818.143821	2855.743078
818.462539	2870.281765
818.781213	2897.060375
819.099843	2931.930036
819.418429	2988.872389
819.736970	3050.906308
820.055466	3117.391565
820.373919	3220.831001
820.692327	3358.499871
821.010691	3524.558000
821.329011	3956.317703
821.647286	4839.802600
821.965517	6188.769999
822.283704	6898.977835
822.601847	6867.558843
822.919945	6252.565801
823.237999	5758.641108
823.556010	5191.412998
823.873976	4655.130011
824.191897	4257.098147
824.509775	3970.453098
824.827609	3710.019529
825.145398	3589.188112
825.463144	3579.733428
825.780845	3669.680216
826.098502	3772.723921
826.416116	4051.381262
826.733685	4357.966595
827.051210	4411.455758
827.368692	4302.161022
827.686129	4041.878687
828.003522	3723.721385
828.320872	3475.363900
828.638177	3284.876340
828.955439	3153.955054
829.272656	3071.905234
829.589830	3006.395440
829.906960	2958.653192
830.224046	2914.475041
830.541088	2883.683673
830.858086	2867.131044
831.175041	2850.117150
831.491952	2848.577077
831.808819	2862.427648
832.125642	2885.034702
832.442421	2927.846701
832.759157	3008.767303
833.075849	3185.411854
833.392497	3458.556693
833.709101	3655.116322
834.025662	3603.741924
834.342179	3447.657718
834.658653	3275.502314
834.975083	3130.617032
835.291469	3032.685057
835.607811	2952.858386
835.924110	2901.108421
836.240366	2849.648323
836.556578	2808.434369
836.872746	2784.191461
837.188871	2762.441402
837.504952	2746.909607
837.820990	2742.019688
838.136984	2726.187944
838.452935	2719.016903
838.768842	2717.222252
839.084706	2736.824779
839.400526	2815.229845
839.716303	2942.213990
840.032037	3015.386338
840.347727	3000.779594
840.663373	2945.896553
840.978977	2870.967362
841.294537	2800.960859
841.610054	2757.738006
841.925527	2734.490725
842.240957	2717.055894
842.556344	2692.238294
842.871687	2678.380162
843.186987	2665.986485
843.502244	2663.584375
843.817458	2658.636483
844.132629	2647.891263
844.447756	2637.972793
844.762840	2631.071454
845.077881	2635.900879
845.392879	2633.781074
845.707833	2630.287554
846.022745	2622.226749
846.337613	2624.573406
846.652438	2624.717079
846.967221	2622.173817
847.281960	2623.522326
847.596656	2622.420834
847.911309	2620.401852
848.225919	2617.112499
848.540485	2612.217538
848.855009	2616.376490
849.169490	2612.623351
849.483928	2612.497322
849.798323	2612.101592
850.112675	2611.174019
850.426984	2611.151334
850.741251	2611.950357
851.055474	2610.952209
851.369654	2616.179885
851.683792	2613.848352
851.997887	2610.236365
852.311938	2612.469596
852.625947	2612.888012
852.939914	2614.622169
853.253837	2616.593260
853.567718	2612.366252
853.881555	2611.627723
854.195350	2615.035543
854.509103	2612.091509
854.822812	2612.247785
855.136479	2610.594287
855.450103	2614.181068
855.763685	2615.650564
856.077224	2611.078237
856.390720	2610.327106
856.704173	2610.334667
857.017584	2615.312807
857.330953	2618.768518
857.644278	2618.279526
857.957561	2617.457818
858.270802	2615.085955
858.584000	2615.111161
858.897155	2617.951851
859.210268	2617.180554
859.523339	2613.734926
859.836367	2610.001951
860.149352	2609.951540
860.462295	2612.494802
860.775195	2609.144955
861.088054	2608.045983
861.400869	2605.190170
861.713642	2604.582711
862.026373	2607.506580
862.339062	2606.924327
862.651708	2615.385903
862.964312	2614.760800
863.276873	2613.014041
863.589392	2613.654267
863.901869	2620.028806
864.214303	2625.692542
864.526696	2627.746813
864.839045	2627.961062
865.151353	2632.417442
865.463619	2631.862915
865.775842	2631.174797
866.088023	2631.257976
866.400162	2630.973151
866.712258	2629.455764
867.024313	2627.676237
867.336325	2627.666154
867.648296	2628.064405
867.960224	2634.743934
868.272110	2632.611526
868.583954	2624.011318
868.895755	2626.990640
869.207515	2630.907616
869.519233	2636.669655
869.830909	2633.922226
870.142542	2632.772843
870.454134	2630.905096
870.765684	2638.025725
871.077191	2638.625623
871.388657	2643.623927
871.700081	2638.562608
872.011463	2638.358442
872.322803	2639.858185
872.634101	2643.593680
872.945357	2652.201450
873.256571	2655.465597
873.567744	2652.004845
873.878874	2652.072901
874.189963	2654.696821
874.501010	2659.687563
874.812015	2660.847029
875.122979	2661.104128
875.433900	2656.572130
875.744780	2654.379228
876.055618	2656.032727
876.366415	2666.236022
876.677169	2664.214520
876.987882	2655.906698
877.298554	2656.327634
877.609183	2665.883142
877.919771	2674.962260
878.230317	2680.588187
878.540822	2686.539269
878.851285	2701.166177
879.161707	2725.751885
879.472087	2763.111876
879.782425	2808.199956
880.092722	2916.448652
880.402977	3100.055037
880.713191	3351.028881
881.023363	3630.318887
881.333494	3812.165909
881.643583	3980.895849
881.953631	3974.571721
882.263637	3801.332469
882.573602	3589.745160
882.883526	3459.965695
883.193408	3355.049202
883.503248	3258.692587
883.813048	3150.907677
884.122806	3039.651932
884.432522	2955.779735
884.742197	2895.255642
885.051831	2860.146526
885.361424	2827.883141
885.670975	2793.172276
885.980485	2763.192534
886.289954	2746.897004
886.599382	2735.420818
886.908768	2723.231308
887.218113	2703.573328
887.527417	2692.835671
887.836680	2684.169927
888.145901	2678.876716
888.455082	2671.569563
888.764221	2659.301915
889.073319	2652.876965
889.382376	2652.718168
889.691392	2652.534166
890.000366	2656.113385
890.309300	2652.236738
890.618193	2651.344454
890.927044	2654.235556
891.235855	2656.773777
891.544625	2655.372336
891.853353	2653.970895
892.162041	2662.578665
892.470687	2681.687159
892.779293	2694.408511
893.087858	2700.500745
893.396381	2723.901781
893.704864	2765.370313
894.013306	2830.774243
894.321707	2921.300763
894.630068	2966.005715
894.938387	2983.233858
895.246665	2975.704895
895.554903	2934.067485
895.863100	2893.982750
896.171256	2839.820593
896.479371	2782.169958
896.787446	2742.659915
897.095480	2726.555949
897.403473	2718.674105
897.711425	2707.999461
898.019336	2689.203519
898.327207	2674.800943
898.635038	2676.643484
898.942827	2672.585356
899.250576	2662.112358
899.558284	2651.488127
899.865952	2648.009731
900.173579	2648.067704
900.481165	2642.227527
900.788711	2635.822741
901.096216	2629.801083
901.403681	2626.448716
901.711105	2630.237143
902.018489	2627.303191
902.325832	2628.268572
902.633135	2631.585651
902.940397	2645.370687
903.247619	2678.917045
903.554800	2745.999679
903.861941	2866.954604
904.169041	2987.097903
904.476101	3043.972201
904.783121	3037.005326
905.090100	2980.869557
905.397039	2912.496388
905.703938	2845.491891
906.010796	2783.891512
906.317614	2733.510220
906.624391	2700.929243
906.931129	2676.338495
907.237826	2652.897129
907.544483	2639.530510
907.851099	2622.753550
908.157675	2617.427571
908.464211	2608.267794
908.770707	2598.540888
909.077163	2593.366143
909.383578	2589.875144
909.689954	2590.321287
909.996289	2588.511512
910.302584	2588.516553
910.608839	2584.670153
910.915054	2584.387848
911.221229	2587.583940
911.527363	2589.769280
911.833458	2585.438929
912.139513	2586.643765
912.445527	2590.159970
912.751502	2595.014601
913.057436	2601.699171
913.363331	2604.877618
913.669186	2616.762138
913.975000	2630.529530
914.280775	2644.506129
914.586510	2662.240908
914.892205	2695.444468
915.197859	2760.921494
915.503475	2840.826303
915.809050	2900.942063
916.114585	2911.183167
916.420081	2923.307142
916.725536	2936.189811
917.030952	2907.987076
917.336328	2863.330014
917.641665	2818.771255
917.946961	2773.002620
918.252218	2739.547002
918.557435	2714.386603
918.862612	2697.428162
919.167750	2678.488547
919.472848	2665.063954
919.777906	2649.305307
920.082925	2637.796353
920.387904	2627.610702
920.692843	2625.180865
920.997743	2619.953189
921.302603	2613.976901
921.607423	2608.378700
921.912204	2604.713781
922.216946	2601.525251
922.521647	2598.528285
922.826310	2593.093921
923.130932	2588.196440
923.435516	2581.998342
923.740059	2583.949268
924.044564	2581.733681
924.349028	2579.644123
924.653454	2571.066599
924.957840	2572.699933
925.262186	2566.731207
925.566493	2570.980900
925.870761	2564.364385
926.174989	2568.377144
926.479178	2563.971175
926.783328	2562.967986
927.087438	2561.574107
927.391509	2560.485218
927.695541	2560.349106
927.999533	2559.214847
928.303486	2556.353992
928.607400	2558.254507
928.911275	2558.073025
929.215110	2557.266441
929.518906	2554.776111
929.822663	2554.957592
930.126381	2555.234856
930.430060	2552.905843
930.733699	2554.957592
931.037299	2560.099569
931.340861	2558.705690
931.644383	2556.822819
931.947866	2558.635114
932.251309	2557.377346
932.554714	2554.859290
932.858080	2558.720814
933.161407	2557.974723
933.464694	2557.210988
933.767943	2557.218550
934.071153	2554.854249
934.374323	2555.731409
934.677455	2551.937941
934.980548	2556.089331
935.283602	2553.810730
935.586617	2554.415668
935.889593	2552.784855
936.192530	2553.823333
936.495428	2554.019938
936.798287	2553.898950
937.101108	2557.977243
937.403890	2556.842984
937.706632	2561.717780
938.009336	2560.772563
938.312002	2566.713563
938.614628	2570.033163
938.917216	2574.943247
939.219765	2572.120201
939.522275	2574.688668
939.824747	2573.556929
940.127179	2569.201372
940.429573	2565.448233
940.731929	2567.091650
941.034246	2565.354972
941.336524	2566.937894
941.638763	2565.332287
941.940964	2568.422514
942.243126	2561.090156
942.545250	2564.074519
942.847335	2562.244580
943.149381	2559.764332
943.451389	2559.902964
943.753359	2558.194013
944.055290	2558.108313
944.357182	2556.278375
944.659036	2556.900957
944.960851	2559.524878
945.262628	2558.493962
945.564367	2557.795762
945.866067	2557.485731
946.167729	2559.174517
946.469352	2556.011193
946.770937	2560.517985
947.072484	2554.629917
947.373992	2555.156718
947.675462	2554.065308
947.976893	2557.425237
948.278286	2555.935576
948.579641	2553.780483
948.880958	2552.376522
949.182236	2553.946841
949.483476	2553.992211
949.784678	2554.634958
950.085841	2554.874413
950.386967	2554.279557
950.688054	2551.426264
950.989103	2555.300391
951.290114	2557.994887
951.591087	2556.485062
951.892021	2556.800134
952.192917	2558.851884
952.493776	2560.117213
952.794596	2561.753068
953.095378	2561.067471
953.396122	2565.486042
953.696828	2559.638304
953.997496	2556.961451
954.298126	2554.957592
954.598718	2555.186965
954.899272	2553.709907
955.199788	2552.615976
955.500266	2555.010524
955.800706	2549.606408
956.101108	2544.441745
956.401472	2546.322096
956.701798	2546.150697
957.002087	2546.301931
957.302337	2545.870912
957.602550	2549.137580
957.902724	2543.292362
958.202861	2545.427291
958.502960	2544.151879
958.803022	2547.864689
959.103045	2542.145500
959.403031	2545.704554
959.702979	2542.589121
960.002889	2543.257074
960.302762	2542.296734
960.602596	2542.362269
960.902393	2539.458565
961.202153	2541.301107
961.501875	2541.497712
961.801559	2539.181301
962.101205	2544.250182
962.400814	2541.190201
962.700385	2542.639533
962.999918	2542.861344
963.299414	2541.903524
963.598873	2542.440407
963.898293	2541.732125
964.197677	2541.041487
964.497022	2540.938143
964.796331	2540.353370
965.095601	2543.060469
965.394835	2541.497712
965.694030	2537.530323
965.993189	2541.533000
966.292309	2539.745911
966.591393	2539.171219
966.890439	2539.934954
967.189447	2539.556867
967.488419	2539.927392
967.787353	2537.754655
968.086249	2540.870088
968.385108	2541.785057
968.683930	2543.378062
968.982714	2539.667773
969.281462	2542.193391
969.580172	2539.019984
969.878844	2539.781199
970.177480	2540.975952
970.476078	2542.032074
970.774639	2542.566436
971.073162	2540.232382
971.371649	2538.803215
971.670098	2537.956301
971.968510	2540.393699
972.266885	2534.092257
972.565223	2541.472506
972.863524	2540.234903
973.161788	2544.247661
973.460014	2541.442259
973.758204	2540.618030
974.056356	2540.998637
974.354471	2542.180788
974.652550	2542.145500
974.950591	2543.128525
975.248595	2541.918648
975.546563	2537.991589
975.844493	2541.437218
976.142386	2539.766075
976.440243	2540.870088
976.738062	2539.745911
977.035845	2540.602907
977.333590	2536.927906
977.631299	2540.532331
977.928971	2540.320602
978.226606	2540.839841
978.524204	2539.753472
978.821765	2536.953111
979.119290	2540.839841
979.416777	2538.974614
979.714228	2538.168029
980.011642	2540.035777
980.309020	2542.112732
980.606360	2539.458565
980.903664	2540.728936
981.200931	2541.054090
981.498162	2540.935623
981.795356	2543.393185
982.092513	2544.905532
982.389633	2547.000131
982.686717	2551.605225
982.983764	2550.415513
983.280775	2555.161759
983.577749	2555.199568
983.874686	2553.888868
984.171587	2549.941644
984.468451	2548.489792
984.765279	2543.488967
985.062070	2547.000131
985.358824	2545.107178
985.655543	2542.354708
985.952224	2540.476878
986.248869	2541.306148
986.545478	2536.837165
986.842050	2535.375230
987.138586	2533.840199
987.435086	2534.770292
987.731549	2534.752648
988.027975	2539.934954
988.324366	2537.689120
988.620719	2539.929913
988.917037	2539.445962
989.213318	2537.278266
989.509563	2539.602238
989.805772	2537.832793
990.101944	2534.606454
990.398080	2539.082999
990.694180	2537.048893
990.990244	2538.019315
991.286271	2535.115611
991.582262	2536.635519
991.878217	2538.326826
992.174136	2538.967052
992.470019	2537.449665
992.765865	2539.481250
993.061676	2537.668955
993.357450	2536.849768
993.653188	2538.180632
993.948890	2536.194418
994.244556	2538.031918
994.540186	2537.333718
994.835780	2536.965714
995.131337	2537.711805
995.426859	2539.229192
995.722345	2539.544264
996.017795	2539.360262
996.313208	2541.432177
996.608586	2541.951415
996.903928	2540.791950
997.199234	2540.688606
997.494504	2540.428987
997.789738	2540.121477
998.084936	2540.978473
998.380099	2539.445962
998.675225	2538.503266
998.970316	2539.962680
999.265371	2539.254398
999.560390	2538.183153
999.855373	2538.684748
1000.150320	2536.023018
1000.445232	2538.389840
1000.740108	2537.316074
1001.034948	2535.241640
1001.329752	2538.004192
1001.624521	2536.292720
1001.919254	2532.418593
1002.213951	2536.827083
1002.508613	2530.150074
1002.803239	2536.527134
1003.097829	2532.441279
1003.392384	2538.392361
1003.686903	2535.415559
1003.981386	2537.661393
1004.275834	2535.871784
1004.570246	2538.425128
1004.864623	2534.545960
1005.158964	2535.604603
1005.453270	2535.113090
1005.747540	2538.231044
1006.041775	2535.440765
1006.335974	2534.987061
1006.630138	2533.295754
1006.924266	2537.121990
1007.218359	2535.254242
1007.512416	2535.831455
1007.806438	2534.412370
1008.100425	2534.263656
1008.394376	2533.421783
1008.688292	2535.839016
1008.982172	2538.183153
1009.276017	2535.085364
1009.569827	2537.671476
1009.863602	2534.596372
1010.157341	2535.279448
1010.451045	2534.548481
1010.744714	2534.424973
1011.038347	2533.336083
1011.331945	2537.293389
1011.625508	2536.759027
1011.919036	2537.797505
1012.212528	2536.809438
1012.505986	2535.551671
1012.799408	2533.880528
1013.092795	2536.108718
1013.386147	2537.280786
1013.679464	2534.873635
1013.972745	2533.250384
1014.265992	2536.393543
1014.559204	2536.494366
1014.852380	2533.099149
1015.145521	2536.451517
1015.438628	2535.324819
1015.731699	2534.908923
1016.024736	2534.931609
1016.317737	2534.679551
1016.610703	2537.719367
1016.903635	2530.823068
1017.196531	2530.664272
1017.489393	2530.656710
1017.782219	2530.823068
1018.075011	2535.362627
1018.367768	2535.917154
1018.660490	2533.230219
1018.953177	2533.230219
1019.245829	2533.230219
