Dividing Wavelength (nm)	Counts (n)	Blue Motor Position (mm): 40.000000	Red Motor Position (mm): 0.000000	
326.493990	2128.962448
326.888308	2128.962448
327.282561	2128.962448
327.676750	2095.471543
328.070874	2096.472212
328.464933	2094.664958
328.858929	2103.229878
329.252859	2112.727412
329.646726	2128.521347
330.040528	2139.115332
330.434265	2156.293064
330.827938	2172.142452
331.221547	2192.579289
331.615091	2209.714171
332.008571	2228.621019
332.401986	2250.078690
332.795338	2269.998809
333.188625	2289.394649
333.581847	2308.160344
333.975006	2324.309680
334.368100	2345.013699
334.761129	2361.137830
335.154095	2379.853113
335.546996	2398.853222
335.939833	2423.811975
336.332606	2438.852257
336.725315	2452.619649
337.117960	2460.561987
337.510540	2472.454068
337.903056	2480.527476
338.295508	2488.444608
338.687896	2493.579024
339.080220	2509.108298
339.472480	2511.558299
339.864676	2515.124915
340.256807	2518.389062
340.648875	2525.781914
341.040879	2526.071781
341.432818	2525.827285
341.824694	2529.376257
342.216506	2528.544467
342.608253	2529.280475
342.999937	2529.535053
343.391557	2531.213758
343.783113	2527.654703
344.174605	2526.661596
344.566033	2524.713190
344.957397	2523.941893
345.348697	2524.627490
345.739934	2519.397293
346.131106	2520.680267
346.522215	2518.651202
346.913260	2515.192971
347.304241	2515.770183
347.695159	2513.562158
348.086012	2510.857578
348.476802	2507.832886
348.867528	2506.214676
349.258191	2506.141579
349.648789	2504.956908
350.039324	2502.214520
350.429796	2504.803153
350.820203	2500.833244
351.210548	2498.683192
351.600828	2497.380054
351.991045	2498.957935
352.381198	2499.048676
352.771288	2498.572287
353.161314	2496.447440
353.551276	2494.859477
353.941175	2496.099601
354.331010	2498.337873
354.720782	2498.461381
355.110490	2494.350320
355.500135	2498.531957
355.889717	2497.271669
356.279235	2497.732934
356.668689	2496.283603
357.058080	2499.457009
357.447408	2496.361741
357.836672	2493.049702
358.225873	2499.078922
358.615010	2494.677995
359.004084	2500.041783
359.393095	2501.390292
359.782043	2497.743017
360.170927	2500.581186
360.559748	2500.003974
360.948505	2500.555981
361.337199	2502.995899
361.725830	2503.195025
362.114398	2504.233502
362.502903	2504.629233
362.891344	2502.096053
363.279722	2507.890859
363.668037	2506.708709
364.056289	2505.899604
364.444478	2508.150479
364.832603	2507.782475
365.220665	2506.476816
365.608665	2507.316168
365.996601	2508.165602
366.384474	2507.931189
366.772284	2507.263236
367.160031	2510.398833
367.547715	2511.321365
367.935336	2510.376148
368.322893	2510.792043
368.710388	2509.486385
369.097820	2510.655932
369.485189	2510.575274
369.872495	2513.665501
370.259738	2510.343381
370.646918	2513.536952
371.034035	2513.852024
371.421090	2514.003258
371.808081	2513.345388
372.195010	2514.303207
372.581875	2511.873371
372.968678	2514.887981
373.355418	2515.787827
373.742096	2514.998886
374.128710	2514.610717
374.515262	2516.463342
374.901751	2516.007117
375.288177	2515.669360
375.674540	2519.367046
376.060841	2518.608353
376.447079	2518.341171
376.833254	2518.787313
377.219367	2513.277332
377.605417	2518.119361
377.991404	2519.200688
378.377329	2517.527025
378.763191	2517.017868
379.148991	2522.394259
379.534727	2522.094310
379.920402	2521.685977
380.306013	2524.161183
380.691563	2524.824095
381.077049	2520.791172
381.462474	2524.509023
381.847835	2525.444157
382.233134	2523.278982
382.618371	2524.428365
383.003545	2524.791328
383.388657	2526.585978
383.773706	2526.273427
384.158693	2526.782583
384.543618	2527.886596
384.928480	2526.369209
385.313280	2528.990609
385.698017	2528.252080
386.082692	2530.628984
386.467305	2530.331556
386.851856	2530.956659
387.236344	2533.968748
387.620770	2536.711136
388.005133	2540.761703
388.389435	2544.678680
388.773674	2545.966694
389.157851	2554.657644
389.541965	2563.272976
389.926018	2566.542164
390.310008	2581.489185
390.693936	2592.541915
391.077802	2605.837958
391.461606	2618.634927
391.845348	2637.965232
392.229027	2651.803199
392.612645	2668.106290
392.996200	2695.116793
393.379694	2719.768035
393.763125	2749.631830
394.146494	2765.019952
394.529801	2798.808286
394.913047	2831.898420
395.296230	2851.626976
395.679351	2887.303221
396.062410	2921.063829
396.445408	2942.314813
396.828343	2986.649240
397.211217	3018.708458
397.594028	3024.871269
397.976778	3082.209353
398.359466	3124.867596
398.742092	3167.682116
399.124656	3172.312416
399.507158	3240.267170
399.889598	3284.157976
400.271977	3346.874971
400.654294	3373.545195
401.036549	3412.001637
401.418742	3433.630708
401.800874	3522.838966
402.182944	3574.485587
402.564952	3648.502329
402.946898	3677.027698
403.328783	3713.661763
403.710606	3692.141077
404.092367	3854.519163
404.474067	3867.802603
404.855705	3908.308274
405.237282	3888.206673
405.618797	4002.270341
406.000250	4057.168506
406.381642	4154.157786
406.762972	4153.636026
407.144240	4193.675391
407.525447	4222.563723
407.906593	4297.374446
408.287677	4361.016493
408.668700	4323.800174
409.049661	4395.634096
409.430560	4452.972180
409.811399	4410.472732
410.192176	4576.465326
410.572891	4540.272362
410.953545	4656.017254
411.334138	4564.038882
411.714669	4640.477897
412.095139	4557.508067
412.475547	4705.072722
412.855894	4702.436199
413.236180	4722.353797
413.616405	4689.041853
413.996568	4783.641625
414.376670	4736.214450
414.756711	4696.172565
415.136691	4738.235953
415.516609	4817.233354
415.896466	4862.497874
416.276262	4900.505654
416.655997	4885.901431
417.035670	5063.602104
417.415283	5157.506198
417.794834	5112.193786
418.174324	5063.229059
418.553753	4978.850226
418.933121	5161.876878
419.312428	5230.676025
419.691674	5174.235267
420.070859	5301.859638
420.449983	5216.273448
420.829045	5332.121684
421.208047	5242.656327
421.586988	5313.078726
421.965867	5324.396116
422.344686	5459.173885
422.723444	5313.292975
423.102141	5133.686746
423.480777	5433.068270
423.859352	5200.164441
424.237866	5460.666066
424.616319	5446.790290
424.994712	5559.946550
425.373044	5438.046409
425.751314	5576.572276
426.129524	5385.943563
426.507673	5575.022121
426.885762	5656.131766
427.263789	5596.167241
427.641756	5471.582685
428.019662	5594.032312
428.397508	5602.829125
428.775292	5549.806269
429.153016	5647.904602
429.530679	5573.605557
429.908282	5659.627806
430.285824	5532.255492
430.663305	5806.491741
431.040726	5540.160021
431.418086	5539.882758
431.795385	5645.736906
432.172624	5656.048587
432.549802	5649.747144
432.926920	5668.117109
433.303977	5673.924518
433.680974	5712.701073
434.057910	5725.871088
434.434786	5738.000104
434.811601	5703.437953
435.188355	5939.724396
435.565050	5812.281506
435.941683	5797.150483
436.318257	6004.213356
436.694770	5987.839689
437.071222	6024.617427
437.447614	5955.515810
437.823946	5868.240834
438.200218	6030.218148
438.576429	5896.451131
438.952580	5992.520400
439.328670	6033.396596
439.704700	5942.870076
440.080670	5929.442963
440.456580	6197.435742
440.832429	6081.842084
441.208218	5931.288025
441.583947	6085.111273
441.959616	6087.410039
442.335224	6014.557804
442.710773	6152.347662
443.086261	6180.315984
443.461689	5976.330734
443.837057	6126.252129
444.212365	6275.180417
444.587612	6167.531618
444.962800	6321.052396
445.337927	6304.315765
445.712995	5913.147433
446.088002	6490.684702
446.462949	6324.586245
446.837837	6251.411376
447.212664	6422.712305
447.587431	6566.962401
447.962139	7113.516740
448.336786	8035.117801
448.711374	7777.577853
449.085901	6853.330187
449.460369	6769.473113
449.834776	6706.546910
450.209124	7097.085099
450.583412	7249.572441
450.957640	7392.259780
451.331808	7156.787484
451.705917	6712.941614
452.079965	6630.511187
452.453954	6845.216450
452.827883	6725.715898
453.201752	6817.152346
453.575562	6616.849660
453.949311	6818.707542
454.323001	6708.044133
454.696632	6782.837212
455.070202	6920.977430
455.443713	7072.176757
455.817164	7176.276584
456.190556	7259.213647
456.563888	7331.735687
456.937160	7375.185392
457.310373	7032.301231
457.683526	7058.106897
458.056619	6947.297294
458.429653	6938.245903
458.802628	6873.275512
459.175542	6980.722665
459.548398	7332.317940
459.921194	7492.404822
460.293930	7493.745768
460.666607	8024.848970
461.039224	8333.203748
461.411782	8458.342831
461.784280	8478.310841
462.156719	8367.813790
462.529099	8248.242662
462.901419	7835.089857
463.273680	7724.857467
463.645882	7744.477637
464.018024	7614.932586
464.390106	7770.414374
464.762130	8162.616143
465.134094	8621.966082
465.505999	9650.351384
465.877845	10870.754236
466.249631	11516.158040
466.621358	11133.920111
466.993026	10508.454071
467.364634	10253.951419
467.736184	9892.351974
468.107674	9560.991891
468.479105	9595.095297
468.850477	9355.471610
469.221790	9129.877455
469.593043	8802.507445
469.964238	8658.791710
470.335373	8674.840224
470.706449	8724.150270
471.077467	8718.791523
471.448425	10022.416264
471.819324	11084.118552
472.190164	11113.309353
472.560945	9865.583447
472.931667	9078.286287
473.302330	8943.911810
473.672934	8590.131195
474.043479	8946.752500
474.413965	8886.440136
474.784393	8772.991489
475.154761	8930.668699
475.525070	9020.370991
475.895321	8839.353238
476.265513	9018.465434
476.635645	9190.409110
477.005719	9195.949338
477.375734	9305.712901
477.745691	9540.693685
478.115588	9672.081277
478.485427	9909.766640
478.855207	10448.504669
479.224928	11266.424319
479.594591	11892.742314
479.964194	11702.214425
480.333739	11648.044707
480.703226	11563.234855
481.072653	11647.517906
481.442022	11884.507589
481.811333	12080.610995
482.180584	11880.341076
482.549777	11593.058321
482.918912	11414.278841
483.287988	11443.532657
483.657005	11457.809204
484.025964	11134.643517
484.394864	11260.853844
484.763706	11238.829043
485.132489	10995.638740
485.501213	10961.416867
485.869879	11030.437825
486.238487	10874.404032
486.607036	10991.436939
486.975527	10768.161714
487.343959	10957.701537
487.712333	11002.910605
488.080648	10933.854359
488.448905	10977.268776
488.817104	10912.976420
489.185244	11181.642194
489.553326	11334.961326
489.921350	11877.621373
490.289315	12940.180657
490.657222	13281.408800
491.025070	13182.685363
491.392861	13053.415055
491.760593	12677.453363
492.128267	12322.503200
492.495883	11997.857934
492.863440	11664.693117
493.230939	11329.166520
493.598380	11261.143711
493.965763	11133.620162
494.333088	11031.693073
494.700354	10946.437079
495.067563	11007.556028
495.434713	10844.174753
495.801805	10962.609100
496.168839	10892.844572
496.535815	10830.810654
496.902733	10827.329737
497.269593	10765.812537
497.636395	10859.434325
498.003139	10857.480878
498.369825	10718.438293
498.736453	10881.489373
499.103023	10800.344440
499.469535	10831.559265
499.835989	10818.739611
500.202385	10787.222317
500.568723	10640.570110
500.935003	10856.636485
501.301226	10666.564820
501.667390	10922.118553
502.033497	11013.991061
502.399546	10875.583662
502.765537	10782.597058
503.131470	10858.473985
503.497345	11039.428723
503.863163	10638.341920
504.228923	10963.440891
504.594625	11020.753769
504.960269	10770.107600
505.325856	10985.556433
505.691385	10775.945256
506.056856	10933.561972
506.422270	10958.583739
506.787625	10848.074085
507.152924	10964.081117
507.518164	10949.353386
507.883347	10867.369101
508.248472	10786.335074
508.613540	11019.740497
508.978550	10898.921683
509.343503	10884.135979
509.708398	10999.157466
510.073236	11117.120466
510.438016	11115.348500
510.802738	11066.151880
511.167403	11119.946032
511.532010	11010.971410
511.896561	11249.619633
512.261053	11317.486167
512.625488	11187.986486
512.989866	11173.515854
513.354186	11162.984883
513.718449	11061.355222
514.082655	11251.835220
514.446803	11153.666311
514.810894	11269.136460
515.174927	11127.727053
515.538904	11161.810295
515.902822	11315.215127
516.266684	11202.623476
516.630488	11139.848508
516.994235	11199.129957
517.357925	11262.988773
517.721558	11350.162926
518.085133	11361.528207
518.448651	11370.514064
518.812112	11252.835889
519.175516	11272.294743
519.538863	11391.182795
519.902152	11304.807665
520.265385	11469.086266
520.628560	11377.460774
520.991678	11357.061745
521.354739	11421.636405
521.717743	11355.065448
522.080690	11330.739360
522.443580	11470.119702
522.806413	11429.011613
523.169189	11459.394647
523.531908	11510.443892
523.894569	11329.894967
524.257174	11335.901502
524.619722	11461.287601
524.982213	11401.943137
525.344647	11451.517844
525.707025	11401.630586
526.069345	11505.765701
526.431608	11416.905282
526.793815	11528.687828
527.155964	11314.597585
527.518057	11367.726306
527.880093	11315.673872
528.242072	11386.751620
528.603995	11287.990375
528.965860	11213.403984
529.327669	11265.917683
529.689421	11212.708304
530.051117	11186.756444
530.412755	11284.514500
530.774337	11179.371154
531.135862	11152.932823
531.497331	11178.400732
531.858743	11028.680983
532.220098	11196.291787
532.581396	11068.720348
532.942638	11057.569315
533.303824	11018.144972
533.664953	11033.649040
534.026025	10943.921543
534.387040	11043.877542
534.747999	11049.080012
535.108902	11102.332241
535.469748	10860.361898
535.830537	10958.374531
536.191270	10948.130907
536.551947	10971.995729
536.912567	10971.073198
537.273131	10893.139480
537.633638	10871.013856
537.994089	10862.970695
538.354483	10811.213168
538.714821	10958.303955
539.075103	10964.849893
539.435328	10928.830849
539.795497	10753.572615
540.155609	10911.063302
540.515665	10998.592857
540.875665	10740.584082
541.235609	10802.247476
541.595496	10805.204113
541.955328	10949.970928
542.315102	10839.562097
542.674821	10793.175920
543.034483	10785.394899
543.394090	10795.174737
543.753640	10723.587832
544.113134	10946.721904
544.472571	10792.926383
544.831953	10940.922057
545.191278	10744.979968
545.550548	10777.727304
545.909761	10918.836762
546.268918	10885.814683
546.628019	10962.914090
546.987064	10837.091931
547.346053	10752.647563
547.704986	10850.856802
548.063863	10840.913126
548.422684	10831.586991
548.781449	10749.522048
549.140158	10855.910559
549.498811	10737.319935
549.857408	10583.980638
550.215949	10812.382716
550.574434	10661.621969
550.932864	10768.804461
551.291237	10822.923768
551.649555	10775.390729
552.007817	10781.188056
552.366022	10754.096895
552.724173	10740.228681
553.082267	10721.415095
553.440305	10861.165962
553.798288	10667.399131
554.156215	10825.802267
554.514086	10797.627258
554.871902	10640.779318
555.229661	10681.111070
555.587365	10656.331278
555.945014	10549.920082
556.302606	10677.239463
556.660143	10566.588657
557.017625	10729.228883
557.375050	10620.231575
557.732421	10749.554815
558.089735	10670.587661
558.446994	10671.941211
558.804197	10702.440192
559.161345	10715.889990
559.518437	10553.292614
559.875474	10644.287961
560.232455	10676.538743
560.589381	10624.619900
560.946251	10622.800043
561.303065	10731.315921
561.659825	10661.984932
562.016528	10598.748698
562.373177	10476.117590
562.729770	10582.866543
563.086307	10503.959882
563.442789	10595.318193
563.799216	10478.595317
564.155587	10525.047029
564.511904	10481.834258
564.868164	10469.196085
565.224370	10485.063117
565.580520	10407.273072
565.936615	10410.615357
566.292654	10279.610892
566.648638	10420.054918
567.004567	10371.077587
567.360441	10353.390699
567.716260	10265.495661
568.072023	10359.329178
568.427732	10310.354369
568.783385	10222.681142
569.138982	10290.845103
569.494525	10307.803545
569.850013	10185.535400
570.205445	10258.233879
570.560823	10158.260237
570.916145	10076.722094
571.271412	10148.107353
571.626625	10094.502243
571.981782	10070.188758
572.336884	10041.703719
572.691931	10052.481706
573.046923	9993.096913
573.401860	9953.135687
573.756743	9885.730419
574.111570	9929.278426
574.466342	9917.782075
574.821059	9942.042628
575.175722	9835.883489
575.530330	9846.923616
575.884882	9838.877935
576.239380	9760.102344
576.593823	9745.029294
576.948211	9749.994831
577.302544	9639.109611
577.656823	9653.756683
578.011047	9652.307352
578.365216	9627.739288
578.719330	9552.608452
579.073389	9569.831554
579.427394	9507.880814
579.781344	9487.577567
580.135239	9438.063354
580.489080	9443.217934
580.842866	9348.030867
581.196597	9351.622689
581.550273	9391.725068
581.903895	9355.496816
582.257463	9429.352240
582.610975	9305.513776
582.964434	9334.056789
583.317837	9250.940765
583.671186	9238.809228
584.024481	9231.413855
584.377721	9152.086258
584.730906	9126.845201
585.084037	9153.394438
585.437113	9092.373791
585.790135	9109.491029
586.143103	9011.357408
586.496016	8987.805137
586.848874	9049.226555
587.201679	9029.185448
587.554428	8916.011544
587.907124	8961.444943
588.259765	8939.992313
588.612352	8939.122714
588.964884	8818.011513
589.317362	8825.656423
589.669786	8832.908123
590.022155	8876.604845
590.374470	8892.118996
590.726731	8821.565527
591.078937	8680.377931
591.431090	8795.669120
591.783188	8667.593565
592.135232	8659.898244
592.487222	8660.142740
592.839157	8709.982107
593.191038	8643.653125
593.542866	8590.496679
593.894639	8487.268971
594.246358	8538.620685
594.598022	8557.567862
594.949633	8456.114641
595.301190	8426.523068
595.652692	8460.381977
596.004141	8571.393226
596.355535	8344.548865
596.706876	8326.037748
597.058162	8256.933611
597.409395	8334.083429
597.760573	8400.362000
598.111698	8315.937796
598.462768	8295.495917
598.813785	8259.930577
599.164748	8228.798931
599.515657	8218.648568
599.866511	8129.745299
600.217312	8258.246832
600.568060	8114.571426
600.918753	8213.246972
601.269392	8186.095317
601.619978	8096.657686
601.970510	8169.598141
602.320988	8155.377046
602.671412	8214.540028
603.021783	8153.610122
603.372100	8128.364023
603.722363	8130.521637
604.072572	8101.567770
604.422728	8116.013196
604.772830	8046.334368
605.122878	8052.623207
605.472872	8045.487454
605.822813	8074.751352
606.172701	8019.071808
606.522534	8089.685770
606.872314	8093.484280
607.222041	8063.280207
607.571714	8119.526881
607.921333	8080.941889
608.270899	8082.323165
608.620411	8171.584356
608.969870	8079.127074
609.319276	8071.313285
609.668627	8086.119154
610.017926	8123.070812
610.367171	8167.248963
610.716362	8148.296746
611.065500	8137.317112
611.414585	8169.635950
611.763616	8150.822364
612.112594	8137.359962
612.461518	8149.604925
612.810389	8209.433339
613.159207	8153.340420
613.507971	8102.278573
613.856682	8214.356026
614.205340	8172.675766
614.553945	8253.457735
614.902496	8153.594998
615.250994	8207.500056
615.599439	8182.362343
615.947830	8197.987399
616.296169	8175.216507
616.644454	8187.887447
616.992686	8178.757918
617.340864	8239.218996
617.688990	8146.958319
618.037063	8232.529385
618.385082	8174.674583
618.733048	8272.367103
619.080961	8209.209007
619.428821	8226.926143
619.776628	8230.235660
620.124382	8179.193978
620.472083	8164.231833
620.819731	8195.222326
621.167326	8088.112930
621.514868	8090.575534
621.862357	7981.006055
622.209793	7999.615475
622.557176	7934.801360
622.904506	7902.865650
623.251783	7834.552974
623.599007	7792.963455
623.946179	7797.470247
624.293297	7753.546673
624.640363	7671.499374
624.987376	7651.301991
625.334336	7594.820903
625.681243	7546.801392
626.028097	7535.751183
626.374899	7513.073552
626.721647	7511.167996
627.068343	7438.499763
627.414987	7413.155362
627.761577	7361.097887
628.108115	7407.690752
628.454600	7298.907693
628.801032	7352.933739
629.147412	7303.689227
629.493739	7293.624564
629.840014	7229.644760
630.186236	7290.640201
630.532405	7180.042326
630.878521	7223.418935
631.224585	7187.389808
631.570597	7101.060048
631.916556	7142.377345
632.262462	7133.472147
632.608316	7094.506548
632.954117	7071.670122
633.299866	7062.596045
633.645562	7054.573048
633.991206	6975.888198
634.336797	6911.374032
634.682336	6869.875254
635.027823	6840.732343
635.373257	6830.617268
635.718639	6760.209993
636.063968	6777.211284
636.409245	6674.812847
636.754470	6668.970149
637.099642	6624.096318
637.444762	6571.887609
637.789829	6579.499751
638.134845	6522.431369
638.479808	6507.897722
638.824719	6512.563310
639.169577	6442.214008
639.514383	6460.410053
639.859137	6390.748869
640.203839	6400.868985
640.548489	6381.606736
640.893086	6360.905238
641.237632	6332.034550
641.582125	6353.068764
641.926566	6324.603889
642.270955	6334.235013
642.615292	6330.315516
642.959576	6344.662640
643.303809	6329.360218
643.647990	6342.792372
643.992118	6334.792061
644.336195	6278.066477
644.680219	6298.286545
645.024192	6295.932327
645.368112	6388.417335
645.711981	6407.704790
646.055797	6488.431307
646.399562	6446.899761
646.743274	6569.311579
647.086935	6621.686647
647.430544	6614.951665
647.774101	6643.330841
648.117606	6650.234701
648.461059	6634.506301
648.804460	6602.542865
649.147810	6507.902763
649.491108	6480.927549
649.834354	6454.625329
650.177548	6368.961002
650.520690	6284.312467
650.863781	6266.154231
651.206820	6281.650738
651.549807	6207.127360
651.892742	6144.576723
652.235626	6153.648280
652.578458	6134.562471
652.921238	6048.905706
653.263967	6086.774853
653.606644	6025.522314
653.949269	6029.270412
654.291843	5972.287729
654.634365	6019.785481
654.976836	5966.195495
655.319255	5974.165559
655.661622	5950.119255
656.003938	5942.547442
656.346203	5906.815743
656.688416	5937.652482
657.030577	5894.958950
657.372687	5858.173650
657.714746	5848.759295
658.056753	5893.335698
658.398708	5829.860009
658.740612	5820.458258
659.082465	5873.876844
659.424266	5863.003075
659.766016	5859.844793
660.107715	5836.831925
660.449362	5847.723338
660.790958	5846.153019
661.132503	5835.811092
661.473996	5868.013982
661.815438	5852.439338
662.156829	5856.731880
662.498168	5848.398853
662.839456	5822.872970
663.180693	5859.617941
663.521879	5858.334967
663.863013	5847.491445
664.204097	5867.696390
664.545129	5908.025620
664.886110	5905.888171
665.227040	5934.035454
665.567918	5899.254013
665.908746	5931.913128
666.249522	5935.152069
666.590248	5915.163894
666.930922	5943.432164
667.271545	5964.143745
667.612118	5962.109639
667.952639	5940.364622
668.293109	5960.231810
668.633528	5917.334111
668.973896	5918.642290
669.314213	5911.383029
669.654480	5893.542385
669.994695	5887.296396
670.334859	5877.279623
670.674973	5865.914342
671.015035	5873.246700
671.355047	5874.418768
671.695008	5856.099215
672.034918	5832.589794
672.374777	5840.993398
672.714585	5824.380275
673.054342	5834.581050
673.394049	5825.877498
673.733705	5853.800449
674.073310	5844.844839
674.412864	5803.285567
674.752368	5795.799453
675.091820	5803.020906
675.431223	5734.955247
675.770574	5735.250155
676.109875	5687.248288
676.449125	5689.310120
676.788324	5657.218134
677.127473	5601.616728
677.466571	5592.691365
677.805619	5583.546712
678.144616	5567.553651
678.483562	5545.738058
678.822458	5513.446947
679.161303	5512.421072
679.500098	5502.646275
679.838842	5481.702801
680.177535	5492.044728
680.516179	5501.345657
680.854771	5516.597668
681.193314	5595.837045
681.531805	5704.363005
681.870247	5854.052507
682.208638	5958.081758
682.546978	5972.242359
682.885268	5951.261076
683.223508	5864.747315
683.561697	5808.475435
683.899836	5782.417711
684.237925	5736.555813
684.575963	5698.043919
684.913951	5660.545296
685.251889	5718.079985
685.589776	5688.614440
685.927614	5660.913300
686.265401	5731.688579
686.603137	5712.834664
686.940824	5787.552126
687.278460	5813.246887
687.616046	5819.820552
687.953582	5891.525924
688.291068	5874.028079
688.628504	5939.401762
688.965889	5898.659157
689.303224	5843.710580
689.640510	5796.674094
689.977745	5724.101643
690.314930	5621.335201
690.652065	5563.248506
690.989150	5472.832891
691.326185	5399.484103
691.663170	5344.701884
692.000105	5267.481489
692.336990	5189.532648
692.673825	5167.843083
693.010610	5094.809367
693.347345	5027.129356
693.684030	5012.986399
694.020665	4971.417044
694.357251	4882.639805
694.693786	4892.689345
695.030272	4854.966391
695.366707	4828.724664
695.703093	4787.966935
696.039429	4811.665400
696.375716	4795.584119
696.711952	4769.294502
697.048139	4757.803191
697.384276	4733.025920
697.720363	4746.130400
698.056400	4756.021143
698.392388	4709.347621
698.728326	4685.419784
699.064214	4666.422196
699.400053	4658.268129
699.735842	4624.817553
700.071581	4598.928707
700.407270	4574.012804
700.742910	4554.306934
701.078501	4502.861959
701.414042	4498.655116
701.749533	4473.358606
702.084974	4400.458480
702.420366	4465.575065
702.755709	4405.262700
703.091002	4346.596272
703.426246	4394.315834
703.761440	4353.207745
704.096584	4312.192918
704.431679	4336.791228
704.766725	4319.142148
705.101721	4310.121003
705.436668	4338.177545
705.771565	4286.523362
706.106413	4313.715346
706.441212	4345.688864
706.775961	4353.144731
707.110661	4335.772915
707.445311	4361.205536
707.779913	4386.905338
708.114465	4399.299015
708.448967	4419.919855
708.783421	4482.283969
709.117825	4523.974311
709.452180	4530.381618
709.786485	4571.565324
710.120742	4658.066483
710.454949	4647.548116
710.789107	4711.525399
711.123216	4783.364362
711.457275	4773.960089
711.791286	4847.603785
712.125247	4865.290674
712.459159	4768.679481
712.793023	4844.095142
713.126837	4801.600736
713.460602	4797.509840
713.794318	4717.295000
714.127985	4722.207604
714.461602	4636.513030
714.795171	4611.138382
715.128691	4545.744534
715.462162	4489.225638
715.795584	4439.824851
716.128957	4421.838014
716.462281	4365.772821
716.795556	4341.401363
717.128782	4302.884427
717.461960	4235.579982
717.795088	4245.856374
718.128167	4206.472360
718.461198	4145.053462
718.794180	4142.119510
719.127113	4118.549596
719.459997	4098.102676
719.792833	4056.654309
720.125619	4044.321126
720.458357	4012.350128
720.791046	4015.268956
721.123686	3989.463290
721.456278	3948.090540
721.788821	3963.337510
722.121315	3938.734158
722.453761	3915.053338
722.786158	3924.755039
723.118506	3951.084985
723.450805	3896.927870
723.783056	3922.426026
724.115259	3939.197945
724.447412	3945.194397
724.779518	3934.423972
725.111574	3937.105866
725.443582	3969.908654
725.775542	3952.725881
726.107453	4003.875948
726.439315	4005.912575
726.771129	4019.611910
727.102895	4056.049370
727.434612	4105.724900
727.766281	4116.422229
728.097901	4119.119246
728.429473	4122.756438
728.760996	4129.007469
729.092471	4120.424905
729.423897	4108.817648
729.755276	4113.372331
730.086606	4114.274697
730.417887	4152.474040
730.749120	4215.324626
731.080305	4277.156898
731.411442	4307.943225
731.742530	4278.142444
732.073570	4278.467598
732.404562	4334.036237
732.735506	4329.169003
733.066401	4290.573929
733.397249	4227.889702
733.728048	4147.972290
734.058798	4066.587902
734.389501	3993.201305
734.720156	3930.277623
735.050762	3885.000500
735.381320	3882.535375
735.711831	3834.193231
736.042293	3799.394146
736.372707	3822.016323
736.703073	3792.933907
737.033391	3783.640540
737.363661	3801.826502
737.693883	3827.571675
738.024056	3837.870752
738.354182	3830.629135
738.684260	3897.956265
739.014290	3917.097526
739.344272	3913.417484
739.674207	3950.621199
740.004093	3959.564206
740.333931	3952.070531
740.663722	3953.474492
740.993464	3953.396354
741.323159	3928.508178
741.652806	3900.852408
741.982405	3871.613716
742.311956	3841.671782
742.641460	3834.041996
742.970915	3804.997388
743.300323	3765.704114
743.629683	3733.135740
743.958996	3721.069738
744.288260	3696.466387
744.617477	3666.037982
744.946647	3646.921927
745.275768	3624.435860
745.604842	3620.281949
745.933869	3572.645566
746.262847	3563.037127
746.591778	3602.073302
746.920662	3573.996595
747.249498	3542.398643
747.578286	3589.369594
747.907027	3607.979013
748.235720	3604.699743
748.564365	3629.444247
748.892963	3629.315697
749.221514	3613.720888
749.550017	3586.869182
749.878473	3588.620983
750.206881	3556.914646
750.535242	3552.009603
750.863555	3555.382135
751.191821	3550.940878
751.520039	3532.661654
751.848210	3506.777850
752.176334	3540.026780
752.504411	3548.359807
752.832440	3509.230371
753.160421	3490.414265
753.488356	3500.574710
753.816243	3511.914786
754.144082	3469.690081
754.471875	3457.082155
754.799620	3474.222078
755.127318	3465.455512
755.454969	3465.982312
755.782572	3470.403404
756.110129	3448.902883
756.437638	3435.942077
756.765100	3451.741053
757.092515	3460.058957
757.419882	3467.328301
757.747203	3440.113632
758.074477	3442.848458
758.401703	3461.830922
758.728882	3480.367245
759.056014	3485.536948
759.383099	3489.411075
759.710138	3484.989983
760.037129	3504.572345
760.364073	3534.824309
760.690970	3519.244623
761.017820	3497.983557
761.344623	3516.819828
761.671379	3563.216088
761.998088	3612.924385
762.324751	3740.657142
762.651366	3982.650170
762.977935	4460.601966
763.304456	4902.156632
763.630931	5001.011138
763.957359	4640.805572
764.283740	4296.706493
764.610074	4107.784212
764.936362	3907.753747
765.262602	3745.289962
765.588796	3636.005308
765.914943	3546.628171
766.241044	3460.263123
766.567097	3429.002928
766.893104	3381.232955
767.219064	3352.231197
767.544978	3323.267247
767.870845	3266.970162
768.196665	3251.488778
768.522438	3260.822474
768.848165	3251.924838
769.173846	3217.408057
769.499479	3200.971375
769.825066	3184.779189
770.150607	3167.253618
770.476101	3179.317099
770.801548	3180.022861
771.126949	3132.610809
771.452303	3116.978191
771.777611	3121.447173
772.102872	3125.618728
772.428087	3101.811879
772.753256	3089.937441
773.078378	3083.615834
773.403453	3048.204249
773.728482	3038.643701
774.053465	3059.698080
774.378401	3048.471430
774.703291	3017.475896
775.028135	3014.448683
775.352932	3011.343332
775.677683	2999.274810
776.002388	2997.845643
776.327046	2997.296157
776.651658	2987.062615
776.976224	2976.960143
777.300743	2975.762868
777.625216	2964.367340
777.949643	2959.386680
778.274024	2962.751650
778.598359	2952.109775
778.922647	2957.879375
779.246889	2956.102368
779.571086	2938.445727
779.895236	2935.819286
780.219339	2944.805143
780.543397	2958.592698
780.867409	2961.395580
781.191374	2955.499951
781.515294	2953.768314
781.839167	2953.506174
782.162995	2946.100719
782.486776	2952.684466
782.810511	2952.147583
783.134201	2935.955397
783.457844	2942.161058
783.781441	2935.652928
784.104993	2915.899167
784.428498	2915.392531
784.751958	2929.293512
785.075372	2923.102975
785.398739	2904.748134
785.722061	2924.199426
786.045337	2935.262238
786.368568	2923.158428
786.691752	2910.694175
787.014891	2957.846608
787.337983	2988.753922
787.661030	3018.529497
787.984031	3085.959971
788.306987	3127.030251
788.629897	3126.306846
788.952760	3103.384719
789.275579	3091.974068
789.598351	3033.403422
789.921078	2988.448932
790.243759	2979.873929
790.566395	2961.337607
790.888984	2936.880449
791.211529	2921.038623
791.534027	2913.454207
791.856480	2900.077505
792.178888	2884.901112
792.501249	2880.169989
792.823566	2876.247971
793.145836	2872.071375
793.468062	2868.527444
793.790241	2865.714480
794.112375	2872.928371
794.434464	2884.583519
794.756507	2889.917060
795.078505	2893.513923
795.400457	2909.161664
795.722364	2947.383693
796.044226	2973.632981
796.366042	2974.366469
796.687812	2962.423975
797.009538	2982.696976
797.331218	2970.101653
797.652852	2955.444498
797.974442	2936.751899
798.295986	2930.669747
798.617484	2928.378543
798.938938	2910.794998
799.260346	2897.219171
799.581709	2887.918242
799.903026	2886.519322
800.224299	2880.802653
800.545526	2870.037269
800.866708	2852.589836
801.187845	2844.062724
801.508936	2847.006758
801.829983	2854.603777
802.150984	2836.140551
802.471940	2824.540856
802.792851	2828.946824
803.113717	2826.393480
803.434538	2831.200220
803.755314	2821.284271
804.076045	2820.606235
804.396731	2818.393169
804.717372	2817.211018
805.037967	2813.352015
805.358518	2819.063642
805.679024	2832.306753
805.999485	2828.546053
806.319901	2832.465550
806.640272	2820.969198
806.960598	2830.212154
807.280879	2838.283041
807.601115	2844.536593
807.921306	2831.820282
808.241453	2829.256855
808.561554	2834.562670
808.881611	2838.651046
809.201623	2831.613595
809.521590	2831.497648
809.841513	2826.708552
810.161390	2831.628718
810.481223	2822.390804
810.801011	2816.296049
811.120755	2812.207673
811.440453	2813.047025
811.760107	2811.219607
812.079716	2812.656336
812.399281	2801.530509
812.718801	2795.846608
813.038276	2791.417955
813.357707	2798.730148
813.677093	2802.523617
813.996434	2796.784263
814.315731	2793.021042
814.634983	2788.978036
814.954191	2791.604477
815.273354	2805.848257
815.592473	2809.790440
815.911547	2814.158600
816.230577	2822.484065
816.549562	2831.691733
816.868502	2830.214675
817.187399	2837.337825
817.506250	2855.619569
817.825058	2849.368539
818.143821	2863.483769
818.462539	2880.346429
818.781213	2907.737538
819.099843	2941.009154
819.418429	2998.773215
819.736970	3061.767474
820.055466	3135.138947
820.373919	3240.526789
820.692327	3383.569529
821.010691	3555.745098
821.329011	3998.146677
821.647286	4899.900715
821.965517	6283.851201
822.283704	7036.742487
822.601847	7017.167687
822.919945	6384.822992
823.237999	5880.228698
823.556010	5292.604079
823.873976	4735.644800
824.191897	4321.617355
824.509775	4020.090820
824.827609	3751.079727
825.145398	3628.322590
825.463144	3612.768110
825.780845	3706.924261
826.098502	3813.388389
826.416116	4095.685442
826.733685	4412.252260
827.051210	4481.343794
827.368692	4361.122357
827.686129	4095.161162
828.003522	3767.130761
828.320872	3508.264990
828.638177	3310.447593
828.955439	3173.945750
829.272656	3089.687904
829.589830	3020.082173
829.906960	2971.863536
830.224046	2926.004159
830.541088	2889.095352
830.858086	2875.917775
831.175041	2859.980167
831.491952	2860.375898
831.808819	2872.653628
832.125642	2893.955024
832.442421	2943.249947
832.759157	3023.346320
833.075849	3202.201417
833.392497	3483.548213
833.709101	3693.265254
834.025662	3640.890186
834.342179	3480.125270
834.658653	3302.981644
834.975083	3152.165444
835.291469	3056.260013
835.607811	2969.917651
835.924110	2910.361459
836.240366	2856.766432
836.556578	2817.536173
836.872746	2794.641772
837.188871	2770.172012
837.504952	2753.707603
837.820990	2747.320461
838.136984	2731.806310
838.452935	2724.607543
838.768842	2722.175186
839.084706	2739.662949
839.400526	2818.859476
839.716303	2952.142542
840.032037	3034.502393
840.347727	3022.093593
840.663373	2957.307204
840.978977	2883.940772
841.294537	2811.486788
841.610054	2760.306474
841.925527	2736.131620
842.240957	2715.795606
842.556344	2695.646114
842.871687	2677.477795
843.186987	2668.559994
843.502244	2667.105621
843.817458	2662.782832
844.132629	2648.992756
844.447756	2642.232568
844.762840	2632.339304
845.077881	2636.263842
845.392879	2635.931126
845.707833	2631.734365
846.022745	2625.243880
846.337613	2627.638428
846.652438	2624.147429
846.967221	2627.860239
847.281960	2623.794548
847.596656	2622.884620
847.911309	2620.858076
848.225919	2618.518981
848.540485	2614.546551
848.855009	2618.806326
849.169490	2615.264916
849.483928	2613.724843
849.798323	2612.698968
850.112675	2611.635285
850.426984	2610.206118
850.741251	2610.077568
851.055474	2612.293156
851.369654	2616.051336
851.683792	2615.703496
851.997887	2613.193002
852.311938	2611.332816
852.625947	2612.608228
852.939914	2615.562344
853.253837	2616.469752
853.567718	2610.611931
853.881555	2612.134359
854.195350	2611.355501
854.509103	2611.758793
854.822812	2609.391972
855.136479	2612.212497
855.450103	2612.860285
855.763685	2614.448249
856.077224	2612.509925
856.390720	2608.363576
856.704173	2609.757455
857.017584	2617.452777
857.330953	2615.431274
857.644278	2620.492592
857.957561	2619.612911
858.270802	2614.092847
858.584000	2617.377159
858.897155	2621.407562
859.210268	2619.711213
859.523339	2614.150821
859.836367	2609.538165
860.149352	2610.077568
860.462295	2614.423043
860.775195	2607.229317
861.088054	2606.586569
861.400869	2607.993051
861.713642	2607.839296
862.026373	2609.155037
862.339062	2606.470623
862.651708	2613.263578
862.964312	2615.577467
863.276873	2613.999586
863.589392	2617.480503
863.901869	2619.481841
864.214303	2625.992491
864.526696	2628.601288
864.839045	2629.085239
865.151353	2633.198821
865.463619	2636.674696
865.775842	2633.735703
866.088023	2631.580610
866.400162	2633.856691
866.712258	2631.373923
867.024313	2632.142699
867.336325	2627.388891
867.648296	2631.618419
867.960224	2633.229067
868.272110	2632.760240
868.583954	2629.269241
868.895755	2628.182872
869.207515	2634.159160
869.519233	2639.800212
869.830909	2638.187042
870.142542	2634.922895
870.454134	2633.753347
870.765684	2641.158802
871.077191	2639.810294
871.388657	2645.698362
871.700081	2645.486633
872.011463	2642.706437
872.322803	2645.499236
872.634101	2646.835142
872.945357	2652.357726
873.256571	2660.882317
873.567744	2655.314362
873.878874	2654.129691
874.189963	2659.380053
874.501010	2660.718479
874.812015	2668.002947
875.122979	2665.835251
875.433900	2658.588592
875.744780	2657.343427
876.055618	2663.092863
876.366415	2667.279541
876.677169	2663.748213
876.987882	2661.414159
877.298554	2663.102945
877.609183	2671.461178
877.919771	2678.110460
878.230317	2687.789476
878.540822	2693.158304
878.851285	2709.027857
879.161707	2730.982082
879.472087	2773.473967
879.782425	2823.910712
880.092722	2937.109821
880.402977	3128.202320
880.713191	3390.551528
881.023363	3689.121426
881.333494	3883.543606
881.643583	4053.788413
881.953631	4055.020975
882.263637	3873.292420
882.573602	3647.988131
882.883526	3525.041950
883.193408	3407.855288
883.503248	3303.536171
883.813048	3185.878161
884.122806	3068.779719
884.432522	2986.555979
884.742197	2918.918818
885.051831	2880.641337
885.361424	2844.213959
885.670975	2809.480409
885.980485	2774.736777
886.289954	2761.493665
886.599382	2743.133783
886.908768	2732.350755
887.218113	2712.289483
887.527417	2699.623584
887.836680	2694.423634
888.145901	2686.607325
888.455082	2678.029802
888.764221	2664.877431
889.073319	2657.542552
889.382376	2659.402738
889.691392	2657.557676
890.000366	2661.560352
890.309300	2658.190341
890.618193	2659.984992
890.927044	2660.773932
891.235855	2661.520023
891.544625	2660.610095
891.853353	2662.543377
892.162041	2669.618637
892.470687	2689.006914
892.779293	2703.964018
893.087858	2710.698999
893.396381	2732.970817
893.704864	2778.361366
894.013306	2850.069259
894.321707	2943.670883
894.630068	2994.281547
894.938387	3014.294928
895.246665	3008.905934
895.554903	2963.341465
895.863100	2917.005700
896.171256	2861.394211
896.479371	2799.473718
896.787446	2758.584920
897.095480	2738.518607
897.403473	2730.775394
897.711425	2714.883157
898.019336	2698.048224
898.327207	2682.332427
898.635038	2682.110616
898.942827	2681.220852
899.250576	2668.867505
899.558284	2658.056750
899.865952	2654.354023
900.173579	2650.139618
900.481165	2648.334885
900.788711	2640.770634
901.096216	2635.137144
901.403681	2631.298306
901.711105	2634.270066
902.018489	2629.417955
902.325832	2633.793677
902.633135	2634.280148
902.940397	2652.824032
903.247619	2689.682429
903.554800	2760.805548
903.861941	2884.727192
904.169041	3018.942872
904.476101	3081.420412
904.783121	3071.413722
905.090100	3018.751308
905.397039	2940.182405
905.703938	2864.469315
906.010796	2800.653348
906.317614	2745.651839
906.624391	2712.849051
906.931129	2682.735719
907.237826	2660.431134
907.544483	2642.318268
907.851099	2628.069447
908.157675	2617.455297
908.464211	2609.964142
908.770707	2599.705394
909.077163	2596.663058
909.383578	2592.579723
909.689954	2594.122317
909.996289	2588.675350
910.302584	2590.989239
910.608839	2585.738878
910.915054	2587.142839
911.221229	2589.996132
911.527363	2592.310022
911.833458	2586.812643
912.139513	2590.941348
912.445527	2588.022520
912.751502	2596.973089
913.057436	2603.466095
913.363331	2607.252002
913.669186	2621.273971
913.975000	2632.757720
914.280775	2651.954433
914.586510	2669.941270
914.892205	2707.644060
915.197859	2775.936571
915.503475	2861.316073
915.809050	2930.289140
916.114585	2948.754887
916.420081	2958.408696
916.725536	2970.336066
917.030952	2942.660132
917.336328	2894.741444
917.641665	2845.166737
917.946961	2794.513223
918.252218	2760.790424
918.557435	2730.175497
918.862612	2712.309648
919.167750	2691.353571
919.472848	2675.292455
919.777906	2656.892244
920.082925	2644.828762
920.387904	2635.149747
920.692843	2629.614560
920.997743	2625.163221
921.302603	2621.773045
921.607423	2612.688886
921.912204	2605.474995
922.216946	2603.733276
922.521647	2603.370313
922.826310	2596.776484
923.130932	2591.304312
923.435516	2586.081676
923.740059	2586.878178
924.044564	2584.576892
924.349028	2580.488516
924.653454	2575.396951
924.957840	2572.276476
925.262186	2566.227092
925.566493	2569.297154
925.870761	2565.075188
926.174989	2562.489076
926.479178	2563.613253
926.783328	2561.959755
927.087438	2561.808520
927.391509	2558.844322
927.695541	2559.781977
927.999533	2559.305588
928.303486	2557.208468
928.607400	2557.894064
928.911275	2558.720814
929.215110	2554.077911
929.518906	2555.307952
929.822663	2553.115051
930.126381	2557.515978
930.430060	2554.491286
930.733699	2554.899619
931.037299	2556.008673
931.340861	2554.168652
931.644383	2558.274672
931.947866	2556.611091
932.251309	2558.773746
932.554714	2555.060936
932.858080	2560.379353
933.161407	2553.311656
933.464694	2552.442057
933.767943	2549.130018
934.071153	2552.018600
934.374323	2552.910884
934.677455	2553.291491
934.980548	2551.673281
935.283602	2550.493651
935.586617	2550.783517
935.889593	2553.909032
936.192530	2550.536500
936.495428	2552.618497
936.798287	2553.702345
937.101108	2555.360885
937.403890	2558.506565
937.706632	2561.238870
938.009336	2564.359344
938.312002	2568.208265
938.614628	2572.619275
938.917216	2574.192115
939.219765	2574.469378
939.522275	2578.199832
939.824747	2572.609193
940.127179	2569.095508
940.429573	2565.521330
940.731929	2570.254974
941.034246	2564.550908
941.336524	2566.242215
941.638763	2565.894376
941.940964	2565.879252
942.243126	2562.012687
942.545250	2561.926988
942.847335	2561.906823
943.149381	2561.828685
943.451389	2558.350289
943.753359	2557.064795
944.055290	2554.609753
944.357182	2556.263251
944.659036	2556.923642
944.960851	2556.169990
945.262628	2555.474311
945.564367	2557.087480
945.866067	2554.277037
946.167729	2557.095042
946.469352	2559.051009
946.770937	2553.490617
947.072484	2559.076215
947.373992	2555.723848
947.675462	2556.774928
947.976893	2554.599670
948.278286	2554.221584
948.579641	2554.874413
948.880958	2551.333003
949.182236	2553.601522
949.483476	2552.411810
949.784678	2552.011038
950.085841	2548.804864
950.386967	2554.531615
950.688054	2553.062118
950.989103	2553.964485
951.290114	2553.112530
951.591087	2556.280895
951.892021	2557.889023
952.192917	2557.757953
952.493776	2561.301884
952.794596	2560.394477
953.095378	2559.466904
953.396122	2563.890517
953.696828	2559.827347
953.997496	2558.617470
954.298126	2556.422047
954.598718	2556.863148
954.899272	2552.966337
955.199788	2553.823333
955.500266	2550.118085
955.800706	2547.405944
956.101108	2546.853937
956.401472	2545.245809
956.701798	2543.103319
957.002087	2543.904862
957.302337	2544.787064
957.602550	2542.397557
957.902724	2542.064841
958.202861	2542.226158
958.502960	2539.191384
958.803022	2542.105171
959.103045	2541.492670
959.403031	2542.405119
959.702979	2542.364790
960.002889	2539.614841
960.302762	2539.967721
960.602596	2541.419574
960.902393	2541.217928
961.202153	2537.237937
961.501875	2538.972093
961.801559	2540.113915
962.101205	2537.913451
962.400814	2537.379089
962.700385	2538.001671
962.999918	2539.468647
963.299414	2537.371527
963.598873	2538.634336
963.898293	2538.029398
964.197677	2535.927237
964.497022	2537.510159
964.796331	2536.113759
965.095601	2535.942360
965.394835	2534.082174
965.694030	2536.338091
965.993189	2536.605272
966.292309	2536.741383
966.591393	2535.435724
966.890439	2536.020498
967.189447	2537.563091
967.488419	2535.367668
967.787353	2536.958153
968.086249	2536.766589
968.385108	2536.209541
968.683930	2537.137113
968.982714	2536.259953
969.281462	2537.626105
969.580172	2536.015457
969.878844	2537.205169
970.177480	2535.763399
970.476078	2537.784902
970.774639	2536.847247
971.073162	2537.298430
971.371649	2536.179294
971.670098	2531.753161
971.968510	2535.725590
972.266885	2532.012781
972.565223	2536.791794
972.863524	2537.774819
973.161788	2536.819521
973.460014	2536.910262
973.758204	2538.704912
974.056356	2538.621733
974.354471	2538.674665
974.652550	2536.678368
974.950591	2537.953780
975.248595	2538.515869
975.546563	2538.813297
975.844493	2535.982689
976.142386	2536.519572
976.440243	2534.155271
976.738062	2537.840354
977.035845	2535.891948
977.333590	2538.604089
977.631299	2535.889428
977.928971	2534.286341
978.226606	2534.125024
978.524204	2536.592669
978.821765	2536.877494
979.119290	2535.566794
979.416777	2535.415559
979.714228	2534.286341
980.011642	2536.842206
980.309020	2537.653832
980.606360	2534.689633
980.903664	2533.850281
981.200931	2535.745755
981.498162	2537.593338
981.795356	2541.837989
982.092513	2540.774306
982.389633	2544.406457
982.686717	2547.048022
982.983764	2549.003990
983.280775	2554.254351
983.577749	2550.498692
983.874686	2547.645399
984.171587	2548.963660
984.468451	2545.049204
984.765279	2542.947043
985.062070	2541.984183
985.358824	2539.163657
985.655543	2540.761703
985.952224	2535.939839
986.248869	2535.660055
986.545478	2532.156453
986.842050	2533.603265
987.138586	2530.387008
987.435086	2533.348686
987.731549	2526.976668
988.027975	2536.829603
988.324366	2534.281300
988.620719	2532.995806
988.917037	2533.106711
989.213318	2536.106197
989.509563	2533.000847
989.805772	2536.242309
990.101944	2532.879859
990.398080	2534.215765
990.694180	2532.194262
990.990244	2533.784746
991.286271	2532.786598
991.582262	2534.417411
991.878217	2533.943543
992.174136	2531.957328
992.470019	2531.218799
992.765865	2534.021680
993.061676	2532.927750
993.357450	2534.629139
993.653188	2531.294416
993.948890	2530.238294
994.244556	2532.910106
994.540186	2531.309540
994.835780	2533.628470
995.131337	2534.258615
995.426859	2532.148892
995.722345	2535.801208
996.017795	2535.624767
996.313208	2536.733821
996.608586	2537.681558
996.903928	2536.426311
997.199234	2536.627957
997.494504	2536.882535
997.789738	2539.196425
998.084936	2536.028060
998.380099	2536.373379
998.675225	2531.397760
998.970316	2536.212062
999.265371	2533.510003
999.560390	2533.192411
999.855373	2533.308357
1000.150320	2531.652338
1000.445232	2531.916999
1000.740108	2530.210568
1001.034948	2532.277441
1001.329752	2531.175949
1001.624521	2531.816176
1001.919254	2527.309384
1002.213951	2528.864580
1002.508613	2527.997502
1002.803239	2531.241484
1003.097829	2524.120854
1003.392384	2531.138140
1003.686903	2531.909437
1003.981386	2530.444982
1004.275834	2532.133768
1004.570246	2533.608306
1004.864623	2532.106042
1005.158964	2530.810465
1005.453270	2530.903727
1005.747540	2530.704601
1006.041775	2531.067564
1006.335974	2530.452543
1006.630138	2532.446320
1006.924266	2532.297606
1007.218359	2531.609488
1007.512416	2532.549663
1007.806438	2532.403470
1008.100425	2531.135620
1008.394376	2530.984385
1008.688292	2529.083870
1008.982172	2530.197965
1009.276017	2528.844415
1009.569827	2526.918695
1009.863602	2530.860877
1010.157341	2528.730989
1010.451045	2531.962369
1010.744714	2531.175949
1011.038347	2530.235774
1011.331945	2531.997657
1011.625508	2529.950949
1011.919036	2529.396422
1012.212528	2531.682585
1012.505986	2529.162008
1012.799408	2529.058664
1013.092795	2530.959179
1013.386147	2529.913140
1013.679464	2527.193438
1013.972745	2531.685106
1014.265992	2531.450692
1014.559204	2529.162008
1014.852380	2527.697553
1015.145521	2531.271731
1015.438628	2529.787111
1015.731699	2527.934487
1016.024736	2532.990764
1016.317737	2530.722245
1016.610703	2532.718542
1016.903635	2527.687471
1017.196531	2526.109589
1017.489393	2527.092614
1017.782219	2526.046575
1018.075011	2526.722090
1018.367768	2529.154446
1018.660490	2530.460105
1018.953177	2530.460105
1019.245829	2530.460105
