Dividing Wavelength (nm)	Counts (n)	Blue Motor Position (mm): 3.900000	Red Motor Position (mm): 0.000000	
326.493990	2142.500467
326.888308	2142.500467
327.282561	2142.500467
327.676750	2108.465117
328.070874	2108.117277
328.464933	2111.280601
328.858929	2120.304267
329.252859	2127.354320
329.646726	2139.432925
330.040528	2156.000677
330.434265	2169.432831
330.827938	2186.779442
331.221547	2202.817873
331.615091	2222.727910
332.008571	2242.073338
332.401986	2261.496903
332.795338	2280.378545
333.188625	2300.263377
333.581847	2321.693322
333.975006	2336.947853
334.368100	2357.767818
334.761129	2375.152238
335.154095	2391.714948
335.546996	2409.830335
335.939833	2421.361974
336.332606	2434.597524
336.725315	2450.923300
337.117960	2459.029476
337.510540	2469.341156
337.903056	2480.409009
338.295508	2485.679536
338.687896	2498.083295
339.080220	2502.343070
339.472480	2509.622496
339.864676	2514.401510
340.256807	2518.797396
340.648875	2523.170597
341.040879	2524.413241
341.432818	2523.531039
341.824694	2523.500792
342.216506	2526.792666
342.608253	2525.237470
342.999937	2526.122192
343.391557	2527.551359
343.783113	2526.026410
344.174605	2525.242511
344.566033	2523.251255
344.957397	2522.787469
345.348697	2519.183044
345.739934	2518.746984
346.131106	2514.532580
346.522215	2516.579288
346.913260	2512.392610
347.304241	2509.257012
347.695159	2509.819101
348.086012	2507.608555
348.476802	2505.680313
348.867528	2504.833400
349.258191	2501.342401
349.648789	2505.140910
350.039324	2501.561691
350.429796	2503.384068
350.820203	2495.487100
351.210548	2497.954745
351.600828	2496.011380
351.991045	2495.792090
352.381198	2495.771926
352.771288	2493.352172
353.161314	2495.935763
353.551276	2494.677995
353.941175	2493.989878
354.331010	2494.617501
354.720782	2493.452995
355.110490	2496.003819
355.500135	2495.726555
355.889717	2493.568941
356.279235	2494.972903
356.668689	2498.148830
357.058080	2495.106493
357.447408	2494.988026
357.836672	2490.864362
358.225873	2493.778149
358.615010	2494.040289
359.004084	2498.174035
359.393095	2494.297388
359.782043	2496.371823
360.170927	2498.322749
360.559748	2501.004643
360.948505	2499.681340
361.337199	2502.138903
361.725830	2499.880466
362.114398	2502.953049
362.502903	2501.972545
362.891344	2503.076557
363.279722	2504.031856
363.668037	2500.777791
364.056289	2502.670745
364.444478	2505.801301
364.832603	2505.193842
365.220665	2503.550426
365.608665	2504.616630
365.996601	2507.883298
366.384474	2505.972700
366.772284	2507.427073
367.160031	2504.334325
367.547715	2505.871877
367.935336	2509.274656
368.322893	2509.055366
368.710388	2507.346415
369.097820	2511.147445
369.485189	2507.144769
369.872495	2507.908503
370.259738	2508.513442
370.646918	2508.614265
371.034035	2506.532268
371.421090	2510.585356
371.808081	2506.870026
372.195010	2508.820952
372.581875	2509.614934
372.968678	2509.894718
373.355418	2510.560150
373.742096	2509.221724
374.128710	2511.714575
374.515262	2510.396313
374.901751	2512.306910
375.288177	2510.603000
375.674540	2512.304390
376.060841	2509.057887
376.447079	2511.651560
376.833254	2512.906808
377.219367	2507.618637
377.605417	2510.900428
377.991404	2509.269615
378.377329	2513.325223
378.763191	2506.897752
379.148991	2515.684483
379.534727	2513.398320
379.920402	2514.038547
380.306013	2514.396468
380.691563	2512.984945
381.077049	2517.363188
381.462474	2513.453773
381.847835	2516.186078
382.233134	2515.823115
382.618371	2515.540810
383.003545	2516.551562
383.388657	2513.695748
383.773706	2516.607014
384.158693	2515.618948
384.543618	2518.043743
384.928480	2514.870337
385.313280	2518.981398
385.698017	2516.198681
386.082692	2518.893178
386.467305	2518.008455
386.851856	2516.261695
387.236344	2519.916532
387.620770	2519.132633
388.005133	2515.694566
388.389435	2518.326048
388.773674	2517.242200
389.157851	2516.841428
389.541965	2518.321007
389.926018	2520.607170
390.310008	2519.971985
390.693936	2521.849814
391.077802	2518.792355
391.461606	2519.591377
391.845348	2519.185565
392.229027	2520.705472
392.612645	2518.031140
392.996200	2519.404855
393.379694	2518.522653
393.763125	2522.270751
394.146494	2521.146573
394.529801	2522.895854
394.913047	2522.215298
395.296230	2522.787469
395.679351	2523.026924
396.062410	2520.430730
396.445408	2522.706811
396.828343	2521.325534
397.211217	2520.143384
397.594028	2521.612880
397.976778	2516.922087
398.359466	2520.730678
398.742092	2520.098013
399.124656	2522.109434
399.507158	2525.113962
399.889598	2524.652696
400.271977	2525.262676
400.654294	2521.370905
401.036549	2525.141688
401.418742	2523.089938
401.800874	2526.570855
402.182944	2526.646472
402.564952	2527.097656
402.946898	2527.289219
403.328783	2527.382481
403.710606	2524.476256
404.092367	2525.703777
404.474067	2527.629497
404.855705	2525.098838
405.237282	2530.318953
405.618797	2529.464477
406.000250	2528.965403
406.381642	2526.003725
406.762972	2525.484486
407.144240	2526.538087
407.525447	2533.326001
407.906593	2526.427182
408.287677	2531.851464
408.668700	2526.643952
409.049661	2529.714014
409.430560	2527.523633
409.811399	2529.938346
410.192176	2529.179652
410.572891	2528.221833
410.953545	2526.122192
411.334138	2529.487162
411.714669	2528.143695
412.095139	2527.997502
412.475547	2531.075126
412.855894	2529.242667
413.236180	2529.668644
413.616405	2531.201155
413.996568	2529.570342
414.376670	2529.328366
414.756711	2528.657893
415.136691	2530.399611
415.516609	2531.952287
415.896466	2531.498583
416.276262	2528.229395
416.655997	2526.263345
417.035670	2525.802079
417.415283	2527.579086
417.794834	2526.613705
418.174324	2530.767616
418.553753	2532.211906
418.933121	2533.464633
419.312428	2532.837009
419.691674	2532.983203
420.070859	2534.361958
420.449983	2530.911288
420.829045	2530.901206
421.208047	2532.499252
421.586988	2530.122348
421.965867	2537.232895
422.344686	2529.787111
422.723444	2537.643749
423.102141	2532.829448
423.480777	2531.745599
423.859352	2533.807431
424.237866	2533.963707
424.616319	2535.415559
424.994712	2536.418749
425.373044	2534.072092
425.751314	2533.764582
426.129524	2532.577390
426.507673	2535.342463
426.885762	2533.028573
427.263789	2534.364479
427.641756	2534.427493
428.019662	2534.298944
428.397508	2535.312216
428.775292	2535.448327
429.153016	2534.898841
429.530679	2534.765251
429.908282	2538.848585
430.285824	2535.705426
430.663305	2534.203162
431.040726	2534.107380
431.418086	2535.395395
431.795385	2537.195087
432.172624	2537.066537
432.549802	2534.495549
432.926920	2536.638039
433.303977	2536.093595
433.680974	2536.575025
434.057910	2537.074099
434.434786	2537.328677
434.811601	2538.160468
435.188355	2536.693492
435.565050	2538.268852
435.941683	2537.537885
436.318257	2536.955632
436.694770	2531.606968
437.071222	2537.537885
437.447614	2533.028573
437.823946	2536.489325
438.200218	2537.411856
438.576429	2538.861188
438.952580	2537.658873
439.328670	2536.121321
439.704700	2536.751465
440.080670	2539.564429
440.456580	2537.560570
440.832429	2540.300438
441.208218	2537.013605
441.583947	2540.302958
441.959616	2539.019984
442.335224	2541.525438
442.710773	2541.820345
443.086261	2540.804553
443.461689	2539.665252
443.837057	2539.468647
444.212365	2538.183153
444.587612	2538.815818
444.962800	2540.819676
445.337927	2540.207176
445.712995	2537.923533
446.088002	2539.125849
446.462949	2538.427649
446.837837	2539.536703
447.212664	2537.253060
447.587431	2539.647608
447.962139	2540.355890
448.336786	2541.417053
448.711374	2539.771116
449.085901	2541.396888
449.460369	2542.702547
449.834776	2540.307999
450.209124	2540.726415
450.583412	2540.161806
450.957640	2542.500901
451.331808	2542.465613
451.705917	2540.444110
452.079965	2544.817311
452.453954	2539.627443
452.827883	2543.466282
453.201752	2541.008720
453.575562	2542.906714
453.949311	2538.099974
454.323001	2540.146682
454.696632	2539.708102
455.070202	2540.751621
455.443713	2542.079965
455.817164	2539.456044
456.190556	2537.205169
456.563888	2539.829090
456.937160	2537.593338
457.310373	2540.547454
457.683526	2541.396888
458.056619	2540.708771
458.429653	2541.044008
458.802628	2542.919317
459.175542	2542.112732
459.548398	2543.236910
459.921194	2543.604914
460.293930	2543.486447
460.666607	2542.863864
461.039224	2543.148689
461.411782	2543.249512
461.784280	2543.420912
462.156719	2543.824204
462.529099	2543.025181
462.901419	2544.580377
463.273680	2542.848741
463.645882	2543.909904
464.018024	2544.260264
464.390106	2547.020296
464.762130	2542.528628
465.134094	2539.745911
465.505999	2545.248330
465.877845	2541.149872
466.249631	2543.645243
466.621358	2541.071734
466.993026	2543.378062
467.364634	2547.141283
467.736184	2544.804708
468.107674	2544.572815
468.479105	2541.172557
468.850477	2541.255736
469.221790	2546.682538
469.593043	2543.262115
469.964238	2545.452497
470.335373	2545.208001
470.706449	2543.975439
471.077467	2546.523742
471.448425	2544.484595
471.819324	2545.553320
472.190164	2544.061138
472.560945	2542.841179
472.931667	2545.424770
473.302330	2546.057435
473.672934	2547.821839
474.043479	2543.410829
474.413965	2544.812270
474.784393	2541.197763
475.154761	2542.692465
475.525070	2543.874616
475.895321	2543.980480
476.265513	2538.331867
476.635645	2547.441232
477.005719	2543.478885
477.375734	2546.460727
477.745691	2543.516694
478.115588	2546.223793
478.485427	2545.326468
478.855207	2546.405275
479.224928	2546.007024
479.594591	2543.138607
479.964194	2545.863351
480.333739	2544.610624
480.703226	2548.020965
481.072653	2543.783875
481.442022	2546.034750
481.811333	2546.256561
482.180584	2546.017106
482.549777	2547.557178
482.918912	2543.529297
483.287988	2546.375028
483.657005	2543.630120
484.025964	2547.930224
484.394864	2545.757487
484.763706	2547.998279
485.132489	2547.045501
485.501213	2546.254040
485.869879	2546.259081
486.238487	2545.840666
486.607036	2545.863351
486.975527	2547.975594
487.343959	2545.802857
487.712333	2547.642878
488.080648	2545.981818
488.448905	2547.143804
488.817104	2550.821326
489.185244	2547.418547
489.553326	2547.529452
489.921350	2547.219421
490.289315	2544.890408
490.657222	2548.686397
491.025070	2547.587425
491.392861	2547.320244
491.760593	2546.110367
492.128267	2545.853268
492.495883	2547.121119
492.863440	2551.960626
493.230939	2548.507436
493.598380	2549.621531
493.965763	2544.875285
494.333088	2546.251520
494.700354	2543.980480
495.067563	2547.559699
495.434713	2544.287990
495.801805	2548.041129
496.168839	2549.631613
496.535815	2550.022303
496.902733	2549.127498
497.269593	2549.669422
497.636395	2550.544062
498.003139	2548.139432
498.369825	2548.235214
498.736453	2549.566078
499.103023	2551.559855
499.469535	2548.116747
499.835989	2546.064997
500.202385	2546.821170
500.568723	2547.791592
500.935003	2548.981304
501.301226	2547.705893
501.667390	2547.375697
502.033497	2547.741181
502.399546	2549.742519
502.765537	2547.234545
503.131470	2547.816798
503.497345	2546.385110
503.863163	2549.399720
504.228923	2549.235883
504.594625	2549.268650
504.960269	2547.499205
505.325856	2547.776469
505.691385	2547.917621
506.056856	2547.537014
506.422270	2546.939637
506.787625	2547.899977
507.152924	2548.709082
507.518164	2551.804351
507.883347	2547.216901
508.248472	2550.395348
508.613540	2547.504246
508.978550	2549.006510
509.343503	2549.460214
509.708398	2549.843342
510.073236	2549.079607
510.438016	2552.104299
510.802738	2548.404092
511.167403	2547.819318
511.532010	2549.921480
511.896561	2548.830070
512.261053	2551.325441
512.625488	2545.525593
512.989866	2544.839997
513.354186	2546.339740
513.718449	2546.271684
514.082655	2549.298897
514.446803	2549.498023
514.810894	2548.819988
515.174927	2549.797971
515.538904	2550.148332
515.902822	2548.966181
516.266684	2551.612787
516.630488	2547.345450
516.994235	2551.353167
517.357925	2548.255378
517.721558	2549.482899
518.085133	2548.537683
518.448651	2548.885523
518.812112	2550.528939
519.175516	2548.625903
519.538863	2550.733105
519.902152	2551.567416
520.265385	2548.819987
520.628560	2551.988353
520.991678	2549.757642
521.354739	2551.816953
521.717743	2549.644216
522.080690	2550.972560
522.443580	2547.146324
522.806413	2549.394679
523.169189	2546.044832
523.531908	2548.998948
523.894569	2550.365101
524.257174	2549.019113
524.619722	2550.717982
524.982213	2550.453321
525.344647	2551.277550
525.707025	2546.397713
526.069345	2549.732436
526.431608	2549.855945
526.793815	2550.307128
527.155964	2551.537169
527.518057	2550.443239
527.880093	2551.196892
528.242072	2548.789741
528.603995	2552.694114
528.965860	2549.659340
529.327669	2552.525236
529.689421	2551.670760
530.051117	2552.603373
530.412755	2547.277394
530.774337	2552.621017
531.135862	2550.665050
531.497331	2551.007848
531.858743	2548.472148
532.220098	2549.089689
532.581396	2544.955943
532.942638	2550.372663
533.303824	2551.277550
533.664953	2552.573127
534.026025	2549.644216
534.387040	2551.363250
534.747999	2551.920297
535.108902	2548.651109
535.469748	2552.631100
535.830537	2549.414844
536.191270	2549.669422
536.551947	2549.137580
536.912567	2549.911397
537.273131	2551.806871
537.633638	2552.310987
537.994089	2550.682694
538.354483	2551.690925
538.714821	2550.680173
539.075103	2555.065977
539.435328	2550.410472
539.795497	2552.830225
540.155609	2550.528939
540.515665	2551.426264
540.875665	2552.336192
541.235609	2551.509443
541.595496	2550.707900
541.955328	2551.189330
542.315102	2549.351829
542.674821	2550.685214
543.034483	2553.430123
543.394090	2552.000956
543.753640	2556.187634
544.113134	2553.939279
544.472571	2552.013558
544.831953	2552.762170
545.191278	2553.344423
545.550548	2551.189330
545.909761	2550.148332
546.268918	2547.481561
546.628019	2551.542211
546.987064	2553.462890
547.346053	2551.569937
547.704986	2551.653116
548.063863	2550.889381
548.422684	2551.688404
548.781449	2553.258723
549.140158	2549.092210
549.498811	2551.375852
549.857408	2552.812581
550.215949	2550.380225
550.574434	2547.070707
550.932864	2549.248486
551.291237	2547.615152
551.649555	2551.264947
552.007817	2550.773435
552.366022	2551.496840
552.724173	2553.009186
553.082267	2550.949875
553.440305	2554.229146
553.798288	2549.999617
554.156215	2551.464073
554.514086	2553.344423
554.871902	2550.095399
555.229661	2551.509443
555.587365	2551.796789
555.945014	2553.331820
556.302606	2548.774617
556.660143	2549.545914
557.017625	2551.451470
557.375050	2553.989691
557.732421	2552.525236
558.089735	2552.676470
558.446994	2554.145967
558.804197	2552.986501
559.161345	2550.750749
559.518437	2550.874258
559.875474	2551.103630
560.232455	2552.048847
560.589381	2552.426933
560.946251	2553.087324
561.303065	2551.534649
561.659825	2550.481048
562.016528	2549.997097
562.373177	2551.098589
562.729770	2551.514484
563.086307	2554.065308
563.442789	2553.535987
563.799216	2550.390307
564.155587	2553.790565
564.511904	2552.787376
564.868164	2549.064483
565.224370	2553.215874
565.580520	2551.948023
565.936615	2552.900802
566.292654	2553.092365
566.648638	2556.169990
567.004567	2551.902653
567.360441	2550.556665
567.716260	2551.637993
568.072023	2549.470296
568.427732	2548.827549
568.783385	2548.814946
569.138982	2547.531973
569.494525	2548.605738
569.850013	2546.559030
570.205445	2550.917108
570.560823	2549.276212
570.916145	2552.936090
571.271412	2551.330482
571.626625	2554.594629
571.981782	2551.128836
572.336884	2556.159908
572.691931	2551.867365
573.046923	2551.126315
573.401860	2554.345092
573.756743	2551.998435
574.111570	2554.395504
574.466342	2554.829043
574.821059	2554.816440
575.175722	2551.827036
575.530330	2552.442057
575.884882	2553.089845
576.239380	2552.169834
576.593823	2553.924156
576.948211	2553.372149
577.302544	2553.752757
577.656823	2552.076573
578.011047	2553.659495
578.365216	2554.493806
578.719330	2550.879299
579.073389	2550.954916
579.427394	2548.414175
579.781344	2552.061449
580.135239	2553.929197
580.489080	2553.117571
580.842866	2555.565051
581.196597	2551.443908
581.550273	2552.467262
581.903895	2552.777293
582.257463	2553.813250
582.610975	2550.904505
582.964434	2551.012889
583.317837	2551.728733
583.671186	2547.685728
584.024481	2551.882488
584.377721	2553.052036
584.730906	2549.180430
585.084037	2555.728889
585.437113	2552.338713
585.790135	2553.903991
586.143103	2551.897612
586.496016	2552.837787
586.848874	2547.358053
587.201679	2551.907694
587.554428	2548.608259
587.907124	2550.465924
588.259765	2548.525080
588.612352	2556.848025
588.964884	2554.695452
589.317362	2553.581357
589.669786	2551.529608
590.022155	2551.937941
590.374470	2552.779814
590.726731	2552.477345
591.078937	2554.607232
591.431090	2552.333672
591.783188	2554.173693
592.135232	2552.439536
592.487222	2552.232849
592.839157	2554.927345
593.191038	2551.753939
593.542866	2552.184958
593.894639	2552.376522
594.246358	2551.690925
594.598022	2552.096738
594.949633	2551.680842
595.301190	2553.178065
595.652692	2552.873075
596.004141	2552.764690
596.355535	2553.261244
596.706876	2551.363250
597.058162	2553.626728
597.409395	2552.316028
597.760573	2551.766542
598.111698	2551.993394
598.462768	2554.897098
598.813785	2550.266799
599.164748	2552.147149
599.515657	2555.151677
599.866511	2553.772921
600.217312	2551.353167
600.568060	2553.331820
600.918753	2552.356357
601.269392	2552.706717
601.619978	2550.541542
601.970510	2551.703527
602.320988	2552.510112
602.671412	2553.072201
603.021783	2552.134546
603.372100	2551.842159
603.722363	2553.142777
604.072572	2552.908363
604.422728	2554.425751
604.772830	2549.094730
605.122878	2547.529452
605.472872	2550.289484
605.822813	2548.908208
606.172701	2549.175389
606.522534	2551.708569
606.872314	2554.944989
607.222041	2553.740154
607.571714	2549.505584
607.921333	2552.212684
608.270899	2551.978270
608.620411	2553.011707
608.969870	2552.918446
609.319276	2554.284598
609.668627	2557.052192
610.017926	2560.427244
610.367171	2559.121585
610.716362	2560.858263
611.065500	2553.972047
611.414585	2555.083621
611.763616	2555.116389
612.112594	2555.807027
612.461518	2556.051523
612.810389	2553.667057
613.159207	2554.022458
613.507971	2554.075390
613.856682	2552.837787
614.205340	2554.531615
614.553945	2555.282747
614.902496	2552.137067
615.250994	2552.265616
615.599439	2551.872406
615.947830	2555.151677
616.296169	2552.419371
616.644454	2555.481872
616.992686	2552.071532
617.340864	2552.842828
617.688990	2553.377191
618.037063	2554.743343
618.385082	2552.089176
618.733048	2554.304763
619.080961	2550.314690
619.428821	2553.404917
619.776628	2551.358208
620.124382	2557.402552
620.472083	2552.565565
620.819731	2555.723848
621.167326	2550.672612
621.514868	2554.551779
621.862357	2552.426933
622.209793	2552.333672
622.557176	2553.783003
622.904506	2551.360729
623.251783	2548.789741
623.599007	2551.937941
623.946179	2548.779658
624.293297	2548.973743
624.640363	2551.358208
624.987376	2553.651933
625.334336	2552.580688
625.681243	2551.842159
626.028097	2552.812581
626.374899	2552.568085
626.721647	2551.930379
627.068343	2551.065822
627.414987	2552.182437
627.761577	2553.762839
628.108115	2552.893240
628.454600	2553.505740
628.801032	2554.156049
629.147412	2555.189485
629.493739	2551.685883
629.840014	2550.644885
630.186236	2555.474311
630.532405	2553.498178
630.878521	2552.678991
631.224585	2553.535987
631.570597	2551.469114
631.916556	2554.355174
632.262462	2550.844011
632.608316	2552.520194
632.954117	2553.044474
633.299866	2553.974567
633.645562	2552.782334
633.991206	2553.402396
634.336797	2553.044474
634.682336	2553.044474
635.027823	2550.962478
635.373257	2550.271840
635.718639	2552.621018
636.063968	2552.605894
636.409245	2549.795451
636.754470	2553.135215
637.099642	2550.511295
637.444762	2553.276367
637.789829	2552.484906
638.134845	2553.205791
638.479808	2552.086655
638.824719	2550.816284
639.169577	2554.229146
639.514383	2553.104968
639.859137	2553.858621
640.203839	2554.546738
640.548489	2552.835267
640.893086	2550.879299
641.237632	2549.881150
641.582125	2548.141952
641.926566	2548.260419
642.270955	2548.560368
642.615292	2549.659340
642.959576	2550.849052
643.303809	2551.585060
643.647990	2552.805020
643.992118	2551.799309
644.336195	2552.583209
644.680219	2552.777293
645.024192	2553.901471
645.368112	2551.695966
645.711981	2555.247459
646.055797	2552.719320
646.399562	2551.212015
646.743274	2550.425595
647.086935	2552.094217
647.430544	2552.454659
647.774101	2553.208312
648.117606	2550.796120
648.461059	2554.004814
648.804460	2551.617828
649.147810	2553.006666
649.491108	2551.310317
649.834354	2552.381563
650.177548	2551.262427
650.520690	2549.248486
650.863781	2550.284443
651.206820	2555.512119
651.549807	2551.254865
651.892742	2554.110678
652.235626	2551.370811
652.578458	2551.610266
652.921238	2553.344423
653.263967	2554.498847
653.606644	2551.224618
653.949269	2553.052036
654.291843	2551.048177
654.634365	2553.596481
654.976836	2551.481717
655.319255	2552.200081
655.661622	2555.116389
656.003938	2553.523384
656.346203	2552.505071
656.688416	2553.170503
657.030577	2551.174206
657.372687	2550.695297
657.714746	2548.877961
658.056753	2550.203784
658.398708	2548.736808
658.740612	2552.164793
659.082465	2548.394010
659.424266	2551.232180
659.766016	2547.237065
660.107715	2552.918446
660.449362	2552.366439
660.790958	2551.975750
661.132503	2550.488609
661.473996	2551.353167
661.815438	2551.305276
662.156829	2551.849721
662.498168	2553.946841
662.839456	2551.169165
663.180693	2548.709082
663.521879	2551.307797
663.863013	2550.715461
664.204097	2551.786707
664.545129	2549.245965
664.886110	2550.108002
665.227040	2553.593960
665.567918	2553.362067
665.908746	2551.824515
666.249522	2553.127653
666.590248	2552.910884
666.930922	2550.707900
667.271545	2550.115564
667.612118	2552.742005
667.952639	2550.143290
668.293109	2550.465924
668.633528	2551.801830
668.973896	2550.077755
669.314213	2552.396686
669.654480	2549.770245
669.994695	2551.713610
670.334859	2549.210677
670.674973	2552.386604
671.015035	2550.901984
671.355047	2553.107489
671.695008	2552.862993
672.034918	2549.714792
672.374777	2552.172355
672.714585	2551.501881
673.054342	2553.059598
673.394049	2549.908877
673.733705	2551.985832
674.073310	2552.111861
674.412864	2551.819474
674.752368	2549.455173
675.091820	2549.490461
675.431223	2550.072714
675.770574	2551.829556
676.109875	2549.687066
676.449125	2548.323434
676.788324	2545.596170
677.127473	2548.267981
677.466571	2546.974925
677.805619	2550.909546
678.144616	2551.489278
678.483562	2552.729402
678.822458	2551.806871
679.161303	2554.350133
679.500098	2549.344267
679.838842	2550.241593
680.177535	2552.305945
680.516179	2551.310318
680.854771	2551.242262
681.193314	2552.996583
681.531805	2552.285781
681.870247	2550.470965
682.208638	2550.954916
682.546978	2551.267468
682.885268	2552.626059
683.223508	2550.818805
683.561697	2550.506253
683.899836	2551.958106
684.237925	2551.874927
684.575963	2551.622869
684.913951	2550.947354
685.251889	2554.135884
685.589776	2551.176727
685.927614	2553.442726
686.265401	2550.733105
686.603137	2551.910215
686.940824	2548.502395
687.278460	2553.341902
687.616046	2551.441387
687.953582	2548.726726
688.291068	2549.046839
688.628504	2550.254196
688.965889	2548.784699
689.303224	2549.180430
689.640510	2550.939793
689.977745	2550.551624
690.314930	2549.530790
690.652065	2550.556665
690.989150	2550.627241
691.326185	2552.167314
691.663170	2549.445091
692.000105	2552.903322
692.336990	2547.589946
692.673825	2550.559186
693.010610	2551.552293
693.347345	2547.063145
693.684030	2545.979297
694.020665	2545.820501
694.357251	2545.560882
694.693786	2548.472148
695.030272	2551.343085
695.366707	2552.550441
695.703093	2548.968702
696.039429	2551.320400
696.375716	2551.476676
696.711952	2549.495502
697.048139	2551.327962
697.384276	2550.670091
697.720363	2551.910215
698.056400	2552.633620
698.392388	2549.356870
698.728326	2550.889381
699.064214	2549.122457
699.400053	2548.547765
699.735842	2552.946172
700.071581	2550.344937
700.407270	2551.146480
700.742910	2550.639844
701.078501	2548.653629
701.414042	2548.978784
701.749533	2549.825698
702.084974	2549.147662
702.420366	2551.189330
702.755709	2550.518856
703.091002	2552.797458
703.426246	2550.826367
703.761440	2549.981973
704.096584	2551.869886
704.431679	2550.150852
704.766725	2552.184958
705.101721	2547.315203
705.436668	2549.351829
705.771565	2549.929041
706.106413	2551.012889
706.441212	2548.013403
706.775961	2551.501881
707.110661	2550.970040
707.445311	2551.854762
707.779913	2550.533980
708.114465	2549.848383
708.448967	2551.567416
708.783421	2548.177240
709.117825	2550.256716
709.452180	2550.849052
709.786485	2551.920297
710.120742	2550.352498
710.454949	2550.425595
710.789107	2546.755635
711.123216	2547.075748
711.457275	2546.871582
711.791286	2546.876623
712.125247	2544.719009
712.459159	2552.036244
712.793023	2550.876778
713.126837	2549.419885
713.460602	2549.722354
713.794318	2549.863506
714.127985	2547.481561
714.461602	2547.988197
714.795171	2550.954916
715.128691	2549.921480
715.462162	2552.071532
715.795584	2552.316028
716.128957	2551.053219
716.462281	2551.746377
716.795556	2550.458363
717.128782	2549.092210
717.461960	2551.413661
717.795088	2552.442057
718.128167	2552.227807
718.461198	2551.675801
718.794180	2552.719320
719.127113	2547.960471
719.459997	2551.753939
719.792833	2550.312169
720.125619	2549.908877
720.458357	2547.937786
720.791046	2550.319731
721.123686	2551.776624
721.456278	2551.300235
721.788821	2549.966850
722.121315	2548.094061
722.453761	2549.346788
722.786158	2547.834442
723.118506	2548.036088
723.450805	2547.494164
723.783056	2546.712785
724.115259	2547.312683
724.447412	2549.750080
724.779518	2552.991542
725.111574	2547.973074
725.443582	2550.223949
725.775542	2549.402241
726.107453	2550.193702
726.439315	2548.557847
726.771129	2553.351985
727.102895	2548.593136
727.434612	2549.440049
727.766281	2552.260575
728.097901	2548.507436
728.429473	2546.768238
728.760996	2547.436191
729.092471	2544.713968
729.423897	2550.473486
729.755276	2549.969371
730.086606	2546.024668
730.417887	2547.514329
730.749120	2548.522559
731.080305	2549.243444
731.411442	2550.584391
731.742530	2549.878630
732.073570	2550.407951
732.404562	2547.683207
732.735506	2551.701007
733.066401	2550.037426
733.397249	2551.703528
733.728048	2549.248486
734.058798	2551.940462
734.389501	2549.747560
734.720156	2549.276212
735.050762	2549.934083
735.381320	2552.270657
735.711831	2548.252858
736.042293	2551.726213
736.372707	2547.610111
736.703073	2548.630944
737.033391	2549.349309
737.363661	2546.574153
737.693883	2551.862324
738.024056	2550.526418
738.354182	2548.210008
738.684260	2549.387117
739.014290	2547.748742
739.344272	2547.254709
739.674207	2547.821839
740.004093	2552.963816
740.333931	2549.671942
740.663722	2550.720503
740.993464	2549.324103
741.323159	2549.359391
741.652806	2551.166645
741.982405	2550.574309
742.311956	2548.257899
742.641460	2550.735626
742.970915	2551.373332
743.300323	2549.682025
743.629683	2548.462066
743.958996	2548.399051
744.288260	2550.039947
744.617477	2548.114226
744.946647	2543.564585
745.275768	2547.957950
745.604842	2546.354863
745.933869	2546.463248
746.262847	2544.482075
746.591778	2550.100441
746.920662	2549.999617
747.249498	2549.586243
747.578286	2548.048691
747.907027	2549.714792
748.235720	2547.970553
748.564365	2549.306459
748.892963	2548.603218
749.221514	2549.896274
749.550017	2549.676984
749.878473	2550.337375
750.206881	2550.937272
750.535242	2551.627910
750.863555	2549.805533
751.191821	2549.719833
751.520039	2547.925183
751.848210	2550.360060
752.176334	2550.783517
752.504411	2551.590102
752.832440	2551.827036
753.160421	2548.802343
753.488356	2551.088507
753.816243	2550.319731
754.144082	2548.109185
754.471875	2549.818136
754.799620	2550.748229
755.127318	2544.535007
755.454969	2550.438198
755.782572	2549.772766
756.110129	2549.671943
756.437638	2548.671273
756.765100	2551.007848
757.092515	2547.567261
757.419882	2550.191181
757.747203	2548.656150
758.074477	2548.225131
758.401703	2550.201264
758.728882	2549.858465
759.056014	2548.504915
759.383099	2549.513146
759.710138	2548.696479
760.037129	2549.765204
760.364073	2549.437529
760.690970	2547.206818
761.017820	2549.477858
761.344623	2546.415357
761.671379	2548.772097
761.998088	2544.103988
762.324751	2548.817467
762.651366	2544.910573
762.977935	2549.334185
763.304456	2544.199770
763.630931	2546.717826
763.957359	2548.988866
764.283740	2548.361242
764.610074	2549.485420
764.936362	2549.465255
765.262602	2548.623383
765.588796	2549.029195
765.914943	2547.332847
766.241044	2548.411654
766.567097	2551.496840
766.893104	2549.782848
767.219064	2546.639688
767.544978	2548.812426
767.870845	2547.388300
768.196665	2547.869730
768.522438	2546.475851
768.848165	2550.070194
769.173846	2549.472817
769.499479	2549.450132
769.825066	2547.506767
770.150607	2549.359391
770.476101	2550.062632
770.801548	2548.704041
771.126949	2546.314534
771.452303	2548.623382
771.777611	2549.256047
772.102872	2548.552806
772.428087	2548.056253
772.753256	2550.297046
773.078378	2549.548434
773.403453	2550.077755
773.728482	2545.467620
774.053465	2549.770245
774.378401	2548.734288
774.703291	2545.402085
775.028135	2547.703372
775.352932	2548.348640
775.677683	2547.670604
776.002388	2551.212015
776.327046	2548.686397
776.651658	2549.104813
776.976224	2549.545914
777.300743	2547.393341
777.625216	2547.418547
777.949643	2547.917621
778.274024	2549.709751
778.598359	2542.105171
778.922647	2543.854451
779.246889	2544.230017
779.571086	2545.397044
779.895236	2546.420398
780.219339	2547.947868
780.543397	2547.955430
780.867409	2544.164482
781.191374	2546.735470
781.515294	2548.905687
781.839167	2547.567261
782.162995	2549.987015
782.486776	2546.783361
782.810511	2547.098433
783.134201	2549.689587
783.457844	2548.086500
783.781441	2547.226983
784.104993	2549.687066
784.428498	2549.011551
784.751958	2547.620193
785.075372	2545.525593
785.398739	2546.465769
785.722061	2546.901828
786.045337	2547.567261
786.368568	2548.676315
786.691752	2548.484751
787.014891	2548.777138
787.337983	2545.417209
787.661030	2547.383259
787.984031	2547.670604
788.306987	2547.025337
788.629897	2545.003834
788.952760	2549.946685
789.275579	2549.331665
789.598351	2547.562220
789.921078	2548.262940
790.243759	2545.081972
790.566395	2545.628937
790.888984	2548.149514
791.211529	2547.786551
791.534027	2545.361756
791.856480	2547.703372
792.178888	2547.741181
792.501249	2547.592467
792.823566	2549.591284
793.145836	2547.703372
793.468062	2548.280584
793.790241	2544.300593
794.112375	2547.819318
794.434464	2547.912580
794.756507	2549.344267
795.078505	2545.644061
795.400457	2545.424770
795.722364	2544.744215
796.044226	2545.891077
796.366042	2544.519883
796.687812	2545.054246
797.009538	2549.306459
797.331218	2547.098433
797.652852	2549.137580
797.974442	2545.200439
798.295986	2546.914431
798.617484	2548.696479
798.938938	2547.504246
799.260346	2549.966850
799.581709	2547.842004
799.903026	2546.359904
800.224299	2548.275543
800.545526	2546.934596
800.866708	2547.927703
801.187845	2548.646068
801.508936	2546.180943
801.829983	2546.359904
802.150984	2545.664225
802.471940	2546.521221
802.792851	2546.581715
803.113717	2545.616334
803.434538	2548.371325
803.755314	2546.001983
804.076045	2549.384597
804.396731	2546.339740
804.717372	2548.106664
805.037967	2549.288815
805.358518	2548.366284
805.679024	2546.561551
805.999485	2545.656663
806.319901	2545.144986
806.640272	2546.995090
806.960598	2548.434339
807.280879	2545.785213
807.601115	2547.496685
807.921306	2544.880326
808.241453	2544.716488
808.561554	2547.055584
808.881611	2547.340409
809.201623	2547.267312
809.521590	2549.586243
809.841513	2548.454504
810.161390	2548.245296
810.481223	2546.705223
810.801011	2547.668084
811.120755	2547.559699
811.440453	2550.753270
811.760107	2546.884184
812.079716	2547.431150
812.399281	2544.431663
812.718801	2543.637681
813.038276	2541.359080
813.357707	2550.329813
813.677093	2543.509132
813.996434	2549.906356
814.315731	2546.392672
814.634983	2543.718340
814.954191	2546.095244
815.273354	2548.131870
815.592473	2547.136242
815.911547	2548.958619
816.230577	2550.334854
816.549562	2546.664894
816.868502	2545.923845
817.187399	2548.066335
817.506250	2545.195398
817.825058	2546.468289
818.143821	2545.641540
818.462539	2546.493495
818.781213	2548.315872
819.099843	2548.089020
819.418429	2544.724050
819.736970	2548.792261
820.055466	2545.714637
820.373919	2547.310162
820.692327	2547.479041
821.010691	2546.450645
821.329011	2545.807898
821.647286	2549.450132
821.965517	2548.373845
822.283704	2544.935778
822.601847	2547.199257
822.919945	2547.400903
823.237999	2544.870243
823.556010	2548.512477
823.873976	2548.767055
824.191897	2547.970553
824.509775	2546.526262
824.827609	2549.613969
825.145398	2547.824360
825.463144	2547.731098
825.780845	2545.346633
826.098502	2548.401572
826.416116	2548.630944
826.733685	2546.385110
827.051210	2545.772610
827.368692	2549.492982
827.686129	2547.378218
828.003522	2545.923845
828.320872	2544.633309
828.638177	2545.581046
828.955439	2543.914945
829.272656	2543.201622
829.589830	2543.108360
829.906960	2546.458207
830.224046	2544.855120
830.541088	2546.289328
830.858086	2548.893084
831.175041	2545.631458
831.491952	2543.650284
831.808819	2547.637837
832.125642	2546.271684
832.442421	2545.888557
832.759157	2545.437373
833.075849	2547.105995
833.392497	2546.314534
833.709101	2547.884853
834.025662	2546.243958
834.342179	2546.831252
834.658653	2547.184133
834.975083	2545.535676
835.291469	2550.062632
835.607811	2548.845193
835.924110	2547.610111
836.240366	2545.606252
836.556578	2546.722868
836.872746	2545.744884
837.188871	2547.733619
837.504952	2548.313352
837.820990	2547.214380
838.136984	2545.873433
838.452935	2545.366797
838.768842	2547.501726
839.084706	2547.289997
839.400526	2545.152548
839.716303	2544.701365
840.032037	2545.951571
840.347727	2545.432332
840.663373	2547.075748
840.978977	2546.085162
841.294537	2546.979966
841.610054	2543.786395
841.925527	2549.858465
842.240957	2546.760676
842.556344	2549.172868
842.871687	2547.141283
843.186987	2547.511808
843.502244	2546.599359
843.817458	2545.772610
844.132629	2545.646581
844.447756	2545.180274
844.762840	2542.911755
845.077881	2540.706250
845.392879	2540.683565
845.707833	2545.439894
846.022745	2542.541230
846.337613	2545.386962
846.652438	2545.855789
846.967221	2548.557847
847.281960	2546.843855
847.596656	2545.898639
847.911309	2545.180274
848.225919	2547.295038
848.540485	2544.666077
848.855009	2546.420398
849.169490	2543.148689
849.483928	2545.089534
849.798323	2545.717157
850.112675	2545.641540
850.426984	2543.995603
850.741251	2544.277908
851.055474	2545.061807
851.369654	2547.428629
851.683792	2546.440563
851.997887	2545.187836
852.311938	2542.682383
852.625947	2545.230686
852.939914	2545.828063
853.253837	2545.843186
853.567718	2546.485933
853.881555	2546.425439
854.195350	2543.998124
854.509103	2546.939637
854.822812	2546.987528
855.136479	2549.223280
855.450103	2544.535007
855.763685	2544.683721
856.077224	2546.007024
856.390720	2543.851930
856.704173	2544.716488
857.017584	2545.034081
857.330953	2544.033412
857.644278	2548.492312
857.957561	2550.864175
858.270802	2548.782179
858.584000	2549.921480
858.897155	2548.257899
859.210268	2546.359904
859.523339	2546.760676
859.836367	2545.122301
860.149352	2543.146169
860.462295	2547.557178
860.775195	2542.614327
861.088054	2540.020653
861.400869	2544.315717
861.713642	2540.587783
862.026373	2545.336550
862.339062	2545.807898
862.651708	2545.601211
862.964312	2544.471992
863.276873	2545.482744
863.589392	2544.408978
863.901869	2544.804708
864.214303	2549.619010
864.526696	2544.381252
864.839045	2546.712785
865.151353	2543.836807
865.463619	2542.720191
865.775842	2546.876623
866.088023	2547.363094
866.400162	2545.601211
866.712258	2548.938455
867.024313	2544.545089
867.336325	2545.470141
867.648296	2546.753114
867.960224	2546.342260
868.272110	2543.055428
868.583954	2545.187836
868.895755	2545.770089
869.207515	2544.134235
869.519233	2548.341078
869.830909	2543.788916
870.142542	2546.107847
870.454134	2546.042312
870.765684	2547.395862
871.077191	2545.235727
871.388657	2547.030378
871.700081	2546.072559
872.011463	2544.255223
872.322803	2545.981818
872.634101	2547.776469
872.945357	2543.496529
873.256571	2545.220604
873.567744	2544.426622
873.878874	2547.199257
874.189963	2544.608103
874.501010	2545.815460
874.812015	2545.104657
875.122979	2545.046684
875.433900	2543.078113
875.744780	2544.439225
876.055618	2543.927548
876.366415	2549.268650
876.677169	2546.100285
876.987882	2542.997455
877.298554	2540.247505
877.609183	2542.044677
877.919771	2541.522917
878.230317	2543.655325
878.540822	2546.223793
878.851285	2546.823691
879.161707	2541.638864
879.472087	2546.453166
879.782425	2542.226158
880.092722	2547.728578
880.402977	2547.121119
880.713191	2545.281097
881.023363	2542.664739
881.333494	2546.959802
881.643583	2544.192208
881.953631	2544.920655
882.263637	2545.918803
882.573602	2546.256561
882.883526	2544.814791
883.193408	2544.729091
883.503248	2545.018957
883.813048	2544.676159
884.122806	2543.652805
884.432522	2547.141283
884.742197	2545.477703
885.051831	2546.397713
885.361424	2544.129194
885.670975	2542.624409
885.980485	2543.907383
886.289954	2544.655994
886.599382	2542.783206
886.908768	2545.087013
887.218113	2543.022661
887.527417	2544.577857
887.836680	2542.458051
888.145901	2544.971067
888.455082	2542.682383
888.764221	2544.293031
889.073319	2545.689431
889.382376	2544.570295
889.691392	2544.885367
890.000366	2543.534338
890.309300	2547.962991
890.618193	2544.081303
890.927044	2543.173895
891.235855	2545.288659
891.544625	2544.643392
891.853353	2544.046015
892.162041	2545.749925
892.470687	2546.720347
892.779293	2545.233207
893.087858	2541.212886
893.396381	2541.469985
893.704864	2544.240099
894.013306	2538.503266
894.321707	2547.905018
894.630068	2544.293031
894.938387	2545.901159
895.246665	2545.258412
895.554903	2545.646581
895.863100	2544.711447
896.171256	2545.805378
896.479371	2544.212373
896.787446	2547.005172
897.095480	2542.611807
897.403473	2546.556509
897.711425	2544.141797
898.019336	2545.089534
898.327207	2543.637681
898.635038	2543.761190
898.942827	2544.711447
899.250576	2546.473330
899.558284	2545.865871
899.865952	2544.335881
900.173579	2541.969059
900.481165	2544.265305
900.788711	2544.842517
901.096216	2543.239430
901.403681	2544.101468
901.711105	2547.393341
902.018489	2546.906870
902.325832	2546.445604
902.633135	2546.861499
902.940397	2544.610624
903.247619	2542.226158
903.554800	2545.626417
903.861941	2544.020809
904.169041	2544.643392
904.476101	2545.510470
904.783121	2545.623896
905.090100	2543.635161
905.397039	2543.158772
905.703938	2543.801519
906.010796	2545.775131
906.317614	2544.217414
906.624391	2543.425953
906.931129	2545.069369
907.237826	2541.812784
907.544483	2543.546941
907.851099	2545.364277
908.157675	2546.375028
908.464211	2543.695655
908.770707	2541.671631
909.077163	2542.067362
909.383578	2538.999820
909.689954	2543.814122
909.996289	2539.047711
910.302584	2543.100798
910.608839	2542.455531
910.915054	2543.521735
911.221229	2542.697506
911.527363	2544.093906
911.833458	2542.979811
912.139513	2543.168854
912.445527	2544.318237
912.751502	2539.912269
913.057436	2542.909235
913.363331	2546.773279
913.669186	2547.426108
913.975000	2544.996272
914.280775	2543.897301
914.586510	2541.490150
914.892205	2543.357897
915.197859	2542.861344
915.503475	2544.771941
915.809050	2546.213711
916.114585	2546.974925
916.420081	2544.285470
916.725536	2544.199770
917.030952	2546.178423
917.336328	2544.620706
917.641665	2545.528114
917.946961	2545.873433
918.252218	2542.637012
918.557435	2544.661036
918.862612	2543.864533
919.167750	2543.279759
919.472848	2545.351674
919.777906	2544.429142
920.082925	2542.016950
920.387904	2541.318751
920.692843	2544.038453
920.997743	2545.724719
921.302603	2544.681200
921.607423	2543.645243
921.912204	2543.768751
922.216946	2546.196067
922.521647	2543.597352
922.826310	2547.058104
923.130932	2545.639019
923.435516	2545.134904
923.740059	2542.521066
924.044564	2542.447969
924.349028	2542.412681
924.653454	2539.282124
924.957840	2543.546941
925.262186	2538.538554
925.566493	2542.533669
925.870761	2536.761548
926.174989	2543.327650
926.479178	2543.529297
926.783328	2542.488298
927.087438	2542.052238
927.391509	2543.546941
927.695541	2543.325130
927.999533	2544.471992
928.303486	2545.495347
928.607400	2541.628782
928.911275	2543.889739
929.215110	2542.957126
929.518906	2544.434184
929.822663	2541.550644
930.126381	2542.818494
930.430060	2543.181457
930.733699	2545.671787
931.037299	2541.558205
931.340861	2541.711961
931.644383	2542.828576
931.947866	2542.755479
932.251309	2543.110881
932.554714	2545.485264
932.858080	2545.233207
933.161407	2543.310006
933.464694	2543.892260
933.767943	2544.396375
934.071153	2542.841179
934.374323	2544.845038
934.677455	2543.650284
934.980548	2542.301776
935.283602	2545.568443
935.586617	2545.936447
935.889593	2543.990562
936.192530	2541.601055
936.495428	2540.313040
936.798287	2542.392516
937.101108	2544.111550
937.403890	2542.271529
937.706632	2544.003165
938.009336	2542.523586
938.312002	2544.784544
938.614628	2543.325130
938.917216	2546.158258
939.219765	2541.401930
939.522275	2543.793957
939.824747	2541.631302
940.127179	2539.990407
940.429573	2540.101312
940.731929	2543.141128
941.034246	2538.367155
941.336524	2541.573329
941.638763	2540.307999
941.940964	2543.103319
942.243126	2541.732125
942.545250	2543.297403
942.847335	2542.631971
943.149381	2544.202291
943.451389	2542.722712
943.753359	2542.732794
944.055290	2544.061138
944.357182	2544.529966
944.659036	2543.367980
944.960851	2542.175747
945.262628	2540.935623
945.564367	2542.964687
945.866067	2542.248843
946.167729	2543.478885
946.469352	2542.838658
946.770937	2544.839997
947.072484	2539.352701
947.373992	2543.350336
947.675462	2541.336395
947.976893	2544.603062
948.278286	2541.396888
948.579641	2544.706406
948.880958	2540.350849
949.182236	2543.110881
949.483476	2542.150541
949.784678	2544.023330
950.085841	2542.087527
950.386967	2543.201622
950.688054	2540.958308
950.989103	2542.775644
951.290114	2541.502753
951.591087	2542.843700
951.892021	2542.198432
952.192917	2543.988042
952.493776	2542.115253
952.794596	2542.745397
953.095378	2543.141128
953.396122	2544.260264
953.696828	2541.384286
953.997496	2542.866385
954.298126	2541.497712
954.598718	2542.609286
954.899272	2542.392516
955.199788	2543.007537
955.500266	2544.237579
955.800706	2541.079296
956.101108	2537.757175
956.401472	2539.740869
956.701798	2538.760365
957.002087	2538.788091
957.302337	2541.386806
957.602550	2542.029553
957.902724	2542.672300
958.202861	2541.860675
958.502960	2542.871426
958.803022	2542.122815
959.103045	2541.409491
959.403031	2542.019471
959.702979	2544.471992
960.002889	2543.027702
960.302762	2541.406971
960.602596	2544.792106
960.902393	2542.420243
961.202153	2542.868905
961.501875	2542.077444
961.801559	2543.637681
962.101205	2545.081972
962.400814	2543.652805
962.700385	2541.596014
962.999918	2538.941847
963.299414	2544.829914
963.598873	2541.984183
963.898293	2541.495191
964.197677	2543.733463
964.497022	2544.182126
964.796331	2542.163144
965.095601	2545.127342
965.394835	2542.616848
965.694030	2542.442928
965.993189	2540.953267
966.292309	2542.364790
966.591393	2540.827238
966.890439	2543.123484
967.189447	2543.355377
967.488419	2543.113401
967.787353	2541.684234
968.086249	2541.036446
968.385108	2543.017619
968.683930	2541.679193
968.982714	2543.627599
969.281462	2542.737835
969.580172	2547.133722
969.878844	2540.239944
970.177480	2540.968390
970.476078	2543.405788
970.774639	2543.748587
971.073162	2541.573329
971.371649	2536.817000
971.670098	2535.274407
971.968510	2540.229861
972.266885	2537.996630
972.565223	2542.329502
972.863524	2542.329502
973.161788	2542.911755
973.460014	2540.986034
973.758204	2544.726571
974.056356	2540.789429
974.354471	2543.854451
974.652550	2541.240613
974.950591	2539.057793
975.248595	2542.984852
975.546563	2543.332692
975.844493	2541.036446
976.142386	2541.507794
976.440243	2541.805222
976.738062	2540.237423
977.035845	2542.442928
977.333590	2541.003678
977.631299	2544.179605
977.928971	2543.357897
978.226606	2541.598535
978.524204	2541.530479
978.821765	2543.282280
979.119290	2541.510314
979.416777	2539.786240
979.714228	2544.335881
980.011642	2543.874616
980.309020	2542.841179
980.606360	2542.939482
980.903664	2541.356559
981.200931	2541.051569
981.498162	2541.979142
981.795356	2542.977290
982.092513	2540.277752
982.389633	2541.837989
982.686717	2541.170037
982.983764	2538.064686
983.280775	2541.379244
983.577749	2539.413194
983.874686	2542.153062
984.171587	2540.635674
984.468451	2547.085831
984.765279	2539.345139
985.062070	2542.266488
985.358824	2542.269008
985.655543	2544.625747
985.952224	2542.389996
986.248869	2540.338246
986.545478	2539.632485
986.842050	2541.175078
987.138586	2536.421270
987.435086	2538.485622
987.731549	2536.743903
988.027975	2544.111550
988.324366	2542.347146
988.620719	2542.831097
988.917037	2540.156765
989.213318	2543.562064
989.509563	2541.769934
989.805772	2541.301107
990.101944	2542.594162
990.398080	2542.465613
990.694180	2541.706919
990.990244	2542.909235
991.286271	2541.769934
991.582262	2542.881508
991.878217	2540.507125
992.174136	2544.328319
992.470019	2539.468647
992.765865	2542.213555
993.061676	2536.852288
993.357450	2540.842362
993.653188	2540.998637
993.948890	2542.029553
994.244556	2538.704912
994.540186	2542.170706
994.835780	2541.185160
995.131337	2539.050231
995.426859	2542.306817
995.722345	2540.761703
996.017795	2541.747249
996.313208	2540.529810
996.608586	2541.008720
996.903928	2537.182484
997.199234	2543.617517
997.494504	2541.691796
997.789738	2541.744728
998.084936	2540.358411
998.380099	2538.243647
998.675225	2542.079965
998.970316	2543.005017
999.265371	2542.810932
999.560390	2542.067362
999.855373	2540.754141
1000.150320	2541.568288
1000.445232	2540.257588
1000.740108	2542.843700
1001.034948	2539.347659
1001.329752	2539.670293
1001.624521	2542.261446
1001.919254	2539.486291
1002.213951	2539.314892
1002.508613	2537.757175
1002.803239	2540.189532
1003.097829	2537.127031
1003.392384	2541.197763
1003.686903	2540.597866
1003.981386	2543.103319
1004.275834	2544.013247
1004.570246	2541.364121
1004.864623	2542.495860
1005.158964	2540.391178
1005.453270	2541.674152
1005.747540	2541.250695
1006.041775	2542.155582
1006.335974	2540.507125
1006.630138	2543.597352
1006.924266	2542.228679
1007.218359	2542.216076
1007.512416	2541.722043
1007.806438	2542.710109
1008.100425	2542.679862
1008.394376	2542.256405
1008.688292	2542.211035
1008.982172	2541.112063
1009.276017	2542.377393
1009.569827	2542.727753
1009.863602	2543.335212
1010.157341	2542.117773
1010.451045	2538.651980
1010.744714	2540.144162
1011.038347	2541.734646
1011.331945	2541.752290
1011.625508	2541.328833
1011.919036	2543.642723
1012.212528	2539.687937
1012.505986	2541.038967
1012.799408	2543.879657
1013.092795	2540.824717
1013.386147	2541.747249
1013.679464	2540.791950
1013.972745	2543.776313
1014.265992	2542.185829
1014.559204	2543.554502
1014.852380	2539.950077
1015.145521	2542.576518
1015.438628	2540.484440
1015.731699	2542.531148
1016.024736	2538.470499
1016.317737	2543.655325
1016.610703	2542.458051
1016.903635	2536.544778
1017.196531	2538.241126
1017.489393	2539.834131
1017.782219	2534.107380
1018.075011	2539.032587
1018.367768	2542.296734
1018.660490	2542.649615
1018.953177	2542.649615
1019.245829	2542.649615
