Dividing Wavelength (nm)	Counts (n)	Blue Motor Position (mm): 20.900000	Red Motor Position (mm): 0.000000	
326.493990	2134.197687
326.888308	2134.197687
327.282561	2134.197687
327.676750	2100.648808
328.070874	2099.985896
328.464933	2101.339446
328.858929	2110.521908
329.252859	2118.459204
329.646726	2130.028652
330.040528	2142.934006
330.434265	2162.660041
330.827938	2176.452638
331.221547	2195.377130
331.615091	2214.551158
332.008571	2233.576473
332.401986	2253.993146
332.795338	2272.516866
333.188625	2290.188631
333.581847	2310.373411
333.975006	2328.342603
334.368100	2347.567044
334.761129	2365.039683
335.154095	2381.665408
335.546996	2403.584345
335.939833	2424.449681
336.332606	2436.767740
336.725315	2451.681994
337.117960	2461.933180
337.510540	2469.048769
337.903056	2478.687455
338.295508	2484.537714
338.687896	2496.633963
339.080220	2506.330622
339.472480	2509.037722
339.864676	2513.584843
340.256807	2521.446522
340.648875	2519.067098
341.040879	2525.504651
341.432818	2526.170083
341.824694	2528.289888
342.216506	2528.098325
342.608253	2529.530012
342.999937	2527.790814
343.391557	2524.322500
343.783113	2530.505476
344.174605	2527.437933
344.566033	2521.857376
344.957397	2522.621111
345.348697	2520.642458
345.739934	2518.104237
346.131106	2515.750018
346.522215	2515.576098
346.913260	2514.305728
347.304241	2511.563340
347.695159	2511.243227
348.086012	2509.274656
348.476802	2503.978924
348.867528	2506.867505
349.258191	2502.930364
349.648789	2503.605879
350.039324	2499.610764
350.429796	2502.663183
350.820203	2499.572956
351.210548	2497.284272
351.600828	2498.083295
351.991045	2497.296875
352.381198	2494.652789
352.771288	2494.352841
353.161314	2493.984837
353.551276	2491.484424
353.941175	2495.779487
354.331010	2491.537356
354.720782	2493.148005
355.110490	2491.781852
355.500135	2493.105155
355.889717	2492.686739
356.279235	2495.600526
356.668689	2494.060454
357.058080	2495.439209
357.447408	2495.204796
357.836672	2492.464929
358.225873	2491.781852
358.615010	2492.071719
359.004084	2498.007677
359.393095	2496.918788
359.782043	2500.409787
360.170927	2499.467091
360.559748	2498.332832
360.948505	2499.867863
361.337199	2500.719818
361.725830	2504.354490
362.114398	2501.428100
362.502903	2501.536485
362.891344	2502.935405
363.279722	2499.802328
363.668037	2503.754593
364.056289	2503.270642
364.444478	2505.965139
364.832603	2504.220899
365.220665	2506.398678
365.608665	2503.452123
365.996601	2504.548574
366.384474	2506.065962
366.772284	2509.549399
367.160031	2505.445900
367.547715	2506.282731
367.935336	2506.103770
368.322893	2506.174347
368.710388	2506.302896
369.097820	2509.584687
369.485189	2509.725839
369.872495	2508.894049
370.259738	2507.694254
370.646918	2508.944461
371.034035	2510.716426
371.421090	2508.677279
371.808081	2511.167609
372.195010	2507.782475
372.581875	2508.016888
372.968678	2510.335819
373.355418	2510.361025
373.742096	2512.306910
374.128710	2510.930675
374.515262	2513.337826
374.901751	2510.711385
375.288177	2512.533762
375.674540	2508.578977
376.060841	2513.438649
376.447079	2512.735408
376.833254	2510.421519
377.219367	2510.973525
377.605417	2511.459996
377.991404	2509.332629
378.377329	2510.776920
378.763191	2508.382372
379.148991	2513.388238
379.534727	2514.797240
379.920402	2514.830008
380.306013	2515.192971
380.691563	2516.327230
381.077049	2513.882271
381.462474	2514.774555
381.847835	2516.491068
382.233134	2515.465193
382.618371	2515.092148
383.003545	2517.993332
383.388657	2516.274298
383.773706	2516.836387
384.158693	2515.112312
384.543618	2515.354288
384.928480	2517.027951
385.313280	2517.937879
385.698017	2518.257992
386.082692	2518.787313
386.467305	2518.338651
386.851856	2518.716737
387.236344	2515.417302
387.620770	2519.651871
388.005133	2518.482324
388.389435	2519.392252
388.773674	2518.424350
389.157851	2517.292611
389.541965	2519.845956
389.926018	2520.783610
390.310008	2516.874196
390.693936	2521.297808
391.077802	2520.460977
391.461606	2520.329907
391.845348	2520.584485
392.229027	2519.034330
392.612645	2522.268230
392.996200	2522.001049
393.379694	2522.623632
393.763125	2522.162366
394.146494	2521.343178
394.529801	2522.779907
394.913047	2522.313601
395.296230	2523.047088
395.679351	2522.691687
396.062410	2521.990967
396.445408	2523.412572
396.828343	2523.195803
397.211217	2519.495596
397.594028	2520.914680
397.976778	2521.227232
398.359466	2522.154804
398.742092	2519.770338
399.124656	2523.248735
399.507158	2525.310567
399.889598	2524.072963
400.271977	2526.538088
400.654294	2523.142870
401.036549	2524.415762
401.418742	2524.206554
401.800874	2528.138654
402.182944	2525.416431
402.564952	2525.902902
402.946898	2528.360465
403.328783	2526.066740
403.710606	2526.152439
404.092367	2524.118334
404.474067	2527.231246
404.855705	2526.280989
405.237282	2526.162522
405.618797	2527.190917
406.000250	2528.428520
406.381642	2529.603109
406.762972	2526.129754
407.144240	2528.078160
407.525447	2530.240815
407.906593	2528.108407
408.287677	2528.161339
408.668700	2529.719056
409.049661	2531.440610
409.430560	2528.093283
409.811399	2528.171421
410.192176	2529.550177
410.572891	2530.112266
410.953545	2527.238808
411.334138	2526.873324
411.714669	2529.459436
412.095139	2528.373068
412.475547	2529.401463
412.855894	2530.094622
413.236180	2535.012267
413.616405	2532.900024
413.996568	2531.148223
414.376670	2531.254087
414.756711	2530.344159
415.136691	2532.582431
415.516609	2530.470187
415.896466	2535.183666
416.276262	2529.567821
416.655997	2530.853315
417.035670	2530.036648
417.415283	2531.082688
417.794834	2529.169570
418.174324	2528.799045
418.553753	2531.425486
418.933121	2531.861546
419.312428	2531.571680
419.691674	2531.909437
420.070859	2532.148892
420.449983	2532.317770
420.829045	2531.498583
421.208047	2532.232071
421.586988	2534.238450
421.965867	2533.109232
422.344686	2534.334232
422.723444	2538.173071
423.102141	2532.504293
423.480777	2533.570497
423.859352	2537.820190
424.237866	2537.142155
424.616319	2536.738862
424.994712	2535.564273
425.373044	2534.182997
425.751314	2536.897659
426.129524	2531.980013
426.507673	2537.048893
426.885762	2536.023018
427.263789	2540.852444
427.641756	2534.485467
428.019662	2537.152237
428.397508	2534.127545
428.775292	2535.801208
429.153016	2536.852288
429.530679	2536.378420
429.908282	2535.014788
430.285824	2536.569984
430.663305	2537.086702
431.040726	2535.178625
431.418086	2536.940508
431.795385	2537.805066
432.172624	2539.002340
432.549802	2536.718698
432.926920	2537.618544
433.303977	2538.384799
433.680974	2539.380427
434.057910	2538.803215
434.434786	2537.772299
434.811601	2538.702392
435.188355	2537.205169
435.565050	2541.401930
435.941683	2537.038811
436.318257	2540.020653
436.694770	2534.303985
437.071222	2535.539068
437.447614	2535.617206
437.823946	2537.220293
438.200218	2535.407998
438.576429	2543.292362
438.952580	2538.505787
439.328670	2541.298586
439.704700	2539.503935
440.080670	2540.794471
440.456580	2537.487474
440.832429	2541.361600
441.208218	2539.511497
441.583947	2541.086857
441.959616	2541.729605
442.335224	2543.756148
442.710773	2541.943854
443.086261	2542.911755
443.461689	2538.568801
443.837057	2540.464275
444.212365	2542.969728
444.587612	2540.764224
444.962800	2541.432177
445.337927	2543.778834
445.712995	2541.177598
446.088002	2545.644061
446.462949	2540.035777
446.837837	2544.121632
447.212664	2542.057280
447.587431	2544.882846
447.962139	2541.953936
448.336786	2545.833104
448.711374	2545.328988
449.085901	2541.908566
449.460369	2542.014430
449.834776	2543.665408
450.209124	2545.127342
450.583412	2545.460058
450.957640	2544.749256
451.331808	2545.860830
451.705917	2544.754297
452.079965	2546.470810
452.453954	2545.966694
452.827883	2543.678011
453.201752	2544.608103
453.575562	2544.197249
453.949311	2545.465100
454.323001	2545.109698
454.696632	2544.661036
455.070202	2546.422919
455.443713	2543.869574
455.817164	2546.208670
456.190556	2542.440407
456.563888	2544.900490
456.937160	2541.757331
457.310373	2548.404092
457.683526	2546.324616
458.056619	2547.199257
458.429653	2547.917621
458.802628	2549.132539
459.175542	2548.056253
459.548398	2548.295707
459.921194	2547.400903
460.293930	2547.705892
460.666607	2548.227652
461.039224	2550.357539
461.411782	2550.004659
461.784280	2549.608928
462.156719	2546.576674
462.529099	2550.554144
462.901419	2549.503064
463.273680	2545.359235
463.645882	2547.698331
464.018024	2552.008517
464.390106	2549.336706
464.762130	2550.786037
465.134094	2551.242262
465.505999	2551.585060
465.877845	2554.133364
466.249631	2554.365257
466.621358	2553.548590
466.993026	2555.320555
467.364634	2557.926832
467.736184	2553.541028
468.107674	2553.372149
468.479105	2552.540359
468.850477	2554.390463
469.221790	2552.933569
469.593043	2553.127653
469.964238	2552.179917
470.335373	2555.244938
470.706449	2552.830225
471.077467	2553.036913
471.448425	2555.207129
471.819324	2557.510937
472.190164	2560.729713
472.560945	2558.627552
472.931667	2556.835422
473.302330	2555.789383
473.672934	2555.678477
474.043479	2555.522202
474.413965	2558.766184
474.784393	2555.045813
475.154761	2556.482541
475.525070	2554.289639
475.895321	2558.357851
476.265513	2554.345092
476.635645	2562.431103
477.005719	2563.283058
477.375734	2564.964283
477.745691	2565.188614
478.115588	2567.764644
478.485427	2569.917216
478.855207	2573.851837
479.224928	2579.684452
479.594591	2582.787282
479.964194	2582.918352
480.333739	2583.051943
480.703226	2586.366501
481.072653	2593.764395
481.442022	2599.828903
481.811333	2604.013060
482.180584	2606.687393
482.549777	2611.063114
482.918912	2611.597476
483.287988	2617.712396
483.657005	2623.678602
484.025964	2627.484673
484.394864	2633.256794
484.763706	2637.965232
485.132489	2643.581077
485.501213	2649.184319
485.869879	2656.093221
486.238487	2664.012873
486.607036	2670.256342
486.975527	2678.906962
487.343959	2686.070442
487.712333	2698.070909
488.080648	2706.139276
488.448905	2716.108157
488.817104	2728.801783
489.185244	2743.811818
489.553326	2761.735641
489.921350	2791.128088
490.289315	2840.475943
490.657222	2860.781711
491.025070	2877.321737
491.392861	2890.547204
491.760593	2892.959396
492.128267	2899.507855
492.495883	2902.396436
492.863440	2904.022208
493.230939	2914.749783
493.598380	2930.495828
493.965763	2943.297838
494.333088	2953.480968
494.700354	2972.723053
495.067563	2996.918071
495.434713	3007.176819
495.801805	3038.885676
496.168839	3059.803944
496.535815	3083.484764
496.902733	3102.038731
497.269593	3127.032772
497.636395	3154.386073
498.003139	3190.841177
498.369825	3207.751727
498.736453	3252.686052
499.103023	3268.976541
499.469535	3306.414670
499.835989	3334.052796
500.202385	3362.636138
500.568723	3383.715723
500.935003	3434.802776
501.301226	3470.816779
501.667390	3519.249665
502.033497	3573.437027
502.399546	3593.122733
502.765537	3619.273719
503.131470	3667.618384
503.497345	3732.800503
503.863163	3721.669636
504.228923	3806.466884
504.594625	3852.787527
504.960269	3864.530894
505.325856	3940.422945
505.691385	3963.619814
506.056856	4027.763456
506.422270	4086.974328
506.787625	4106.138275
507.152924	4184.689534
507.518164	4224.333168
507.883347	4265.257255
508.248472	4300.215136
508.613540	4400.680291
508.978550	4436.374181
509.343503	4480.786746
509.708398	4568.049119
510.073236	4648.102642
510.438016	4704.876117
510.802738	4755.020474
511.167403	4827.779448
511.532010	4866.777814
511.896561	4970.678515
512.261053	5057.053645
512.625488	5086.824179
512.989866	5143.630422
513.354186	5207.902613
513.718449	5241.970730
514.082655	5355.701682
514.446803	5392.723915
514.810894	5494.409030
515.174927	5523.980438
515.538904	5585.606023
515.902822	5711.405497
516.266684	5730.186316
516.630488	5784.192197
516.994235	5863.124063
517.357925	5960.138548
517.721558	6061.359876
518.085133	6137.302338
518.448651	6207.545776
518.812112	6227.806173
519.175516	6306.014634
519.538863	6428.136586
519.902152	6456.167922
520.265385	6606.006138
520.628560	6617.961234
520.991678	6700.852927
521.354739	6786.161853
521.717743	6818.120248
522.080690	6878.130143
522.443580	7028.842999
522.806413	7074.006696
523.169189	7155.685992
523.531908	7248.909529
523.894569	7228.334060
524.257174	7302.749052
524.619722	7434.270235
524.982213	7462.198228
525.344647	7572.423057
525.707025	7605.603931
526.069345	7733.366934
526.431608	7760.632015
526.793815	7883.046354
527.155964	7833.171698
527.518057	7911.622134
527.880093	7958.104093
528.242072	8056.129330
528.603995	8068.815393
528.965860	8079.248061
529.327669	8173.353801
529.689421	8204.689613
530.051117	8249.147549
530.412755	8378.564050
530.774337	8354.505144
531.135862	8407.066734
531.497331	8471.734656
531.858743	8444.393958
532.220098	8601.309954
532.581396	8575.529493
532.942638	8617.151780
533.303824	8638.332188
533.664953	8712.868168
534.026025	8703.784008
534.387040	8824.789345
534.747999	8878.013847
535.108902	8971.580183
535.469748	8839.045728
535.830537	8969.851067
536.191270	9000.095470
536.551947	9059.749964
536.912567	9108.714691
537.273131	9098.392929
537.633638	9116.664591
537.994089	9168.253239
538.354483	9161.732506
538.714821	9318.948451
539.075103	9366.524340
539.435328	9382.454386
539.795497	9282.442935
540.155609	9447.891084
540.515665	9563.635976
540.875665	9379.366679
541.235609	9481.276125
541.595496	9508.349642
541.955328	9686.955202
542.315102	9611.408470
542.674821	9611.980641
543.034483	9641.483994
543.394090	9681.490591
543.753640	9654.346498
544.113134	9876.963852
544.472571	9779.281414
544.831953	9942.324932
545.191278	9796.786821
545.550548	9856.358136
545.909761	9995.289815
546.268918	10006.168625
546.628019	10104.486249
546.987064	10014.567187
547.346053	9968.100352
547.704986	10081.080171
548.063863	10095.336554
548.422684	10108.867011
548.781449	10061.006297
549.140158	10167.309108
549.498811	10080.170243
549.857408	9974.071599
550.215949	10204.565755
550.574434	10083.502446
550.932864	10198.355054
551.291237	10266.471125
551.649555	10242.283668
552.007817	10268.812741
552.366022	10253.195246
552.724173	10261.694631
553.082267	10261.689590
553.440305	10411.225337
553.798288	10234.623635
554.156215	10403.083873
554.514086	10392.285722
554.871902	10259.589950
555.229661	10302.205344
555.587365	10293.375763
555.945014	10209.012053
556.302606	10338.093318
556.660143	10246.578732
557.017625	10410.517055
557.375050	10316.607920
557.732421	10461.120157
558.089735	10386.221214
558.446994	10397.813347
558.804197	10437.005797
559.161345	10453.422315
559.518437	10308.534512
559.875474	10413.130893
560.232455	10440.711046
560.589381	10406.405994
560.946251	10405.506148
561.303065	10516.961018
561.659825	10464.235590
562.016528	10403.378781
562.373177	10286.197160
562.729770	10403.214943
563.086307	10330.327420
563.442789	10423.344271
563.799216	10311.176077
564.155587	10365.917967
564.511904	10319.761162
564.868164	10316.307972
565.224370	10327.484210
565.580520	10265.150342
565.936615	10275.714080
566.292654	10148.530810
566.648638	10278.632908
567.004567	10238.646476
567.360441	10229.514426
567.716260	10141.329522
568.072023	10235.500796
568.427732	10189.762407
568.783385	10103.538512
569.138982	10175.188431
569.494525	10196.562924
569.850013	10072.180014
570.205445	10151.895780
570.560823	10055.632427
570.916145	9976.095622
571.271412	10051.105471
571.626625	9998.385084
571.981782	9978.202824
572.336884	9952.505543
572.691931	9958.980905
573.046923	9903.437472
573.401860	9862.236121
573.756743	9795.962592
574.111570	9849.056024
574.466342	9822.463938
574.821059	9853.842600
575.175722	9749.256302
575.530330	9760.709803
575.884882	9756.865923
576.239380	9686.362866
576.593823	9661.283126
576.948211	9679.766517
577.302544	9561.763187
577.656823	9578.068799
578.011047	9577.100898
578.365216	9546.508656
578.719330	9477.560795
579.073389	9494.577209
579.427394	9439.121997
579.781344	9417.480323
580.135239	9368.354279
580.489080	9377.859374
580.842866	9280.320609
581.196597	9287.854614
581.550273	9324.453391
581.903895	9296.590933
582.257463	9364.041572
582.610975	9237.654804
582.964434	9267.964741
583.317837	9190.940952
583.671186	9171.214917
584.024481	9168.911109
584.377721	9083.705527
584.730906	9071.687416
585.084037	9095.791693
585.437113	9036.747179
585.790135	9051.989108
586.143103	8954.132750
586.496016	8929.226929
586.848874	8985.201381
587.201679	8971.222261
587.554428	8862.318215
587.907124	8910.962829
588.259765	8878.976707
588.612352	8881.419147
588.964884	8759.662678
589.317362	8773.508207
589.669786	8768.479656
590.022155	8826.823450
590.374470	8833.951642
590.726731	8775.018033
591.078937	8632.988564
591.431090	8734.855160
591.783188	8613.128939
592.135232	8611.636757
592.487222	8608.218855
592.839157	8667.550715
593.191038	8589.576668
593.542866	8535.941312
593.894639	8440.295500
594.246358	8493.323397
594.598022	8506.954677
594.949633	8403.663955
595.301190	8384.525215
595.652692	8408.959688
596.004141	8518.700566
596.355535	8294.573386
596.706876	8280.720295
597.058162	8217.859628
597.409395	8287.074670
597.760573	8351.142694
598.111698	8261.609281
598.462768	8246.626972
598.813785	8211.175058
599.164748	8179.950151
599.515657	8178.725150
599.866511	8084.173269
600.217312	8208.452834
600.568060	8066.070485
600.918753	8168.111001
601.269392	8138.083368
601.619978	8058.365082
601.970510	8114.032023
602.320988	8110.631765
602.671412	8173.295827
603.021783	8111.463555
603.372100	8082.532373
603.722363	8086.114113
604.072572	8056.325935
604.422728	8071.036022
604.772830	7999.771750
605.122878	8010.209459
605.472872	7999.960794
605.822813	8031.599075
606.172701	7974.321485
606.522534	8049.154893
606.872314	8049.338896
607.222041	8022.867797
607.571714	8079.658915
607.921333	8033.905403
608.270899	8042.288842
608.620411	8132.331411
608.969870	8034.706947
609.319276	8027.087242
609.668627	8039.866568
610.017926	8076.278822
610.367171	8127.139023
610.716362	8098.641380
611.065500	8095.281451
611.414585	8117.351623
611.763616	8107.806198
612.112594	8091.956810
612.461518	8109.621013
612.810389	8167.369951
613.159207	8107.042463
613.507971	8055.247128
613.856682	8177.119543
614.205340	8131.272769
614.553945	8204.835807
614.902496	8101.920651
615.250994	8153.834453
615.599439	8142.428842
615.947830	8155.056933
616.296169	8131.050958
616.644454	8139.890622
616.992686	8139.429356
617.340864	8193.508334
617.688990	8099.004343
618.037063	8189.888785
618.385082	8139.230230
618.733048	8223.475473
619.080961	8161.171852
619.428821	8181.969133
619.776628	8184.759411
620.124382	8140.523286
620.472083	8116.355995
620.819731	8147.217939
621.167326	8047.138432
621.514868	8051.826705
621.862357	7941.120446
622.209793	7957.418496
622.557176	7889.592292
622.904506	7861.787808
623.251783	7803.043242
623.599007	7747.197340
623.946179	7752.641786
624.293297	7715.543935
624.640363	7627.311140
624.987376	7617.342258
625.334336	7557.912095
625.681243	7510.676484
626.028097	7499.754824
626.374899	7478.334961
626.721647	7473.482851
627.068343	7403.897283
627.414987	7376.347378
627.761577	7324.564645
628.108115	7361.750717
628.454600	7259.468226
628.801032	7311.858417
629.147412	7274.332068
629.493739	7259.528720
629.840014	7195.160747
630.186236	7252.556804
630.532405	7134.119935
630.878521	7189.577669
631.224585	7144.744167
631.570597	7070.137611
631.916556	7106.101202
632.262462	7097.397650
632.608316	7061.169398
632.954117	7038.534617
633.299866	7021.845877
633.645562	7016.966041
633.991206	6937.093999
634.336797	6877.978908
634.682336	6840.563465
635.027823	6806.328989
635.373257	6798.749614
635.718639	6727.760086
636.063968	6744.201809
636.409245	6638.521580
636.754470	6636.900849
637.099642	6594.469457
637.444762	6538.457197
637.789829	6544.771242
638.134845	6485.046172
638.479808	6477.809596
638.824719	6476.408155
639.169577	6405.345530
639.514383	6431.105826
639.859137	6361.961360
640.203839	6365.228027
640.548489	6355.856522
640.893086	6328.488098
641.237632	6304.262833
641.582125	6322.249670
641.926566	6292.209434
642.270955	6306.460776
642.615292	6302.473224
642.959576	6317.334545
643.303809	6303.617566
643.647990	6316.006201
643.992118	6304.527494
644.336195	6249.218474
644.680219	6273.085817
645.024192	6263.132059
645.368112	6357.583117
645.711981	6381.561366
646.055797	6455.063909
646.399562	6413.940697
646.743274	6542.041457
647.086935	6593.614982
647.430544	6587.994095
647.774101	6610.061746
648.117606	6616.544670
648.461059	6604.718123
648.804460	6563.952833
649.147810	6479.458053
649.491108	6449.498476
649.834354	6423.014774
650.177548	6336.856413
650.520690	6254.443630
650.863781	6232.721298
651.206820	6251.486994
651.549807	6175.229459
651.892742	6115.070850
652.235626	6119.895234
652.578458	6111.292505
652.921238	6014.671230
653.263967	6055.645728
653.606644	5993.054762
653.949269	6000.755125
654.291843	5939.653820
654.634365	5991.204659
654.976836	5941.506444
655.319255	5940.641886
655.661622	5922.314771
656.003938	5917.414769
656.346203	5877.332555
656.688416	5908.194499
657.030577	5866.862079
657.372687	5835.158262
657.714746	5820.911961
658.056753	5857.964442
658.398708	5805.342358
658.740612	5794.254340
659.082465	5841.666392
659.424266	5834.313869
659.766016	5834.543241
660.107715	5811.386701
660.449362	5820.390202
660.790958	5819.276107
661.132503	5806.907636
661.473996	5842.659499
661.815438	5829.670966
662.156829	5828.360266
662.498168	5816.407690
662.839456	5792.275687
663.180693	5830.762376
663.521879	5830.094423
663.863013	5821.108566
664.204097	5839.460887
664.545129	5881.423452
664.886110	5872.898860
665.227040	5911.609881
665.567918	5874.098655
665.908746	5900.657974
666.249522	5904.043109
666.590248	5887.482918
666.930922	5919.983237
667.271545	5930.211738
667.612118	5939.293377
667.952639	5906.377163
668.293109	5927.396254
668.633528	5890.883177
668.973896	5890.626078
669.314213	5882.416559
669.654480	5862.945102
669.994695	5857.253639
670.334859	5850.107804
670.674973	5836.650444
671.015035	5846.982288
671.355047	5843.370302
671.695008	5830.742211
672.034918	5804.198016
672.374777	5809.871834
672.714585	5794.080420
673.054342	5801.833715
673.394049	5797.132839
673.733705	5829.842365
674.073310	5809.859232
674.412864	5775.486124
674.752368	5762.910966
675.091820	5764.587149
675.431223	5703.758067
675.770574	5705.313262
676.109875	5659.385830
676.449125	5660.709133
676.788324	5625.360562
677.127473	5574.568417
677.466571	5567.853600
677.805619	5558.603083
678.144616	5545.244025
678.483562	5520.696126
678.822458	5492.863916
679.161303	5484.679603
679.500098	5477.848839
679.838842	5458.213545
680.177535	5463.504236
680.516179	5476.855732
680.854771	5486.953163
681.193314	5567.888888
681.531805	5675.169683
681.870247	5831.158107
682.208638	5926.773672
682.546978	5943.659016
682.885268	5915.524337
683.223508	5833.464434
683.561697	5780.013080
683.899836	5750.930664
684.237925	5704.363005
684.575963	5665.823384
684.913951	5629.983301
685.251889	5691.545871
685.589776	5661.109905
685.927614	5632.977746
686.265401	5702.676739
686.603137	5682.827196
686.940824	5760.261839
687.278460	5781.777484
687.616046	5791.058248
687.953582	5858.334967
688.291068	5838.422409
688.628504	5907.826495
688.965889	5862.877047
689.303224	5809.113141
689.640510	5765.819712
689.977745	5689.852044
690.314930	5592.764462
690.652065	5538.425864
690.989150	5437.922901
691.326185	5370.522674
691.663170	5317.426721
692.000105	5242.177418
692.336990	5167.510367
692.673825	5140.925843
693.010610	5069.742230
693.347345	5003.919884
693.684030	4986.739632
694.020665	4946.894352
694.357251	4862.011403
694.693786	4868.529615
695.030272	4836.228422
695.366707	4800.461435
695.703093	4769.730561
696.039429	4786.767141
696.375716	4774.728865
696.711952	4745.480091
697.048139	4733.479624
697.384276	4712.931881
697.720363	4725.993511
698.056400	4734.639089
698.392388	4683.612530
698.728326	4664.461187
699.064214	4644.157940
699.400053	4635.298112
699.735842	4602.462556
700.071581	4576.112445
700.407270	4550.369793
700.742910	4535.647103
701.078501	4479.748269
701.414042	4482.412518
701.749533	4451.283393
702.084974	4386.746542
702.420366	4447.394143
702.755709	4387.248137
703.091002	4331.492975
703.426246	4376.112228
703.761440	4335.979602
704.096584	4297.994508
704.431679	4317.342456
704.766725	4302.178666
705.101721	4294.380001
705.436668	4315.938495
705.771565	4267.135085
706.106413	4296.761946
706.441212	4324.899146
706.775961	4335.881300
707.110661	4314.428669
707.445311	4343.669882
707.779913	4366.314745
708.114465	4381.680182
708.448967	4402.764808
708.783421	4459.971822
709.117825	4502.471270
709.452180	4511.603320
709.786485	4553.586049
710.120742	4637.138133
710.454949	4622.120536
710.789107	4688.454558
711.123216	4758.556844
711.457275	4753.979476
711.791286	4828.916228
712.125247	4845.441130
712.459159	4746.442951
712.793023	4817.903827
713.126837	4781.330256
713.460602	4773.939925
713.794318	4697.258934
714.127985	4702.267320
714.461602	4615.481336
714.795171	4587.346656
715.128691	4526.386503
715.462162	4468.440961
715.795584	4417.968928
716.128957	4397.849683
716.462281	4346.775233
716.795556	4321.892098
717.128782	4283.907003
717.461960	4217.078948
717.795088	4227.335175
718.128167	4187.068959
718.461198	4124.578816
718.794180	4124.583857
719.127113	4103.852112
719.459997	4081.177002
719.792833	4040.636042
720.125619	4033.349054
720.458357	3992.329186
720.791046	4000.389991
721.123686	3970.417810
721.456278	3936.427831
721.788821	3947.238585
722.121315	3921.337137
722.453761	3898.415010
722.786158	3911.562339
723.118506	3929.574382
723.450805	3885.320613
723.783056	3904.240063
724.115259	3919.786982
724.447412	3926.264864
724.779518	3919.665994
725.111574	3925.561623
725.443582	3953.461889
725.775542	3941.380764
726.107453	3991.628465
726.439315	3990.428671
726.771129	4005.264786
727.102895	4039.176628
727.434612	4089.018516
727.766281	4096.766770
728.097901	4098.485803
728.429473	4104.343624
728.760996	4111.086167
729.092471	4105.296402
729.423897	4089.757045
729.755276	4099.252059
730.086606	4094.591512
730.417887	4132.616935
730.749120	4197.080690
731.080305	4263.049229
731.411442	4286.112508
731.742530	4258.676028
732.073570	4260.521091
732.404562	4315.260460
732.735506	4310.110921
733.066401	4274.170015
733.397249	4209.451682
733.728048	4127.091831
734.058798	4047.000499
734.389501	3975.438800
734.720156	3916.936209
735.050762	3870.658417
735.381320	3864.977037
735.711831	3813.138852
736.042293	3785.909059
736.372707	3809.484015
736.703073	3779.869757
737.033391	3770.135289
737.363661	3788.621200
737.693883	3813.995848
738.024056	3822.999348
738.354182	3819.175633
738.684260	3880.183677
739.014290	3900.469280
739.344272	3895.554155
739.674207	3936.253911
740.004093	3941.400929
740.333931	3936.029579
740.663722	3938.169549
740.993464	3934.635700
741.323159	3915.141558
741.652806	3883.354563
741.982405	3854.173844
742.311956	3826.878516
742.641460	3814.000889
742.970915	3791.103968
743.300323	3751.472937
743.629683	3715.128738
743.958996	3709.086916
744.288260	3681.136238
744.617477	3649.903769
744.946647	3634.003970
745.275768	3609.312399
745.604842	3604.641770
745.933869	3561.471849
746.262847	3553.673184
746.591778	3591.454111
746.920662	3561.325655
747.249498	3530.438506
747.578286	3575.750917
747.907027	3595.461828
748.235720	3593.606684
748.564365	3616.354891
748.892963	3615.613841
749.221514	3599.701439
749.550017	3574.049527
749.878473	3574.286462
750.206881	3543.633726
750.535242	3539.555432
750.863555	3543.542985
751.191821	3534.698281
751.520039	3520.058770
751.848210	3495.407528
752.176334	3531.988660
752.504411	3536.276162
752.832440	3496.773680
753.160421	3481.748521
753.488356	3489.506857
753.816243	3501.812313
754.144082	3456.668781
754.471875	3443.188735
754.799620	3463.670943
755.127318	3456.857824
755.454969	3455.723564
755.782572	3460.724389
756.110129	3435.064916
756.437638	3426.028648
756.765100	3440.577418
757.092515	3452.474541
757.419882	3455.206846
757.747203	3428.753391
758.074477	3432.352775
758.401703	3450.994962
758.728882	3466.536839
759.056014	3471.033549
759.383099	3478.070999
759.710138	3475.986482
760.037129	3490.837722
760.364073	3523.388452
760.690970	3509.331194
761.017820	3485.713389
761.344623	3503.617047
761.671379	3550.343502
761.998088	3600.901233
762.324751	3725.828588
762.651366	3970.153150
762.977935	4442.877269
763.304456	4874.190831
763.630931	4965.710458
763.957359	4607.692753
764.283740	4271.548615
764.610074	4081.842434
764.936362	3886.585942
765.262602	3727.270358
765.588796	3619.772793
765.914943	3531.771891
766.241044	3444.817028
766.567097	3416.833583
766.893104	3369.550081
767.219064	3341.627129
767.544978	3310.377017
767.870845	3261.563524
768.196665	3240.385637
768.522438	3249.371493
768.848165	3246.102305
769.173846	3207.381202
769.499479	3193.139943
769.825066	3171.896521
770.150607	3158.482010
770.476101	3174.553209
770.801548	3169.176818
771.126949	3122.314252
771.452303	3105.111314
771.777611	3116.731174
772.102872	3117.862913
772.428087	3091.830395
772.753256	3083.651122
773.078378	3077.924372
773.403453	3042.560678
773.728482	3032.266641
774.053465	3056.091134
774.378401	3039.954401
774.703291	3007.171778
775.028135	3010.284690
775.352932	3003.433762
775.677683	2994.528564
776.002388	2991.027482
776.327046	2990.629231
776.651658	2979.712613
776.976224	2970.036118
777.300743	2970.832620
777.625216	2963.699387
777.949643	2956.760239
778.274024	2960.173100
778.598359	2949.150617
778.922647	2953.014662
779.246889	2950.688169
779.571086	2935.980603
779.895236	2930.170673
780.219339	2940.936057
780.543397	2955.368881
780.867409	2957.246710
781.191374	2948.873354
781.515294	2947.038374
781.839167	2946.569547
782.162995	2940.205090
782.486776	2945.412602
782.810511	2944.653908
783.134201	2932.963472
783.457844	2937.661828
783.781441	2929.333842
784.104993	2907.828279
784.428498	2910.575708
784.751958	2922.621545
785.075372	2915.992428
785.398739	2900.989954
785.722061	2921.005855
786.045337	2931.128492
786.368568	2913.008065
786.691752	2905.486663
787.014891	2952.928962
787.337983	2982.560864
787.661030	3011.751666
787.984031	3079.857654
788.306987	3124.560086
788.629897	3112.743621
788.952760	3099.145109
789.275579	3083.933427
789.598351	3021.554189
789.921078	2981.787047
790.243759	2972.357569
790.566395	2955.399128
790.888984	2932.298040
791.211529	2915.289187
791.534027	2905.211920
791.856480	2896.074829
792.178888	2881.163096
792.501249	2874.549102
792.823566	2872.119266
793.145836	2869.013915
793.468062	2866.914275
793.790241	2862.092411
794.112375	2865.732124
794.434464	2882.728374
794.756507	2883.582850
795.078505	2889.133160
795.400457	2903.916344
795.722364	2941.752724
796.044226	2962.484469
796.366042	2968.352372
796.687812	2956.677060
797.009538	2975.132724
797.331218	2961.783749
797.652852	2951.262861
797.974442	2931.698143
798.295986	2927.405600
798.617484	2921.255393
798.938938	2906.666293
799.260346	2892.208264
799.581709	2886.426061
799.903026	2880.283415
800.224299	2874.677652
800.545526	2868.923174
800.866708	2846.749659
801.187845	2839.324040
801.508936	2840.261694
801.829983	2848.962726
802.150984	2836.289265
802.471940	2823.318376
802.792851	2824.639158
803.113717	2821.233859
803.434538	2826.998418
803.755314	2821.838797
804.076045	2814.592139
804.396731	2815.595328
804.717372	2814.607262
805.037967	2810.322282
805.358518	2814.534166
805.679024	2826.532112
805.999485	2824.555979
806.319901	2827.280723
806.640272	2817.853765
806.960598	2824.490444
807.280879	2833.720797
807.601115	2841.456448
807.921306	2828.011690
808.241453	2825.234015
808.561554	2831.724500
808.881611	2831.676609
809.201623	2825.254179
809.521590	2824.956751
809.841513	2820.913746
810.161390	2825.665033
810.481223	2818.902325
810.801011	2809.845892
811.120755	2806.871612
811.440453	2809.102322
811.760107	2810.108032
812.079716	2808.325985
812.399281	2798.276444
812.718801	2790.437450
813.038276	2787.024589
813.357707	2791.183541
813.677093	2798.115127
813.996434	2795.234108
814.315731	2787.201029
814.634983	2782.606018
814.954191	2786.223046
815.273354	2800.676034
815.592473	2809.699699
815.911547	2811.391006
816.230577	2817.884012
816.549562	2829.652586
816.868502	2825.823830
817.187399	2835.838082
817.506250	2850.822912
817.825058	2845.053311
818.143821	2854.351719
818.462539	2871.360572
818.781213	2899.217988
819.099843	2933.888524
819.418429	2989.830208
819.736970	3047.911862
820.055466	3121.908439
820.373919	3226.444326
820.692327	3367.652086
821.010691	3529.309287
821.329011	3962.825833
821.647286	4845.635215
821.965517	6204.311876
822.283704	6924.120590
822.601847	6892.923409
822.919945	6277.474142
823.237999	5785.134893
823.556010	5208.888158
823.873976	4668.476466
824.191897	4273.020632
824.509775	3982.998010
824.827609	3717.389696
825.145398	3596.260851
825.463144	3588.752053
825.780845	3678.431659
826.098502	3779.905045
826.416116	4062.340730
826.733685	4368.391701
827.051210	4425.830608
827.368692	4313.874143
827.686129	4051.676169
828.003522	3736.346955
828.320872	3480.115187
828.638177	3289.879685
828.955439	3157.864469
829.272656	3074.130903
829.589830	3009.266377
829.906960	2963.538070
830.224046	2917.943354
830.541088	2883.784496
830.858086	2868.822351
831.175041	2852.093282
831.491952	2852.988087
831.808819	2865.832947
832.125642	2887.981257
832.442421	2933.449944
832.759157	3012.901049
833.075849	3188.343285
833.392497	3464.006180
833.709101	3664.513033
834.025662	3611.727111
834.342179	3454.400262
834.658653	3281.957512
834.975083	3136.999133
835.291469	3039.626726
835.607811	2960.294088
835.924110	2900.422824
836.240366	2849.975998
836.556578	2810.551654
836.872746	2788.635238
837.188871	2764.097421
837.504952	2747.406161
837.820990	2738.468195
838.136984	2727.710373
838.452935	2721.471945
838.768842	2717.580174
839.084706	2737.593555
839.400526	2817.566420
839.716303	2942.544185
840.032037	3021.652492
840.347727	3006.448372
840.663373	2946.430915
840.978977	2875.809391
841.294537	2804.366158
841.610054	2757.014600
841.925527	2737.722104
842.240957	2713.912735
842.556344	2695.452029
842.871687	2675.284893
843.186987	2666.500683
843.502244	2665.792401
843.817458	2659.622028
844.132629	2647.404792
844.447756	2640.047228
844.762840	2635.381640
845.077881	2636.498256
845.392879	2632.467853
845.707833	2631.883079
846.022745	2620.953858
846.337613	2627.716566
846.652438	2624.381842
846.967221	2623.784466
847.281960	2624.031482
847.596656	2619.307921
847.911309	2621.281533
848.225919	2618.115688
848.540485	2614.110492
848.855009	2614.574278
849.169490	2613.485388
849.483928	2614.523866
849.798323	2615.640482
850.112675	2614.226438
850.426984	2613.029164
850.741251	2613.571088
851.055474	2612.845162
851.369654	2616.615945
851.683792	2616.492437
851.997887	2612.484719
852.311938	2613.165275
852.625947	2614.861623
852.939914	2616.426902
853.253837	2618.498816
853.567718	2610.637137
853.881555	2612.076386
854.195350	2614.191150
854.509103	2614.057559
854.822812	2610.821139
855.136479	2609.626385
855.450103	2613.193002
855.763685	2615.196860
856.077224	2612.328444
856.390720	2611.564709
856.704173	2613.321551
857.017584	2619.010493
857.330953	2617.127622
857.644278	2618.322376
857.957561	2619.000411
858.270802	2615.237189
858.584000	2614.279370
858.897155	2621.044599
859.210268	2619.698611
859.523339	2613.845831
859.836367	2611.781478
860.149352	2611.841972
860.462295	2613.313989
860.775195	2610.032198
861.088054	2606.596652
861.400869	2607.735952
861.713642	2604.461723
862.026373	2606.364759
862.339062	2610.952209
862.651708	2617.356995
862.964312	2615.819443
863.276873	2612.633433
863.589392	2615.466562
863.901869	2620.434619
864.214303	2624.775052
864.526696	2626.642800
864.839045	2629.738068
865.151353	2632.964407
865.463619	2632.112452
865.775842	2633.723101
866.088023	2632.268728
866.400162	2633.629839
866.712258	2631.978861
867.024313	2629.881741
867.336325	2625.879065
867.648296	2628.800414
867.960224	2634.423821
868.272110	2633.168574
868.583954	2625.432923
868.895755	2628.981895
869.207515	2631.023563
869.519233	2637.400622
869.830909	2634.716208
870.142542	2631.046248
870.454134	2631.830147
870.765684	2640.271559
871.077191	2637.483801
871.388657	2642.502270
871.700081	2640.629481
872.011463	2642.257774
872.322803	2642.834986
872.634101	2646.421767
872.945357	2651.949392
873.256571	2655.503406
873.567744	2657.086328
873.878874	2654.517860
874.189963	2655.445432
874.501010	2660.940290
874.812015	2664.254849
875.122979	2661.643531
875.433900	2655.841163
875.744780	2654.306132
876.055618	2661.449447
876.366415	2664.970693
876.677169	2664.842143
876.987882	2660.738644
877.298554	2658.079435
877.609183	2667.057730
877.919771	2676.005778
878.230317	2680.799916
878.540822	2693.407842
878.851285	2703.328832
879.161707	2726.694580
879.472087	2764.714963
879.782425	2808.449493
880.092722	2921.731782
880.402977	3106.749689
880.713191	3353.710775
881.023363	3635.748209
881.333494	3820.965243
881.643583	3989.475892
881.953631	3990.680728
882.263637	3814.981393
882.573602	3597.954679
882.883526	3472.939105
883.193408	3368.483877
883.503248	3268.094339
883.813048	3156.427740
884.122806	3044.443548
884.432522	2964.074953
884.742197	2901.877197
885.051831	2865.593492
885.361424	2831.701815
885.670975	2796.494397
885.980485	2764.528440
886.289954	2747.932962
886.599382	2736.582804
886.908768	2725.605691
887.218113	2703.049048
887.527417	2694.411031
887.836680	2685.662109
888.145901	2682.110616
888.455082	2673.490243
888.764221	2662.122441
889.073319	2654.802685
889.382376	2653.421409
889.691392	2654.419558
890.000366	2652.103147
890.309300	2655.072387
890.618193	2657.542552
890.927044	2657.595485
891.235855	2656.534322
891.544625	2655.163128
891.853353	2657.358550
892.162041	2664.423727
892.470687	2683.554906
892.779293	2696.871114
893.087858	2705.496528
893.396381	2726.384549
893.704864	2767.336363
894.013306	2835.117197
894.321707	2922.989549
894.630068	2967.724749
894.938387	2991.019921
895.246665	2983.959785
895.554903	2941.823300
895.863100	2898.638256
896.171256	2844.143383
896.479371	2782.515277
896.787446	2745.152765
897.095480	2730.256156
897.403473	2725.683829
897.711425	2708.392671
898.019336	2689.500947
898.327207	2677.840758
898.635038	2677.548372
898.942827	2674.473268
899.250576	2668.504542
899.558284	2650.290853
899.865952	2649.738846
900.173579	2646.167189
900.481165	2645.587456
900.788711	2638.542444
901.096216	2630.882410
901.403681	2628.071967
901.711105	2630.958028
902.018489	2630.521968
902.325832	2631.255456
902.633135	2632.619088
902.940397	2647.190543
903.247619	2682.415606
903.554800	2748.701737
903.861941	2873.399719
904.169041	2991.992863
904.476101	3050.402192
904.783121	3043.689896
905.090100	2990.495641
905.397039	2916.652819
905.703938	2847.087417
906.010796	2786.205402
906.317614	2738.168247
906.624391	2703.215406
906.931129	2677.503001
907.237826	2654.076759
907.544483	2638.116466
907.851099	2625.448047
908.157675	2613.316510
908.464211	2610.548916
908.770707	2600.658172
909.077163	2592.970413
909.383578	2589.018148
909.689954	2589.497058
909.996289	2590.530494
910.302584	2588.466142
910.608839	2585.398600
910.915054	2586.888261
911.221229	2589.819692
911.527363	2590.144846
911.833458	2590.165011
912.139513	2588.756008
912.445527	2589.492017
912.751502	2594.724734
913.057436	2600.627926
913.363331	2608.245109
913.669186	2618.108127
913.975000	2631.129427
914.280775	2645.811787
914.586510	2665.056392
914.892205	2697.347503
915.197859	2762.368306
915.503475	2843.409895
915.809050	2907.611510
916.114585	2918.147521
916.420081	2927.508944
916.725536	2941.639298
917.030952	2916.289856
917.336328	2870.599358
917.641665	2822.519353
917.946961	2776.720471
918.252218	2743.584966
918.557435	2721.361040
918.862612	2700.309181
919.167750	2683.333096
919.472848	2668.512103
919.777906	2650.779845
920.082925	2640.470685
920.387904	2630.834519
920.692843	2625.828654
920.997743	2621.949486
921.302603	2614.438167
921.607423	2613.447580
921.912204	2602.379727
922.216946	2600.219592
922.521647	2597.981320
922.826310	2593.650969
923.130932	2591.876482
923.435516	2586.333734
923.740059	2583.765266
924.044564	2582.537745
924.349028	2580.851479
924.653454	2571.537947
924.957840	2572.286559
925.262186	2568.419994
925.566493	2570.043245
925.870761	2567.590724
926.174989	2566.695919
926.479178	2562.015208
926.783328	2563.404046
927.087438	2560.906154
927.391509	2561.770712
927.695541	2560.286092
927.999533	2557.188303
928.303486	2558.864487
928.607400	2557.135371
928.911275	2555.686039
929.215110	2558.400700
929.518906	2557.168138
929.822663	2556.348951
930.126381	2555.378529
930.430060	2555.759136
930.733699	2555.993549
931.037299	2559.653427
931.340861	2557.374826
931.644383	2560.747357
931.947866	2556.671585
932.251309	2557.309291
932.554714	2557.218550
932.858080	2559.787018
933.161407	2553.659495
933.464694	2554.708055
933.767943	2556.790052
934.071153	2555.227294
934.374323	2553.901471
934.677455	2555.822150
934.980548	2554.254351
935.283602	2552.663867
935.586617	2553.435164
935.889593	2551.726213
936.192530	2553.341902
936.495428	2554.939948
936.798287	2553.472973
937.101108	2557.616801
937.403890	2559.507234
937.706632	2563.729200
938.009336	2565.793553
938.312002	2569.682803
938.614628	2571.611044
938.917216	2573.176322
939.219765	2575.565829
939.522275	2577.224369
939.824747	2572.722618
940.127179	2570.449058
940.429573	2566.978224
940.731929	2565.901937
941.034246	2564.697102
941.336524	2563.668706
941.638763	2568.901424
941.940964	2566.438820
942.243126	2565.949828
942.545250	2564.785322
942.847335	2560.863304
943.149381	2560.515464
943.451389	2559.240053
943.753359	2559.403890
944.055290	2557.548745
944.357182	2560.565876
944.659036	2558.138560
944.960851	2557.102603
945.262628	2559.058571
945.564367	2555.514640
945.866067	2557.120247
946.167729	2556.865669
946.469352	2558.693087
946.770937	2556.071687
947.072484	2558.272151
947.373992	2556.762325
947.675462	2554.181255
947.976893	2554.864331
948.278286	2555.406255
948.579641	2552.489947
948.880958	2553.326779
949.182236	2555.882644
949.483476	2553.596481
949.784678	2557.810885
950.085841	2553.167983
950.386967	2553.195709
950.688054	2555.560010
950.989103	2555.058415
951.290114	2553.137736
951.591087	2559.829867
951.892021	2557.720145
952.192917	2559.381205
952.493776	2559.552604
952.794596	2561.213664
953.095378	2564.815569
953.396122	2562.398335
953.696828	2561.576627
953.997496	2560.175187
954.298126	2553.949362
954.598718	2557.352140
954.899272	2554.251831
955.199788	2556.890875
955.500266	2554.519012
955.800706	2549.808054
956.101108	2546.465769
956.401472	2546.309493
956.701798	2542.503422
957.002087	2544.232537
957.302337	2545.850748
957.602550	2547.612631
957.902724	2544.464431
958.202861	2545.359235
958.502960	2542.697506
958.803022	2545.301262
959.103045	2543.887218
959.403031	2544.149358
959.702979	2545.076931
960.002889	2541.943854
960.302762	2544.275387
960.602596	2542.644574
960.902393	2544.653474
961.202153	2543.292362
961.501875	2541.517876
961.801559	2542.085006
962.101205	2540.716333
962.400814	2540.854964
962.700385	2543.463762
962.999918	2543.914945
963.299414	2538.357073
963.598873	2542.027033
963.898293	2542.531148
964.197677	2538.762886
964.497022	2538.725077
964.796331	2542.775644
965.095601	2538.074768
965.394835	2541.598535
965.694030	2540.796991
965.993189	2541.391847
966.292309	2538.949408
966.591393	2538.354552
966.890439	2539.410674
967.189447	2540.492001
967.488419	2539.090561
967.787353	2541.482588
968.086249	2540.355890
968.385108	2543.199101
968.683930	2540.434028
968.982714	2537.537885
969.281462	2539.216589
969.580172	2536.827083
969.878844	2541.343956
970.177480	2541.210366
970.476078	2538.717515
970.774639	2543.108360
971.073162	2540.484440
971.371649	2539.085519
971.670098	2538.455375
971.968510	2538.034439
972.266885	2535.561753
972.565223	2539.521579
972.863524	2539.710622
973.161788	2540.502084
973.460014	2538.669624
973.758204	2540.731456
974.056356	2540.645757
974.354471	2542.415202
974.652550	2540.902855
974.950591	2541.049049
975.248595	2539.274563
975.546563	2544.517363
975.844493	2543.302445
976.142386	2540.335726
976.440243	2539.345139
976.738062	2539.655170
977.035845	2537.842875
977.333590	2538.180632
977.631299	2539.662732
977.928971	2536.340611
978.226606	2542.122815
978.524204	2540.262629
978.821765	2539.531662
979.119290	2536.181815
979.416777	2539.125849
979.714228	2539.647608
980.011642	2538.362114
980.309020	2541.696837
980.606360	2539.887063
980.903664	2542.163144
981.200931	2540.711292
981.498162	2541.618699
981.795356	2541.825387
982.092513	2545.611293
982.389633	2544.542568
982.686717	2552.142108
982.983764	2552.794937
983.280775	2553.382232
983.577749	2558.347768
983.874686	2553.450287
984.171587	2548.341078
984.468451	2548.121788
984.765279	2544.608103
985.062070	2546.770758
985.358824	2542.596683
985.655543	2542.301776
985.952224	2541.752290
986.248869	2539.335057
986.545478	2535.939839
986.842050	2538.296579
987.138586	2534.941691
987.435086	2536.154088
987.731549	2534.634181
988.027975	2539.130890
988.324366	2536.249870
988.620719	2537.852957
988.917037	2538.669624
989.213318	2535.536547
989.509563	2537.202648
989.805772	2535.334901
990.101944	2536.738862
990.398080	2538.866229
990.694180	2535.896990
990.990244	2537.749614
991.286271	2538.523431
991.582262	2537.910931
991.878217	2534.490508
992.174136	2536.060827
992.470019	2536.413708
992.765865	2535.458409
993.061676	2533.648635
993.357450	2539.690458
993.653188	2534.114942
993.948890	2535.566794
994.244556	2534.578728
994.540186	2540.771785
994.835780	2538.331867
995.131337	2538.687268
995.426859	2539.761034
995.722345	2538.727598
996.017795	2539.889583
996.313208	2541.071734
996.608586	2540.547454
996.903928	2540.943185
997.199234	2539.277083
997.494504	2538.752803
997.789738	2539.234233
998.084936	2539.559388
998.380099	2539.140972
998.675225	2536.801877
998.970316	2537.978986
999.265371	2536.910262
999.560390	2535.990251
999.855373	2539.687937
1000.150320	2538.697351
1000.445232	2536.776671
1000.740108	2537.318595
1001.034948	2536.736342
1001.329752	2535.990251
1001.624521	2536.975797
1001.919254	2531.740558
1002.213951	2532.763913
1002.508613	2532.970600
1002.803239	2533.149561
1003.097829	2531.168387
1003.392384	2537.006043
1003.686903	2533.089067
1003.981386	2535.281969
1004.275834	2535.276928
1004.570246	2535.982689
1004.864623	2532.726104
1005.158964	2535.208872
1005.453270	2535.279448
1005.747540	2534.377082
1006.041775	2534.233409
1006.335974	2532.952956
1006.630138	2536.701054
1006.924266	2534.666948
1007.218359	2538.210879
1007.512416	2536.874973
1007.806438	2535.322298
1008.100425	2534.344314
1008.394376	2533.991433
1008.688292	2535.337422
1008.982172	2532.965559
1009.276017	2534.225847
1009.569827	2534.750127
1009.863602	2533.903213
1010.157341	2534.898841
1010.451045	2533.532688
1010.744714	2531.904396
1011.038347	2533.008408
1011.331945	2534.671989
1011.625508	2534.966897
1011.919036	2536.030580
1012.212528	2533.767102
1012.505986	2534.523275
1012.799408	2533.641073
1013.092795	2533.265507
1013.386147	2535.085364
1013.679464	2535.241640
1013.972745	2531.891793
1014.265992	2533.421783
1014.559204	2533.326001
1014.852380	2535.009747
1015.145521	2534.465302
1015.438628	2536.867412
1015.731699	2535.904551
1016.024736	2535.032432
1016.317737	2531.475898
1016.610703	2537.134593
1016.903635	2526.598581
1017.196531	2531.075126
1017.489393	2530.518078
1017.782219	2527.770650
1018.075011	2533.444468
1018.367768	2532.164015
1018.660490	2535.390354
1018.953177	2535.390354
1019.245829	2535.390354
