Dividing Wavelength (nm)	Counts (n)	Blue Motor Position (mm): 43.700000	Red Motor Position (mm): 0.000000	
326.493990	2132.123252
326.888308	2132.123252
327.282561	2132.123252
327.676750	2098.539085
328.070874	2095.776533
328.464933	2100.008581
328.858929	2105.803388
329.252859	2113.206322
329.646726	2126.635956
330.040528	2140.070631
330.434265	2159.839516
330.827938	2174.221928
331.221547	2191.765143
331.615091	2210.039326
332.008571	2230.791235
332.401986	2252.238824
332.795338	2269.950918
333.188625	2288.018414
333.581847	2308.795529
333.975006	2324.831440
334.368100	2341.590756
334.761129	2362.032635
335.154095	2378.519728
335.546996	2399.720301
335.939833	2424.845412
336.332606	2439.247988
336.725315	2453.673250
337.117960	2460.703139
337.510540	2469.762092
337.903056	2482.085193
338.295508	2489.593992
338.687896	2496.749909
339.080220	2509.136024
339.472480	2514.398989
339.864676	2516.314628
340.256807	2519.266223
340.648875	2523.805782
341.040879	2529.701412
341.432818	2528.660413
341.824694	2528.733510
342.216506	2531.627132
342.608253	2529.356093
342.999937	2533.573018
343.391557	2528.877183
343.783113	2528.068078
344.174605	2527.483304
344.566033	2525.199661
344.957397	2527.168232
345.348697	2524.143539
345.739934	2522.114475
346.131106	2521.630524
346.522215	2518.671367
346.913260	2516.523835
347.304241	2515.255985
347.695159	2513.983094
348.086012	2514.328413
348.476802	2511.089472
348.867528	2512.836231
349.258191	2507.565705
349.648789	2505.526558
350.039324	2503.772237
350.429796	2506.101250
350.820203	2502.529592
351.210548	2499.716628
351.600828	2500.941629
351.991045	2498.751248
352.381198	2498.751248
352.771288	2497.145640
353.161314	2497.254025
353.551276	2498.852071
353.941175	2499.104128
354.331010	2496.303767
354.720782	2498.398367
355.110490	2501.513800
355.500135	2500.886176
355.889717	2497.254025
356.279235	2498.960455
356.668689	2500.142606
357.058080	2500.742503
357.447408	2498.443737
357.836672	2498.065651
358.225873	2498.549601
358.615010	2494.700680
359.004084	2504.084788
359.393095	2502.194356
359.782043	2502.022956
360.170927	2505.178719
360.559748	2502.718636
360.948505	2504.029336
361.337199	2506.315499
361.725830	2506.113853
362.114398	2506.612927
362.502903	2507.432114
362.891344	2508.904131
363.279722	2510.434122
363.668037	2507.822804
364.056289	2506.663338
364.444478	2509.451097
364.832603	2510.537465
365.220665	2512.427898
365.608665	2511.402023
365.996601	2513.103413
366.384474	2513.252127
366.772284	2513.574760
367.160031	2512.785820
367.547715	2515.071983
367.935336	2511.891015
368.322893	2516.753208
368.710388	2516.962416
369.097820	2518.031140
369.485189	2516.740605
369.872495	2518.830163
370.259738	2518.144566
370.646918	2516.123064
371.034035	2517.292611
371.421090	2519.399814
371.808081	2517.910153
372.195010	2520.821419
372.581875	2517.464011
372.968678	2518.288239
373.355418	2520.821419
373.742096	2521.708662
374.128710	2518.353774
374.515262	2524.302336
374.901751	2523.039527
375.288177	2524.438447
375.674540	2523.783097
376.060841	2524.282171
376.447079	2523.500792
376.833254	2524.408200
377.219367	2526.011287
377.605417	2529.489683
377.991404	2530.429858
378.377329	2535.692823
378.763191	2535.360107
379.148991	2545.639019
379.534727	2553.364588
379.920402	2562.731052
380.306013	2568.712381
380.691563	2581.791654
381.077049	2589.297932
381.462474	2602.788060
381.847835	2620.265740
382.233134	2632.853502
382.618371	2641.947743
383.003545	2669.606034
383.388657	2681.898887
383.773706	2703.006198
384.158693	2722.097048
384.543618	2743.837024
384.928480	2768.440375
385.313280	2798.541105
385.698017	2814.808908
386.082692	2854.684435
386.467305	2878.178733
386.851856	2910.467323
387.236344	2938.632250
387.620770	2977.431490
388.005133	3008.709329
388.389435	3045.580329
388.773674	3077.276583
389.157851	3122.793162
389.541965	3155.323727
389.926018	3159.560817
390.310008	3224.982391
390.693936	3263.300202
391.077802	3313.651246
391.461606	3329.926611
391.845348	3398.871952
392.229027	3426.734409
392.612645	3451.100826
392.996200	3535.358672
393.379694	3586.176023
393.763125	3660.220491
394.146494	3660.127229
394.529801	3731.880493
394.913047	3797.982623
395.296230	3789.190850
395.679351	3859.812374
396.062410	3898.099938
396.445408	3904.000608
396.828343	3950.570788
397.211217	3987.320799
397.594028	3933.156122
397.976778	4005.370651
398.359466	4047.071075
398.742092	4085.280501
399.124656	4019.715254
399.507158	4108.805045
399.889598	4140.397956
400.271977	4215.170871
400.654294	4188.407385
401.036549	4203.147719
401.418742	4180.318854
401.800874	4288.625523
402.182944	4309.871466
402.564952	4380.278742
402.946898	4369.455384
403.328783	4366.448336
403.710606	4291.473775
404.092367	4482.248681
404.474067	4451.580822
404.855705	4459.291266
405.237282	4391.386924
405.618797	4500.553111
406.000250	4531.707441
406.381642	4615.814052
406.762972	4580.641922
407.144240	4588.546451
407.525447	4589.766410
407.906593	4651.906193
408.287677	4690.534034
408.668700	4622.314620
409.049661	4673.752033
409.430560	4711.278382
409.811399	4642.804390
410.192176	4805.081653
410.572891	4743.491356
410.953545	4846.688816
411.334138	4726.157348
411.714669	4794.873316
412.095139	4687.537068
412.475547	4830.899922
412.855894	4812.212365
413.236180	4824.820291
413.616405	4777.153660
413.996568	4860.809088
414.376670	4808.686078
414.756711	4762.070528
415.136691	4793.295435
415.516609	4873.878279
415.896466	4907.986726
416.276262	4941.512920
416.655997	4922.026340
417.035670	5103.641469
417.415283	5197.432136
417.794834	5140.565400
418.174324	5091.149489
418.553753	4999.017362
418.933121	5182.134755
419.312428	5255.034880
419.691674	5190.235889
420.070859	5319.009643
420.449983	5230.910439
420.829045	5348.601216
421.208047	5251.508593
421.586988	5324.267567
421.965867	5333.901212
422.344686	5463.647909
422.723444	5321.131969
423.102141	5141.886182
423.480777	5440.768632
423.859352	5207.854722
424.237866	5465.392148
424.616319	5455.483760
424.994712	5570.918622
425.373044	5444.252069
425.751314	5588.386220
426.129524	5390.621754
426.507673	5580.385908
426.885762	5667.471841
427.263789	5599.627993
427.641756	5479.746834
428.019662	5604.994301
428.397508	5610.499241
428.775292	5556.987393
429.153016	5657.618906
429.530679	5585.003605
429.908282	5666.488816
430.285824	5536.376635
430.663305	5810.547349
431.040726	5546.660589
431.418086	5546.068254
431.795385	5655.869626
432.172624	5666.743394
432.549802	5661.235934
432.926920	5675.023490
433.303977	5675.431823
433.680974	5722.216251
434.057910	5735.918108
434.434786	5743.084108
434.811601	5714.402463
435.188355	5951.606395
435.565050	5820.783412
435.941683	5804.709693
436.318257	6019.820769
436.694770	5999.509960
437.071222	6034.513212
437.447614	5963.770700
437.823946	5879.031424
438.200218	6034.152769
438.576429	5895.168158
438.952580	5996.984342
439.328670	6043.289860
439.704700	5952.097908
440.080670	5937.783552
440.456580	6207.760025
440.832429	6086.938691
441.208218	5938.360764
441.583947	6091.289207
441.959616	6092.347849
442.335224	6022.432086
442.710773	6157.522407
443.086261	6185.954514
443.461689	5976.834850
443.837057	6130.199353
444.212365	6283.934380
444.587612	6174.901784
444.962800	6330.839796
445.337927	6307.897505
445.712995	5922.254277
446.088002	6499.151320
446.462949	6333.214180
446.837837	6260.314054
447.212664	6434.105312
447.587431	6576.349030
447.962139	7118.497400
448.336786	8044.368318
448.711374	7792.386243
449.085901	6853.856987
449.460369	6781.680267
449.834776	6716.107458
450.209124	7103.026098
450.583412	7257.461847
450.957640	7401.071717
451.331808	7171.452200
451.705917	6717.221553
452.079965	6646.504247
452.453954	6854.824889
452.827883	6730.600776
453.201752	6828.089129
453.575562	6625.485156
453.949311	6828.484860
454.323001	6719.129630
454.696632	6787.550691
455.070202	6929.791888
455.443713	7086.607060
455.817164	7186.326125
456.190556	7265.338649
456.563888	7342.826225
456.937160	7387.498410
457.310373	7043.933693
457.683526	7067.208700
458.056619	6955.831968
458.429653	6944.007942
458.802628	6884.746657
459.175542	6993.645663
459.548398	7343.960485
459.921194	7502.910586
460.293930	7513.222266
460.666607	8041.636012
461.039224	8346.023402
461.411782	8469.725756
461.784280	8486.245617
462.156719	8378.846355
462.529099	8259.355885
462.901419	7844.491609
463.273680	7737.183088
463.645882	7751.079028
464.018024	7627.175028
464.390106	7785.832743
464.762130	8177.177516
465.134094	8648.154876
465.505999	9674.425414
465.877845	10888.173943
466.249631	11535.306863
466.621358	11155.110601
466.993026	10526.879488
467.364634	10268.447257
467.736184	9907.810673
468.107674	9567.003467
468.479105	9609.255898
468.850477	9370.456440
469.221790	9142.676945
469.593043	8814.896080
469.964238	8678.457252
470.335373	8687.748098
470.706449	8747.705061
471.077467	8729.009942
471.448425	10036.463439
471.819324	11108.336255
472.190164	11131.041612
472.560945	9882.196570
472.931667	9100.432075
473.302330	8962.934604
473.672934	8608.642312
474.043479	8957.641393
474.413965	8909.677334
474.784393	8793.206516
475.154761	8941.020708
475.525070	9034.128299
475.895321	8853.574333
476.265513	9040.331439
476.635645	9203.977375
477.005719	9203.995019
477.375734	9315.671701
477.745691	9552.215242
478.115588	9691.915697
478.485427	9939.849726
478.855207	10471.855294
479.224928	11288.040787
479.594591	11922.606110
479.964194	11731.143087
480.333739	11666.664208
480.703226	11581.161198
481.072653	11673.036227
481.442022	11911.785273
481.811333	12099.774941
482.180584	11903.641289
482.549777	11616.918102
482.918912	11434.594691
483.287988	11458.547733
483.657005	11469.396297
484.025964	11152.826958
484.394864	11287.607248
484.763706	11257.120870
485.132489	11006.129382
485.501213	10979.081071
485.869879	11060.321785
486.238487	10897.827753
486.607036	11004.624597
486.975527	10790.829263
487.343959	10976.315998
487.712333	11021.837617
488.080648	10954.636516
488.448905	11004.947231
488.817104	10943.112438
489.185244	11201.713548
489.553326	11357.492763
489.921350	11897.566698
490.289315	12959.483236
490.657222	13306.337305
491.025070	13213.474210
491.392861	13084.037544
491.760593	12708.993342
492.128267	12352.462777
492.495883	12031.333716
492.863440	11679.781291
493.230939	11354.785664
493.598380	11277.950918
493.965763	11152.365693
494.333088	11049.536237
494.700354	10970.755605
495.067563	11030.934379
495.434713	10854.191525
495.801805	10989.092802
496.168839	10909.999619
496.535815	10848.036276
496.902733	10843.927736
497.269593	10782.907089
497.636395	10880.153467
498.003139	10870.338341
498.369825	10737.995450
498.736453	10898.999821
499.103023	10824.037863
499.469535	10851.776813
499.835989	10839.824237
500.202385	10800.397372
500.568723	10656.424539
500.935003	10879.626667
501.301226	10680.730462
501.667390	10944.478591
502.033497	11040.525174
502.399546	10897.530325
502.765537	10803.038937
503.131470	10874.605678
503.497345	11054.600076
503.863163	10663.474593
504.228923	10970.566562
504.594625	11039.169104
504.960269	10789.516042
505.325856	11006.835143
505.691385	10799.205140
506.056856	10956.116094
506.422270	10985.248922
506.787625	10871.492765
507.152924	10984.868315
507.518164	10965.177568
507.883347	10884.589683
508.248472	10802.030706
508.613540	11043.552387
508.978550	10925.191136
509.343503	10900.602908
509.708398	11014.122131
510.073236	11133.529422
510.438016	11134.613270
510.802738	11086.077040
511.167403	11137.527057
511.532010	11038.571727
511.896561	11268.163517
512.261053	11343.430465
512.625488	11210.654034
512.989866	11192.563854
513.354186	11185.526403
513.718449	11080.935063
514.082655	11272.791297
514.446803	11165.762559
514.810894	11288.456682
515.174927	11154.467854
515.538904	11182.940291
515.902822	11330.048722
516.266684	11216.869777
516.630488	11156.154120
516.994235	11212.846936
517.357925	11274.038982
517.721558	11362.327230
518.085133	11387.258256
518.448651	11402.132181
518.812112	11276.534353
519.175516	11292.134204
519.538863	11409.005794
519.902152	11326.348515
520.265385	11491.297589
520.628560	11395.752601
520.991678	11375.401462
521.354739	11439.048550
521.717743	11369.142870
522.080690	11350.034376
522.443580	11495.547282
522.806413	11445.438213
523.169189	11473.764456
523.531908	11538.094621
523.894569	11350.624191
524.257174	11356.255160
524.619722	11473.351082
524.982213	11423.703278
525.344647	11471.299332
525.707025	11422.826117
526.069345	11523.021571
526.431608	11433.500761
526.793815	11546.679706
527.155964	11338.863179
527.518057	11380.407328
527.880093	11335.183137
528.242072	11399.725030
528.603995	11312.218161
528.965860	11234.057591
529.327669	11289.157403
529.689421	11228.739174
530.051117	11198.192302
530.412755	11305.536111
530.774337	11193.793895
531.135862	11171.937973
531.497331	11199.114833
531.858743	11052.533203
532.220098	11217.439427
532.581396	11081.776936
532.942638	11075.236039
533.303824	11036.406552
533.664953	11046.173787
534.026025	10966.820984
534.387040	11062.237424
534.747999	11064.256406
535.108902	11124.530962
535.469748	10876.148271
535.830537	10982.889662
536.191270	10962.664553
536.551947	10984.888480
536.912567	10984.311268
537.273131	10905.497868
537.633638	10888.577236
537.994089	10871.623835
538.354483	10827.823770
538.714821	10973.568569
539.075103	10979.159208
539.435328	10942.850298
539.795497	10773.936356
540.155609	10929.115674
540.515665	11013.434013
540.875665	10754.774930
541.235609	10826.729840
541.595496	10823.359828
541.955328	10972.877931
542.315102	10855.197235
542.674821	10804.342075
543.034483	10804.677312
543.394090	10808.188476
543.753640	10742.348486
544.113134	10964.802002
544.472571	10812.833899
544.831953	10957.930910
545.191278	10767.682805
545.550548	10793.352360
545.909761	10929.652557
546.268918	10905.089535
546.628019	10985.316978
546.987064	10849.699857
547.346053	10770.699935
547.704986	10877.164063
548.063863	10860.364418
548.422684	10845.530823
548.781449	10771.367888
549.140158	10868.566375
549.498811	10745.040462
549.857408	10608.914185
550.215949	10832.451549
550.574434	10683.059476
550.932864	10782.622264
551.291237	10843.900010
551.649555	10792.870930
552.007817	10802.953238
552.366022	10772.902919
552.724173	10762.382031
553.082267	10743.460060
553.440305	10880.823941
553.798288	10684.481081
554.156215	10837.154946
554.514086	10813.448920
554.871902	10657.483182
555.229661	10701.247959
555.587365	10674.058495
555.945014	10569.073946
556.302606	10698.997083
556.660143	10587.000289
557.017625	10740.233722
557.375050	10639.501386
557.732421	10776.754361
558.089735	10679.865905
558.446994	10684.967552
558.804197	10730.479089
559.161345	10721.193284
559.518437	10572.156612
559.875474	10668.346868
560.232455	10690.933758
560.589381	10639.662703
560.946251	10646.183435
561.303065	10741.191541
561.659825	10672.929277
562.016528	10610.570204
562.373177	10489.567388
562.729770	10602.189286
563.086307	10522.584425
563.442789	10606.922929
563.799216	10486.585546
564.155587	10539.668896
564.511904	10497.575261
564.868164	10486.207459
565.224370	10503.682619
565.580520	10424.808726
565.936615	10434.669223
566.292654	10302.490169
566.648638	10432.378018
567.004567	10391.980732
567.360441	10370.016425
567.716260	10285.098188
568.072023	10374.198062
568.427732	10329.596453
568.783385	10235.410055
569.138982	10306.510489
569.494525	10323.869702
569.850013	10202.143481
570.205445	10281.826479
570.560823	10181.121869
570.916145	10093.133570
571.271412	10164.612091
571.626625	10107.447927
571.981782	10083.477240
572.336884	10056.749042
572.691931	10058.720133
573.046923	10012.318833
573.401860	9968.733017
573.756743	9900.460670
574.111570	9946.201580
574.466342	9928.287839
574.821059	9952.185429
575.175722	9848.141055
575.530330	9866.125371
575.884882	9851.173309
576.239380	9779.762844
576.593823	9757.160831
576.948211	9768.667265
577.302544	9656.667950
577.656823	9670.687398
578.011047	9674.405249
578.365216	9641.773861
578.719330	9566.960617
579.073389	9575.734745
579.427394	9524.375470
579.781344	9507.482563
580.135239	9451.021640
580.489080	9462.689391
580.842866	9359.615439
581.196597	9374.481801
581.550273	9407.173684
581.903895	9375.802584
582.257463	9441.703067
582.610975	9319.921393
582.964434	9345.099436
583.317837	9266.785111
583.671186	9248.936906
584.024481	9244.427594
584.377721	9165.382302
584.730906	9141.847675
585.084037	9176.346811
585.437113	9111.802398
585.790135	9130.520202
586.143103	9029.959265
586.496016	9002.779884
586.848874	9057.950272
587.201679	9049.662615
587.554428	8934.973844
587.907124	8977.332140
588.259765	8949.880536
588.612352	8953.028737
588.964884	8827.408224
589.317362	8838.965069
589.669786	8837.878701
590.022155	8887.128253
590.374470	8907.154237
590.726731	8844.177622
591.078937	8697.240591
591.431090	8811.785688
591.783188	8678.321140
592.135232	8676.057662
592.487222	8677.408692
592.839157	8724.593892
593.191038	8655.295670
593.542866	8602.613092
593.894639	8501.485025
594.246358	8556.186586
594.598022	8575.968073
594.949633	8466.191907
595.301190	8446.450749
595.652692	8469.839182
596.004141	8582.138446
596.355535	8361.991257
596.706876	8338.295313
597.058162	8275.981611
597.409395	8345.957867
597.760573	8408.939523
598.111698	8323.159249
598.462768	8317.548445
598.813785	8277.173844
599.164748	8242.246209
599.515657	8233.441834
599.866511	8141.307186
600.217312	8271.777288
600.568060	8123.521995
600.918753	8233.043583
601.269392	8202.995785
601.619978	8113.442208
601.970510	8180.275305
602.320988	8172.585025
602.671412	8229.431596
603.021783	8169.401536
603.372100	8138.506825
603.722363	8144.271384
604.072572	8118.984957
604.422728	8124.903271
604.772830	8060.832726
605.122878	8067.688696
605.472872	8060.570586
605.822813	8090.590657
606.172701	8032.188890
606.522534	8110.843493
606.872314	8109.978935
607.222041	8075.016013
607.571714	8130.088098
607.921333	8092.029907
608.270899	8100.874611
608.620411	8184.315790
608.969870	8088.440605
609.319276	8085.776356
609.668627	8098.611133
610.017926	8135.648491
610.367171	8184.199843
610.716362	8158.099269
611.065500	8148.228690
611.414585	8176.418822
611.763616	8162.883324
612.112594	8142.832135
612.461518	8161.630597
612.810389	8225.023107
613.159207	8157.269999
613.507971	8116.424050
613.856682	8228.791370
614.205340	8181.694390
614.553945	8264.941484
614.902496	8164.826689
615.250994	8213.947692
615.599439	8197.175773
615.947830	8209.990386
616.296169	8181.555758
616.644454	8197.899179
616.992686	8194.864404
617.340864	8254.148373
617.688990	8158.726893
618.037063	8248.119153
618.385082	8201.450672
618.733048	8280.566540
619.080961	8224.740803
619.428821	8238.157833
619.776628	8229.852533
620.124382	8196.641411
620.472083	8175.307248
620.819731	8205.128193
621.167326	8100.723377
621.514868	8106.641691
621.862357	7991.292530
622.209793	8012.319182
622.557176	7946.832073
622.904506	7911.692710
623.251783	7844.783996
623.599007	7804.986607
623.946179	7808.946433
624.293297	7765.330370
624.640363	7682.116044
624.987376	7668.265473
625.334336	7617.664892
625.681243	7559.366468
626.028097	7548.243162
626.374899	7526.140223
626.721647	7519.140581
627.068343	7450.212884
627.414987	7424.616426
627.761577	7380.052626
628.108115	7415.318017
628.454600	7301.498846
628.801032	7358.597475
629.147412	7316.448388
629.493739	7308.155690
629.840014	7248.758294
630.186236	7300.704864
630.532405	7179.334044
630.878521	7236.765389
631.224585	7196.587393
631.570597	7116.201154
631.916556	7148.199878
632.262462	7147.763818
632.608316	7107.122036
632.954117	7085.911381
633.299866	7069.227682
633.645562	7064.715850
633.991206	6988.775908
634.336797	6924.183604
634.682336	6882.904116
635.027823	6852.546287
635.373257	6839.900553
635.718639	6772.759945
636.063968	6790.759385
636.409245	6677.729154
636.754470	6680.474063
637.099642	6637.992259
637.444762	6583.240287
637.789829	6591.898469
638.134845	6528.631988
638.479808	6518.383322
638.824719	6526.416401
639.169577	6450.577282
639.514383	6469.869778
639.859137	6398.550054
640.203839	6406.152114
640.548489	6392.672069
640.893086	6370.128029
641.237632	6340.521332
641.582125	6361.817687
641.926566	6333.665363
642.270955	6344.839081
642.615292	6339.727351
642.959576	6356.663107
643.303809	6347.649524
643.647990	6350.848136
643.992118	6343.845973
644.336195	6286.684330
644.680219	6311.257434
645.024192	6300.487009
645.368112	6396.949488
645.711981	6420.542088
646.055797	6494.853737
646.399562	6455.699095
646.743274	6580.059319
647.086935	6630.279294
647.430544	6628.968594
647.774101	6646.930225
648.117606	6656.594117
648.461059	6648.888713
648.804460	6612.718434
649.147810	6519.757037
649.491108	6485.651110
649.834354	6460.901566
650.177548	6380.880810
650.520690	6294.273787
650.863781	6272.296877
651.206820	6294.243540
651.549807	6212.125664
651.892742	6153.678527
652.235626	6158.049207
652.578458	6148.287013
652.921238	6055.071037
653.263967	6096.058138
653.606644	6033.484816
653.949269	6037.956320
654.291843	5975.330065
654.634365	6023.851171
654.976836	5983.199307
655.319255	5978.566486
655.661622	5954.142096
656.003938	5958.908507
656.346203	5912.338328
656.688416	5946.217402
657.030577	5897.121605
657.372687	5868.036667
657.714746	5855.101067
658.056753	5900.968005
658.398708	5837.262944
658.740612	5829.081151
659.082465	5877.619901
659.424266	5869.586822
659.766016	5867.920721
660.107715	5845.966496
660.449362	5856.008474
660.790958	5853.102249
661.132503	5837.756977
661.473996	5872.672008
661.815438	5861.760431
662.156829	5860.996696
662.498168	5853.687023
662.839456	5829.706254
663.180693	5864.112129
663.521879	5864.558271
663.863013	5855.968145
664.204097	5875.525302
664.545129	5914.203554
664.886110	5912.517288
665.227040	5943.291012
665.567918	5904.335496
665.908746	5936.404796
666.249522	5938.592657
666.590248	5926.080513
666.930922	5955.926664
667.271545	5968.431246
667.612118	5972.718748
667.952639	5944.299243
668.293109	5966.157686
668.633528	5922.405512
668.973896	5927.728970
669.314213	5916.880407
669.654480	5894.434670
669.994695	5892.140945
670.334859	5881.824223
670.674973	5873.110589
671.015035	5874.857349
671.355047	5873.546649
671.695008	5862.045256
672.034918	5836.733623
672.374777	5845.689233
672.714585	5832.259599
673.054342	5834.901163
673.394049	5831.337068
673.733705	5865.175813
674.073310	5846.899109
674.412864	5810.774201
674.752368	5798.481347
675.091820	5804.482841
675.431223	5743.878089
675.770574	5738.214353
676.109875	5689.504204
676.449125	5695.656932
676.788324	5664.114433
677.127473	5606.224342
677.466571	5597.407364
677.805619	5587.327577
678.144616	5574.200413
678.483562	5552.813317
678.822458	5519.403070
679.161303	5514.417369
679.500098	5508.960320
679.838842	5492.190922
680.177535	5493.831817
680.516179	5509.187172
680.854771	5523.214183
681.193314	5604.394404
681.531805	5708.325352
681.870247	5858.849165
682.208638	5959.218538
682.546978	5975.002390
682.885268	5952.765861
683.223508	5868.487851
683.561697	5812.939377
683.899836	5780.955776
684.237925	5739.000773
684.575963	5702.855700
684.913951	5657.800387
685.251889	5725.777827
685.589776	5691.969328
685.927614	5662.592004
686.265401	5733.974743
686.603137	5718.407660
686.940824	5796.162417
687.278460	5818.333411
687.616046	5827.319268
687.953582	5895.195884
688.291068	5874.789293
688.628504	5940.636845
688.965889	5903.702831
689.303224	5845.974058
689.640510	5798.347757
689.977745	5720.691302
690.314930	5629.789216
690.652065	5569.002983
690.989150	5478.352955
691.326185	5402.087859
691.663170	5348.129868
692.000105	5271.206902
692.336990	5193.739491
692.673825	5169.481458
693.010610	5095.353812
693.347345	5029.803688
693.684030	5015.943036
694.020665	4972.314370
694.357251	4884.237850
694.693786	4891.683635
695.030272	4860.985528
695.366707	4823.542358
695.703093	4792.811484
696.039429	4812.655986
696.375716	4795.889109
696.711952	4772.021766
697.048139	4757.208335
697.384276	4741.041355
697.720363	4746.906737
698.056400	4760.112040
698.392388	4707.494997
698.728326	4692.701731
699.064214	4668.446219
699.400053	4656.181092
699.735842	4625.609014
700.071581	4605.492290
700.407270	4577.919699
700.742910	4558.082758
701.078501	4505.848843
701.414042	4500.706866
701.749533	4471.752999
702.084974	4407.964758
702.420366	4464.990291
702.755709	4405.660951
703.091002	4350.984597
703.426246	4400.448398
703.761440	4354.238661
704.096584	4320.435204
704.431679	4336.077905
704.766725	4320.651974
705.101721	4309.228719
705.436668	4339.732741
705.771565	4288.315493
706.106413	4317.579391
706.441212	4348.779092
706.775961	4358.400134
707.110661	4338.442206
707.445311	4363.647975
707.779913	4386.416346
708.114465	4399.334303
708.448967	4422.437911
708.783421	4485.893435
709.117825	4526.507491
709.452180	4531.190723
709.786485	4575.159667
710.120742	4664.123429
710.454949	4645.579545
710.789107	4709.607240
711.123216	4787.919044
711.457275	4779.689361
711.791286	4851.218293
712.125247	4862.144994
712.459159	4771.401704
712.793023	4845.521789
713.126837	4806.092404
713.460602	4802.296415
713.794318	4719.379517
714.127985	4724.980239
714.461602	4639.920850
714.795171	4612.693578
715.128691	4540.993247
715.462162	4490.105319
715.795584	4442.037917
716.128957	4421.293569
716.462281	4370.004870
716.795556	4339.158050
717.128782	4305.657062
717.461960	4238.871856
717.795088	4245.110283
718.128167	4207.553687
718.461198	4147.679903
718.794180	4142.759737
719.127113	4123.915904
719.459997	4101.563428
719.792833	4058.300245
720.125619	4049.432856
720.458357	4013.398688
720.791046	4015.916744
721.123686	3992.888754
721.456278	3953.797126
721.788821	3962.624187
722.121315	3940.584262
722.453761	3911.642998
722.786158	3926.879885
723.118506	3948.607258
723.450805	3904.265269
723.783056	3923.000717
724.115259	3939.066875
724.447412	3944.171043
724.779518	3939.281124
725.111574	3944.203810
725.443582	3974.609530
725.775542	3954.586067
726.107453	4011.498173
726.439315	4011.467926
726.771129	4022.523177
727.102895	4061.783683
727.434612	4105.626598
727.766281	4120.150162
728.097901	4117.737970
728.429473	4125.758446
728.760996	4132.511071
729.092471	4126.449084
729.423897	4108.063996
729.755276	4115.214872
730.086606	4117.153196
730.417887	4155.531500
730.749120	4215.117939
731.080305	4279.957259
731.411442	4306.478770
731.742530	4278.865850
732.073570	4284.141417
732.404562	4338.230477
732.735506	4329.721010
733.066401	4291.176347
733.397249	4227.899784
733.728048	4151.952281
734.058798	4068.042275
734.389501	3995.689115
734.720156	3933.481276
735.050762	3889.623238
735.381320	3881.736352
735.711831	3831.591995
736.042293	3803.278355
736.372707	3825.096468
736.703073	3795.237714
737.033391	3788.830408
737.363661	3805.350269
737.693883	3828.741223
738.024056	3840.398891
738.354182	3836.408818
738.684260	3900.028179
739.014290	3914.413112
739.344272	3912.515117
739.674207	3958.871047
740.004093	3960.769042
740.333931	3955.916931
740.663722	3953.973567
740.993464	3954.273515
741.323159	3930.302829
741.652806	3900.370978
741.982405	3873.594889
742.311956	3841.775126
742.641460	3831.027386
742.970915	3809.713388
743.300323	3766.951800
743.629683	3731.923343
743.958996	3721.195767
744.288260	3696.577292
744.617477	3666.562262
744.946647	3651.902587
745.275768	3625.146663
745.604842	3619.906383
745.933869	3574.409970
746.262847	3566.928898
746.591778	3607.590845
746.920662	3574.377202
747.249498	3545.052811
747.578286	3590.342537
747.907027	3610.169395
748.235720	3606.575052
748.564365	3631.828712
748.892963	3633.048672
749.221514	3614.547637
749.550017	3590.153493
749.878473	3588.613421
750.206881	3559.916653
750.535242	3555.976991
750.863555	3558.192578
751.191821	3551.361815
751.520039	3529.977240
751.848210	3510.238602
752.176334	3539.900751
752.504411	3548.984911
752.832440	3509.046369
753.160421	3491.689677
753.488356	3501.466994
753.816243	3516.361083
754.144082	3470.680668
754.471875	3454.785910
754.799620	3476.417501
755.127318	3467.255204
755.454969	3470.526913
755.782572	3472.530771
756.110129	3451.368008
756.437638	3437.550205
756.765100	3455.610138
757.092515	3458.697845
757.419882	3468.661686
757.747203	3443.675207
758.074477	3446.447841
758.401703	3461.886375
758.728882	3484.548882
759.056014	3489.932834
759.383099	3490.321003
759.710138	3488.138184
760.037129	3506.296420
760.364073	3536.331614
760.690970	3521.639172
761.017820	3499.548835
761.344623	3518.546424
761.671379	3564.796490
761.998088	3611.651494
762.324751	3744.092688
762.651366	3992.445132
762.977935	4465.585147
763.304456	4907.626284
763.630931	5007.279813
763.957359	4643.031242
764.283740	4301.934170
764.610074	4109.001650
764.936362	3907.410949
765.262602	3753.476796
765.588796	3639.864312
765.914943	3547.495250
766.241044	3460.177424
766.567097	3433.260183
766.893104	3385.744787
767.219064	3353.526773
767.544978	3323.305056
767.870845	3268.772374
768.196665	3250.876278
768.522438	3259.630242
768.848165	3255.541866
769.173846	3217.518963
769.499479	3201.863660
769.825066	3185.391689
770.150607	3167.122548
770.476101	3186.402441
770.801548	3176.466327
771.126949	3129.051754
771.452303	3116.232100
771.777611	3123.690487
772.102872	3129.487814
772.428087	3104.579473
772.753256	3092.679829
773.078378	3086.413675
773.403453	3051.203736
773.728482	3039.077240
774.053465	3059.975343
774.378401	3048.904970
774.703291	3013.458096
775.028135	3019.290711
775.352932	3010.877026
775.677683	3002.975017
776.002388	2997.573421
776.327046	3000.499810
776.651658	2989.933552
776.976224	2976.859319
777.300743	2974.316057
777.625216	2970.293217
777.949643	2962.628142
778.274024	2962.958338
778.598359	2954.910136
778.922647	2959.424489
779.246889	2958.348203
779.571086	2944.111984
779.895236	2936.454471
780.219339	2947.297993
780.543397	2962.544963
780.867409	2963.533029
781.191374	2958.459108
781.515294	2954.247224
781.839167	2956.122533
782.162995	2948.729681
782.486776	2953.049950
782.810511	2952.082048
783.134201	2940.056376
783.457844	2942.539144
783.781441	2936.956066
784.104993	2916.463776
784.428498	2917.512336
784.751958	2931.763678
785.075372	2924.292688
785.398739	2909.002868
785.722061	2924.814447
786.045337	2938.667538
786.368568	2921.361257
786.691752	2911.029412
787.014891	2960.031948
787.337983	2990.790548
787.661030	3018.453880
787.984031	3085.591967
788.306987	3130.017135
788.629897	3125.767442
788.952760	3109.363528
789.275579	3093.710745
789.598351	3036.269317
789.921078	2992.007987
790.243759	2981.915597
790.566395	2961.299798
790.888984	2939.590069
791.211529	2924.045671
791.534027	2913.033271
791.856480	2903.200500
792.178888	2887.638458
792.501249	2879.683517
792.823566	2878.748383
793.145836	2874.735625
793.468062	2870.596838
793.790241	2867.325129
794.112375	2872.958618
794.434464	2885.226266
794.756507	2890.292626
795.078505	2896.047103
795.400457	2911.825914
795.722364	2947.519804
796.044226	2972.428145
796.366042	2977.517190
796.687812	2963.843060
797.009538	2982.455000
797.331218	2971.495532
797.652852	2955.721761
797.974442	2938.216355
798.295986	2932.613112
798.617484	2929.689243
798.938938	2914.656522
799.260346	2901.930129
799.581709	2893.977709
799.903026	2887.151987
800.224299	2880.875750
800.545526	2871.640356
800.866708	2857.446988
801.187845	2849.232428
801.508936	2847.944413
801.829983	2856.111082
802.150984	2842.777230
802.471940	2825.881803
802.792851	2827.991526
803.113717	2827.101762
803.434538	2836.984944
803.755314	2825.975064
804.076045	2821.624548
804.396731	2819.908036
804.717372	2821.438026
805.037967	2812.648774
805.358518	2821.669919
805.679024	2834.308092
805.999485	2828.674602
806.319901	2836.407732
806.640272	2830.310457
806.960598	2833.466219
807.280879	2838.721622
807.601115	2846.795030
807.921306	2836.090139
808.241453	2831.016218
808.561554	2839.871005
808.881611	2839.369410
809.201623	2833.398163
809.521590	2830.897751
809.841513	2825.717965
810.161390	2833.776250
810.481223	2823.930876
810.801011	2816.376707
811.120755	2812.305976
811.440453	2815.628096
811.760107	2814.269505
812.079716	2813.339412
812.399281	2802.959676
812.718801	2796.847277
813.038276	2792.179169
813.357707	2799.093111
813.677093	2806.606951
813.996434	2798.215951
814.315731	2795.516413
814.634983	2791.095321
814.954191	2790.714714
815.273354	2805.621406
815.592473	2817.442911
815.911547	2816.273364
816.230577	2823.981288
816.549562	2834.489573
816.868502	2832.306753
817.187399	2839.581138
817.506250	2859.155939
817.825058	2853.141842
818.143821	2863.259438
818.462539	2882.400699
818.781213	2909.330543
819.099843	2942.934875
819.418429	3003.070799
819.736970	3062.415262
820.055466	3136.053917
820.373919	3247.047522
820.692327	3383.698079
821.010691	3550.754356
821.329011	4003.500382
821.647286	4911.051748
821.965517	6303.685621
822.283704	7060.405663
822.601847	7043.472428
822.919945	6400.122894
823.237999	5887.069544
823.556010	5297.962826
823.873976	4738.767794
824.191897	4326.572809
824.509775	4030.815875
824.827609	3755.417640
825.145398	3633.310812
825.463144	3621.811940
825.780845	3708.837378
826.098502	3816.259326
826.416116	4103.005198
826.733685	4422.069907
827.051210	4487.183971
827.368692	4369.868759
827.686129	4100.928242
828.003522	3773.596041
828.320872	3511.589631
828.638177	3316.247440
828.955439	3178.187881
829.272656	3092.727720
829.589830	3027.956455
829.906960	2974.210193
830.224046	2929.432144
830.541088	2894.449057
830.858086	2878.264433
831.175041	2860.368336
831.491952	2862.924201
831.808819	2876.963815
832.125642	2898.242525
832.442421	2944.820266
832.759157	3028.024510
833.075849	3207.504711
833.392497	3489.254799
833.709101	3696.385728
834.025662	3646.551402
834.342179	3487.187926
834.658653	3310.490443
834.975083	3157.604849
835.291469	3060.880231
835.607811	2972.002168
835.924110	2913.693662
836.240366	2862.954448
836.556578	2818.098261
836.872746	2794.561114
837.188871	2775.555964
837.504952	2755.340937
837.820990	2748.923548
838.136984	2734.150447
838.452935	2727.352451
838.768842	2725.893037
839.084706	2742.165882
839.400526	2823.094045
839.716303	2955.822584
840.032037	3037.862322
840.347727	3024.016793
840.663373	2961.536732
840.978977	2883.527397
841.294537	2810.725574
841.610054	2764.840992
841.925527	2742.543968
842.240957	2718.863148
842.556344	2698.731300
842.871687	2683.340657
843.186987	2672.986127
843.502244	2669.328770
843.817458	2662.929025
844.132629	2651.193219
844.447756	2640.954636
844.762840	2635.036321
845.077881	2637.453554
845.392879	2634.713687
845.707833	2631.757051
846.022745	2624.323869
846.337613	2628.336628
846.652438	2624.800258
846.967221	2627.552728
847.281960	2625.627007
847.596656	2624.336472
847.911309	2620.921090
848.225919	2620.341358
848.540485	2616.721809
848.855009	2619.416306
849.169490	2616.129474
849.483928	2616.283229
849.798323	2615.784155
850.112675	2613.311469
850.426984	2613.487909
850.741251	2614.453290
851.055474	2613.929010
851.369654	2617.546038
851.683792	2615.516973
851.997887	2613.805502
852.311938	2612.956067
852.625947	2614.803650
852.939914	2617.273816
853.253837	2618.506378
853.567718	2613.142590
853.881555	2613.150152
854.195350	2618.251799
854.509103	2615.905142
854.822812	2613.538321
855.136479	2612.237703
855.450103	2613.865996
855.763685	2616.023609
856.077224	2612.000769
856.390720	2611.731067
856.704173	2614.496140
857.017584	2619.338168
857.330953	2618.992849
857.644278	2621.389918
857.957561	2624.704476
858.270802	2617.508229
858.584000	2616.807509
858.897155	2620.550566
859.210268	2620.117026
859.523339	2614.843979
859.836367	2612.663680
860.149352	2611.862137
860.462295	2614.344905
860.775195	2608.802157
861.088054	2609.883484
861.400869	2608.439193
861.713642	2607.582197
862.026373	2607.481374
862.339062	2609.686879
862.651708	2617.982098
862.964312	2619.554938
863.276873	2617.919083
863.589392	2618.244238
863.901869	2623.368571
864.214303	2628.596247
864.526696	2629.987606
864.839045	2631.484828
865.151353	2633.894500
865.463619	2633.413070
865.775842	2633.891979
866.088023	2634.388533
866.400162	2634.353245
866.712258	2633.329891
867.024313	2633.042545
867.336325	2629.798562
867.648296	2632.304016
867.960224	2636.510859
868.272110	2633.718059
868.583954	2628.694550
868.895755	2628.460136
869.207515	2636.611682
869.519233	2645.390851
869.830909	2637.909779
870.142542	2635.222844
870.454134	2637.229223
870.765684	2641.788947
871.077191	2641.645274
871.388657	2646.749442
871.700081	2644.695172
872.011463	2643.490336
872.322803	2645.791623
872.634101	2647.939154
872.945357	2656.622542
873.256571	2662.911381
873.567744	2660.834426
873.878874	2658.472645
874.189963	2659.927018
874.501010	2663.738131
874.812015	2670.858760
875.122979	2668.537309
875.433900	2662.364416
875.744780	2660.675630
876.055618	2664.310302
876.366415	2669.028822
876.677169	2667.524037
876.987882	2665.139571
877.298554	2663.342400
877.609183	2674.158196
877.919771	2681.117508
878.230317	2687.683611
878.540822	2697.811289
878.851285	2711.293855
879.161707	2734.321846
879.472087	2776.770882
879.782425	2826.015393
880.092722	2941.750203
880.402977	3132.693988
880.713191	3401.372364
881.023363	3695.695090
881.333494	3893.580543
881.643583	4067.868355
881.953631	4069.844488
882.263637	3886.979152
882.573602	3664.812982
882.883526	3530.826674
883.193408	3415.941299
883.503248	3308.869712
883.813048	3194.546425
884.122806	3076.626275
884.432522	2988.118737
884.742197	2923.241607
885.051831	2884.797768
885.361424	2849.471882
885.670975	2810.740697
885.980485	2778.847837
886.289954	2761.135743
886.599382	2743.763927
886.908768	2734.876373
887.218113	2717.975905
887.527417	2700.520910
887.836680	2692.197965
888.145901	2688.280988
888.455082	2678.768331
888.764221	2670.158040
889.073319	2662.281237
889.382376	2660.766370
889.691392	2663.254180
890.000366	2663.138233
890.309300	2661.172183
890.618193	2663.801145
890.927044	2664.905158
891.235855	2663.254180
891.544625	2663.513799
891.853353	2662.629077
892.162041	2670.808349
892.470687	2692.427337
892.779293	2704.014429
893.087858	2712.896942
893.396381	2736.968452
893.704864	2780.410595
894.013306	2851.233766
894.321707	2943.902776
894.630068	2996.164418
894.938387	3017.763242
895.246665	3010.118332
895.554903	2966.719038
895.863100	2921.820002
896.171256	2860.365816
896.479371	2802.344656
896.787446	2762.189345
897.095480	2741.508011
897.403473	2733.779922
897.711425	2717.471789
898.019336	2699.003522
898.327207	2688.734692
898.635038	2683.171779
898.942827	2686.206553
899.250576	2674.410253
899.558284	2660.279899
899.865952	2656.491472
900.173579	2652.748415
900.481165	2652.844197
900.788711	2643.558392
901.096216	2638.076137
901.403681	2631.041207
901.711105	2635.747124
902.018489	2630.695888
902.325832	2637.163688
902.633135	2637.929943
902.940397	2653.623055
903.247619	2691.041020
903.554800	2761.959972
903.861941	2892.515774
904.169041	3021.118130
904.476101	3088.662029
904.783121	3083.525094
905.090100	3025.163656
905.397039	2948.177675
905.703938	2871.050541
906.010796	2804.986220
906.317614	2752.454877
906.624391	2711.245964
906.931129	2685.553724
907.237826	2666.271310
907.544483	2646.094092
907.851099	2630.330404
908.157675	2620.200205
908.464211	2614.223917
908.770707	2600.136413
909.077163	2599.634818
909.383578	2595.811103
909.689954	2595.024683
909.996289	2591.004363
910.302584	2591.316914
910.608839	2587.289033
910.915054	2589.507140
911.221229	2592.529312
911.527363	2594.112234
911.833458	2592.642738
912.139513	2591.130392
912.445527	2593.396390
912.751502	2601.845364
913.057436	2607.899790
913.363331	2612.542693
913.669186	2623.550052
913.975000	2637.652680
914.280775	2654.570792
914.586510	2675.947805
914.892205	2711.646736
915.197859	2781.512087
915.503475	2865.343955
915.809050	2937.508073
916.114585	2951.567851
916.420081	2962.449181
916.725536	2975.168012
917.030952	2945.362190
917.336328	2898.156826
917.641665	2848.821573
917.946961	2798.967082
918.252218	2762.867380
918.557435	2736.907958
918.862612	2713.363249
919.167750	2695.222657
919.472848	2677.646674
919.777906	2660.990702
920.082925	2647.059473
920.387904	2637.171250
920.692843	2631.744448
920.997743	2626.496607
921.302603	2619.872530
921.607423	2613.404730
921.912204	2608.519852
922.216946	2605.873246
922.521647	2602.316712
922.826310	2595.853953
923.130932	2594.265989
923.435516	2588.342634
923.740059	2587.977150
924.044564	2587.163004
924.349028	2584.317272
924.653454	2574.829821
924.957840	2572.309244
925.262186	2567.923440
925.566493	2573.458627
925.870761	2565.627194
926.174989	2567.200034
926.479178	2566.038048
926.783328	2564.238357
927.087438	2563.663665
927.391509	2564.664334
927.695541	2560.144940
927.999533	2559.542522
928.303486	2557.644527
928.607400	2555.169321
928.911275	2558.869528
929.215110	2558.509085
929.518906	2556.774928
929.822663	2558.125958
930.126381	2555.991029
930.430060	2558.030176
930.733699	2555.839794
931.037299	2558.458674
931.340861	2557.458005
931.644383	2557.400031
931.947866	2556.999260
932.251309	2559.111503
932.554714	2556.951369
932.858080	2559.149312
933.161407	2554.246790
933.464694	2559.713921
933.767943	2558.882131
934.071153	2557.425237
934.374323	2557.936914
934.677455	2553.286450
934.980548	2554.632438
935.283602	2556.212840
935.586617	2552.026161
935.889593	2553.508261
936.192530	2552.994063
936.495428	2555.570093
936.798287	2556.699311
937.101108	2556.752243
937.403890	2561.377502
937.706632	2560.701987
938.009336	2565.506207
938.312002	2569.710529
938.614628	2576.148082
938.917216	2575.873340
939.219765	2577.572208
939.522275	2579.671849
939.824747	2579.387024
940.127179	2572.591548
940.429573	2573.478792
940.731929	2570.239850
941.034246	2565.092832
941.336524	2569.047617
941.638763	2568.503173
941.940964	2568.719942
942.243126	2565.271793
942.545250	2565.211299
942.847335	2565.496124
943.149381	2562.584858
943.451389	2562.327759
943.753359	2562.118551
944.055290	2558.476318
944.357182	2555.859959
944.659036	2559.406411
944.960851	2560.437327
945.262628	2557.528581
945.564367	2557.304249
945.866067	2556.946327
946.167729	2559.550083
946.469352	2557.503375
946.770937	2556.817778
947.072484	2556.240566
947.373992	2555.912891
947.675462	2557.097562
947.976893	2557.024465
948.278286	2551.189330
948.579641	2556.452294
948.880958	2554.377860
949.182236	2552.749567
949.483476	2551.829556
949.784678	2553.858621
950.085841	2552.966337
950.386967	2555.058415
950.688054	2553.268806
950.989103	2555.330638
951.290114	2554.655123
951.591087	2557.957079
951.892021	2556.797613
952.192917	2558.940104
952.493776	2562.496638
952.794596	2562.312636
953.095378	2560.923798
953.396122	2562.078222
953.696828	2560.273489
953.997496	2558.645196
954.298126	2557.636966
954.598718	2556.633776
954.899272	2554.151008
955.199788	2554.584547
955.500266	2553.888868
955.800706	2548.325954
956.101108	2546.372507
956.401472	2546.896787
956.701798	2541.432177
957.002087	2544.590459
957.302337	2544.925696
957.602550	2544.638350
957.902724	2544.855120
958.202861	2544.713968
958.502960	2543.983000
958.803022	2543.514173
959.103045	2541.444779
959.403031	2541.830428
959.702979	2543.642722
960.002889	2542.576518
960.302762	2538.601569
960.602596	2539.874460
960.902393	2537.041332
961.202153	2541.366642
961.501875	2538.979655
961.801559	2541.616179
962.101205	2538.475540
962.400814	2540.244985
962.700385	2539.032587
962.999918	2539.698020
963.299414	2539.846734
963.598873	2540.492001
963.898293	2541.623740
964.197677	2540.509645
964.497022	2538.294058
964.796331	2539.909748
965.095601	2538.704912
965.394835	2538.402443
965.694030	2539.448483
965.993189	2538.483102
966.292309	2537.285828
966.591393	2541.550644
966.890439	2538.420087
967.189447	2536.953111
967.488419	2538.775488
967.787353	2539.771116
968.086249	2536.963194
968.385108	2539.957639
968.683930	2537.285828
968.982714	2537.908410
969.281462	2535.854140
969.580172	2539.912269
969.878844	2538.120138
970.177480	2538.490663
970.476078	2539.274563
970.774639	2540.179450
971.073162	2535.917154
971.371649	2536.552340
971.670098	2535.902031
971.968510	2536.106198
972.266885	2535.082843
972.565223	2540.534851
972.863524	2538.657021
973.161788	2541.013761
973.460014	2539.009902
973.758204	2536.441434
974.056356	2539.453524
974.354471	2536.285158
974.652550	2539.798843
974.950591	2539.750952
975.248595	2539.808925
975.546563	2537.830272
975.844493	2535.377751
976.142386	2540.287835
976.440243	2537.999151
976.738062	2538.467978
977.035845	2535.455889
977.333590	2538.213400
977.631299	2538.934285
977.928971	2539.294727
978.226606	2535.773481
978.524204	2535.450847
978.821765	2535.546629
979.119290	2534.062010
979.416777	2535.826413
979.714228	2536.186856
980.011642	2535.990251
980.309020	2539.902186
980.606360	2540.280273
980.903664	2540.607948
981.200931	2538.049562
981.498162	2541.159954
981.795356	2540.892773
982.092513	2546.425439
982.389633	2545.034081
982.686717	2547.632796
982.983764	2554.390462
983.280775	2554.231666
983.577749	2553.452808
983.874686	2553.659495
984.171587	2548.371325
984.468451	2549.107333
984.765279	2546.080120
985.062070	2545.011396
985.358824	2540.638195
985.655543	2540.633154
985.952224	2539.680376
986.248869	2537.258101
986.545478	2533.646114
986.842050	2533.661238
987.138586	2531.848943
987.435086	2531.637215
987.731549	2533.883049
988.027975	2536.242309
988.324366	2533.046217
988.620719	2536.711136
988.917037	2534.906403
989.213318	2535.745755
989.509563	2532.398429
989.805772	2536.005374
990.101944	2534.281300
990.398080	2536.058307
990.694180	2533.898172
990.990244	2533.749458
991.286271	2535.556712
991.582262	2535.758358
991.878217	2532.726104
992.174136	2533.484798
992.470019	2532.285003
992.765865	2537.583256
993.061676	2533.835158
993.357450	2534.309026
993.653188	2532.620240
993.948890	2535.501259
994.244556	2533.376413
994.540186	2537.255581
994.835780	2531.392719
995.131337	2537.767258
995.426859	2537.076620
995.722345	2535.188707
996.017795	2539.448482
996.313208	2539.178781
996.608586	2539.443441
996.903928	2538.619213
997.199234	2540.439069
997.494504	2537.512679
997.789738	2537.719367
998.084936	2538.402443
998.380099	2535.362627
998.675225	2536.451517
998.970316	2533.567977
999.265371	2535.592000
999.560390	2534.976979
999.855373	2534.901362
1000.150320	2533.283151
1000.445232	2532.743748
1000.740108	2534.056968
1001.034948	2533.847761
1001.329752	2530.371885
1001.624521	2533.593182
1001.919254	2526.028931
1002.213951	2530.533202
1002.508613	2530.006401
1002.803239	2532.176618
1003.097829	2530.124868
1003.392384	2533.872966
1003.686903	2534.440096
1003.981386	2531.561597
1004.275834	2532.597554
1004.570246	2531.899355
1004.864623	2534.039324
1005.158964	2533.056299
1005.453270	2532.050589
1005.747540	2530.591175
1006.041775	2532.385826
1006.335974	2534.099818
1006.630138	2531.949766
1006.924266	2531.909437
1007.218359	2535.738193
1007.512416	2529.499765
1007.806438	2532.350538
1008.100425	2534.858512
1008.394376	2531.642256
1008.688292	2532.690816
1008.982172	2532.295085
1009.276017	2531.664941
1009.569827	2528.310053
1009.863602	2531.183511
1010.157341	2532.111083
1010.451045	2531.430527
1010.744714	2531.032276
1011.038347	2531.959848
1011.331945	2531.715352
1011.625508	2533.779705
1011.919036	2532.942873
1012.212528	2532.695857
1012.505986	2531.924560
1012.799408	2531.362472
1013.092795	2532.945394
1013.386147	2529.986237
1013.679464	2532.630322
1013.972745	2530.109745
1014.265992	2532.214427
1014.559204	2532.229550
1014.852380	2529.822399
1015.145521	2532.970600
1015.438628	2532.174097
1015.731699	2532.718542
1016.024736	2530.855836
1016.317737	2530.571011
1016.610703	2533.958666
1016.903635	2527.387522
1017.196531	2527.639580
1017.489393	2528.113448
1017.782219	2526.049096
1018.075011	2527.427851
1018.367768	2530.412214
1018.660490	2531.281813
1018.953177	2531.281813
1019.245829	2531.281813
