Dividing Wavelength (nm)	Counts (n)	Blue Motor Position (mm): 46.000000	Red Motor Position (mm): 0.000000	
326.493990	2131.195679
326.888308	2131.195679
327.282561	2131.195679
327.676750	2097.787953
328.070874	2097.278796
328.464933	2101.364652
328.858929	2104.585949
329.252859	2116.329317
329.646726	2127.613940
330.040528	2141.167082
330.434265	2157.586120
330.827938	2176.150169
331.221547	2192.118024
331.615091	2211.944882
332.008571	2231.691081
332.401986	2253.015162
332.795338	2271.296907
333.188625	2289.019083
333.581847	2307.464665
333.975006	2327.896461
334.368100	2344.769203
334.761129	2363.255114
335.154095	2380.195912
335.546996	2399.990003
335.939833	2424.638724
336.332606	2442.101281
336.725315	2455.477983
337.117960	2466.460137
337.510540	2470.374593
337.903056	2481.341623
338.295508	2490.415700
338.687896	2499.174704
339.080220	2505.897083
339.472480	2513.484020
339.864676	2515.576098
340.256807	2523.087418
340.648875	2525.071112
341.040879	2528.279806
341.432818	2530.656710
341.824694	2532.484128
342.216506	2529.736700
342.608253	2533.010929
342.999937	2532.605116
343.391557	2532.267359
343.783113	2527.959693
344.174605	2527.321987
344.566033	2523.689836
344.957397	2524.841739
345.348697	2523.702438
345.739934	2525.340813
346.131106	2520.710514
346.522215	2518.487365
346.913260	2516.644823
347.304241	2514.593073
347.695159	2516.150790
348.086012	2509.849348
348.476802	2509.836745
348.867528	2509.078051
349.258191	2507.048987
349.648789	2507.127125
350.039324	2504.941784
350.429796	2503.585714
350.820203	2501.042452
351.210548	2501.788543
351.600828	2498.703357
351.991045	2499.923316
352.381198	2501.087822
352.771288	2497.992554
353.161314	2496.754951
353.551276	2501.044973
353.941175	2500.114880
354.331010	2498.352996
354.720782	2498.741165
355.110490	2499.593120
355.500135	2498.128665
355.889717	2501.690240
356.279235	2498.852071
356.668689	2499.323418
357.058080	2499.341063
357.447408	2496.933912
357.836672	2496.457522
358.225873	2497.405259
358.615010	2499.961124
359.004084	2500.472802
359.393095	2503.764675
359.782043	2502.890035
360.170927	2503.857936
360.559748	2508.089985
360.948505	2507.873215
361.337199	2506.945643
361.725830	2507.043946
362.114398	2509.680469
362.502903	2509.355315
362.891344	2507.802639
363.279722	2510.398833
363.668037	2509.357835
364.056289	2508.218534
364.444478	2509.682990
364.832603	2508.029491
365.220665	2511.084430
365.608665	2512.153155
365.996601	2514.167096
366.384474	2512.805984
366.772284	2516.629700
367.160031	2516.082734
367.547715	2514.716582
367.935336	2515.210615
368.322893	2515.107271
368.710388	2513.925121
369.097820	2516.463342
369.485189	2518.699093
369.872495	2520.014834
370.259738	2516.793537
370.646918	2519.263703
371.034035	2518.827643
371.421090	2522.066584
371.808081	2522.384177
372.195010	2522.726975
372.581875	2522.928621
372.968678	2525.310567
373.355418	2528.327697
373.742096	2533.746937
374.128710	2538.619213
374.515262	2539.902186
374.901751	2548.688917
375.288177	2555.209650
375.674540	2562.610064
376.060841	2572.934347
376.447079	2584.234093
376.833254	2594.477718
377.219367	2601.406784
377.605417	2621.190792
377.991404	2628.777729
378.377329	2648.723054
378.763191	2660.380722
379.148991	2684.847962
379.534727	2703.033925
379.920402	2724.743654
380.306013	2739.846951
380.691563	2775.752569
381.077049	2797.684109
381.462474	2818.748570
381.847835	2853.232583
382.233134	2875.711088
382.618371	2888.283726
383.003545	2944.981583
383.388657	2964.490848
383.773706	2998.972341
384.158693	3022.416227
384.543618	3061.172617
384.928480	3097.393308
385.313280	3144.538179
385.698017	3158.403872
386.082692	3217.022409
386.467305	3235.316757
386.851856	3273.372427
387.236344	3309.073878
387.620770	3348.583922
388.005133	3384.078686
388.389435	3422.446908
388.773674	3444.827110
389.157851	3494.205212
389.541965	3518.992566
389.926018	3501.703929
390.310008	3576.333170
390.693936	3601.304526
391.077802	3651.567350
391.461606	3649.477792
391.845348	3717.382134
392.229027	3725.931931
392.612645	3742.807194
392.996200	3827.881706
393.379694	3872.637070
393.763125	3938.986216
394.146494	3912.099222
394.529801	3976.953666
394.913047	4030.208416
395.296230	3996.662057
395.679351	4057.624731
396.062410	4083.296807
396.445408	4068.269127
396.828343	4104.121813
397.211217	4126.383549
397.594028	4050.070562
397.976778	4116.618834
398.359466	4148.700737
398.742092	4173.977082
399.124656	4097.475052
399.507158	4176.873225
399.889598	4205.363306
400.271977	4263.944034
400.654294	4234.455805
401.036549	4246.176488
401.418742	4212.683061
401.800874	4317.710461
402.182944	4336.781146
402.564952	4401.179365
402.946898	4388.480699
403.328783	4385.302251
403.710606	4297.238335
404.092367	4494.377697
404.474067	4459.651709
404.855705	4463.465342
405.237282	4392.904311
405.618797	4504.543184
406.000250	4539.125499
406.381642	4619.990648
406.762972	4575.900717
407.144240	4593.338068
407.525447	4589.126184
407.906593	4650.083816
408.287677	4688.948592
408.668700	4615.161223
409.049661	4675.148433
409.430560	4715.591090
409.811399	4641.549142
410.192176	4800.378256
410.572891	4739.546653
410.953545	4842.998691
411.334138	4725.217173
411.714669	4790.356442
412.095139	4685.351728
412.475547	4826.327596
412.855894	4809.873269
413.236180	4818.339887
413.616405	4773.241725
413.996568	4858.316237
414.376670	4802.195592
414.756711	4755.857306
415.136691	4787.084733
415.516609	4865.802351
415.896466	4904.657044
416.276262	4939.193989
416.655997	4913.274897
417.035670	5097.541673
417.415283	5194.319223
417.794834	5133.764883
418.174324	5091.492288
418.553753	4991.647195
418.933121	5177.859856
419.312428	5245.663375
419.691674	5181.945711
420.070859	5312.619981
420.449983	5228.901539
420.829045	5340.653837
421.208047	5245.645731
421.586988	5321.162216
421.965867	5331.355429
422.344686	5461.795285
422.723444	5318.439993
423.102141	5133.883351
423.480777	5431.364360
423.859352	5206.954876
424.237866	5459.156241
424.616319	5455.604748
424.994712	5564.178599
425.373044	5439.581440
425.751314	5585.338842
426.129524	5387.909613
426.507673	5578.157718
426.885762	5663.970760
427.263789	5592.943423
427.641756	5473.374815
428.019662	5599.527170
428.397508	5604.366677
428.775292	5550.275097
429.153016	5648.539788
429.530679	5576.733592
429.908282	5663.043187
430.285824	5531.554772
430.663305	5802.554600
431.040726	5548.122524
431.418086	5542.093304
431.795385	5649.245549
432.172624	5658.987579
432.549802	5655.002547
432.926920	5667.217263
433.303977	5675.066339
433.680974	5710.553542
434.057910	5732.527932
434.434786	5735.880299
434.811601	5701.691193
435.188355	5937.591988
435.565050	5813.534233
435.941683	5792.404236
436.318257	6011.613770
436.694770	5994.864537
437.071222	6029.635895
437.447614	5959.578980
437.823946	5870.466504
438.200218	6024.549371
438.576429	5895.286625
438.952580	5993.460575
439.328670	6032.514394
439.704700	5943.699346
440.080670	5930.849444
440.456580	6202.610487
440.832429	6083.732517
441.208218	5928.951450
441.583947	6086.046407
441.959616	6086.263176
442.335224	6016.266755
442.710773	6155.251367
443.086261	6176.552762
443.461689	5971.458459
443.837057	6121.261387
444.212365	6277.252331
444.587612	6172.073697
444.962800	6324.369475
445.337927	6303.236958
445.712995	5916.182207
446.088002	6489.903324
446.462949	6321.107849
446.837837	6254.178970
447.212664	6421.825062
447.587431	6564.338481
447.962139	7109.521625
448.336786	8038.155096
448.711374	7776.743543
449.085901	6854.093922
449.460369	6772.969153
449.834776	6710.841973
450.209124	7102.249761
450.583412	7246.126812
450.957640	7389.807258
451.331808	7158.274624
451.705917	6711.809875
452.079965	6635.930427
452.453954	6847.053950
452.827883	6723.384364
453.201752	6818.296688
453.575562	6613.915708
453.949311	6820.038407
454.323001	6711.406583
454.696632	6778.854700
455.070202	6918.764364
455.443713	7078.594146
455.817164	7180.695156
456.190556	7257.371106
456.563888	7335.609813
456.937160	7375.346709
457.310373	7036.026643
457.683526	7056.972637
458.056619	6950.405166
458.429653	6940.035512
458.802628	6870.921293
459.175542	6982.358519
459.548398	7340.754311
459.921194	7496.951942
460.293930	7499.691809
460.666607	8027.861060
461.039224	8337.765992
461.411782	8466.832134
461.784280	8482.255544
462.156719	8375.867033
462.529099	8243.887105
462.901419	7832.695309
463.273680	7734.334836
463.645882	7744.800271
464.018024	7615.403934
464.390106	7778.250848
464.762130	8167.362389
465.134094	8638.422928
465.505999	9659.634669
465.877845	10884.191432
466.249631	11530.472396
466.621358	11146.517954
466.993026	10520.809939
467.364634	10258.216235
467.736184	9894.970854
468.107674	9570.186955
468.479105	9595.932128
468.850477	9355.516981
469.221790	9134.651428
469.593043	8803.407291
469.964238	8664.170622
470.335373	8680.801388
470.706449	8736.309533
471.077467	8716.979229
471.448425	10029.662923
471.819324	11094.195819
472.190164	11122.254881
472.560945	9865.863231
472.931667	9082.200743
473.302330	8949.986401
473.672934	8594.879962
474.043479	8952.212070
474.413965	8896.230057
474.784393	8776.492570
475.154761	8934.028628
475.525070	9021.659005
475.895321	8845.188374
476.265513	9021.202781
476.635645	9193.574954
477.005719	9193.537146
477.375734	9314.408892
477.745691	9547.279952
478.115588	9676.865332
478.485427	9920.637888
478.855207	10459.315424
479.224928	11270.464804
479.594591	11895.585525
479.964194	11710.900333
480.333739	11652.012095
480.703226	11567.978581
481.072653	11660.012406
481.442022	11894.047973
481.811333	12083.371026
482.180584	11889.014381
482.549777	11597.166861
482.918912	11421.717063
483.287988	11441.957296
483.657005	11458.467075
484.025964	11137.002777
484.394864	11267.939186
484.763706	11243.852553
485.132489	11000.301808
485.501213	10955.392689
485.869879	11044.343848
486.238487	10880.118179
486.607036	10987.829993
486.975527	10768.822105
487.343959	10959.876795
487.712333	11006.744402
488.080648	10935.989288
488.448905	10980.537964
488.817104	10919.091340
489.185244	11188.510766
489.553326	11347.380209
489.921350	11883.879966
490.289315	12942.555041
490.657222	13291.675109
491.025070	13190.136189
491.392861	13063.346128
491.760593	12688.606916
492.128267	12331.846979
492.495883	12010.642300
492.863440	11665.847541
493.230939	11334.293373
493.598380	11265.123702
493.965763	11136.468414
494.333088	11036.857735
494.700354	10958.820673
495.067563	11015.982317
495.434713	10842.314567
495.801805	10970.201078
496.168839	10899.617363
496.535815	10833.129584
496.902733	10831.213946
497.269593	10766.805644
497.636395	10860.719819
498.003139	10850.365289
498.369825	10723.330733
498.736453	10877.300174
499.103023	10808.059926
499.469535	10836.151756
499.835989	10829.809985
500.202385	10785.616709
500.568723	10641.270831
500.935003	10864.518329
501.301226	10668.261168
501.667390	10928.266240
502.033497	11026.402382
502.399546	10878.343693
502.765537	10786.947574
503.131470	10859.121774
503.497345	11044.371575
503.863163	10649.399691
504.228923	10954.311361
504.594625	11028.436487
504.960269	10768.023083
505.325856	10994.149079
505.691385	10785.321802
506.056856	10940.554052
506.422270	10965.724533
506.787625	10853.669766
507.152924	10974.864145
507.518164	10951.468150
507.883347	10871.855728
508.248472	10789.148038
508.613540	11022.583708
508.978550	10908.996429
509.343503	10885.552543
509.708398	11002.809782
510.073236	11114.743562
510.438016	11117.390167
510.802738	11070.091542
511.167403	11127.429625
511.532010	11021.804849
511.896561	11248.719787
512.261053	11325.110912
512.625488	11189.526558
512.989866	11171.459063
513.354186	11164.620738
513.718449	11061.642568
514.082655	11256.183215
514.446803	11156.212093
514.810894	11270.300967
515.174927	11138.313477
515.538904	11163.433546
515.902822	11319.127062
516.266684	11203.717407
516.630488	11140.879424
516.994235	11193.904801
517.357925	11255.124573
517.721558	11347.584376
518.085133	11365.525842
518.448651	11367.842252
518.812112	11252.765313
519.175516	11273.585278
519.538863	11398.663867
519.902152	11308.538118
520.265385	11473.961061
520.628560	11383.341280
520.991678	11363.814370
521.354739	11427.378279
521.717743	11358.057373
522.080690	11335.682211
522.443580	11471.669857
522.806413	11425.578587
523.169189	11455.036570
523.531908	11511.810044
523.894569	11335.359577
524.257174	11336.834115
524.619722	11459.440018
524.982213	11405.842470
525.344647	11460.455810
525.707025	11405.784497
526.069345	11504.220587
526.431608	11417.243039
526.793815	11526.613393
527.155964	11313.705301
527.518057	11370.498940
527.880093	11313.576752
528.242072	11387.583411
528.603995	11290.473144
528.965860	11209.988602
529.327669	11265.257292
529.689421	11219.186187
530.051117	11185.627226
530.412755	11288.373503
530.774337	11170.254227
531.135862	11156.421301
531.497331	11182.421052
531.858743	11035.073166
532.220098	11203.881244
532.581396	11072.750750
532.942638	11058.212063
533.303824	11013.643221
533.664953	11032.829853
534.026025	10946.789960
534.387040	11043.433920
534.747999	11048.044055
535.108902	11102.793507
535.469748	10867.142249
535.830537	10966.251334
536.191270	10937.615060
536.551947	10968.086314
536.912567	10964.028185
537.273131	10891.904397
537.633638	10873.168949
537.994089	10859.651095
538.354483	10806.587909
538.714821	10959.133225
539.075103	10967.521705
539.435328	10929.818915
539.795497	10758.001269
540.155609	10919.827348
540.515665	10997.055305
540.875665	10732.102341
541.235609	10803.258227
541.595496	10803.132198
541.955328	10952.196597
542.315102	10833.764770
542.674821	10793.044850
543.034483	10784.817687
543.394090	10794.882350
543.753640	10717.195649
544.113134	10949.401277
544.472571	10798.040633
544.831953	10947.626791
545.191278	10748.770916
545.550548	10778.765781
545.909761	10912.857953
546.268918	10886.860723
546.628019	10963.574481
546.987064	10835.007414
547.346053	10753.890208
547.704986	10856.452483
548.063863	10841.581079
548.422684	10837.797693
548.781449	10746.416697
549.140158	10857.785868
549.498811	10731.058822
549.857408	10586.123128
550.215949	10816.211472
550.574434	10668.871148
550.932864	10763.889336
551.291237	10828.741260
551.649555	10774.926943
552.007817	10787.943202
552.366022	10747.954249
552.724173	10739.512837
553.082267	10723.797040
553.440305	10866.683504
553.798288	10671.885758
554.156215	10822.215486
554.514086	10801.110696
554.871902	10646.871553
555.229661	10682.462099
555.587365	10660.727164
555.945014	10548.473271
556.302606	10675.548156
556.660143	10571.055119
557.017625	10727.305683
557.375050	10623.578901
557.732421	10753.088664
558.089735	10670.650675
558.446994	10668.513226
558.804197	10708.252642
559.161345	10712.257839
559.518437	10552.738087
559.875474	10648.739300
560.232455	10677.630153
560.589381	10625.013110
560.946251	10625.650816
561.303065	10724.379293
561.659825	10667.888123
562.016528	10590.839128
562.373177	10477.607251
562.729770	10585.555998
563.086307	10507.864256
563.442789	10599.976219
563.799216	10477.634977
564.155587	10525.770434
564.511904	10483.896090
564.868164	10470.484100
565.224370	10484.395164
565.580520	10411.507641
565.936615	10416.039639
566.292654	10287.011306
566.648638	10417.751110
567.004567	10375.498679
567.360441	10361.088541
567.716260	10268.953893
568.072023	10360.710455
568.427732	10313.258073
568.783385	10225.421009
569.138982	10292.173447
569.494525	10310.792949
569.850013	10191.889774
570.205445	10259.370659
570.560823	10164.609570
570.916145	10082.169061
571.271412	10152.697323
571.626625	10097.642882
571.981782	10072.951311
572.336884	10046.089523
572.691931	10050.833248
573.046923	9996.192182
573.401860	9953.291963
573.756743	9887.537672
574.111570	9932.371174
574.466342	9919.385162
574.821059	9947.638308
575.175722	9832.894085
575.530330	9845.663328
575.884882	9837.784004
576.239380	9768.274055
576.593823	9745.051979
576.948211	9761.410524
577.302544	9638.721442
577.656823	9653.141663
578.011047	9656.234410
578.365216	9633.781111
578.719330	9555.859996
579.073389	9564.538343
579.427394	9510.534982
579.781344	9489.042023
580.135239	9436.689640
580.489080	9448.858985
580.842866	9353.046815
581.196597	9363.081232
581.550273	9398.074401
581.903895	9358.236683
582.257463	9429.019524
582.610975	9311.676586
582.964434	9332.304988
583.317837	9248.697451
583.671186	9239.918282
584.024481	9236.570956
584.377721	9155.088265
584.730906	9133.315522
585.084037	9162.544132
585.437113	9094.891847
585.790135	9117.408161
586.143103	9011.793467
586.496016	8989.705652
586.848874	9051.263181
587.201679	9032.038741
587.554428	8921.967668
587.907124	8966.009708
588.259765	8938.558105
588.612352	8938.515255
588.964884	8816.219383
589.317362	8833.896189
589.669786	8832.537598
590.022155	8882.392089
590.374470	8893.948934
590.726731	8832.000715
591.078937	8682.207870
591.431090	8795.817834
591.783188	8673.504318
592.135232	8663.661465
592.487222	8665.514089
592.839157	8712.195174
593.191038	8644.232858
593.542866	8594.237215
593.894639	8492.252152
594.246358	8540.548926
594.598022	8566.014315
594.949633	8457.034651
595.301190	8437.182587
595.652692	8460.959189
596.004141	8573.250891
596.355535	8352.523970
596.706876	8330.847009
597.058162	8269.778471
597.409395	8340.949481
597.760573	8403.469871
598.111698	8316.015934
598.462768	8298.548336
598.813785	8263.585413
599.164748	8235.748162
599.515657	8223.581337
599.866511	8138.045559
600.217312	8264.896113
600.568060	8119.811706
600.918753	8229.965958
601.269392	8190.493724
601.619978	8102.704550
601.970510	8165.093870
602.320988	8166.424735
602.671412	8223.387253
603.021783	8156.307139
603.372100	8134.221844
603.722363	8128.863097
604.072572	8105.537679
604.422728	8121.838250
604.772830	8047.733288
605.122878	8054.745533
605.472872	8051.367960
605.822813	8077.259326
606.172701	8024.957355
606.522534	8103.359900
606.872314	8099.508459
607.222041	8068.281031
607.571714	8120.925801
607.921333	8080.425171
608.270899	8088.664937
608.620411	8175.224069
608.969870	8080.631858
609.319276	8077.014830
609.668627	8099.311854
610.017926	8125.767829
610.367171	8175.438318
610.716362	8150.880337
611.065500	8145.854307
611.414585	8171.652411
611.763616	8159.062130
612.112594	8136.732339
612.461518	8153.922673
612.810389	8216.392652
613.159207	8152.992580
613.507971	8098.895958
613.856682	8222.898261
614.205340	8175.816404
614.553945	8258.203982
614.902496	8160.206472
615.250994	8208.835962
615.599439	8190.128240
615.947830	8207.510139
616.296169	8179.730860
616.644454	8191.416255
616.992686	8187.146398
617.340864	8245.096982
617.688990	8153.847056
618.037063	8245.759893
618.385082	8187.673198
618.733048	8279.810367
619.080961	8209.166158
619.428821	8241.409378
619.776628	8233.225064
620.124382	8187.156480
620.472083	8169.772061
620.819731	8200.341618
621.167326	8091.004032
621.514868	8102.235723
621.862357	7984.857497
622.209793	8007.235179
622.557176	7931.655680
622.904506	7903.339518
623.251783	7846.581167
623.599007	7797.331615
623.946179	7799.816904
624.293297	7755.031293
624.640363	7672.270670
624.987376	7656.920357
625.334336	7608.298428
625.681243	7552.122330
626.028097	7541.354425
626.374899	7515.654623
626.721647	7513.915425
627.068343	7442.504960
627.414987	7415.053357
627.761577	7369.193980
628.108115	7409.051863
628.454600	7300.175543
628.801032	7352.505241
629.147412	7312.188613
629.493739	7300.135214
629.840014	7236.692293
630.186236	7293.816128
630.532405	7177.032757
630.878521	7226.552012
631.224585	7191.410128
631.570597	7108.357119
631.916556	7142.757953
632.262462	7141.500185
632.608316	7099.265398
632.954117	7081.762512
633.299866	7062.472536
633.645562	7060.718215
633.991206	6975.638661
634.336797	6920.566576
634.682336	6875.879268
635.027823	6845.851635
635.373257	6833.228586
635.718639	6765.793071
636.063968	6776.510564
636.409245	6671.979718
636.754470	6672.806468
637.099642	6635.101157
637.444762	6574.408186
637.789829	6581.541418
638.134845	6528.624426
638.479808	6511.877713
638.824719	6515.630852
639.169577	6440.497495
639.514383	6471.162834
639.859137	6389.181070
640.203839	6397.125928
640.548489	6387.295678
640.893086	6365.220466
641.237632	6331.938768
641.582125	6355.415421
641.926566	6324.029197
642.270955	6341.373287
642.615292	6332.135373
642.959576	6349.459298
643.303809	6332.831052
643.647990	6342.694070
643.992118	6337.811712
644.336195	6281.905316
644.680219	6306.816178
645.024192	6293.331091
645.368112	6388.896245
645.711981	6417.225009
646.055797	6488.580021
646.399562	6450.894875
646.743274	6573.359626
647.086935	6629.044211
647.430544	6623.922399
647.774101	6643.063660
648.117606	6652.495659
648.461059	6643.146839
648.804460	6605.771724
649.147810	6507.817064
649.491108	6487.294527
649.834354	6457.332429
650.177548	6379.277723
650.520690	6293.827645
650.863781	6265.007368
651.206820	6285.232477
651.549807	6204.886567
651.892742	6152.304812
652.235626	6152.995450
652.578458	6139.482638
652.921238	6050.536519
653.263967	6093.310709
653.606644	6029.572881
653.949269	6034.682090
654.291843	5971.806299
654.634365	6021.418814
654.976836	5976.938193
655.319255	5981.485314
655.661622	5950.366272
656.003938	5951.311488
656.346203	5910.150467
656.688416	5941.768584
657.030577	5894.812756
657.372687	5863.645823
657.714746	5848.902968
658.056753	5893.383589
658.398708	5837.535166
658.740612	5827.823383
659.082465	5871.895671
659.424266	5866.967943
659.766016	5865.692531
660.107715	5839.259241
660.449362	5853.649214
660.790958	5848.023287
661.132503	5834.316389
661.473996	5876.810796
661.815438	5859.285224
662.156829	5856.991499
662.498168	5853.603844
662.839456	5826.747097
663.180693	5857.031829
663.521879	5861.841089
663.863013	5848.592937
664.204097	5865.586667
664.545129	5908.401186
664.886110	5900.806688
665.227040	5939.313542
665.567918	5905.179889
665.908746	5936.384631
666.249522	5939.444612
666.590248	5923.126397
666.930922	5950.419204
667.271545	5966.190453
667.612118	5968.932841
667.952639	5943.167504
668.293109	5959.430266
668.633528	5919.839564
668.973896	5924.094298
669.314213	5916.338483
669.654480	5896.496502
669.994695	5889.390995
670.334859	5878.749119
670.674973	5865.942068
671.015035	5872.913984
671.355047	5871.666298
671.695008	5857.306572
672.034918	5835.246482
672.374777	5846.153019
672.714585	5830.951419
673.054342	5833.471996
673.394049	5827.788095
673.733705	5858.284555
674.073310	5846.140416
674.412864	5802.282377
674.752368	5793.992200
675.091820	5801.271626
675.431223	5737.480865
675.770574	5733.546245
676.109875	5692.049987
676.449125	5694.736922
676.788324	5657.278628
677.127473	5608.180310
677.466571	5598.639927
677.805619	5581.976392
678.144616	5568.352674
678.483562	5547.389036
678.822458	5517.356362
679.161303	5513.247822
679.500098	5507.904198
679.838842	5486.761599
680.177535	5491.167568
680.516179	5505.207181
680.854771	5521.243092
681.193314	5597.651860
681.531805	5709.943562
681.870247	5862.083065
682.208638	5961.242561
682.546978	5970.150280
682.885268	5949.431138
683.223508	5864.810329
683.561697	5807.399148
683.899836	5780.953255
684.237925	5737.972378
684.575963	5699.614238
684.913951	5660.557899
685.251889	5725.835800
685.589776	5691.530748
685.927614	5660.194936
686.265401	5732.560699
686.603137	5713.749633
686.940824	5795.509587
687.278460	5814.103883
687.616046	5827.805739
687.953582	5896.118415
688.291068	5880.450509
688.628504	5941.493841
688.965889	5900.272326
689.303224	5848.658472
689.640510	5797.425226
689.977745	5724.943516
690.314930	5623.628926
690.652065	5564.798661
690.989150	5474.176359
691.326185	5399.063166
691.663170	5345.016956
692.000105	5266.528711
692.336990	5190.067010
692.673825	5166.111447
693.010610	5099.280871
693.347345	5027.174727
693.684030	5015.176780
694.020665	4973.862004
694.357251	4882.367582
694.693786	4892.628851
695.030272	4856.864385
695.366707	4821.508252
695.703093	4789.323006
696.039429	4813.480215
696.375716	4795.004386
696.711952	4766.988174
697.048139	4757.722533
697.384276	4736.549687
697.720363	4746.889093
698.056400	4759.839817
698.392388	4709.813927
698.728326	4684.464485
699.064214	4665.948327
699.400053	4657.025485
699.735842	4625.556082
700.071581	4603.470787
700.407270	4575.263011
700.742910	4555.789033
701.078501	4505.276672
701.414042	4501.538656
701.749533	4471.538750
702.084974	4404.504006
702.420366	4464.493737
702.755709	4406.742279
703.091002	4348.955532
703.426246	4396.808685
703.761440	4356.451728
704.096584	4318.280111
704.431679	4336.019931
704.766725	4322.282787
705.101721	4312.439934
705.436668	4337.655786
705.771565	4289.051501
706.106413	4311.890448
706.441212	4348.101057
706.775961	4356.360987
707.110661	4335.485569
707.445311	4362.435578
707.779913	4389.025143
708.114465	4398.817585
708.448967	4427.466462
708.783421	4483.362776
709.117825	4525.526987
709.452180	4529.859858
709.786485	4572.399635
710.120742	4662.389272
710.454949	4645.786232
710.789107	4712.730235
711.123216	4786.641112
711.457275	4778.403867
711.791286	4852.471019
712.125247	4872.905337
712.459159	4774.494452
712.793023	4847.142520
713.126837	4806.336900
713.460602	4798.654182
713.794318	4716.417839
714.127985	4726.086772
714.461602	4641.145850
714.795171	4614.120224
715.128691	4544.431314
715.462162	4485.860668
715.795584	4437.944500
716.128957	4420.711316
716.462281	4370.216598
716.795556	4345.235161
717.128782	4306.491373
717.461960	4235.577462
717.795088	4242.514089
718.128167	4205.270045
718.461198	4145.509686
718.794180	4142.694202
719.127113	4122.312817
719.459997	4099.400773
719.792833	4056.719844
720.125619	4050.849420
720.458357	4011.659490
720.791046	4019.722816
721.123686	3992.021675
721.456278	3949.688586
721.788821	3966.508396
722.121315	3936.533695
722.453761	3912.593255
722.786158	3927.999021
723.118506	3947.160447
723.450805	3901.691760
723.783056	3920.570881
724.115259	3935.338941
724.447412	3942.351186
724.779518	3937.952780
725.111574	3940.143161
725.443582	3971.662975
725.775542	3956.224442
726.107453	4006.870394
726.439315	4007.732431
726.771129	4021.053680
727.102895	4060.833425
727.434612	4104.341103
727.766281	4118.300058
728.097901	4118.209318
728.429473	4127.991677
728.760996	4130.126605
729.092471	4125.771048
729.423897	4110.415694
729.755276	4115.807208
730.086606	4115.300572
730.417887	4151.536386
730.749120	4215.979976
731.080305	4280.526910
731.411442	4310.801559
731.742530	4280.063124
732.073570	4283.765851
732.404562	4337.796938
732.735506	4328.180937
733.066401	4294.067449
733.397249	4230.301894
733.728048	4145.744100
734.058798	4068.190989
734.389501	3995.172396
734.720156	3932.135288
735.050762	3887.533679
735.381320	3882.270715
735.711831	3829.081501
736.042293	3801.534115
736.372707	3821.214780
736.703073	3796.288795
737.033391	3786.907207
737.363661	3804.589055
737.693883	3825.580419
738.024056	3839.443592
738.354182	3831.319773
738.684260	3896.065832
739.014290	3919.391251
739.344272	3910.788522
739.674207	3956.524390
740.004093	3960.895071
740.333931	3956.078248
740.663722	3958.583702
740.993464	3954.066828
741.323159	3932.672171
741.652806	3898.893920
741.982405	3873.229405
742.311956	3843.232019
742.641460	3831.387828
742.970915	3807.076864
743.300323	3767.796193
743.629683	3731.872931
743.958996	3721.178123
744.288260	3697.456974
744.617477	3664.565965
744.946647	3652.968791
745.275768	3626.911067
745.604842	3623.473000
745.933869	3572.630443
746.262847	3565.784556
746.591778	3605.362655
746.920662	3573.996595
747.249498	3543.053993
747.578286	3591.282712
747.907027	3609.866926
748.235720	3606.655711
748.564365	3632.937766
748.892963	3629.436685
749.221514	3613.355404
749.550017	3592.159873
749.878473	3587.874892
750.206881	3559.601581
750.535242	3553.776527
750.863555	3555.845921
751.191821	3551.071948
751.520039	3532.467570
751.848210	3508.040659
752.176334	3541.806308
752.504411	3550.151938
752.832440	3508.030577
753.160421	3493.643124
753.488356	3501.729134
753.816243	3515.809077
754.144082	3471.222592
754.471875	3454.264150
754.799620	3475.068992
755.127318	3468.986840
755.454969	3467.797128
755.782572	3472.866008
756.110129	3450.019499
756.437638	3439.337294
756.765100	3451.189047
757.092515	3464.802682
757.419882	3471.227633
757.747203	3444.126390
758.074477	3445.348870
758.401703	3463.943166
758.728882	3478.875063
759.056014	3487.787823
759.383099	3492.460973
759.710138	3489.027947
760.037129	3509.000999
760.364073	3536.732386
760.690970	3522.508771
761.017820	3500.930112
761.344623	3519.957947
761.671379	3562.827919
761.998088	3615.623923
762.324751	3740.402563
762.651366	3988.739884
762.977935	4466.280826
763.304456	4911.018980
763.630931	5003.251931
763.957359	4645.776150
764.283740	4299.547183
764.610074	4106.660034
764.936362	3908.835075
765.262602	3752.816405
765.588796	3638.432624
765.914943	3551.684448
766.241044	3458.798668
766.567097	3429.759102
766.893104	3384.746639
767.219064	3352.160620
767.544978	3324.913184
767.870845	3269.120214
768.196665	3251.574478
768.522438	3259.849532
768.848165	3254.810898
769.173846	3222.187071
769.499479	3201.137733
769.825066	3183.745753
770.150607	3168.776046
770.476101	3181.719209
770.801548	3176.496573
771.126949	3135.567445
771.452303	3115.352418
771.777611	3122.190744
772.102872	3124.345837
772.428087	3105.479319
772.753256	3095.913729
773.078378	3089.062801
773.403453	3050.319013
773.728482	3038.454658
774.053465	3059.970302
774.378401	3049.819939
774.703291	3019.605783
775.028135	3019.008407
775.352932	3011.973477
775.677683	3001.021570
776.002388	2998.294306
776.327046	3003.794204
776.651658	2989.336175
776.976224	2976.145996
777.300743	2979.856285
777.625216	2968.770788
777.949643	2964.072433
778.274024	2964.079994
778.598359	2952.623972
778.922647	2958.247379
779.246889	2958.582616
779.571086	2943.945626
779.895236	2937.296344
780.219339	2948.883436
780.543397	2962.187041
780.867409	2965.882207
781.191374	2955.673870
781.515294	2954.983232
781.839167	2955.542800
782.162995	2945.488219
782.486776	2955.313428
782.810511	2947.897891
783.134201	2937.772733
783.457844	2943.834721
783.781441	2939.532096
784.104993	2916.804054
784.428498	2917.993766
784.751958	2933.933894
785.075372	2924.695980
785.398739	2909.141500
785.722061	2921.741864
786.045337	2934.120417
786.368568	2922.046854
786.691752	2912.292221
787.014891	2961.163687
787.337983	2989.782317
787.661030	3020.460259
787.984031	3085.995259
788.306987	3131.201806
788.629897	3125.338944
788.952760	3108.637602
789.275579	3095.891044
789.598351	3035.074564
789.921078	2989.386587
790.243759	2982.182778
790.566395	2964.818523
790.888984	2939.206941
791.211529	2923.120619
791.534027	2912.445976
791.856480	2902.109090
792.178888	2888.850856
792.501249	2878.675287
792.823566	2876.313506
793.145836	2875.829555
793.468062	2871.592465
793.790241	2869.003833
794.112375	2874.428114
794.434464	2886.395814
794.756507	2894.323028
795.078505	2895.711866
795.400457	2911.064700
795.722364	2947.519804
796.044226	2974.686582
796.366042	2974.404278
796.687812	2962.678554
797.009538	2983.921976
797.331218	2970.227682
797.652852	2957.778552
797.974442	2938.690223
798.295986	2933.724687
798.617484	2930.750406
798.938938	2914.265833
799.260346	2900.553894
799.581709	2892.820764
799.903026	2886.105947
800.224299	2882.163765
800.545526	2871.138762
800.866708	2857.129395
801.187845	2846.986593
801.508936	2847.488188
801.829983	2855.201154
802.150984	2842.494925
802.471940	2828.669561
802.792851	2829.319870
803.113717	2827.850373
803.434538	2829.985302
803.755314	2826.922801
804.076045	2819.915597
804.396731	2821.259065
804.717372	2820.797799
805.037967	2812.825214
805.358518	2821.609425
805.679024	2834.567711
805.999485	2830.653255
806.319901	2837.403360
806.640272	2826.978254
806.960598	2832.301712
807.280879	2841.259843
807.601115	2848.040195
807.921306	2832.740293
808.241453	2830.895230
808.561554	2837.698267
808.881611	2839.659276
809.201623	2832.271465
809.521590	2833.264573
809.841513	2828.031855
810.161390	2832.014367
810.481223	2828.258707
810.801011	2816.333857
811.120755	2812.641212
811.440453	2815.776810
811.760107	2817.727737
812.079716	2811.953095
812.399281	2803.252063
812.718801	2797.883234
813.038276	2792.232101
813.357707	2796.938018
813.677093	2803.589821
813.996434	2800.426497
814.315731	2795.329890
814.634983	2788.731020
814.954191	2791.135650
815.273354	2806.909420
815.592473	2814.811429
815.911547	2817.054742
816.230577	2825.289467
816.549562	2834.900427
816.868502	2833.025118
817.187399	2844.027436
817.506250	2859.609643
817.825058	2853.164527
818.143821	2865.114583
818.462539	2879.875081
818.781213	2907.513207
819.099843	2943.895214
819.418429	3003.627846
819.736970	3067.222002
820.055466	3138.345121
820.373919	3244.010226
820.692327	3384.781927
821.010691	3556.960016
821.329011	4000.195906
821.647286	4911.820524
821.965517	6307.153935
822.283704	7065.545120
822.601847	7046.976029
822.919945	6404.783441
823.237999	5887.034256
823.556010	5300.052384
823.873976	4742.475563
824.191897	4326.408972
824.509775	4028.726316
824.827609	3758.154987
825.145398	3634.097232
825.463144	3621.111219
825.780845	3710.178325
826.098502	3818.369049
826.416116	4100.361112
826.733685	4420.401285
827.051210	4492.280577
827.368692	4371.431517
827.686129	4105.649283
828.003522	3775.161319
828.320872	3512.860002
828.638177	3314.435146
828.955439	3178.329033
829.272656	3092.299222
829.589830	3024.999818
829.906960	2973.441417
830.224046	2930.498348
830.541088	2894.920405
830.858086	2879.907849
831.175041	2858.682070
831.491952	2860.564941
831.808819	2873.276211
832.125642	2899.449882
832.442421	2942.055193
832.759157	3028.200951
833.075849	3209.075030
833.392497	3491.268740
833.709101	3695.932025
834.025662	3648.772030
834.342179	3490.683966
834.658653	3307.528765
834.975083	3157.239366
835.291469	3059.574572
835.607811	2971.114925
835.924110	2915.193405
836.240366	2863.856815
836.556578	2819.424085
836.872746	2794.593882
837.188871	2770.688730
837.504952	2754.302459
837.820990	2746.637385
838.136984	2733.984089
838.452935	2728.650548
838.768842	2725.179714
839.084706	2742.261663
839.400526	2821.795948
839.716303	2957.397945
840.032037	3039.379709
840.347727	3027.863193
840.663373	2964.702577
840.978977	2885.145608
841.294537	2812.565595
841.610054	2765.342586
841.925527	2740.950963
842.240957	2717.398693
842.556344	2697.690302
842.871687	2682.090451
843.186987	2674.528720
843.502244	2668.633091
843.817458	2662.661844
844.132629	2649.819505
844.447756	2641.413381
844.762840	2635.046403
845.077881	2636.689820
845.392879	2637.861888
845.707833	2633.395426
846.022745	2624.868314
846.337613	2630.045579
846.652438	2625.606843
846.967221	2622.975361
847.281960	2626.894858
847.596656	2623.300515
847.911309	2621.606687
848.225919	2618.627365
848.540485	2617.041922
848.855009	2617.818260
849.169490	2618.939917
849.483928	2616.217694
849.798323	2615.930348
850.112675	2613.268619
850.426984	2616.757097
850.741251	2616.187447
851.055474	2612.378855
851.369654	2615.111161
851.683792	2616.883126
851.997887	2615.343054
852.311938	2612.888012
852.625947	2615.524535
852.939914	2616.686521
853.253837	2618.024947
853.567718	2611.675614
853.881555	2611.889863
854.195350	2616.031171
854.509103	2618.302211
854.822812	2612.131839
855.136479	2613.843310
855.450103	2613.069493
855.763685	2615.282560
856.077224	2612.058742
856.390720	2610.261571
856.704173	2615.605194
857.017584	2617.462859
857.330953	2620.724485
857.644278	2621.147942
857.957561	2619.103754
858.270802	2616.250461
858.584000	2616.747015
858.897155	2622.045268
859.210268	2622.176338
859.523339	2614.914556
859.836367	2610.246447
860.149352	2612.623351
860.462295	2615.080914
860.775195	2611.476489
861.088054	2608.850047
861.400869	2609.076899
861.713642	2604.592793
862.026373	2609.644029
862.339062	2609.109667
862.651708	2618.032509
862.964312	2616.343723
863.276873	2614.155862
863.589392	2614.695265
863.901869	2624.409569
864.214303	2627.351082
864.526696	2629.428037
864.839045	2631.424334
865.151353	2633.062709
865.463619	2635.817700
865.775842	2631.696557
866.088023	2635.295941
866.400162	2634.212093
866.712258	2633.173615
867.024313	2632.470374
867.336325	2630.494242
867.648296	2632.994654
867.960224	2638.713843
868.272110	2634.754017
868.583954	2630.199334
868.895755	2630.179169
869.207515	2633.501290
869.519233	2640.208545
869.830909	2637.889614
870.142542	2633.488687
870.454134	2634.078502
870.765684	2639.245685
871.077191	2641.148720
871.388657	2645.166520
871.700081	2646.215080
872.011463	2643.112250
872.322803	2644.712816
872.634101	2649.403610
872.945357	2657.061122
873.256571	2662.442554
873.567744	2661.381391
873.878874	2656.801503
874.189963	2660.179076
874.501010	2664.443892
874.812015	2669.842968
875.122979	2666.563697
875.433900	2658.460042
875.744780	2660.030362
876.055618	2665.981444
876.366415	2668.134017
876.677169	2669.681651
876.987882	2663.975065
877.298554	2664.340548
877.609183	2675.410922
877.919771	2682.259330
878.230317	2688.157480
878.540822	2697.801207
878.851285	2712.763352
879.161707	2737.401991
879.472087	2776.836417
879.782425	2826.126299
880.092722	2943.171809
880.402977	3135.078453
880.713191	3403.492169
881.023363	3704.265052
881.333494	3900.539856
881.643583	4078.041404
881.953631	4073.244746
882.263637	3893.772107
882.573602	3667.835154
882.883526	3530.720810
883.193408	3415.603542
883.503248	3310.099753
883.813048	3193.752443
884.122806	3076.785071
884.432522	2990.162924
884.742197	2921.610794
885.051831	2886.037892
885.361424	2847.851151
885.670975	2808.255408
885.980485	2782.069135
886.289954	2760.293871
886.599382	2745.994638
886.908768	2731.715570
887.218113	2713.428784
887.527417	2700.553677
887.836680	2691.739220
888.145901	2688.288550
888.455082	2678.659946
888.764221	2669.101918
889.073319	2659.518685
889.382376	2659.800989
889.691392	2663.120589
890.000366	2661.053716
890.309300	2659.889210
890.618193	2662.452636
890.927044	2665.033707
891.235855	2664.239725
891.544625	2665.459685
891.853353	2664.148985
892.162041	2672.224913
892.470687	2694.027903
892.779293	2701.806404
893.087858	2713.816953
893.396381	2737.555746
893.704864	2780.919752
894.013306	2853.023375
894.321707	2950.380659
894.630068	3001.336642
894.938387	3020.361957
895.246665	3015.189733
895.554903	2965.955304
895.863100	2925.356371
896.171256	2863.269520
896.479371	2800.187042
896.787446	2764.067174
897.095480	2742.349884
897.403473	2735.685478
897.711425	2720.194012
898.019336	2702.895293
898.327207	2685.959537
898.635038	2684.311079
898.942827	2682.271933
899.250576	2674.705161
899.558284	2660.862152
899.865952	2658.586071
900.173579	2653.489465
900.481165	2652.965185
900.788711	2644.619555
901.096216	2637.110756
901.403681	2635.174953
901.711105	2635.099336
902.018489	2630.332925
902.325832	2637.806435
902.633135	2638.635705
902.940397	2653.572644
903.247619	2691.164528
903.554800	2763.820158
903.861941	2893.836557
904.169041	3026.078625
904.476101	3089.561875
904.783121	3085.455856
905.090100	3026.295395
905.397039	2946.559464
905.703938	2872.172198
906.010796	2801.316260
906.317614	2749.785586
906.624391	2714.084134
906.931129	2686.282171
907.237826	2663.985147
907.544483	2645.579894
907.851099	2633.216465
908.157675	2621.218518
908.464211	2614.228959
908.770707	2604.771754
909.077163	2599.990220
909.383578	2592.763726
909.689954	2594.535691
909.996289	2591.160639
910.302584	2590.994281
910.608839	2590.918663
910.915054	2589.434043
911.221229	2592.955289
911.527363	2594.102152
911.833458	2590.719538
912.139513	2594.177769
912.445527	2597.008377
912.751502	2601.293358
913.057436	2605.719491
913.363331	2610.634616
913.669186	2622.085597
913.975000	2637.975314
914.280775	2653.764208
914.586510	2675.499142
914.892205	2712.838969
915.197859	2781.622993
915.503475	2867.587269
915.809050	2937.727363
916.114585	2955.285702
916.420081	2965.758699
916.725536	2977.776809
917.030952	2949.276646
917.336328	2900.480798
917.641665	2849.277798
917.946961	2799.705612
918.252218	2760.346803
918.557435	2737.780078
918.862612	2712.269319
919.167750	2695.104190
919.472848	2677.676921
919.777906	2660.652944
920.082925	2648.581902
920.387904	2636.243677
920.692843	2633.269397
920.997743	2627.310753
921.302603	2623.781945
921.607423	2613.629061
921.912204	2607.713267
922.216946	2606.468102
922.521647	2602.432659
922.826310	2596.360589
923.130932	2594.908737
923.435516	2587.369691
923.740059	2588.682912
924.044564	2584.221490
924.349028	2582.230235
924.653454	2574.930644
924.957840	2572.652042
925.262186	2568.924109
925.566493	2570.980900
925.870761	2565.488563
926.174989	2566.458985
926.479178	2565.019735
926.783328	2562.431103
927.087438	2562.141237
927.391509	2565.503686
927.695541	2561.679971
927.999533	2559.000598
928.303486	2559.993705
928.607400	2557.984805
928.911275	2558.761143
929.215110	2557.931873
929.518906	2557.770556
929.822663	2560.472615
930.126381	2559.776935
930.430060	2558.683005
930.733699	2558.602347
931.037299	2557.435319
931.340861	2560.119734
931.644383	2558.738458
931.947866	2558.821637
932.251309	2557.818447
932.554714	2556.253169
932.858080	2556.832902
933.161407	2555.842315
933.464694	2556.285936
933.767943	2556.195196
934.071153	2555.154197
934.374323	2553.863662
934.677455	2553.878785
934.980548	2551.227138
935.283602	2555.008004
935.586617	2554.269475
935.889593	2550.944834
936.192530	2554.093034
936.495428	2554.239228
936.798287	2554.161090
937.101108	2558.209137
937.403890	2557.972202
937.706632	2563.308264
938.009336	2568.034345
938.312002	2568.634243
938.614628	2574.240006
938.917216	2578.492219
939.219765	2578.661098
939.522275	2580.004565
939.824747	2578.676221
940.127179	2570.678431
940.429573	2569.942422
940.731929	2571.222875
941.034246	2566.786660
941.336524	2567.779767
941.638763	2568.765313
941.940964	2568.825807
942.243126	2566.101063
942.545250	2564.011505
942.847335	2566.307750
943.149381	2561.465722
943.451389	2561.934549
943.753359	2561.679971
944.055290	2559.003118
944.357182	2556.013714
944.659036	2557.236194
944.960851	2559.308108
945.262628	2557.430278
945.564367	2557.843653
945.866067	2557.740309
946.167729	2559.507234
946.469352	2557.964641
946.770937	2558.856925
947.072484	2557.261400
947.373992	2558.826678
947.675462	2560.185269
947.976893	2558.007490
948.278286	2553.846018
948.579641	2554.093034
948.880958	2552.956254
949.182236	2557.331976
949.483476	2555.146636
949.784678	2555.620504
950.085841	2556.580844
950.386967	2554.151008
950.688054	2554.239228
950.989103	2553.629248
951.290114	2554.617314
951.591087	2559.668551
951.892021	2558.783828
952.192917	2558.614949
952.493776	2560.018911
952.794596	2563.235167
953.095378	2562.383212
953.396122	2562.047975
953.696828	2560.838098
953.997496	2560.109652
954.298126	2557.657130
954.598718	2559.494631
954.899272	2554.297201
955.199788	2554.960113
955.500266	2553.606563
955.800706	2548.482230
956.101108	2546.019627
956.401472	2548.320913
956.701798	2543.998124
957.002087	2542.150541
957.302337	2546.105326
957.602550	2545.316386
957.902724	2545.326468
958.202861	2543.458720
958.502960	2544.993752
958.803022	2544.340922
959.103045	2540.118956
959.403031	2542.672300
959.702979	2541.812784
960.002889	2541.404450
960.302762	2540.340767
960.602596	2539.203987
960.902393	2538.523431
961.202153	2540.023174
961.501875	2538.069727
961.801559	2540.701209
962.101205	2538.352032
962.400814	2536.776671
962.700385	2537.709284
962.999918	2539.377906
963.299414	2538.515869
963.598873	2539.791281
963.898293	2536.237267
964.197677	2539.140972
964.497022	2537.127031
964.796331	2537.868081
965.095601	2537.242978
965.394835	2537.351363
965.694030	2537.860519
965.993189	2537.346321
966.292309	2537.361445
966.591393	2536.985879
966.890439	2536.317926
967.189447	2538.611651
967.488419	2536.559901
967.787353	2539.531662
968.086249	2539.027546
968.385108	2541.850592
968.683930	2538.198276
968.982714	2539.095602
969.281462	2538.243647
969.580172	2537.064017
969.878844	2538.634336
970.177480	2538.105015
970.476078	2539.970242
970.774639	2537.328677
971.073162	2541.187681
971.371649	2535.798687
971.670098	2535.818852
971.968510	2537.774819
972.266885	2534.034283
972.565223	2539.524100
972.863524	2538.427649
973.161788	2539.655170
973.460014	2539.486291
973.758204	2541.422094
974.056356	2538.788091
974.354471	2538.954449
974.652550	2538.999820
974.950591	2538.657021
975.248595	2539.569470
975.546563	2540.607948
975.844493	2538.833462
976.142386	2536.819521
976.440243	2537.532844
976.738062	2539.534182
977.035845	2537.411856
977.333590	2538.220962
977.631299	2536.116280
977.928971	2534.004036
978.226606	2536.514531
978.524204	2535.513862
978.821765	2537.298430
979.119290	2537.953780
979.416777	2536.958152
979.714228	2536.249870
980.011642	2534.982020
980.309020	2537.192566
980.606360	2535.917154
980.903664	2537.391692
981.200931	2539.362783
981.498162	2540.247505
981.795356	2541.931251
982.092513	2543.796478
982.389633	2547.431150
982.686717	2549.505584
982.983764	2551.660678
983.280775	2556.036399
983.577749	2554.274516
983.874686	2552.873075
984.171587	2552.709238
984.468451	2546.246478
984.765279	2541.318751
985.062070	2543.743546
985.358824	2543.118442
985.655543	2538.677186
985.952224	2536.655683
986.248869	2539.546785
986.545478	2533.454551
986.842050	2533.328522
987.138586	2532.877338
987.435086	2531.349869
987.731549	2530.258459
988.027975	2534.687113
988.324366	2535.188708
988.620719	2535.042514
988.917037	2532.589993
989.213318	2535.894469
989.509563	2533.860363
989.805772	2535.090405
990.101944	2535.463450
990.398080	2535.153419
990.694180	2530.815507
990.990244	2536.499408
991.286271	2533.391536
991.582262	2535.607123
991.878217	2532.199303
992.174136	2534.031763
992.470019	2531.793490
992.765865	2532.073274
993.061676	2532.837009
993.357450	2535.705426
993.653188	2533.421783
993.948890	2533.807431
994.244556	2533.396577
994.540186	2535.886907
994.835780	2534.835827
995.131337	2539.123328
995.426859	2535.483615
995.722345	2538.634336
996.017795	2537.366486
996.313208	2540.403781
996.608586	2539.781199
996.903928	2539.075437
997.199234	2538.437731
997.494504	2538.263811
997.789738	2535.949922
998.084936	2537.860519
998.380099	2535.518903
998.675225	2534.258615
998.970316	2536.302803
999.265371	2536.375899
999.560390	2535.564273
999.855373	2533.709129
1000.150320	2532.663089
1000.445232	2534.709798
1000.740108	2534.903882
1001.034948	2536.164171
1001.329752	2534.707277
1001.624521	2533.986392
1001.919254	2528.894827
1002.213951	2532.199303
1002.508613	2528.383150
1002.803239	2532.786598
1003.097829	2528.141174
1003.392384	2531.627132
1003.686903	2533.255425
1003.981386	2536.481763
1004.275834	2532.589993
1004.570246	2533.540250
1004.864623	2530.797863
1005.158964	2530.848274
1005.453270	2532.831968
1005.747540	2532.126207
1006.041775	2532.902544
1006.335974	2533.741896
1006.630138	2532.274921
1006.924266	2531.428007
1007.218359	2532.932791
1007.512416	2533.605785
1007.806438	2530.797863
1008.100425	2533.729293
1008.394376	2529.595547
1008.688292	2528.857018
1008.982172	2530.697039
1009.276017	2534.636701
1009.569827	2530.447502
1009.863602	2532.537061
1010.157341	2531.682585
1010.451045	2532.436238
1010.744714	2532.469005
1011.038347	2531.493542
1011.331945	2531.775846
1011.625508	2533.661238
1011.919036	2529.159487
1012.212528	2530.641587
1012.505986	2531.019673
1012.799408	2529.986237
1013.092795	2531.765764
1013.386147	2533.540250
1013.679464	2530.082019
1013.972745	2530.553367
1014.265992	2530.220650
1014.559204	2530.296268
1014.852380	2529.325846
1015.145521	2533.673841
1015.438628	2530.923891
1015.731699	2528.662934
1016.024736	2532.169056
1016.317737	2531.133099
1016.610703	2531.647297
1016.903635	2528.473891
1017.196531	2524.798889
1017.489393	2528.680578
1017.782219	2525.098838
1018.075011	2530.848274
1018.367768	2533.280631
1018.660490	2530.336597
1018.953177	2530.336597
1019.245829	2530.336597
