Dividing Wavelength (nm)	Counts (n)	Blue Motor Position (mm): 14.400000	Red Motor Position (mm): 0.000000	
326.493990	2137.078706
326.888308	2137.078706
327.282561	2137.078706
327.676750	2103.542430
328.070874	2101.238623
328.464933	2103.769282
328.858929	2114.338061
329.252859	2120.495830
329.646726	2133.053345
330.040528	2146.341826
330.434265	2162.082829
330.827938	2181.488751
331.221547	2196.823941
331.615091	2215.405634
332.008571	2232.974055
332.401986	2257.630338
332.795338	2276.721188
333.188625	2295.290278
333.581847	2311.623617
333.975006	2330.895948
334.368100	2347.811540
334.761129	2366.184025
335.154095	2383.850748
335.546996	2403.360014
335.939833	2420.671336
336.332606	2437.617175
336.725315	2449.577312
337.117960	2461.479477
337.510540	2467.052472
337.903056	2477.091930
338.295508	2486.292036
338.687896	2493.962151
339.080220	2502.658142
339.472480	2508.100067
339.864676	2513.857065
340.256807	2514.711541
340.648875	2519.835873
341.040879	2524.604805
341.432818	2524.030113
341.824694	2527.652182
342.216506	2529.230064
342.608253	2527.334590
342.999937	2527.016997
343.391557	2524.453570
343.783113	2525.126564
344.174605	2523.707480
344.566033	2522.570699
344.957397	2521.249917
345.348697	2517.617766
345.739934	2518.323527
346.131106	2515.046777
346.522215	2515.853362
346.913260	2513.025275
347.304241	2512.964781
347.695159	2508.636950
348.086012	2509.178874
348.476802	2506.449089
348.867528	2503.326095
349.258191	2503.724346
349.648789	2500.669407
350.039324	2500.011536
350.429796	2500.576145
350.820203	2499.648573
351.210548	2496.613798
351.600828	2496.596154
351.991045	2497.551453
352.381198	2493.253869
352.771288	2495.035917
353.161314	2489.505771
353.551276	2495.789570
353.941175	2490.839157
354.331010	2494.108345
354.720782	2492.328817
355.110490	2493.072388
355.500135	2493.299240
355.889717	2493.082470
356.279235	2493.130361
356.668689	2495.013232
357.058080	2493.634476
357.447408	2491.436533
357.836672	2492.280927
358.225873	2492.192706
358.615010	2490.201451
359.004084	2495.051041
359.393095	2495.524909
359.782043	2496.737307
360.170927	2498.736124
360.559748	2495.224960
360.948505	2497.702687
361.337199	2501.236536
361.725830	2501.344921
362.114398	2500.422390
362.502903	2500.248470
362.891344	2503.033708
363.279722	2500.319046
363.668037	2504.188132
364.056289	2499.623367
364.444478	2502.643018
364.832603	2501.896928
365.220665	2505.271980
365.608665	2504.704850
365.996601	2504.263749
366.384474	2505.024963
366.772284	2504.178050
367.160031	2502.131341
367.547715	2505.017402
367.935336	2504.677124
368.322893	2505.476147
368.710388	2505.050169
369.097820	2509.216683
369.485189	2510.199708
369.872495	2509.325068
370.259738	2507.227948
370.646918	2505.602176
371.034035	2506.320540
371.421090	2511.059225
371.808081	2509.055366
372.195010	2509.352794
372.581875	2508.379851
372.968678	2507.777433
373.355418	2507.608555
373.742096	2509.277177
374.128710	2507.364059
374.515262	2511.011334
374.901751	2509.380520
375.288177	2511.616272
375.674540	2510.943278
376.060841	2509.367917
376.447079	2510.338340
376.833254	2511.177692
377.219367	2507.679131
377.605417	2512.654750
377.991404	2507.727022
378.377329	2510.676097
378.763191	2511.404544
379.148991	2513.519308
379.534727	2510.555109
379.920402	2515.424864
380.306013	2516.780934
380.691563	2513.531911
381.077049	2510.829852
381.462474	2514.046108
381.847835	2514.814884
382.233134	2514.754390
382.618371	2513.665501
383.003545	2515.687004
383.388657	2516.682632
383.773706	2516.707838
384.158693	2514.081396
384.543618	2517.262364
384.928480	2513.143742
385.313280	2515.961747
385.698017	2517.940400
386.082692	2514.519977
386.467305	2515.286232
386.851856	2517.529546
387.236344	2519.488034
387.620770	2517.123733
388.005133	2515.934020
388.389435	2518.391583
388.773674	2516.780934
389.157851	2516.334792
389.541965	2518.411748
389.926018	2521.375946
390.310008	2520.145904
390.693936	2520.619773
391.077802	2519.838394
391.461606	2519.724968
391.845348	2518.265554
392.229027	2518.951151
392.612645	2521.421316
392.996200	2520.385359
393.379694	2518.489885
393.763125	2521.302849
394.146494	2518.860410
394.529801	2523.505833
394.913047	2519.886285
395.296230	2523.856194
395.679351	2522.217819
396.062410	2521.829650
396.445408	2523.856194
396.828343	2520.836543
397.211217	2517.542148
397.594028	2520.584485
397.976778	2519.558610
398.359466	2521.174300
398.742092	2516.463342
399.124656	2524.297295
399.507158	2523.873838
399.889598	2524.677902
400.271977	2525.124044
400.654294	2523.606657
401.036549	2522.142201
401.418742	2524.536749
401.800874	2525.000536
402.182944	2523.886441
402.564952	2525.736544
402.946898	2524.640093
403.328783	2521.827129
403.710606	2526.691843
404.092367	2526.255783
404.474067	2525.620597
404.855705	2526.893489
405.237282	2525.013138
405.618797	2525.817203
406.000250	2528.572193
406.381642	2523.110103
406.762972	2527.924405
407.144240	2527.218643
407.525447	2524.720752
407.906593	2526.144878
408.287677	2527.919364
408.668700	2526.545649
409.049661	2528.052954
409.430560	2527.755526
409.811399	2527.833664
410.192176	2529.708973
410.572891	2529.348531
410.953545	2529.146885
411.334138	2526.608664
411.714669	2527.994981
412.095139	2527.062368
412.475547	2528.357944
412.855894	2527.889117
413.236180	2526.127233
413.616405	2530.273583
413.996568	2528.214271
414.376670	2529.313243
414.756711	2532.506814
415.136691	2528.713345
415.516609	2529.835002
415.896466	2528.357944
416.276262	2531.148223
416.655997	2527.241328
417.035670	2526.384332
417.415283	2527.924405
417.794834	2527.243849
418.174324	2532.118645
418.553753	2529.169570
418.933121	2530.205527
419.312428	2532.894982
419.691674	2531.526309
420.070859	2530.505476
420.449983	2531.816176
420.829045	2529.444313
421.208047	2533.593182
421.586988	2528.857018
421.965867	2531.637215
422.344686	2533.141999
422.723444	2532.408511
423.102141	2532.937832
423.480777	2534.954294
423.859352	2532.048069
424.237866	2530.356762
424.616319	2533.028573
424.994712	2532.572349
425.373044	2532.451361
425.751314	2531.609488
426.129524	2534.210724
426.507673	2532.032945
426.885762	2531.606968
427.263789	2533.328522
427.641756	2532.700898
428.019662	2535.813811
428.397508	2534.417411
428.775292	2533.517565
429.153016	2532.257277
429.530679	2536.973276
429.908282	2531.672503
430.285824	2534.112421
430.663305	2533.787267
431.040726	2535.486136
431.418086	2535.352545
431.795385	2535.803728
432.172624	2537.190046
432.549802	2536.300282
432.926920	2532.907585
433.303977	2534.888759
433.680974	2534.417411
434.057910	2535.208872
434.434786	2534.414890
434.811601	2537.898328
435.188355	2537.502597
435.565050	2535.992772
435.941683	2537.457227
436.318257	2535.022349
436.694770	2531.808614
437.071222	2533.895652
437.447614	2532.496731
437.823946	2532.534540
438.200218	2537.605941
438.576429	2536.925385
438.952580	2534.989582
439.328670	2536.348173
439.704700	2537.545447
440.080670	2539.965201
440.456580	2535.287010
440.832429	2538.508307
441.208218	2538.127700
441.583947	2537.553009
441.959616	2536.343132
442.335224	2537.865560
442.710773	2536.930426
443.086261	2539.372865
443.461689	2537.046373
443.837057	2538.200797
444.212365	2538.954449
444.587612	2536.275076
444.962800	2539.022505
445.337927	2538.999820
445.712995	2538.437731
446.088002	2537.202648
446.462949	2535.972607
446.837837	2540.003009
447.212664	2538.397402
447.587431	2539.065355
447.962139	2539.012423
448.336786	2542.400078
448.711374	2540.275232
449.085901	2539.728267
449.460369	2538.349511
449.834776	2541.278421
450.209124	2539.055272
450.583412	2539.733308
450.957640	2539.287166
451.331808	2540.237423
451.705917	2537.290869
452.079965	2540.449152
452.453954	2539.748431
452.827883	2542.657177
453.201752	2542.173226
453.575562	2542.395037
453.949311	2540.615510
454.323001	2543.756148
454.696632	2540.244985
455.070202	2541.081816
455.443713	2541.049049
455.817164	2540.849923
456.190556	2536.529654
456.563888	2538.962011
456.937160	2534.036804
457.310373	2542.072403
457.683526	2541.454862
458.056619	2539.077958
458.429653	2542.720191
458.802628	2541.137269
459.175542	2541.714481
459.548398	2543.849410
459.921194	2544.434184
460.293930	2543.491488
460.666607	2541.089378
461.039224	2544.968546
461.411782	2543.438556
461.784280	2543.408309
462.156719	2540.454193
462.529099	2545.354194
462.901419	2543.299924
463.273680	2544.101468
463.645882	2543.403268
464.018024	2544.774462
464.390106	2541.376724
464.762130	2543.302445
465.134094	2544.116591
465.505999	2541.464944
465.877845	2545.013916
466.249631	2544.608103
466.621358	2542.463093
466.993026	2546.433001
467.364634	2547.652960
467.736184	2543.771272
468.107674	2542.032074
468.479105	2542.977290
468.850477	2544.293031
469.221790	2544.204811
469.593043	2541.112063
469.964238	2544.744215
470.335373	2544.066179
470.706449	2544.809750
471.077467	2544.373690
471.448425	2545.926365
471.819324	2544.643392
472.190164	2544.398896
472.560945	2546.017106
472.931667	2543.262115
473.302330	2547.277394
473.672934	2546.632127
474.043479	2545.563402
474.413965	2546.369987
474.784393	2541.754810
475.154761	2542.004348
475.525070	2541.013761
475.895321	2542.760521
476.265513	2542.571477
476.635645	2546.128011
477.005719	2547.262271
477.375734	2545.686910
477.745691	2547.476520
478.115588	2548.865358
478.485427	2546.727909
478.855207	2545.563402
479.224928	2547.292518
479.594591	2547.214380
479.964194	2547.471479
480.333739	2547.295038
480.703226	2548.479710
481.072653	2545.223124
481.442022	2547.022816
481.811333	2549.790410
482.180584	2548.850234
482.549777	2546.130532
482.918912	2551.113713
483.287988	2546.856458
483.657005	2550.322251
484.025964	2549.692107
484.394864	2547.136242
484.763706	2547.892415
485.132489	2547.592467
485.501213	2548.656150
485.869879	2549.737477
486.238487	2545.449976
486.607036	2548.068856
486.975527	2551.154042
487.343959	2549.140101
487.712333	2550.700338
488.080648	2547.514329
488.448905	2550.649926
488.817104	2549.114895
489.185244	2551.242262
489.553326	2548.005841
489.921350	2549.392158
490.289315	2551.043136
490.657222	2551.252344
491.025070	2551.607746
491.392861	2551.416182
491.760593	2549.228321
492.128267	2553.672098
492.495883	2551.678322
492.863440	2552.149670
493.230939	2550.110523
493.598380	2551.814433
493.965763	2544.683721
494.333088	2547.284956
494.700354	2545.039122
495.067563	2548.479710
495.434713	2544.613145
495.801805	2551.640513
496.168839	2549.326623
496.535815	2550.387786
496.902733	2549.500543
497.269593	2550.765873
497.636395	2553.241079
498.003139	2556.137222
498.369825	2548.068856
498.736453	2550.642365
499.103023	2551.542211
499.469535	2551.655637
499.835989	2552.484906
500.202385	2551.340564
500.568723	2551.196892
500.935003	2553.573796
501.301226	2549.621531
501.667390	2553.954403
502.033497	2550.365101
502.399546	2550.347457
502.765537	2555.381049
503.131470	2551.665719
503.497345	2551.554813
503.863163	2553.145297
504.228923	2549.840821
504.594625	2552.686552
504.960269	2555.565051
505.325856	2553.175544
505.691385	2553.198230
506.056856	2553.533466
506.422270	2556.233004
506.787625	2554.340051
507.152924	2552.797458
507.518164	2552.384083
507.883347	2550.261757
508.248472	2555.164280
508.613540	2554.640000
508.978550	2553.853580
509.343503	2553.767880
509.708398	2553.233518
510.073236	2557.798282
510.438016	2555.461708
510.802738	2554.463559
511.167403	2555.481872
511.532010	2554.128322
511.896561	2556.280895
512.261053	2557.770556
512.625488	2552.374001
512.989866	2554.645041
513.354186	2554.188816
513.718449	2551.895091
514.082655	2555.633107
514.446803	2560.071843
514.810894	2557.168138
515.174927	2558.879610
515.538904	2557.279044
515.902822	2559.761812
516.266684	2558.630073
516.630488	2560.661658
516.994235	2560.364230
517.357925	2560.432285
517.721558	2563.250290
518.085133	2560.364230
518.448651	2562.478994
518.812112	2559.590413
519.175516	2559.159394
519.538863	2562.415979
519.902152	2566.090981
520.265385	2562.610064
520.628560	2562.292471
520.991678	2563.620815
521.354739	2563.726679
521.717743	2562.660475
522.080690	2564.480332
522.443580	2565.186093
522.806413	2566.113666
523.169189	2564.056875
523.531908	2566.027966
523.894569	2567.436969
524.257174	2566.085939
524.619722	2565.685168
524.982213	2567.951166
525.344647	2567.184911
525.707025	2568.288924
526.069345	2565.594427
526.431608	2571.709347
526.793815	2570.454099
527.155964	2569.002247
527.518057	2567.890672
527.880093	2570.789336
528.242072	2569.075344
528.603995	2570.466702
528.965860	2568.467885
529.327669	2571.883266
529.689421	2569.692885
530.051117	2573.279666
530.412755	2570.229768
530.774337	2573.161199
531.135862	2572.183215
531.497331	2569.128276
531.858743	2570.164233
532.220098	2573.839234
532.581396	2567.994016
532.942638	2572.601631
533.303824	2575.031467
533.664953	2577.524317
534.026025	2573.975345
534.387040	2575.190263
534.747999	2573.536765
535.108902	2574.638257
535.469748	2576.228741
535.830537	2579.132446
536.191270	2580.241499
536.551947	2578.812332
536.912567	2574.403843
537.273131	2578.182188
537.633638	2577.776375
537.994089	2579.989442
538.354483	2580.208732
538.714821	2580.808629
539.075103	2578.436766
539.435328	2581.799216
539.795497	2583.634196
540.155609	2583.921542
540.515665	2583.838363
540.875665	2583.185533
541.235609	2585.590164
541.595496	2587.672160
541.955328	2587.616707
542.315102	2589.214753
542.674821	2587.810792
543.034483	2590.676688
543.394090	2588.032603
543.753640	2589.923035
544.113134	2589.234918
544.472571	2591.886565
544.831953	2593.663572
545.191278	2591.815989
545.550548	2594.875969
545.909761	2595.801021
546.268918	2595.206165
546.628019	2601.565580
546.987064	2600.297730
547.346053	2598.051896
547.704986	2603.783688
548.063863	2607.128493
548.422684	2604.892742
548.781449	2605.207814
549.140158	2610.374997
549.498811	2610.140583
549.857408	2610.914400
550.215949	2613.808022
550.574434	2610.226282
550.932864	2612.411623
551.291237	2615.307766
551.649555	2620.719444
552.007817	2622.171297
552.366022	2622.561986
552.724173	2625.957203
553.082267	2625.695063
553.440305	2632.319139
553.798288	2633.644963
554.156215	2638.668472
554.514086	2639.648977
554.871902	2639.689306
555.229661	2644.581746
555.587365	2645.148876
555.945014	2648.954947
556.302606	2655.926863
556.660143	2653.842346
557.017625	2664.027997
557.375050	2663.523882
557.732421	2668.887669
558.089735	2672.139213
558.446994	2675.143741
558.804197	2678.622137
559.161345	2682.219001
559.518437	2684.669001
559.875474	2689.818540
560.232455	2694.320290
560.589381	2699.643749
560.946251	2709.342929
561.303065	2709.219421
561.659825	2715.533466
562.016528	2718.545555
562.373177	2719.818447
562.729770	2730.540981
563.086307	2732.512072
563.442789	2740.905593
563.799216	2745.608990
564.155587	2752.880854
564.511904	2756.152563
564.868164	2762.738830
565.224370	2771.097063
565.580520	2777.683331
565.936615	2779.057045
566.292654	2786.598612
566.648638	2795.707977
567.004567	2803.292392
567.360441	2810.390337
567.716260	2812.510142
568.072023	2824.808037
568.427732	2831.139726
568.783385	2831.711897
569.138982	2850.190247
569.494525	2853.661081
569.850013	2857.177286
570.205445	2880.497664
570.560823	2882.405740
570.916145	2893.332441
571.271412	2906.315933
571.626625	2916.826739
571.981782	2919.501071
572.336884	2934.276693
572.691931	2939.637960
573.046923	2952.944086
573.401860	2962.413893
573.756743	2973.408650
574.111570	2986.273674
574.466342	2994.226094
574.821059	3010.135976
575.175722	3014.209228
575.530330	3032.057433
575.884882	3041.852395
576.239380	3054.369580
576.593823	3061.099521
576.948211	3076.147365
577.302544	3077.425297
577.656823	3099.707198
578.011047	3107.115173
578.365216	3127.763739
578.719330	3133.530819
579.073389	3153.662667
579.427394	3155.207781
579.781344	3173.275276
580.135239	3187.045188
580.489080	3201.152857
580.842866	3210.584856
581.196597	3229.093452
581.550273	3247.980135
581.903895	3266.463526
582.257463	3283.608490
582.610975	3298.580717
582.964434	3311.173519
583.317837	3326.831343
583.671186	3336.086901
584.024481	3358.767053
584.377721	3371.296840
584.730906	3381.222872
585.084037	3407.963673
585.437113	3412.495670
585.790135	3438.107252
586.143103	3444.890125
586.496016	3460.719348
586.848874	3485.612566
587.201679	3506.989578
587.554428	3509.439579
587.907124	3535.346069
588.259765	3552.450704
588.612352	3582.117894
588.964884	3575.887028
589.317362	3602.801748
589.669786	3621.189357
590.022155	3640.262563
590.374470	3670.184331
590.726731	3676.493335
591.078937	3673.539219
591.431090	3716.918348
591.783188	3712.744273
592.135232	3736.470463
592.487222	3750.666352
592.839157	3787.882671
593.191038	3789.084986
593.542866	3801.483704
593.894639	3804.800783
594.246358	3830.823219
594.598022	3860.865976
594.949633	3862.292622
595.301190	3878.409191
595.652692	3903.620001
596.004141	3955.949699
596.355535	3920.389400
596.706876	3940.730455
597.058162	3950.585911
597.409395	3985.921879
597.760573	4029.056512
598.111698	4020.952857
598.462768	4042.433214
598.813785	4049.609296
599.164748	4074.852874
599.515657	4080.400664
599.866511	4095.703086
600.217312	4135.200527
600.568060	4123.381542
600.918753	4177.004295
601.269392	4184.422353
601.619978	4186.728681
601.970510	4230.261565
602.320988	4243.832351
602.671412	4287.498826
603.021783	4286.606541
603.372100	4300.462153
603.722363	4334.527750
604.072572	4341.736600
604.422728	4369.372205
604.772830	4367.912791
605.122878	4395.676946
605.472872	4409.824944
605.822813	4447.036221
606.172701	4452.044608
606.522534	4504.144933
606.872314	4522.530021
607.222041	4540.968041
607.571714	4580.047066
607.921333	4590.283128
608.270899	4617.737252
608.620411	4670.142567
608.969870	4663.984798
609.319276	4678.967107
609.668627	4715.341552
610.017926	4751.363117
610.367171	4801.933452
610.716362	4813.581038
611.065500	4837.705480
611.414585	4876.035893
611.763616	4885.624168
612.112594	4907.480090
612.461518	4933.860448
612.810389	4979.258559
613.159207	4981.897603
613.507971	4980.929702
613.856682	5058.528183
614.205340	5060.068255
614.553945	5117.257625
614.902496	5099.245583
615.250994	5147.686030
615.599439	5161.007279
615.947830	5195.516497
616.296169	5206.055030
616.644454	5234.759360
616.992686	5256.658132
617.340864	5309.928005
617.688990	5290.438904
618.037063	5352.256053
618.385082	5348.933933
618.733048	5417.423049
619.080961	5408.787552
619.428821	5434.943579
619.776628	5470.246779
620.124382	5461.739832
620.472083	5480.056865
620.819731	5514.195558
621.167326	5483.807483
621.514868	5509.066184
621.862357	5471.504547
622.209793	5501.557386
622.557176	5491.792671
622.904506	5497.849617
623.251783	5480.104756
623.599007	5480.833202
623.946179	5506.752295
624.293297	5503.820864
624.640363	5479.096525
624.987376	5491.555737
625.334336	5478.892358
625.681243	5470.415658
626.028097	5486.179346
626.374899	5490.912989
626.721647	5512.668089
627.068343	5488.901569
627.414987	5490.565150
627.761577	5482.083408
628.108115	5520.063462
628.454600	5477.601823
628.801032	5534.725657
629.147412	5514.233367
629.493739	5535.718765
629.840014	5508.020145
630.186236	5559.371859
630.532405	5505.050905
630.878521	5555.429676
631.224585	5539.673550
631.570597	5506.124671
631.916556	5550.050765
632.262462	5557.410850
632.608316	5547.499941
632.954117	5551.495056
633.299866	5562.031067
633.645562	5567.387293
633.991206	5529.593763
634.336797	5507.417727
634.682336	5493.945243
635.027823	5490.708823
635.373257	5496.707796
635.718639	5469.483044
636.063968	5491.522969
636.409245	5427.132311
636.754470	5452.151558
637.099642	5429.647847
637.444762	5407.123971
637.789829	5428.027116
638.134845	5395.463783
638.479808	5404.144649
638.824719	5419.066465
639.169577	5379.798397
639.514383	5411.139250
639.859137	5371.689701
640.203839	5384.035487
640.548489	5396.708947
640.893086	5376.715731
641.237632	5372.665164
641.582125	5400.540224
641.926566	5387.115632
642.270955	5412.931381
642.615292	5420.165436
642.959576	5442.472542
643.303809	5441.630669
643.647990	5461.558351
643.992118	5463.353001
644.336195	5430.240182
644.680219	5463.713444
645.024192	5464.162107
645.368112	5550.096136
645.711981	5577.981278
646.055797	5641.151977
646.399562	5613.881855
646.743274	5727.620368
647.086935	5777.739520
647.430544	5779.098111
647.774101	5805.843953
648.117606	5820.191076
648.461059	5822.935985
648.804460	5805.279343
649.147810	5740.810547
649.491108	5729.684721
649.834354	5720.779522
650.177548	5666.730792
650.520690	5604.628817
650.863781	5596.401654
651.206820	5622.414008
651.549807	5568.907201
651.892742	5530.496129
652.235626	5542.952821
652.578458	5537.831008
652.921238	5472.840453
653.263967	5513.520044
653.606644	5466.228980
653.949269	5477.430423
654.291843	5429.698258
654.634365	5482.927802
654.976836	5454.536023
655.319255	5453.066527
655.661622	5447.496052
656.003938	5451.372699
656.346203	5418.524541
656.688416	5458.916786
657.030577	5424.271456
657.372687	5403.275050
657.714746	5397.124843
658.056753	5443.332059
658.398708	5396.683742
658.740612	5390.525972
659.082465	5440.640083
659.424266	5435.223363
659.766016	5440.536739
660.107715	5432.712868
660.449362	5447.521258
660.790958	5454.858657
661.132503	5441.444147
661.473996	5480.467719
661.815438	5475.426565
662.156829	5481.027287
662.498168	5482.453933
662.839456	5456.789419
663.180693	5500.556717
663.521879	5502.205174
663.863013	5497.302652
664.204097	5524.971025
664.545129	5562.283125
664.886110	5564.546603
665.227040	5598.113126
665.567918	5571.190844
665.908746	5599.539772
666.249522	5606.529332
666.590248	5599.088589
666.930922	5630.878105
667.271545	5644.723634
667.612118	5648.605323
667.952639	5630.366428
668.293109	5659.204349
668.633528	5619.530468
668.973896	5628.289473
669.314213	5626.628413
669.654480	5613.415548
669.994695	5609.901864
670.334859	5607.421617
670.674973	5602.637562
671.015035	5609.725424
671.355047	5616.110045
671.695008	5603.106389
672.034918	5583.367751
672.374777	5596.295790
672.714585	5580.330456
673.054342	5591.582311
673.394049	5586.926806
673.733705	5618.318071
674.073310	5607.073777
674.412864	5576.577317
674.752368	5568.929886
675.091820	5576.400876
675.431223	5521.664028
675.770574	5526.296848
676.109875	5487.837886
676.449125	5491.228062
676.788324	5463.027847
677.127473	5413.654786
677.466571	5406.448457
677.805619	5400.809926
678.144616	5394.291714
678.483562	5374.111975
678.822458	5349.932081
679.161303	5345.190876
679.500098	5338.110575
679.838842	5324.151620
680.177535	5331.680583
680.516179	5348.989385
680.854771	5358.809553
681.193314	5439.291574
681.531805	5540.399476
681.870247	5688.362383
682.208638	5785.006343
682.546978	5798.544362
682.885268	5773.699035
683.223508	5700.572057
683.561697	5655.544471
683.899836	5626.303258
684.237925	5583.166105
684.575963	5551.492535
684.913951	5512.811762
685.251889	5577.502368
685.589776	5538.645155
685.927614	5522.430283
686.265401	5587.501497
686.603137	5572.914918
686.940824	5649.064068
687.278460	5668.404455
687.616046	5675.719169
687.953582	5742.343058
688.291068	5728.459720
688.628504	5791.234689
688.965889	5752.503504
689.303224	5696.052663
689.640510	5657.024050
689.977745	5594.065079
690.314930	5496.627137
690.652065	5442.580927
690.989150	5355.658832
691.326185	5281.725269
691.663170	5236.294391
692.000105	5163.656405
692.336990	5090.889870
692.673825	5069.205347
693.010610	5000.317979
693.347345	4938.531077
693.684030	4926.863327
694.020665	4886.561822
694.357251	4799.818688
694.693786	4808.557528
695.030272	4781.872180
695.366707	4750.463271
695.703093	4713.967838
696.039429	4740.819544
696.375716	4724.733222
696.711952	4698.322617
697.048139	4686.402809
697.384276	4664.241897
697.720363	4678.258825
698.056400	4687.277449
698.392388	4638.466477
698.728326	4621.021564
699.064214	4602.157566
699.400053	4593.549796
699.735842	4565.503337
700.071581	4535.979819
700.407270	4516.213455
700.742910	4500.666537
701.078501	4446.736273
701.414042	4443.522537
701.749533	4416.746448
702.084974	4354.518445
702.420366	4410.535747
702.755709	4350.472919
703.091002	4296.582985
703.426246	4348.481664
703.761440	4304.646310
704.096584	4270.626084
704.431679	4287.584525
704.766725	4275.127834
705.101721	4262.361112
705.436668	4289.479999
705.771565	4240.235488
706.106413	4266.257924
706.441212	4301.959375
706.775961	4309.692505
707.110661	4288.837252
707.445311	4316.601407
707.779913	4341.325746
708.114465	4352.323023
708.448967	4377.954770
708.783421	4438.642700
709.117825	4475.430520
709.452180	4483.980317
709.786485	4528.965054
710.120742	4609.936067
710.454949	4592.075259
710.789107	4658.784847
711.123216	4734.941559
711.457275	4725.769179
711.791286	4792.509015
712.125247	4811.057941
712.459159	4715.749886
712.793023	4785.889980
713.126837	4752.807408
713.460602	4742.188217
713.794318	4665.842463
714.127985	4677.802600
714.461602	4591.104837
714.795171	4559.912697
715.128691	4494.662522
715.462162	4443.537661
715.795584	4395.974374
716.128957	4374.483935
716.462281	4329.547090
716.795556	4302.408038
717.128782	4262.784569
717.461960	4197.781411
717.795088	4210.172567
718.128167	4167.088345
718.461198	4106.171042
718.794180	4105.412349
719.127113	4088.796706
719.459997	4068.256524
719.792833	4022.833207
720.125619	4011.377185
720.458357	3980.661435
720.791046	3984.404492
721.123686	3958.029175
721.456278	3917.578956
721.788821	3932.997325
722.121315	3908.704005
722.453761	3886.225500
722.786158	3894.273702
723.118506	3916.583328
723.450805	3869.143550
723.783056	3892.421078
724.115259	3909.361876
724.447412	3913.021753
724.779518	3906.652255
725.111574	3913.520827
725.443582	3940.599385
725.775542	3924.051798
726.107453	3975.958038
726.439315	3974.997699
726.771129	3988.117302
727.102895	4026.888816
727.434612	4073.335487
727.766281	4084.801591
728.097901	4081.620623
728.429473	4086.976849
728.760996	4097.079321
729.092471	4087.022219
729.423897	4075.740117
729.755276	4082.883432
730.086606	4081.451744
730.417887	4114.393164
730.749120	4182.199204
731.080305	4248.742435
731.411442	4267.767749
731.742530	4241.203389
732.073570	4246.678082
732.404562	4300.346206
732.735506	4291.163744
733.066401	4251.691510
733.397249	4191.974001
733.728048	4115.872743
734.058798	4036.882903
734.389501	3962.447746
734.720156	3901.182603
735.050762	3862.521995
735.381320	3852.389275
735.711831	3802.638128
736.042293	3776.673665
736.372707	3796.152684
736.703073	3767.929784
737.033391	3762.031634
737.363661	3776.081330
737.693883	3802.353303
738.024056	3811.228254
738.354182	3803.631235
738.684260	3868.241184
739.014290	3887.810943
739.344272	3880.869274
739.674207	3925.337292
740.004093	3932.450360
740.333931	3925.508691
740.663722	3924.702107
740.993464	3928.051953
741.323159	3901.091863
741.652806	3870.277810
741.982405	3845.112370
742.311956	3815.540961
742.641460	3804.997388
742.970915	3780.562915
743.300323	3743.008840
743.629683	3706.894014
743.958996	3695.992518
744.288260	3674.474353
744.617477	3643.567039
744.946647	3627.455511
745.275768	3603.588168
745.604842	3599.257817
745.933869	3548.453069
746.262847	3544.846123
746.591778	3580.794591
746.920662	3551.119839
747.249498	3521.311497
747.578286	3567.957293
747.907027	3585.692072
748.235720	3583.209304
748.564365	3605.985237
748.892963	3609.128397
749.221514	3591.199533
749.550017	3567.304464
749.878473	3564.577199
750.206881	3532.409597
750.535242	3535.426727
750.863555	3534.965462
751.191821	3529.407590
751.520039	3508.985875
751.848210	3490.978874
752.176334	3520.673791
752.504411	3531.441695
752.832440	3486.444356
753.160421	3474.154023
753.488356	3483.172647
753.816243	3493.159173
754.144082	3449.202832
754.471875	3437.358641
754.799620	3455.824388
755.127318	3447.594704
755.454969	3448.368521
755.782572	3452.729119
756.110129	3427.646858
756.437638	3419.787699
756.765100	3435.132972
757.092515	3444.728808
757.419882	3447.453552
757.747203	3422.376332
758.074477	3421.778955
758.401703	3441.573046
758.728882	3459.416210
759.056014	3469.077581
759.383099	3469.616984
759.710138	3467.187148
760.037129	3483.747339
760.364073	3515.443593
760.690970	3500.365502
761.017820	3480.120228
761.344623	3492.130778
761.671379	3538.375802
761.998088	3589.956888
762.324751	3716.741908
762.651366	3959.685194
762.977935	4428.260444
763.304456	4857.771793
763.630931	4942.803455
763.957359	4589.831945
764.283740	4252.644288
764.610074	4067.979261
764.936362	3871.336452
765.262602	3718.967577
765.588796	3613.204169
765.914943	3524.132022
766.241044	3438.008950
766.567097	3410.310330
766.893104	3362.265613
767.219064	3335.182014
767.544978	3304.836789
767.870845	3252.983480
768.196665	3234.084194
768.522438	3245.305803
768.848165	3238.780029
769.173846	3202.604709
769.499479	3183.793644
769.825066	3168.118176
770.150607	3152.661998
770.476101	3170.406860
770.801548	3166.537774
771.126949	3119.075311
771.452303	3104.587034
771.777611	3108.594752
772.102872	3115.075155
772.428087	3088.825867
772.753256	3079.739187
773.078378	3074.418249
773.403453	3035.727393
773.728482	3027.734644
774.053465	3049.424208
774.378401	3037.121272
774.703291	3004.419308
775.028135	3007.023063
775.352932	3003.471571
775.677683	2987.539004
776.002388	2988.519508
776.327046	2987.228973
776.651658	2977.698672
776.976224	2966.794656
777.300743	2966.663586
777.625216	2958.519602
777.949643	2952.525670
778.274024	2954.360650
778.598359	2945.558795
778.922647	2949.664815
779.246889	2946.783796
779.571086	2935.063113
779.895236	2923.813778
780.219339	2941.548557
780.543397	2952.366873
780.867409	2953.617080
781.191374	2943.912858
781.515294	2942.806325
781.839167	2946.191460
782.162995	2935.801642
782.486776	2943.812035
782.810511	2941.011674
783.134201	2928.373502
783.457844	2937.843309
783.781441	2927.135898
784.104993	2905.658063
784.428498	2907.694689
784.751958	2918.704569
785.075372	2913.381110
785.398739	2897.647669
785.722061	2916.741039
786.045337	2925.671443
786.368568	2912.667787
786.691752	2903.387023
787.014891	2953.697738
787.337983	2981.083806
787.661030	3006.148423
787.984031	3072.689133
788.306987	3117.736884
788.629897	3106.190121
788.952760	3093.554469
789.275579	3080.109712
789.598351	3019.779703
789.921078	2977.665904
790.243759	2972.357569
790.566395	2950.773869
790.888984	2925.923501
791.211529	2911.684762
791.534027	2900.546333
791.856480	2895.626166
792.178888	2876.114380
792.501249	2872.131869
792.823566	2869.271014
793.145836	2864.655838
793.468062	2863.125847
793.790241	2860.673326
794.112375	2863.982844
794.434464	2876.348794
794.756507	2881.707541
795.078505	2888.792882
795.400457	2900.763102
795.722364	2937.414811
796.044226	2960.951958
796.366042	2962.338276
796.687812	2953.259158
797.009538	2971.334215
797.331218	2957.975157
797.652852	2945.311779
797.974442	2928.597833
798.295986	2922.838315
798.617484	2919.128026
798.938938	2902.676220
799.260346	2888.162738
799.581709	2881.999927
799.903026	2876.769730
800.224299	2871.577342
800.545526	2861.558049
800.866708	2846.217817
801.187845	2837.562156
801.508936	2838.719101
801.829983	2843.581294
802.150984	2830.832216
802.471940	2818.524239
802.792851	2818.657829
803.113717	2819.169507
803.434538	2823.119251
803.755314	2819.860145
804.076045	2811.963177
804.396731	2814.292190
804.717372	2811.186839
805.037967	2805.031591
805.358518	2813.583908
805.679024	2828.399859
805.999485	2819.088848
806.319901	2827.192503
806.640272	2813.593990
806.960598	2819.759322
807.280879	2830.386074
807.601115	2836.511076
807.921306	2823.436843
808.241453	2821.001966
808.561554	2828.488079
808.881611	2829.997905
809.201623	2824.074549
809.521590	2825.042451
809.841513	2818.085658
810.161390	2822.221925
810.481223	2818.713282
810.801011	2805.409677
811.120755	2801.366672
811.440453	2807.443783
811.760107	2807.683237
812.079716	2804.464461
812.399281	2794.263686
812.718801	2789.343520
813.038276	2783.798251
813.357707	2787.538787
813.677093	2798.183183
813.996434	2790.656740
814.315731	2786.399486
814.634983	2784.864455
814.954191	2784.529218
815.273354	2797.011115
815.592473	2805.964204
815.911547	2808.636016
816.230577	2817.392500
816.549562	2824.324086
816.868502	2823.464570
817.187399	2830.544870
817.506250	2848.143538
817.825058	2839.729852
818.143821	2854.381966
818.462539	2866.982330
818.781213	2893.753378
819.099843	2930.183276
819.418429	2987.652430
819.736970	3044.206614
820.055466	3114.336626
820.373919	3220.919221
820.692327	3356.876620
821.010691	3520.023482
821.329011	3953.928196
821.647286	4825.815918
821.965517	6162.929044
822.283704	6869.439194
822.601847	6838.272260
822.919945	6227.372634
823.237999	5743.063943
823.556010	5179.397408
823.873976	4644.528464
824.191897	4250.443824
824.509775	3967.201554
824.827609	3702.629198
825.145398	3584.227617
825.463144	3573.346287
825.780845	3668.697191
826.098502	3772.262656
826.416116	4045.939336
826.733685	4349.280687
827.051210	4402.086773
827.368692	4289.253147
827.686129	4032.300494
828.003522	3719.822053
828.320872	3472.029177
828.638177	3282.358284
828.955439	3149.334837
829.272656	3069.220820
829.589830	3002.296982
829.906960	2956.286371
830.224046	2912.057807
830.541088	2878.329967
830.858086	2868.570294
831.175041	2847.606655
831.491952	2848.347705
831.808819	2859.907071
832.125642	2885.896739
832.442421	2930.140426
832.759157	3006.801253
833.075849	3178.664270
833.392497	3453.860858
833.709101	3646.924447
834.025662	3594.461159
834.342179	3443.201338
834.658653	3270.955194
834.975083	3128.741723
835.291469	3034.328473
835.607811	2952.402162
835.924110	2894.912843
836.240366	2846.694207
836.556578	2805.694502
836.872746	2782.658950
837.188871	2762.743872
837.504952	2744.409195
837.820990	2738.289234
838.136984	2721.411451
838.452935	2718.207798
838.768842	2715.566233
839.084706	2734.001733
839.400526	2813.649443
839.716303	2939.048145
840.032037	3014.945237
840.347727	3001.724811
840.663373	2944.560647
840.978977	2868.056096
841.294537	2801.533030
841.610054	2754.980495
841.925527	2731.541650
842.240957	2714.192519
842.556344	2691.000691
842.871687	2674.926972
843.186987	2668.350786
843.502244	2661.411638
843.817458	2660.400887
844.132629	2647.210708
844.447756	2639.114615
844.762840	2631.550363
845.077881	2634.093625
845.392879	2635.427011
845.707833	2629.579272
846.022745	2620.379166
846.337613	2627.068777
846.652438	2623.766822
846.967221	2623.260186
847.281960	2621.016872
847.596656	2618.287087
847.911309	2616.807509
848.225919	2617.223404
848.540485	2612.333485
848.855009	2613.429936
849.169490	2614.077724
849.483928	2614.632251
849.798323	2614.783486
850.112675	2609.394492
850.426984	2612.293156
850.741251	2610.054883
851.055474	2611.143772
851.369654	2616.706686
851.683792	2614.206273
851.997887	2613.379524
852.311938	2608.240068
852.625947	2611.468927
852.939914	2614.733074
853.253837	2614.170985
853.567718	2609.775099
853.881555	2612.192332
854.195350	2614.223917
854.509103	2611.368104
854.822812	2608.565222
855.136479	2608.900459
855.450103	2610.667383
855.763685	2614.483537
856.077224	2610.294338
856.390720	2608.514811
856.704173	2611.899946
857.017584	2614.665018
857.330953	2618.163579
857.644278	2619.509567
857.957561	2615.683332
858.270802	2614.712909
858.584000	2615.055708
858.897155	2615.579988
859.210268	2617.606532
859.523339	2612.008330
859.836367	2610.770727
860.149352	2609.142434
860.462295	2611.776437
860.775195	2608.807198
861.088054	2608.310644
861.400869	2607.259563
861.713642	2602.896445
862.026373	2604.073554
862.339062	2607.491457
862.651708	2611.559668
862.964312	2612.494802
863.276873	2613.918928
863.589392	2615.574947
863.901869	2619.222222
864.214303	2624.827985
864.526696	2624.381842
864.839045	2628.029117
865.151353	2629.740589
865.463619	2628.626494
865.775842	2628.611371
866.088023	2628.381998
866.400162	2632.160343
866.712258	2630.489200
867.024313	2630.579941
867.336325	2623.587861
867.648296	2627.119189
867.960224	2632.656897
868.272110	2629.682616
868.583954	2622.879579
868.895755	2624.890999
869.207515	2629.153295
869.519233	2635.623616
869.830909	2634.751496
870.142542	2630.348048
870.454134	2629.564149
870.765684	2636.031949
871.077191	2636.891466
871.388657	2639.986734
871.700081	2637.652680
872.011463	2638.925571
872.322803	2638.812145
872.634101	2642.812301
872.945357	2649.547282
873.256571	2657.323262
873.567744	2652.687921
873.878874	2650.719351
874.189963	2651.830925
874.501010	2658.666730
874.812015	2662.349293
875.122979	2661.416679
875.433900	2654.651451
875.744780	2652.587098
876.055618	2656.743530
876.366415	2659.420382
876.677169	2660.806700
876.987882	2655.936945
877.298554	2656.037768
877.609183	2665.343738
877.919771	2672.098884
878.230317	2679.713547
878.540822	2689.175793
878.851285	2702.086188
879.161707	2724.980588
879.472087	2759.106679
879.782425	2805.845737
880.092722	2913.242478
880.402977	3091.527925
880.713191	3340.800380
881.023363	3618.628451
881.333494	3796.931542
881.643583	3966.531081
881.953631	3966.049651
882.263637	3790.299904
882.573602	3576.600351
882.883526	3455.968060
883.193408	3348.354549
883.503248	3252.917945
883.813048	3145.800988
884.122806	3036.125645
884.432522	2955.991463
884.742197	2893.158522
885.051831	2857.066381
885.361424	2823.799806
885.670975	2790.765125
885.980485	2758.305136
886.289954	2744.943557
886.599382	2730.609036
886.908768	2719.470607
887.218113	2702.539892
887.527417	2689.997501
887.836680	2682.859227
888.145901	2677.800429
888.455082	2669.238029
888.764221	2659.869045
889.073319	2654.583395
889.382376	2649.360760
889.691392	2652.072901
890.000366	2654.764877
890.309300	2648.551655
890.618193	2652.508960
890.927044	2655.367295
891.235855	2655.178251
891.544625	2653.522232
891.853353	2653.796975
892.162041	2659.730413
892.470687	2679.280008
892.779293	2692.656710
893.087858	2700.155426
893.396381	2721.618138
893.704864	2761.395363
894.013306	2829.642504
894.321707	2917.184661
894.630068	2962.930611
894.938387	2981.850062
895.246665	2974.800008
895.554903	2931.393153
895.863100	2893.957544
896.171256	2837.660459
896.479371	2777.869854
896.787446	2742.448186
897.095480	2726.868500
897.403473	2718.686707
897.711425	2706.880325
898.019336	2691.015814
898.327207	2674.246416
898.635038	2672.237516
898.942827	2671.423370
899.250576	2663.133192
899.558284	2650.903353
899.865952	2648.047539
900.173579	2645.342960
900.481165	2644.591828
900.788711	2636.105046
901.096216	2627.101545
901.403681	2625.811010
901.711105	2626.471401
902.018489	2626.541977
902.325832	2629.415435
902.633135	2631.774695
902.940397	2644.448155
903.247619	2679.469051
903.554800	2745.056983
903.861941	2864.466794
904.169041	2980.168837
904.476101	3039.107487
904.783121	3030.923174
905.090100	2974.913434
905.397039	2908.095460
905.703938	2839.694564
906.010796	2781.050822
906.317614	2732.023080
906.624391	2699.976465
906.931129	2673.802794
907.237826	2650.240441
907.544483	2636.150416
907.851099	2622.985443
908.157675	2613.543362
908.464211	2606.276538
908.770707	2597.041145
909.077163	2592.977975
909.383578	2589.454208
909.689954	2586.495051
909.996289	2587.508323
910.302584	2586.452201
910.608839	2584.642427
910.915054	2585.179310
911.221229	2587.841039
911.527363	2589.880186
911.833458	2587.954465
912.139513	2586.769794
912.445527	2588.992942
912.751502	2596.037955
913.057436	2599.400405
913.363331	2604.822166
913.669186	2614.612086
913.975000	2626.965434
914.280775	2644.145686
914.586510	2661.252842
914.892205	2693.939683
915.197859	2756.175248
915.503475	2836.296827
915.809050	2897.940056
916.114585	2909.093609
916.420081	2918.712130
916.725536	2929.984150
917.030952	2908.007240
917.336328	2863.004860
917.641665	2817.425267
917.946961	2768.291661
918.252218	2739.811663
918.557435	2714.507591
918.862612	2696.571166
919.167750	2678.652384
919.472848	2662.820641
919.777906	2646.794812
920.082925	2636.094963
920.387904	2623.877727
920.692843	2622.630042
920.997743	2619.159207
921.302603	2612.406582
921.607423	2605.442227
921.912204	2600.993409
922.216946	2596.153902
922.521647	2596.506782
922.826310	2594.727255
923.130932	2587.304156
923.435516	2584.738209
923.740059	2582.686459
924.044564	2581.753846
924.349028	2579.321489
924.653454	2569.435786
924.957840	2569.186249
925.262186	2567.099211
925.566493	2569.687844
925.870761	2565.574262
926.174989	2566.360682
926.479178	2561.788356
926.783328	2559.560166
927.087438	2564.248439
927.391509	2559.194682
927.695541	2557.268961
927.999533	2557.117727
928.303486	2554.733261
928.607400	2559.270299
928.911275	2558.476318
929.215110	2554.027499
929.518906	2556.742161
929.822663	2556.991698
930.126381	2556.119578
930.430060	2554.753426
930.733699	2556.369115
931.037299	2556.568241
931.340861	2557.137891
931.644383	2557.533622
931.947866	2557.934394
932.251309	2557.987326
932.554714	2557.339537
932.858080	2558.251986
933.161407	2557.775597
933.464694	2556.394321
933.767943	2555.754095
934.071153	2552.182437
934.374323	2554.037582
934.677455	2555.630586
934.980548	2553.818292
935.283602	2551.201933
935.586617	2552.479865
935.889593	2553.228477
936.192530	2555.086142
936.495428	2552.394166
936.798287	2556.117058
937.101108	2556.724517
937.403890	2556.336348
937.706632	2559.842470
938.009336	2563.189797
938.312002	2565.811197
938.614628	2569.395457
938.917216	2573.108267
939.219765	2571.011147
939.522275	2577.632702
939.824747	2574.189594
940.127179	2567.562997
940.429573	2564.195507
940.731929	2567.255487
941.034246	2561.730382
941.336524	2566.080898
941.638763	2564.104766
941.940964	2566.796742
942.243126	2561.238870
942.545250	2563.194838
942.847335	2560.545711
943.149381	2560.180228
943.451389	2559.187120
943.753359	2558.647717
944.055290	2558.874569
944.357182	2557.508416
944.659036	2553.785524
944.960851	2559.396328
945.262628	2556.348951
945.564367	2557.047151
945.866067	2556.074208
946.167729	2557.160577
946.469352	2556.411965
946.770937	2556.732078
947.072484	2556.472459
947.373992	2557.894064
947.675462	2553.561193
947.976893	2557.281564
948.278286	2554.554300
948.579641	2555.174362
948.880958	2553.483055
949.182236	2554.400545
949.483476	2552.643703
949.784678	2553.440205
950.085841	2550.985163
950.386967	2552.237890
950.688054	2552.346275
950.989103	2552.069011
951.290114	2557.032027
951.591087	2558.695608
951.892021	2554.413148
952.192917	2558.945145
952.493776	2558.662840
952.794596	2558.476318
953.095378	2561.783315
953.396122	2560.026472
953.696828	2559.870197
953.997496	2559.686195
954.298126	2554.458518
954.598718	2557.324414
954.899272	2553.604042
955.199788	2552.729402
955.500266	2553.442726
955.800706	2549.409803
956.101108	2546.836293
956.401472	2548.104144
956.701798	2544.545089
957.002087	2543.647764
957.302337	2548.091541
957.602550	2543.448638
957.902724	2545.500388
958.202861	2543.763710
958.502960	2545.087013
958.803022	2543.430994
959.103045	2545.245809
959.403031	2543.070552
959.702979	2542.818494
960.002889	2544.222455
960.302762	2543.516694
960.602596	2543.468803
960.902393	2541.535520
961.202153	2542.344625
961.501875	2541.989224
961.801559	2539.687937
962.101205	2542.148020
962.400814	2540.998637
962.700385	2539.773637
962.999918	2541.447300
963.299414	2539.945036
963.598873	2542.669780
963.898293	2539.750952
964.197677	2541.621220
964.497022	2539.433359
964.796331	2542.669780
965.095601	2542.027033
965.394835	2544.650953
965.694030	2538.346990
965.993189	2543.100798
966.292309	2537.759696
966.591393	2541.079296
966.890439	2539.987886
967.189447	2542.314378
967.488419	2539.451003
967.787353	2539.831610
968.086249	2543.088196
968.385108	2539.135931
968.683930	2537.384130
968.982714	2540.038297
969.281462	2541.210366
969.580172	2537.474871
969.878844	2540.958308
970.177480	2539.418236
970.476078	2538.425128
970.774639	2540.144162
971.073162	2540.318082
971.371649	2538.977135
971.670098	2538.278935
971.968510	2539.047711
972.266885	2536.806918
972.565223	2539.788760
972.863524	2538.936805
973.161788	2544.618186
973.460014	2540.920499
973.758204	2543.148689
974.056356	2541.401930
974.354471	2542.697506
974.652550	2539.952598
974.950591	2541.263298
975.248595	2540.739018
975.546563	2542.984852
975.844493	2540.749100
976.142386	2540.676003
976.440243	2540.638195
976.738062	2542.543751
977.035845	2539.140972
977.333590	2540.497043
977.631299	2539.030067
977.928971	2538.712474
978.226606	2539.970242
978.524204	2540.015612
978.821765	2540.154244
979.119290	2539.932433
979.416777	2538.397402
979.714228	2541.898483
980.011642	2537.593338
980.309020	2542.725233
980.606360	2542.213555
980.903664	2539.831610
981.200931	2541.255736
981.498162	2541.278421
981.795356	2541.626261
982.092513	2545.512991
982.389633	2547.048022
982.686717	2549.697148
982.983764	2551.501881
983.280775	2554.972716
983.577749	2553.634289
983.874686	2552.966337
984.171587	2551.887530
984.468451	2546.589277
984.765279	2547.721016
985.062070	2544.232538
985.358824	2542.934440
985.655543	2544.439225
985.952224	2542.798329
986.248869	2541.296065
986.545478	2536.789274
986.842050	2536.499407
987.138586	2535.652494
987.435086	2535.801208
987.731549	2534.372041
988.027975	2540.134079
988.324366	2537.031249
988.620719	2537.275745
988.917037	2539.161137
989.213318	2537.061496
989.509563	2536.814480
989.805772	2538.241126
990.101944	2537.782381
990.398080	2535.052596
990.694180	2537.817669
990.990244	2537.305992
991.286271	2539.488812
991.582262	2535.294572
991.878217	2537.066537
992.174136	2539.007382
992.470019	2534.906403
992.765865	2536.718698
993.061676	2536.559901
993.357450	2539.806404
993.653188	2536.882535
993.948890	2537.399253
994.244556	2537.369007
994.540186	2538.069727
994.835780	2538.992258
995.131337	2537.631147
995.426859	2538.609130
995.722345	2537.721887
996.017795	2540.693648
996.313208	2539.715664
996.608586	2542.183308
996.903928	2538.636857
997.199234	2540.635674
997.494504	2542.200953
997.789738	2537.948739
998.084936	2540.623071
998.380099	2540.214738
998.675225	2539.992927
998.970316	2539.365303
999.265371	2542.248843
999.560390	2536.988399
999.855373	2538.699871
1000.150320	2538.359593
1000.445232	2538.556198
1000.740108	2539.241795
1001.034948	2536.368337
1001.329752	2536.083512
1001.624521	2535.776002
1001.919254	2533.769623
1002.213951	2533.996475
1002.508613	2530.802904
1002.803239	2536.690971
1003.097829	2531.274252
1003.392384	2538.352032
1003.686903	2537.840354
1003.981386	2538.178112
1004.275834	2533.973789
1004.570246	2536.212062
1004.864623	2540.605427
1005.158964	2536.065868
1005.453270	2533.943543
1005.747540	2537.835313
1006.041775	2535.160981
1006.335974	2536.154088
1006.630138	2535.738193
1006.924266	2535.292051
1007.218359	2534.412370
1007.512416	2536.471681
1007.806438	2533.439427
1008.100425	2533.711649
1008.394376	2533.126876
1008.688292	2535.281969
1008.982172	2534.160312
1009.276017	2533.358769
1009.569827	2534.530837
1009.863602	2536.413708
1010.157341	2536.774150
1010.451045	2537.618544
1010.744714	2537.094264
1011.038347	2537.641229
1011.331945	2535.541588
1011.625508	2537.041332
1011.919036	2534.182997
1012.212528	2534.911444
1012.505986	2535.566794
1012.799408	2535.188707
1013.092795	2534.430014
1013.386147	2536.496887
1013.679464	2535.844058
1013.972745	2533.983872
1014.265992	2533.802390
1014.559204	2537.747093
1014.852380	2534.750127
1015.145521	2533.005888
1015.438628	2535.770961
1015.731699	2533.452030
1016.024736	2536.602751
1016.317737	2533.467153
1016.610703	2538.263811
1016.903635	2535.753317
1017.196531	2532.418593
1017.489393	2533.537730
1017.782219	2530.785260
1018.075011	2533.525127
1018.367768	2535.433203
1018.660490	2534.581248
1018.953177	2534.581248
1019.245829	2534.581248
