Dividing Wavelength (nm)	Counts (n)	Blue Motor Position (mm): 37.100000	Red Motor Position (mm): 0.000000	
326.493990	2131.614095
326.888308	2131.614095
327.282561	2131.614095
327.676750	2097.488004
328.070874	2097.213261
328.464933	2100.278283
328.858929	2103.149220
329.252859	2115.701693
329.646726	2128.092849
330.040528	2138.129787
330.434265	2157.190389
330.827938	2171.983655
331.221547	2189.380677
331.615091	2209.058821
332.008571	2228.063971
332.401986	2251.538104
332.795338	2268.257091
333.188625	2285.598660
333.581847	2304.235806
333.975006	2323.061995
334.368100	2341.094202
334.761129	2360.222860
335.154095	2377.362783
335.546996	2399.826165
335.939833	2424.369023
336.332606	2440.783019
336.725315	2452.029834
337.117960	2460.942594
337.510540	2469.812504
337.903056	2483.063177
338.295508	2486.980153
338.687896	2495.814775
339.080220	2505.332474
339.472480	2513.738598
339.864676	2516.531397
340.256807	2518.938548
340.648875	2522.550535
341.040879	2526.091945
341.432818	2528.642769
341.824694	2528.995650
342.216506	2528.403314
342.608253	2529.290557
342.999937	2526.230577
343.391557	2528.209230
343.783113	2527.717717
344.174605	2528.922553
344.566033	2524.657737
344.957397	2521.068436
345.348697	2520.176151
345.739934	2522.805113
346.131106	2521.345699
346.522215	2516.508712
346.913260	2513.413443
347.304241	2513.867147
347.695159	2510.512259
348.086012	2509.894718
348.476802	2508.531086
348.867528	2506.970849
349.258191	2502.942967
349.648789	2504.977072
350.039324	2500.790394
350.429796	2502.693430
350.820203	2499.068840
351.210548	2498.484066
351.600828	2495.429127
351.991045	2497.208654
352.381198	2498.990702
352.771288	2495.184631
353.161314	2493.452995
353.551276	2499.288130
353.941175	2494.020125
354.331010	2496.084477
354.720782	2495.693788
355.110490	2497.017091
355.500135	2498.552122
355.889717	2496.659169
356.279235	2496.775115
356.668689	2499.449447
357.058080	2496.633963
357.447408	2494.118427
357.836672	2495.502224
358.225873	2493.213540
358.615010	2494.357882
359.004084	2496.674292
359.393095	2499.898110
359.782043	2498.186638
360.170927	2501.249139
360.559748	2499.530106
360.948505	2502.043121
361.337199	2502.577483
361.725830	2502.862308
362.114398	2502.655621
362.502903	2503.865498
362.891344	2505.211486
363.279722	2503.058913
363.668037	2504.205776
364.056289	2505.758451
364.444478	2505.501353
364.832603	2503.507576
365.220665	2508.079903
365.608665	2505.836589
365.996601	2506.975890
366.384474	2504.253667
366.772284	2508.964625
367.160031	2507.442197
367.547715	2507.336332
367.935336	2510.847496
368.322893	2506.323061
368.710388	2508.102588
369.097820	2514.018382
369.485189	2508.034532
369.872495	2510.476971
370.259738	2509.138545
370.646918	2510.688700
371.034035	2512.085099
371.421090	2514.920748
371.808081	2509.123422
372.195010	2512.690038
372.581875	2514.414113
372.968678	2513.824298
373.355418	2512.362363
373.742096	2514.772034
374.128710	2513.909997
374.515262	2516.095337
374.901751	2513.731036
375.288177	2512.669873
375.674540	2514.106602
376.060841	2517.539628
376.447079	2512.720285
376.833254	2517.653054
377.219367	2511.643998
377.605417	2515.046777
377.991404	2515.583660
378.377329	2512.793382
378.763191	2514.083917
379.148991	2519.102386
379.534727	2515.500481
379.920402	2519.956861
380.306013	2518.835204
380.691563	2518.620955
381.077049	2518.573064
381.462474	2521.290246
381.847835	2521.060874
382.233134	2521.585154
382.618371	2522.558097
383.003545	2520.760925
383.388657	2523.951976
383.773706	2524.282171
384.158693	2521.123888
384.543618	2521.930473
384.928480	2519.835873
385.313280	2522.948786
385.698017	2523.125226
386.082692	2525.817202
386.467305	2525.035824
386.851856	2525.870135
387.236344	2525.335772
387.620770	2525.688653
388.005133	2526.016328
388.389435	2526.661596
388.773674	2527.175793
389.157851	2526.152439
389.541965	2527.208561
389.926018	2528.546987
390.310008	2528.557070
390.693936	2529.351051
391.077802	2530.107224
391.461606	2531.806093
391.845348	2529.073788
392.229027	2530.734848
392.612645	2531.853984
392.996200	2531.445651
393.379694	2533.825075
393.763125	2533.361289
394.146494	2532.438758
394.529801	2535.259284
394.913047	2537.530323
395.296230	2538.788091
395.679351	2539.977804
396.062410	2540.174409
396.445408	2544.003165
396.828343	2550.173537
397.211217	2550.319731
397.594028	2550.738147
397.976778	2556.921122
398.359466	2568.805642
398.742092	2571.376630
399.124656	2583.233424
399.507158	2596.151381
399.889598	2606.057248
400.271977	2619.509567
400.654294	2633.309726
401.036549	2647.752632
401.418742	2662.734941
401.800874	2683.290246
402.182944	2704.397557
402.564952	2728.771536
402.946898	2746.408012
403.328783	2770.663524
403.710606	2784.141049
404.092367	2831.112000
404.474067	2851.465659
404.855705	2880.905997
405.237282	2889.969992
405.618797	2939.978238
406.000250	2980.350318
406.381642	3025.662730
406.762972	3049.898077
407.144240	3088.291505
407.525447	3118.283849
407.906593	3172.163702
408.287677	3218.678428
408.668700	3236.022518
409.049661	3289.347843
409.430560	3344.866071
409.811399	3356.548945
410.192176	3459.191878
410.572891	3474.779126
410.953545	3563.654668
411.334138	3547.457441
411.714669	3623.969553
412.095139	3612.942029
412.475547	3728.938979
412.855894	3761.645986
413.236180	3810.436793
413.616405	3825.255265
413.996568	3914.531579
414.376670	3921.773196
414.756711	3933.753498
415.136691	3992.490502
415.516609	4081.797063
415.896466	4143.657062
416.276262	4208.448492
416.655997	4232.313314
417.035670	4399.094848
417.415283	4507.983771
417.794834	4504.228112
418.174324	4501.828523
418.553753	4467.457936
418.933121	4645.955111
419.312428	4737.726796
419.691674	4719.780288
420.070859	4863.556517
420.449983	4816.167150
420.829045	4943.173980
421.208047	4892.129777
421.586988	4983.898941
421.965867	5016.290875
422.344686	5160.435108
422.723444	5055.846289
423.102141	4908.170728
423.480777	5198.193350
423.859352	5011.186707
424.237866	5270.808651
424.616319	5278.067912
424.994712	5391.012444
425.373044	5291.716836
425.751314	5441.834836
426.129524	5275.012973
426.507673	5468.925997
426.885762	5556.596703
427.263789	5506.427140
427.641756	5397.273557
428.019662	5521.800139
428.397508	5539.572727
428.775292	5489.050283
429.153016	5597.485502
429.530679	5529.495460
429.908282	5618.272700
430.285824	5495.366849
430.663305	5766.409527
431.040726	5510.636504
431.418086	5517.157236
431.795385	5624.783350
432.172624	5637.421523
432.549802	5633.527232
432.926920	5642.752543
433.303977	5653.417104
433.680974	5694.867992
434.057910	5713.840374
434.434786	5720.290531
434.811601	5689.332805
435.188355	5920.683958
435.565050	5796.434639
435.941683	5783.345283
436.318257	5993.450493
436.694770	5980.819882
437.071222	6012.037227
437.447614	5953.212003
437.823946	5862.584660
438.200218	6012.672413
438.576429	5881.126023
438.952580	5976.580272
439.328670	6024.630029
439.704700	5933.002017
440.080670	5917.387043
440.456580	6189.422828
440.832429	6071.227935
441.208218	5917.893679
441.583947	6071.732050
441.959616	6081.123720
442.335224	6003.931052
442.710773	6137.526670
443.086261	6163.949878
443.461689	5962.172654
443.837057	6109.815447
444.212365	6265.337564
444.587612	6156.380585
444.962800	6312.563093
445.337927	6294.924096
445.712995	5904.285084
446.088002	6482.061809
446.462949	6309.528318
446.837837	6244.827629
447.212664	6414.313742
447.587431	6555.430762
447.962139	7100.583659
448.336786	8019.497785
448.711374	7763.666789
449.085901	6837.687486
449.460369	6762.982628
449.834776	6695.448810
450.209124	7088.235353
450.583412	7236.848568
450.957640	7384.072946
451.331808	7144.771893
451.705917	6695.466454
452.079965	6619.342510
452.453954	6832.427042
452.827883	6709.697631
453.201752	6802.283463
453.575562	6603.548575
453.949311	6811.160935
454.323001	6699.517021
454.696632	6772.926303
455.070202	6908.399751
455.443713	7063.548823
455.817164	7167.124370
456.190556	7247.611432
456.563888	7320.667833
456.937160	7365.461006
457.310373	7021.903851
457.683526	7043.401851
458.056619	6934.482681
458.429653	6925.222082
458.802628	6856.702719
459.175542	6965.909234
459.548398	7328.078330
459.921194	7482.435940
460.293930	7485.410221
460.666607	8013.060232
461.039224	8320.863003
461.411782	8444.575439
461.784280	8470.176939
462.156719	8351.921552
462.529099	8231.289261
462.901419	7820.810789
463.273680	7713.600570
463.645882	7726.450471
464.018024	7599.131090
464.390106	7763.576049
464.762130	8149.539390
465.134094	8616.680432
465.505999	9641.917533
465.877845	10851.948212
466.249631	11500.167500
466.621358	11115.761875
466.993026	10483.971707
467.364634	10234.469880
467.736184	9874.080312
468.107674	9540.580259
468.479105	9574.078726
468.850477	9335.092746
469.221790	9115.663922
469.593043	8777.127756
469.964238	8645.588928
470.335373	8656.225763
470.706449	8711.592756
471.077467	8697.074233
471.448425	10006.655097
471.819324	11067.230687
472.190164	11091.597104
472.560945	9844.256846
472.931667	9060.450684
473.302330	8923.157380
473.672934	8573.825583
474.043479	8929.720962
474.413965	8870.865491
474.784393	8757.903316
475.154761	8912.283611
475.525070	8995.434923
475.895321	8824.691042
476.265513	9003.137806
476.635645	9170.357920
477.005719	9169.619391
477.375734	9281.689283
477.745691	9516.463379
478.115588	9657.308176
478.485427	9899.210464
478.855207	10438.918915
479.224928	11244.969168
479.594591	11867.632327
479.964194	11678.742813
480.333739	11615.020108
480.703226	11535.231245
481.072653	11625.941768
481.442022	11861.192253
481.811333	12050.752240
482.180584	11862.129907
482.549777	11569.059908
482.918912	11390.824873
483.287988	11409.441854
483.657005	11430.380286
484.025964	11108.835329
484.394864	11243.943294
484.763706	11208.909795
485.132489	10971.433640
485.501213	10932.722620
485.869879	11000.337096
486.238487	10855.209838
486.607036	10965.381735
486.975527	10741.680533
487.343959	10935.729668
487.712333	10976.656276
488.080648	10913.631770
488.448905	10950.258273
488.817104	10898.714996
489.185244	11156.900211
489.553326	11319.651342
489.921350	11849.456447
490.289315	12911.372984
490.657222	13250.720776
491.025070	13163.037466
491.392861	13031.556612
491.760593	12653.268428
492.128267	12305.423771
492.495883	11973.514202
492.863440	11636.321503
493.230939	11308.412090
493.598380	11235.143960
493.965763	11109.467994
494.333088	11007.263641
494.700354	10926.406054
495.067563	10990.461475
495.434713	10822.941413
495.801805	10948.365320
496.168839	10873.297498
496.535815	10809.927674
496.902733	10809.564711
497.269593	10739.500234
497.636395	10841.507982
498.003139	10826.946609
498.369825	10701.300891
498.736453	10856.417195
499.103023	10786.609817
499.469535	10808.100256
499.835989	10804.281582
500.202385	10761.358677
500.568723	10615.182860
500.935003	10837.371715
501.301226	10642.311829
501.667390	10895.927238
502.033497	11000.243834
502.399546	10859.719150
502.765537	10768.587692
503.131470	10833.918525
503.497345	11008.314722
503.863163	10620.949940
504.228923	10930.746488
504.594625	10993.922228
504.960269	10742.398898
505.325856	10962.835952
505.691385	10755.853737
506.056856	10908.819989
506.422270	10935.535584
506.787625	10824.902421
507.152924	10942.094125
507.518164	10921.828686
507.883347	10839.660399
508.248472	10762.913873
508.613540	10998.575213
508.978550	10878.683971
509.343503	10860.737463
509.708398	10977.966976
510.073236	11091.614748
510.438016	11088.645508
510.802738	11039.658096
511.167403	11096.519791
511.532010	10991.668832
511.896561	11218.505631
512.261053	11295.957919
512.625488	11164.018320
512.989866	11140.135854
513.354186	11138.517643
513.718449	11042.057685
514.082655	11233.477858
514.446803	11123.615992
514.810894	11249.536454
515.174927	11117.864036
515.538904	11139.901440
515.902822	11292.494646
516.266684	11169.172900
516.630488	11124.566250
516.994235	11172.643734
517.357925	11236.918446
517.721558	11321.317443
518.085133	11340.410814
518.448651	11348.416166
518.812112	11231.884854
519.175516	11248.825651
519.538863	11371.769311
519.902152	11288.663369
520.265385	11440.560897
520.628560	11360.615758
520.991678	11332.060142
521.354739	11397.136397
521.717743	11327.749956
522.080690	11309.279168
522.443580	11446.474170
522.806413	11400.801316
523.169189	11428.623444
523.531908	11484.446661
523.894569	11312.255969
524.257174	11317.652525
524.619722	11429.172930
524.982213	11376.313911
525.344647	11432.522777
525.707025	11379.169725
526.069345	11476.521968
526.431608	11393.302600
526.793815	11499.887716
527.155964	11292.328288
527.518057	11348.748882
527.880093	11297.003958
528.242072	11360.477127
528.603995	11267.359453
528.965860	11189.851713
529.327669	11238.728220
529.689421	11184.573625
530.051117	11163.685604
530.412755	11264.922055
530.774337	11153.467185
531.135862	11135.334155
531.497331	11150.203038
531.858743	11014.943839
532.220098	11175.053406
532.581396	11046.516586
532.942638	11030.342043
533.303824	10989.112967
533.664953	11005.106027
534.026025	10925.158368
534.387040	11021.938440
534.747999	11024.632937
535.108902	11085.981258
535.469748	10841.777684
535.830537	10948.269538
536.191270	10927.005951
536.551947	10945.554877
536.912567	10943.359454
537.273131	10871.097035
537.633638	10847.464105
537.994089	10843.035452
538.354483	10783.819538
538.714821	10934.678588
539.075103	10941.209402
539.435328	10910.743189
539.795497	10736.657023
540.155609	10890.671835
540.515665	10982.264559
540.875665	10717.414939
541.235609	10783.912799
541.595496	10774.460636
541.955328	10931.883268
542.315102	10816.105608
542.674821	10770.044585
543.034483	10765.797413
543.394090	10768.953175
543.753640	10699.420540
544.113134	10918.526731
544.472571	10774.437951
544.831953	10917.132852
545.191278	10721.755372
545.550548	10750.522717
545.909761	10889.603110
546.268918	10864.004131
546.628019	10950.895979
546.987064	10807.349124
547.346053	10731.157124
547.704986	10830.964409
548.063863	10819.702471
548.422684	10815.112501
548.781449	10728.891126
549.140158	10834.299132
549.498811	10704.580161
549.857408	10568.690818
550.215949	10791.477051
550.574434	10645.686882
550.932864	10738.388660
551.291237	10802.192023
551.649555	10752.834086
552.007817	10767.075346
552.366022	10729.385159
552.724173	10718.027439
553.082267	10703.554287
553.440305	10845.089722
553.798288	10644.925667
554.156215	10800.261261
554.514086	10774.062385
554.871902	10618.809970
555.229661	10666.085911
555.587365	10635.405448
555.945014	10527.716320
556.302606	10655.638119
556.660143	10547.646522
557.017625	10707.877076
557.375050	10597.140570
557.732421	10736.289019
558.089735	10649.984465
558.446994	10645.114711
558.804197	10690.656494
559.161345	10686.008551
559.518437	10538.862311
559.875474	10626.235589
560.232455	10664.266054
560.589381	10602.895047
560.946251	10604.926632
561.303065	10705.419513
561.659825	10642.878959
562.016528	10576.197096
562.373177	10456.706627
562.729770	10568.469008
563.086307	10484.778292
563.442789	10578.301778
563.799216	10451.239495
564.155587	10502.994501
564.511904	10461.052101
564.868164	10450.947108
565.224370	10465.067380
565.580520	10393.979549
565.936615	10397.203367
566.292654	10251.234237
566.648638	10402.824254
567.004567	10355.538231
567.360441	10336.598616
567.716260	10250.465461
568.072023	10340.016518
568.427732	10290.063725
568.783385	10205.054747
569.138982	10270.975396
569.494525	10286.547520
569.850013	10166.000928
570.205445	10249.817673
570.560823	10139.849943
570.916145	10062.498478
571.271412	10133.745106
571.626625	10072.459798
571.981782	10047.919461
572.336884	10031.812975
572.691931	10031.659220
573.046923	9981.068720
573.401860	9937.475342
573.756743	9871.874807
574.111570	9912.438452
574.466342	9894.381039
574.821059	9931.718345
575.175722	9817.427825
575.530330	9826.086007
575.884882	9824.845883
576.239380	9747.922917
576.593823	9725.903157
576.948211	9743.968131
577.302544	9621.962126
577.656823	9635.802614
578.011047	9638.035845
578.365216	9612.804870
578.719330	9535.571872
579.073389	9549.200632
579.427394	9492.255758
579.781344	9471.365217
580.135239	9423.076004
580.489080	9428.245707
580.842866	9339.236574
581.196597	9340.433848
581.550273	9379.243171
581.903895	9349.495322
582.257463	9412.426566
582.610975	9289.243452
582.964434	9318.809819
583.317837	9244.268798
583.671186	9217.775013
584.024481	9220.046053
584.377721	9138.366758
584.730906	9108.752500
585.084037	9141.535123
585.437113	9083.030012
585.790135	9097.651879
586.143103	8998.038679
586.496016	8970.483732
586.848874	9030.486066
587.201679	9017.197584
587.554428	8902.241632
587.907124	8953.648799
588.259765	8927.754912
588.612352	8926.310622
588.964884	8801.297568
589.317362	8814.863313
589.669786	8814.129825
590.022155	8862.701342
590.374470	8887.171103
590.726731	8820.078387
591.078937	8669.494080
591.431090	8781.422819
591.783188	8652.578488
592.135232	8651.847521
592.487222	8647.733939
592.839157	8691.705404
593.191038	8633.883369
593.542866	8575.879853
593.894639	8479.392168
594.246358	8533.748410
594.598022	8543.447590
594.949633	8446.556613
595.301190	8419.150380
595.652692	8447.864792
596.004141	8557.739261
596.355535	8335.273142
596.706876	8315.582395
597.058162	8253.901357
597.409395	8328.142430
597.760573	8391.723983
598.111698	8303.846589
598.462768	8286.346223
598.813785	8247.912466
599.164748	8217.816778
599.515657	8204.354376
599.866511	8120.852704
600.217312	8247.935151
600.568060	8103.990044
600.918753	8210.534831
601.269392	8175.438318
601.619978	8088.012107
601.970510	8154.013414
602.320988	8147.681725
602.671412	8204.898821
603.021783	8146.789441
603.372100	8118.090152
603.722363	8120.462015
604.072572	8088.428003
604.422728	8106.868543
604.772830	8036.927575
605.122878	8040.552164
605.472872	8036.567132
605.822813	8068.167605
606.172701	8011.179882
606.522534	8086.991274
606.872314	8088.226356
607.222041	8053.260913
607.571714	8107.211342
607.921333	8071.146927
608.270899	8073.276815
608.620411	8166.291144
608.969870	8068.306237
609.319276	8060.031183
609.668627	8077.234120
610.017926	8108.685879
610.367171	8160.592120
610.716362	8136.392061
611.065500	8126.047613
611.414585	8155.833271
611.763616	8142.184347
612.112594	8126.234136
612.461518	8142.010427
612.810389	8201.216258
613.159207	8142.988411
613.507971	8086.867765
613.856682	8207.162299
614.205340	8162.059096
614.553945	8240.859892
614.902496	8140.155282
615.250994	8197.672327
615.599439	8178.959564
615.947830	8187.022889
616.296169	8163.263931
616.644454	8170.155189
616.992686	8170.492946
617.340864	8232.859581
617.688990	8138.348028
618.037063	8228.433448
618.385082	8178.163062
618.733048	8259.950742
619.080961	8200.253398
619.428821	8218.799803
619.776628	8218.527580
620.124382	8175.738267
620.472083	8158.764702
620.819731	8178.407557
621.167326	8080.775531
621.514868	8089.400945
621.862357	7968.582132
622.209793	7991.141295
622.557176	7924.441788
622.904506	7890.905513
623.251783	7828.049886
623.599007	7784.040613
623.946179	7788.065974
624.293297	7741.213490
624.640363	7664.948394
624.987376	7642.099364
625.334336	7590.850994
625.681243	7540.424333
626.028097	7535.688168
626.374899	7503.152562
626.721647	7500.072417
627.068343	7436.110257
627.414987	7405.081955
627.761577	7359.973710
628.108115	7394.677013
628.454600	7291.371168
628.801032	7341.540731
629.147412	7299.825183
629.493739	7291.940818
629.840014	7226.693164
630.186236	7284.379087
630.532405	7170.005389
630.878521	7215.806792
631.224585	7179.127357
631.570597	7098.589883
631.916556	7131.163299
632.262462	7133.152034
632.608316	7092.353976
632.954117	7063.947074
633.299866	7048.241359
633.645562	7044.198354
633.991206	6965.354707
634.336797	6911.358909
634.682336	6868.597321
635.027823	6831.978380
635.373257	6827.557288
635.718639	6756.043479
636.063968	6776.865965
636.409245	6664.357494
636.754470	6663.979407
637.099642	6623.788808
637.444762	6563.466361
637.789829	6573.634368
638.134845	6517.939701
638.479808	6502.208780
638.824719	6506.957547
639.169577	6436.951044
639.514383	6457.080371
639.859137	6383.971037
640.203839	6393.347583
640.548489	6377.606581
640.893086	6353.076326
641.237632	6325.002140
641.582125	6342.888154
641.926566	6316.984185
642.270955	6330.950702
642.615292	6324.780329
642.959576	6339.666857
643.303809	6329.425753
643.647990	6334.580332
643.992118	6323.414177
644.336195	6273.451301
644.680219	6296.751514
645.024192	6285.267766
645.368112	6384.497838
645.711981	6404.347381
646.055797	6481.681202
646.399562	6438.942299
646.743274	6567.688327
647.086935	6618.712366
647.430544	6619.768488
647.774101	6636.600901
648.117606	6640.293546
648.461059	6632.366331
648.804460	6591.210351
649.147810	6501.334140
649.491108	6475.112578
649.834354	6447.066119
650.177548	6362.808273
650.520690	6280.317352
650.863781	6262.320433
651.206820	6280.914729
651.549807	6201.370363
651.892742	6140.919366
652.235626	6149.733824
652.578458	6136.883923
652.921238	6040.875148
653.263967	6082.865439
653.606644	6019.399832
653.949269	6022.197673
654.291843	5967.221369
654.634365	6013.695767
654.976836	5968.791689
655.319255	5970.480475
655.661622	5943.989212
656.003938	5939.487462
656.346203	5903.841463
656.688416	5934.526966
657.030577	5889.443927
657.372687	5856.280697
657.714746	5840.600188
658.056753	5885.063165
658.398708	5831.952088
658.740612	5818.131765
659.082465	5863.610534
659.424266	5856.691551
659.766016	5857.800605
660.107715	5835.009548
660.449362	5844.136557
660.790958	5839.710424
661.132503	5828.698023
661.473996	5869.864086
661.815438	5848.292988
662.156829	5849.767526
662.498168	5840.867369
662.839456	5816.435417
663.180693	5850.861456
663.521879	5854.019739
663.863013	5841.628583
664.204097	5862.604824
664.545129	5901.346092
664.886110	5894.946347
665.227040	5930.851965
665.567918	5897.524897
665.908746	5924.757210
666.249522	5926.168733
666.590248	5917.707156
666.930922	5943.724551
667.271545	5958.845492
667.612118	5956.942457
667.952639	5933.480927
668.293109	5954.099246
668.633528	5910.722638
668.973896	5912.504686
669.314213	5903.541514
669.654480	5887.429986
669.994695	5881.362958
670.334859	5869.942224
670.674973	5859.847313
671.015035	5869.370053
671.355047	5863.802098
671.695008	5850.750551
672.034918	5827.533517
672.374777	5837.401576
672.714585	5819.306354
673.054342	5829.978477
673.394049	5819.298792
673.733705	5851.075705
674.073310	5840.426268
674.412864	5791.864833
674.752368	5787.295027
675.091820	5789.987003
675.431223	5726.019802
675.770574	5727.827056
676.109875	5683.323749
676.449125	5687.218041
676.788324	5652.650849
677.127473	5599.524649
677.466571	5586.906641
677.805619	5575.909364
678.144616	5561.902518
678.483562	5541.659765
678.822458	5509.754302
679.161303	5503.929249
679.500098	5498.305842
679.838842	5477.979909
680.177535	5485.292103
680.516179	5503.372201
680.854771	5512.587430
681.193314	5595.700934
681.531805	5698.527869
681.870247	5851.231981
682.208638	5951.046827
682.546978	5968.249765
682.885268	5942.010559
683.223508	5858.302199
683.561697	5802.340351
683.899836	5775.352533
684.237925	5731.234876
684.575963	5691.165264
684.913951	5655.350387
685.251889	5713.795004
685.589776	5686.139234
685.927614	5656.232589
686.265401	5723.584925
686.603137	5708.824426
686.940824	5783.267145
687.278460	5810.040713
687.616046	5822.053783
687.953582	5882.078802
688.291068	5870.388366
688.628504	5930.254588
688.965889	5895.279063
689.303224	5838.467780
689.640510	5789.513135
689.977745	5715.272062
690.314930	5617.718173
690.652065	5556.180808
690.989150	5469.672088
691.326185	5391.677876
691.663170	5341.823385
692.000105	5260.365901
692.336990	5184.284807
692.673825	5158.902597
693.010610	5087.940795
693.347345	5022.062997
693.684030	5007.695708
694.020665	4962.269871
694.357251	4875.509092
694.693786	4886.334970
695.030272	4854.202656
695.366707	4816.479702
695.703093	4788.244199
696.039429	4805.457219
696.375716	4788.942399
696.711952	4765.609418
697.048139	4751.284979
697.384276	4729.527359
697.720363	4740.537239
698.056400	4753.876132
698.392388	4704.445098
698.728326	4680.005585
699.064214	4656.697810
699.400053	4655.719826
699.735842	4621.266060
700.071581	4592.881843
700.407270	4564.963933
700.742910	4553.681831
701.078501	4498.234180
701.414042	4497.238552
701.749533	4463.571206
702.084974	4401.063419
702.420366	4455.064259
702.755709	4401.675919
703.091002	4344.531920
703.426246	4393.731061
703.761440	4347.886808
704.096584	4310.287362
704.431679	4334.026155
704.766725	4317.511335
705.101721	4305.324346
705.436668	4335.296526
705.771565	4279.120428
706.106413	4313.460768
706.441212	4340.781301
706.775961	4351.657591
707.110661	4328.198581
707.445311	4359.342830
707.779913	4382.285121
708.114465	4396.443201
708.448967	4418.369700
708.783421	4482.319257
709.117825	4518.839896
709.452180	4525.718551
709.786485	4569.064912
710.120742	4653.942819
710.454949	4639.857835
710.789107	4707.926015
711.123216	4779.533085
711.457275	4772.162918
711.791286	4843.427189
712.125247	4861.550137
712.459159	4763.267802
712.793023	4838.595243
713.126837	4796.902381
713.460602	4790.356442
713.794318	4708.967013
714.127985	4719.926482
714.461602	4634.138646
714.795171	4604.448771
715.128691	4540.247156
715.462162	4483.801356
715.795584	4435.071043
716.128957	4418.906583
716.462281	4362.465824
716.795556	4336.387936
717.128782	4297.797903
717.461960	4232.653592
717.795088	4244.941405
718.128167	4199.616391
718.461198	4138.489880
718.794180	4133.897388
719.127113	4117.785861
719.459997	4095.042695
719.792833	4051.386303
720.125619	4042.811300
720.458357	4006.215044
720.791046	4013.330632
721.123686	3986.514215
721.456278	3946.908389
721.788821	3960.262406
722.121315	3934.111420
722.453761	3909.669386
722.786158	3920.127260
723.118506	3946.784881
723.450805	3895.536511
723.783056	3919.290428
724.115259	3934.164352
724.447412	3937.831792
724.779518	3932.117644
725.111574	3935.038993
725.443582	3964.645689
725.775542	3946.618523
726.107453	4002.083818
726.439315	4006.827544
726.771129	4017.908000
727.102895	4052.727250
727.434612	4099.473869
727.766281	4112.782516
728.097901	4114.040283
728.429473	4119.925831
728.760996	4121.034884
729.092471	4119.454483
729.423897	4102.939663
729.755276	4109.775467
730.086606	4114.254532
730.417887	4146.228051
730.749120	4213.167012
731.080305	4278.230664
731.411442	4305.475580
731.742530	4275.069861
732.073570	4280.068165
732.404562	4334.346268
732.735506	4323.621213
733.066401	4289.172489
733.397249	4226.369794
733.728048	4144.975324
734.058798	4059.169844
734.389501	3986.932630
734.720156	3927.063887
735.050762	3885.161817
735.381320	3878.661249
735.711831	3827.949762
736.042293	3799.472283
736.372707	3820.559430
736.703073	3791.030871
737.033391	3780.852782
737.363661	3801.834064
737.693883	3825.645954
738.024056	3834.157943
738.354182	3826.868434
738.684260	3892.242117
739.014290	3911.978234
739.344272	3908.343562
739.674207	3949.229841
740.004093	3955.294349
740.333931	3947.747742
740.663722	3952.698155
740.993464	3952.967856
741.323159	3927.053805
741.652806	3898.528436
741.982405	3866.144064
742.311956	3834.515864
742.641460	3828.990760
742.970915	3805.168787
743.300323	3764.174124
743.629683	3726.892271
743.958996	3721.770459
744.288260	3692.854400
744.617477	3660.848114
744.946647	3646.682472
745.275768	3620.203812
745.604842	3616.730457
745.933869	3569.966193
746.262847	3563.087538
746.591778	3600.911316
746.920662	3572.935432
747.249498	3539.426883
747.578286	3585.487906
747.907027	3605.786112
748.235720	3600.162704
748.564365	3627.105151
748.892963	3627.989874
749.221514	3608.306688
749.550017	3583.234510
749.878473	3585.404727
750.206881	3553.879871
750.535242	3551.394582
750.863555	3551.598749
751.191821	3547.109601
751.520039	3529.273999
751.848210	3506.465298
752.176334	3541.007285
752.504411	3550.093964
752.832440	3505.605782
753.160421	3489.995849
753.488356	3497.668485
753.816243	3512.378572
754.144082	3468.807879
754.471875	3454.226342
754.799620	3473.352479
755.127318	3462.241776
755.454969	3462.783700
755.782572	3468.376861
756.110129	3446.266360
756.437638	3436.063064
756.765100	3450.803398
757.092515	3458.420582
757.419882	3467.434165
757.747203	3440.466512
758.074477	3443.481122
758.401703	3455.927731
758.728882	3477.856750
759.056014	3486.824963
759.383099	3490.028616
759.710138	3486.532576
760.037129	3502.964217
760.364073	3531.439175
760.690970	3516.408974
761.017820	3494.671519
761.344623	3516.804705
761.671379	3563.750450
761.998088	3609.357769
762.324751	3736.959455
762.651366	3979.564984
762.977935	4457.852017
763.304456	4901.508843
763.630931	4994.727340
763.957359	4634.463801
764.283740	4294.407727
764.610074	4100.862707
764.936362	3903.766195
765.262602	3746.799788
765.588796	3633.197386
765.914943	3544.480640
766.241044	3452.595528
766.567097	3427.987136
766.893104	3378.425032
767.219064	3348.563757
767.544978	3320.257678
767.870845	3266.534102
768.196665	3246.009044
768.522438	3256.923142
768.848165	3250.036926
769.173846	3214.804302
769.499479	3201.210830
769.825066	3183.907070
770.150607	3164.738082
770.476101	3183.763397
770.801548	3177.867767
771.126949	3132.124337
771.452303	3114.712192
771.777611	3117.643623
772.102872	3124.005559
772.428087	3102.318515
772.753256	3090.567586
773.078378	3081.785896
773.403453	3051.604508
773.728482	3034.688916
774.053465	3059.279664
774.378401	3045.736604
774.703291	3013.692510
775.028135	3013.175792
775.352932	3010.509021
775.677683	2998.712721
776.002388	2995.093173
776.327046	2996.890344
776.651658	2985.620845
776.976224	2972.556695
777.300743	2976.042653
777.625216	2965.368009
777.949643	2959.852987
778.274024	2961.312401
778.598359	2948.759928
778.922647	2956.553552
779.246889	2955.691514
779.571086	2941.510749
779.895236	2935.352979
780.219339	2947.361008
780.543397	2957.307204
780.867409	2962.779377
781.191374	2952.424847
781.515294	2949.730350
781.839167	2953.299487
782.162995	2941.475461
782.486776	2954.963068
782.810511	2947.257664
783.134201	2935.665531
783.457844	2941.142744
783.781441	2935.781477
784.104993	2916.688107
784.428498	2916.239444
784.751958	2924.708583
785.075372	2921.812440
785.398739	2905.721077
785.722061	2922.863521
786.045337	2931.660334
786.368568	2919.639703
786.691752	2909.512025
787.014891	2956.629169
787.337983	2988.292656
787.661030	3018.383304
787.984031	3083.948551
788.306987	3129.505458
788.629897	3123.544293
788.952760	3107.878908
789.275579	3090.570106
789.598351	3031.180273
789.921078	2985.807368
790.243759	2979.722695
790.566395	2958.196968
790.888984	2937.613937
791.211529	2920.595001
791.534027	2909.436407
791.856480	2901.811662
792.178888	2885.221225
792.501249	2879.388610
792.823566	2875.665718
793.145836	2869.205479
793.468062	2867.176415
793.790241	2864.118955
794.112375	2872.525079
794.434464	2882.730895
794.756507	2890.857235
795.078505	2893.385373
795.400457	2907.944226
795.722364	2949.213632
796.044226	2969.542085
796.366042	2972.276911
796.687812	2960.407514
797.009538	2981.797130
797.331218	2969.670634
797.652852	2953.206226
797.974442	2935.726025
798.295986	2931.708225
798.617484	2923.206319
798.938938	2910.893301
799.260346	2897.060375
799.581709	2890.025444
799.903026	2885.085114
800.224299	2876.043804
800.545526	2868.595499
800.866708	2855.155783
801.187845	2843.440142
801.508936	2845.350739
801.829983	2850.530525
802.150984	2836.163236
802.471940	2827.086639
802.792851	2826.504385
803.113717	2826.595126
803.434538	2832.223574
803.755314	2820.941472
804.076045	2819.371153
804.396731	2815.812098
804.717372	2816.394351
805.037967	2812.061480
805.358518	2816.933755
805.679024	2828.238542
805.999485	2827.739468
806.319901	2831.112000
806.640272	2823.182265
806.960598	2827.787359
807.280879	2836.732887
807.601115	2842.686489
807.921306	2830.093687
808.241453	2826.143943
808.561554	2834.504697
808.881611	2835.656600
809.201623	2829.435816
809.521590	2829.524037
809.841513	2823.857780
810.161390	2827.119406
810.481223	2821.609425
810.801011	2813.984680
811.120755	2809.525779
811.440453	2812.361428
811.760107	2809.505615
812.079716	2815.272695
812.399281	2800.862556
812.718801	2794.419962
813.038276	2789.769497
813.357707	2794.293933
813.677093	2805.331539
813.996434	2796.648152
814.315731	2792.355609
814.634983	2787.208591
814.954191	2789.177162
815.273354	2803.438586
815.592473	2810.675162
815.911547	2813.253712
816.230577	2821.896771
816.549562	2831.243070
816.868502	2828.175528
817.187399	2841.111129
817.506250	2856.332893
817.825058	2851.062366
818.143821	2863.456043
818.462539	2877.311654
818.781213	2904.619585
819.099843	2942.597117
819.418429	2998.871518
819.736970	3061.626321
820.055466	3133.117445
820.373919	3238.089391
820.692327	3381.643809
821.010691	3548.470713
821.329011	3993.418075
821.647286	4892.495260
821.965517	6276.387773
822.283704	7021.866042
822.601847	7010.924218
822.919945	6374.740685
823.237999	5862.052818
823.556010	5279.948263
823.873976	4723.697265
824.191897	4312.755006
824.509775	4018.187784
824.827609	3743.505393
825.145398	3621.138946
825.463144	3613.153758
825.780845	3701.295812
826.098502	3806.716422
826.416116	4090.888784
826.733685	4410.777722
827.051210	4472.350375
827.368692	4358.959702
827.686129	4091.203857
828.003522	3764.826954
828.320872	3505.288189
828.638177	3306.812921
828.955439	3169.285203
829.272656	3083.860330
829.589830	3018.269878
829.906960	2967.712146
830.224046	2924.413675
830.541088	2890.078377
830.858086	2875.978269
831.175041	2856.307687
831.491952	2859.362626
831.808819	2870.362424
832.125642	2896.374778
832.442421	2940.794905
832.759157	3022.443953
833.075849	3202.919781
833.392497	3484.027123
833.709101	3690.704348
834.025662	3637.641163
834.342179	3477.435814
834.658653	3299.183135
834.975083	3152.306597
835.291469	3050.767676
835.607811	2966.686271
835.924110	2907.112435
836.240366	2859.869262
836.556578	2814.866882
836.872746	2792.136319
837.188871	2768.894079
837.504952	2751.960843
837.820990	2742.322157
838.136984	2730.419993
838.452935	2724.431102
838.768842	2719.909187
839.084706	2737.583473
839.400526	2818.451142
839.716303	2954.922738
840.032037	3032.175901
840.347727	3018.857172
840.663373	2956.107410
840.978977	2880.996738
841.294537	2809.835810
841.610054	2762.416197
841.925527	2739.415932
842.240957	2717.363405
842.556344	2694.806762
842.871687	2678.382682
843.186987	2670.536127
843.502244	2663.972544
843.817458	2661.136895
844.132629	2649.506953
844.447756	2640.034625
844.762840	2633.899541
845.077881	2636.407515
845.392879	2634.814510
845.707833	2631.588172
846.022745	2624.424692
846.337613	2625.657254
846.652438	2625.306894
846.967221	2622.617439
847.281960	2623.623149
847.596656	2619.927983
847.911309	2620.295987
848.225919	2616.948661
848.540485	2613.399689
848.855009	2615.128805
849.169490	2611.824328
849.483928	2615.388424
849.798323	2613.465224
850.112675	2611.534462
850.426984	2613.392127
850.741251	2614.332302
851.055474	2610.488422
851.369654	2615.605194
851.683792	2614.216356
851.997887	2612.429267
852.311938	2610.145624
852.625947	2612.812394
852.939914	2618.198867
853.253837	2615.075872
853.567718	2611.226952
853.881555	2612.373814
854.195350	2613.871037
854.509103	2612.840121
854.822812	2609.843155
855.136479	2609.785182
855.450103	2615.592591
855.763685	2614.846500
856.077224	2611.073196
856.390720	2607.589759
856.704173	2611.998248
857.017584	2617.788013
857.330953	2614.765842
857.644278	2619.076028
857.957561	2619.859927
858.270802	2614.307097
858.584000	2614.841459
858.897155	2619.197016
859.210268	2618.687859
859.523339	2614.218876
859.836367	2611.249637
860.149352	2610.117898
860.462295	2612.928341
860.775195	2608.350973
861.088054	2604.986003
861.400869	2609.397013
861.713642	2604.244953
862.026373	2605.361569
862.339062	2611.080758
862.651708	2612.560337
862.964312	2616.023609
863.276873	2613.180399
863.589392	2616.489916
863.901869	2622.907305
864.214303	2626.967954
864.526696	2628.921402
864.839045	2629.496093
865.151353	2631.981382
865.463619	2634.103708
865.775842	2630.804272
866.088023	2632.954325
866.400162	2634.161681
866.712258	2631.479787
867.024313	2631.467184
867.336325	2628.316463
867.648296	2629.859056
867.960224	2635.590848
868.272110	2632.745117
868.583954	2624.245731
868.895755	2627.250259
869.207515	2633.740745
869.519233	2640.402629
869.830909	2635.268214
870.142542	2629.241515
870.454134	2634.443986
870.765684	2639.681744
871.077191	2642.466982
871.388657	2644.241468
871.700081	2639.512866
872.011463	2639.142341
872.322803	2645.295069
872.634101	2646.426808
872.945357	2653.340751
873.256571	2658.606236
873.567744	2656.945176
873.878874	2656.511637
874.189963	2656.877120
874.501010	2660.663027
874.812015	2665.792401
875.122979	2664.620332
875.433900	2659.508602
875.744780	2657.073725
876.055618	2661.882986
876.366415	2668.938081
876.677169	2666.727535
876.987882	2661.323418
877.298554	2659.163283
877.609183	2673.770027
877.919771	2678.186077
878.230317	2683.212108
878.540822	2695.295754
878.851285	2706.426621
879.161707	2730.394787
879.472087	2772.006992
879.782425	2822.146308
880.092722	2935.108483
880.402977	3124.368522
880.713191	3388.542628
881.023363	3682.557843
881.333494	3876.226371
881.643583	4050.446128
881.953631	4045.899007
882.263637	3867.427037
882.573602	3642.679796
882.883526	3516.769417
883.193408	3402.191552
883.503248	3298.285809
883.813048	3184.743901
884.122806	3065.565983
884.432522	2981.484578
884.742197	2915.521080
885.051831	2878.304762
885.361424	2843.614062
885.670975	2805.049235
885.980485	2775.324071
886.289954	2754.935124
886.599382	2741.127404
886.908768	2731.082905
887.218113	2712.493650
887.527417	2695.835157
887.836680	2689.231246
888.145901	2684.752180
888.455082	2675.915038
888.764221	2665.878100
889.073319	2658.303767
889.382376	2654.981646
889.691392	2658.765032
890.000366	2658.187820
890.309300	2655.526091
890.618193	2659.143119
890.927044	2660.657986
891.235855	2659.954745
891.544625	2663.196207
891.853353	2660.582368
892.162041	2669.114521
892.470687	2687.610515
892.779293	2696.916485
893.087858	2708.178422
893.396381	2734.342011
893.704864	2774.504883
894.013306	2847.430215
894.321707	2939.166612
894.630068	2992.746516
894.938387	3010.420801
895.246665	3004.999040
895.554903	2958.988429
895.863100	2915.427819
896.171256	2857.520084
896.479371	2794.951803
896.787446	2753.654671
897.095480	2738.203535
897.403473	2732.305385
897.711425	2715.336861
898.019336	2697.080322
898.327207	2684.646316
898.635038	2680.799916
898.942827	2676.993845
899.250576	2669.225427
899.558284	2658.555824
899.865952	2652.398055
900.173579	2649.721202
900.481165	2649.353198
900.788711	2639.588483
901.096216	2634.670837
901.403681	2628.422327
901.711105	2631.568007
902.018489	2628.059364
902.325832	2632.850981
902.633135	2636.525982
902.940397	2650.432005
903.247619	2684.401820
903.554800	2756.697007
903.861941	2888.129971
904.169041	3014.680576
904.476101	3076.661563
904.783121	3072.610996
905.090100	3012.170082
905.397039	2935.821807
905.703938	2864.905375
906.010796	2802.523617
906.317614	2746.155955
906.624391	2710.381407
906.931129	2682.947447
907.237826	2658.530619
907.544483	2642.063690
907.851099	2629.206227
908.157675	2616.671398
908.464211	2612.451952
908.770707	2597.562904
909.077163	2595.279261
909.383578	2593.439240
909.689954	2592.206678
909.996289	2588.652665
910.302584	2588.375401
910.608839	2585.978333
910.915054	2586.190061
911.221229	2588.871955
911.527363	2591.122830
911.833458	2590.558221
912.139513	2591.364805
912.445527	2589.060998
912.751502	2596.153902
913.057436	2602.261259
913.363331	2609.848196
913.669186	2618.859258
913.975000	2632.863584
914.280775	2652.251862
914.586510	2670.805828
914.892205	2704.924357
915.197859	2774.177208
915.503475	2859.796165
915.809050	2927.203954
916.114585	2945.135338
916.420081	2954.728654
916.725536	2969.085860
917.030952	2937.281221
917.336328	2890.978223
917.641665	2841.383351
917.946961	2793.285702
918.252218	2755.708941
918.557435	2730.563666
918.862612	2707.878474
919.167750	2687.691173
919.472848	2676.540141
919.777906	2657.809734
920.082925	2642.005716
920.387904	2632.762761
920.692843	2630.012811
920.997743	2623.323200
921.302603	2618.408075
921.607423	2609.938937
921.912204	2605.369131
922.216946	2601.278234
922.521647	2599.692792
922.826310	2596.428644
923.130932	2591.815989
923.435516	2585.627972
923.740059	2585.416244
924.044564	2583.651840
924.349028	2581.292580
924.653454	2573.564491
924.957840	2569.435786
925.262186	2566.824468
925.566493	2569.037535
925.870761	2565.002091
926.174989	2566.706001
926.479178	2562.852039
926.783328	2560.933880
927.087438	2561.440516
927.391509	2559.610577
927.695541	2557.095042
927.999533	2555.343241
928.303486	2556.661502
928.607400	2558.100752
928.911275	2556.681667
929.215110	2554.566903
929.518906	2555.383570
929.822663	2553.485575
930.126381	2556.495144
930.430060	2556.195196
930.733699	2557.082439
931.037299	2554.660164
931.340861	2558.380536
931.644383	2556.500185
931.947866	2554.665205
932.251309	2557.498334
932.554714	2555.065977
932.858080	2556.931204
933.161407	2555.612942
933.464694	2554.105637
933.767943	2553.931718
934.071153	2553.294012
934.374323	2554.556821
934.677455	2552.832746
934.980548	2551.574978
935.283602	2551.804351
935.586617	2553.629248
935.889593	2552.328631
936.192530	2550.607077
936.495428	2551.514484
936.798287	2555.439023
937.101108	2553.712427
937.403890	2557.505896
937.706632	2562.166442
938.009336	2563.928326
938.312002	2567.376475
938.614628	2570.232288
938.917216	2575.671693
939.219765	2575.235634
939.522275	2575.281004
939.824747	2574.461817
940.127179	2570.370920
940.429573	2566.995868
940.731929	2568.099880
941.034246	2564.941597
941.336524	2565.977555
941.638763	2568.301527
941.940964	2566.516958
942.243126	2563.174673
942.545250	2561.811041
942.847335	2560.822975
943.149381	2561.039744
943.451389	2556.631255
943.753359	2560.644014
944.055290	2556.684187
944.357182	2556.981616
944.659036	2553.215874
944.960851	2558.511606
945.262628	2556.772408
945.564367	2555.867521
945.866067	2554.675288
946.167729	2556.427089
946.469352	2559.812223
946.770937	2553.898950
947.072484	2554.551779
947.373992	2556.258210
947.675462	2556.258210
947.976893	2557.679815
948.278286	2555.249979
948.579641	2554.874413
948.880958	2552.386604
949.182236	2553.110009
949.483476	2554.425751
949.784678	2555.131512
950.085841	2551.390976
950.386967	2552.121943
950.688054	2553.052036
950.989103	2552.449618
951.290114	2552.999104
951.591087	2556.911039
951.892021	2556.643858
952.192917	2559.792059
952.493776	2557.442881
952.794596	2562.703325
953.095378	2561.876576
953.396122	2563.215002
953.696828	2558.420865
953.997496	2559.015721
954.298126	2556.056564
954.598718	2556.139743
954.899272	2556.142263
955.199788	2553.785524
955.500266	2551.217056
955.800706	2548.779658
956.101108	2545.177754
956.401472	2542.604245
956.701798	2543.705737
957.002087	2543.962836
957.302337	2542.579039
957.602550	2546.009544
957.902724	2540.746580
958.202861	2543.057949
958.502960	2543.070552
958.803022	2540.391178
959.103045	2539.151054
959.403031	2541.623740
959.702979	2539.176260
960.002889	2539.229192
960.302762	2542.039636
960.602596	2541.096940
960.902393	2538.503266
961.202153	2537.915972
961.501875	2536.824562
961.801559	2539.755993
962.101205	2537.043852
962.400814	2539.267001
962.700385	2538.440252
962.999918	2537.825231
963.299414	2538.722556
963.598873	2539.551826
963.898293	2536.527134
964.197677	2536.340611
964.497022	2536.315405
964.796331	2536.295241
965.095601	2536.597710
965.394835	2538.147865
965.694030	2537.409336
965.993189	2537.989068
966.292309	2533.865405
966.591393	2531.332225
966.890439	2535.385312
967.189447	2537.837834
967.488419	2533.991433
967.787353	2538.115097
968.086249	2534.523275
968.385108	2537.976466
968.683930	2535.428162
968.982714	2535.370189
969.281462	2537.883204
969.580172	2537.827752
969.878844	2536.012936
970.177480	2536.590148
970.476078	2536.474202
970.774639	2539.660211
971.073162	2537.520241
971.371649	2533.512524
971.670098	2534.767771
971.968510	2534.392205
972.266885	2531.818696
972.565223	2540.277752
972.863524	2540.320602
973.161788	2537.099305
973.460014	2537.366486
973.758204	2537.787422
974.056356	2536.973276
974.354471	2536.842206
974.652550	2535.864222
974.950591	2538.808256
975.248595	2538.977135
975.546563	2538.649460
975.844493	2536.055786
976.142386	2538.064686
976.440243	2538.460416
976.738062	2536.988399
977.035845	2536.378420
977.333590	2534.498069
977.631299	2536.297761
977.928971	2536.892618
978.226606	2537.860519
978.524204	2537.285827
978.821765	2538.795653
979.119290	2536.123842
979.416777	2534.858512
979.714228	2535.350024
980.011642	2533.827596
980.309020	2537.724408
980.606360	2537.081661
980.903664	2535.781043
981.200931	2537.618544
981.498162	2540.383617
981.795356	2539.045190
982.092513	2543.103319
982.389633	2544.431663
982.686717	2549.437529
982.983764	2550.987684
983.280775	2552.290822
983.577749	2553.714948
983.874686	2551.600184
984.171587	2547.491643
984.468451	2546.433001
984.765279	2542.531148
985.062070	2542.989893
985.358824	2538.530993
985.655543	2537.492515
985.952224	2536.393543
986.248869	2537.522762
986.545478	2532.481608
986.842050	2534.402288
987.138586	2530.641587
987.435086	2533.736855
987.731549	2530.603778
988.027975	2536.007895
988.324366	2535.632329
988.620719	2533.462112
988.917037	2533.835158
989.213318	2533.656197
989.509563	2534.102339
989.805772	2535.312216
990.101944	2535.390354
990.398080	2534.019160
990.694180	2533.230219
990.990244	2535.440765
991.286271	2533.527647
991.582262	2532.968079
991.878217	2532.169056
992.174136	2533.696526
992.470019	2532.048069
992.765865	2536.703574
993.061676	2534.293903
993.357450	2533.255425
993.653188	2534.475384
993.948890	2535.221475
994.244556	2534.830786
994.540186	2533.313398
994.835780	2533.285672
995.131337	2533.583100
995.426859	2536.128883
995.722345	2534.707277
996.017795	2538.478060
996.313208	2536.950591
996.608586	2534.561084
996.903928	2538.062165
997.199234	2538.009233
997.494504	2537.868081
997.789738	2537.941177
998.084936	2535.362627
998.380099	2535.634850
998.675225	2536.196938
998.970316	2535.415559
999.265371	2536.509490
999.560390	2532.738707
999.855373	2534.119983
1000.150320	2530.770136
1000.445232	2533.941022
1000.740108	2529.850126
1001.034948	2527.500948
1001.329752	2530.084539
1001.624521	2534.432534
1001.919254	2527.400125
1002.213951	2529.202337
1002.508613	2526.167563
1002.803239	2532.680733
1003.097829	2530.608819
1003.392384	2531.896834
1003.686903	2531.203675
1003.981386	2531.329704
1004.275834	2529.832482
1004.570246	2532.232071
1004.864623	2530.124868
1005.158964	2531.768285
1005.453270	2527.269055
1005.747540	2531.307019
1006.041775	2530.674354
1006.335974	2530.966741
1006.630138	2530.858356
1006.924266	2532.209386
1007.218359	2532.801721
1007.512416	2532.305167
1007.806438	2529.943387
1008.100425	2530.699560
1008.394376	2530.321473
1008.688292	2531.506145
1008.982172	2526.160001
1009.276017	2528.927594
1009.569827	2530.704601
1009.863602	2530.303829
1010.157341	2531.455733
1010.451045	2527.881555
1010.744714	2532.002698
1011.038347	2531.415404
1011.331945	2530.790301
1011.625508	2533.573018
1011.919036	2533.641073
1012.212528	2527.964734
1012.505986	2532.489170
1012.799408	2529.935825
1013.092795	2530.437420
1013.386147	2530.762574
1013.679464	2529.192255
1013.972745	2530.956659
1014.265992	2533.192411
1014.559204	2531.501103
1014.852380	2531.730476
1015.145521	2533.588141
1015.438628	2529.940866
1015.731699	2530.475229
1016.024736	2530.109745
1016.317737	2531.521268
1016.610703	2532.607637
1016.903635	2528.501617
1017.196531	2525.547501
1017.489393	2529.257790
1017.782219	2523.193282
1018.075011	2530.974303
1018.367768	2527.435413
1018.660490	2530.747451
1018.953177	2530.747451
1019.245829	2530.747451
