Dividing Wavelength (nm)	Counts (n)	Blue Motor Position (mm): 35.900000	Red Motor Position (mm): 0.000000	
326.493990	2130.258025
326.888308	2130.258025
327.282561	2130.258025
327.676750	2099.658221
328.070874	2098.513879
328.464933	2098.133272
328.858929	2107.421598
329.252859	2115.575664
329.646726	2128.470936
330.040528	2139.929478
330.434265	2157.591161
330.827938	2174.262257
331.221547	2191.424865
331.615091	2212.305324
332.008571	2228.752089
332.401986	2253.451222
332.795338	2270.427308
333.188625	2289.359361
333.581847	2308.427525
333.975006	2325.950576
334.368100	2345.573267
334.761129	2363.320649
335.154095	2376.115098
335.546996	2400.816752
335.939833	2426.176276
336.332606	2441.990376
336.725315	2452.493620
337.117960	2462.412090
337.510540	2469.106742
337.903056	2481.097127
338.295508	2490.561893
338.687896	2497.778305
339.080220	2506.393637
339.472480	2513.582322
339.864676	2514.633403
340.256807	2519.183044
340.648875	2522.270751
341.040879	2528.370547
341.432818	2529.613191
341.824694	2530.197965
342.216506	2528.801566
342.608253	2531.385157
342.999937	2529.651000
343.391557	2531.919519
343.783113	2528.859539
344.174605	2526.714528
344.566033	2527.959693
344.957397	2525.534898
345.348697	2521.413755
345.739934	2522.815195
346.131106	2519.266223
346.522215	2517.224556
346.913260	2516.644823
347.304241	2514.504853
347.695159	2511.865809
348.086012	2512.196005
348.476802	2510.804646
348.867528	2510.877743
349.258191	2508.006806
349.648789	2504.445231
350.039324	2500.286279
350.429796	2500.510610
350.820203	2500.238388
351.210548	2499.870384
351.600828	2497.395177
351.991045	2495.691267
352.381198	2499.036073
352.771288	2497.067502
353.161314	2498.993223
353.551276	2498.015239
353.941175	2495.731596
354.331010	2497.480877
354.720782	2497.027173
355.110490	2496.555825
355.500135	2498.668068
355.889717	2496.578510
356.279235	2499.197390
356.668689	2496.765033
357.058080	2496.626401
357.447408	2494.897285
357.836672	2494.090701
358.225873	2494.914929
358.615010	2497.271669
359.004084	2497.987513
359.393095	2499.789725
359.782043	2499.562873
360.170927	2499.807369
360.559748	2500.719818
360.948505	2501.115549
361.337199	2501.904489
361.725830	2502.746362
362.114398	2504.548574
362.502903	2501.319715
362.891344	2506.224758
363.279722	2503.472288
363.668037	2505.516476
364.056289	2503.983965
364.444478	2507.449758
364.832603	2505.675272
365.220665	2504.916579
365.608665	2508.889008
365.996601	2507.177536
366.384474	2509.075531
366.772284	2509.625016
367.160031	2509.395644
367.547715	2509.325068
367.935336	2507.454800
368.322893	2511.424708
368.710388	2509.168792
369.097820	2513.688186
369.485189	2511.099554
369.872495	2512.415295
370.259738	2511.396982
370.646918	2509.884636
371.034035	2517.290091
371.421090	2514.986283
371.808081	2511.838083
372.195010	2513.642816
372.581875	2511.943947
372.968678	2515.939062
373.355418	2512.458145
373.742096	2516.377642
374.128710	2516.838908
374.515262	2516.392765
374.901751	2516.513753
375.288177	2516.680111
375.674540	2516.755728
376.060841	2515.916376
376.447079	2514.903104
376.833254	2515.180368
377.219367	2514.376304
377.605417	2515.896212
377.991404	2514.262878
378.377329	2513.962929
378.763191	2512.327075
379.148991	2518.802437
379.534727	2516.755728
379.920402	2518.671367
380.306013	2517.615245
380.691563	2518.996521
381.077049	2517.670698
381.462474	2520.670184
381.847835	2518.706655
382.233134	2519.535925
382.618371	2520.796213
383.003545	2522.096831
383.388657	2521.307890
383.773706	2521.164218
384.158693	2520.849145
384.543618	2522.217819
384.928480	2522.550535
385.313280	2523.483148
385.698017	2523.513395
386.082692	2524.992974
386.467305	2523.168076
386.851856	2526.112110
387.236344	2525.290402
387.620770	2525.166894
388.005133	2525.113962
388.389435	2526.986750
388.773674	2527.122861
389.157851	2526.991791
389.541965	2525.489528
389.926018	2526.606143
390.310008	2528.549508
390.693936	2529.489683
391.077802	2525.597912
391.461606	2529.018335
391.845348	2528.776360
392.229027	2531.864067
392.612645	2527.062368
392.996200	2533.293234
393.379694	2530.588655
393.763125	2531.054961
394.146494	2534.177956
394.529801	2533.338604
394.913047	2535.022349
395.296230	2532.441279
395.679351	2531.879190
396.062410	2534.346835
396.445408	2536.360776
396.828343	2538.036959
397.211217	2534.898841
397.594028	2535.970086
397.976778	2534.152750
398.359466	2535.965045
398.742092	2536.058307
399.124656	2539.347659
399.507158	2540.877650
399.889598	2543.947712
400.271977	2547.635316
400.654294	2550.949875
401.036549	2551.726213
401.418742	2556.298539
401.800874	2565.206258
402.182944	2568.906465
402.564952	2575.835531
402.946898	2587.939341
403.328783	2598.407297
403.710606	2604.106322
404.092367	2623.287912
404.474067	2630.529530
404.855705	2646.779689
405.237282	2654.457366
405.618797	2677.510563
406.000250	2695.900692
406.381642	2722.049157
406.762972	2738.589183
407.144240	2757.125506
407.525447	2776.780964
407.906593	2808.368834
408.287677	2833.935046
408.668700	2849.209742
409.049661	2882.405740
409.430560	2918.691966
409.811399	2935.728545
410.192176	2991.476145
410.572891	3007.345697
410.953545	3064.993812
411.334138	3069.399781
411.714669	3119.158490
412.095139	3125.510343
412.475547	3201.430120
412.855894	3228.838874
413.236180	3272.449896
413.616405	3292.846404
413.996568	3360.773432
414.376670	3381.696741
414.756711	3400.898496
415.136691	3452.661063
415.516609	3529.059750
415.896466	3580.590425
416.276262	3641.371617
416.655997	3675.321267
417.035670	3802.998571
417.415283	3896.068353
417.794834	3912.968821
418.174324	3933.251904
418.553753	3922.350408
418.933121	4073.947987
419.312428	4160.403775
419.691674	4175.655786
420.070859	4294.306904
420.449983	4286.324237
420.829045	4406.424686
421.208047	4388.425246
421.586988	4479.050069
421.965867	4531.997308
422.344686	4673.827651
422.723444	4606.056899
423.102141	4506.892362
423.480777	4771.121920
423.859352	4631.988594
424.237866	4869.870562
424.616319	4899.668822
424.994712	5022.584756
425.373044	4956.948933
425.751314	5107.558445
426.129524	4975.928877
426.507673	5173.912633
426.885762	5267.983084
427.263789	5243.742696
427.641756	5159.139531
428.019662	5290.461589
428.397508	5320.373275
428.775292	5297.710768
429.153016	5408.452315
429.530679	5360.329461
429.908282	5458.281601
430.285824	5355.497515
430.663305	5630.094206
431.040726	5394.427825
431.418086	5412.132358
431.795385	5525.250809
432.172624	5546.917688
432.549802	5551.379109
432.926920	5575.649744
433.303977	5592.225058
433.680974	5634.066635
434.057910	5665.644423
434.434786	5677.337379
434.811601	5649.976517
435.188355	5882.623246
435.565050	5765.141676
435.941683	5754.479636
436.318257	5969.331092
436.694770	5955.457837
437.071222	5997.349825
437.447614	5931.116626
437.823946	5846.135375
438.200218	5998.731102
438.576429	5869.029775
438.952580	5969.535259
439.328670	6014.966138
439.704700	5924.714360
440.080670	5913.613739
440.456580	6184.331263
440.832429	6065.864147
441.208218	5916.956024
441.583947	6070.151649
441.959616	6069.743315
442.335224	6004.488099
442.710773	6138.983563
443.086261	6164.388458
443.461689	5961.998734
443.837057	6110.843842
444.212365	6263.507625
444.587612	6158.702037
444.962800	6311.638041
445.337927	6290.419825
445.712995	5903.415485
446.088002	6478.507795
446.462949	6313.203320
446.837837	6243.726137
447.212664	6415.379946
447.587431	6560.413942
447.962139	7104.477951
448.336786	8019.588526
448.711374	7760.667303
449.085901	6834.556930
449.460369	6763.015395
449.834776	6695.945364
450.209124	7088.207627
450.583412	7241.161276
450.957640	7379.871144
451.331808	7151.181721
451.705917	6702.226641
452.079965	6628.078830
452.453954	6835.355953
452.827883	6707.580347
453.201752	6805.078783
453.575562	6607.896571
453.949311	6813.429454
454.323001	6699.968204
454.696632	6774.350429
455.070202	6915.139774
455.443713	7068.642909
455.817164	7167.157137
456.190556	7254.653924
456.563888	7322.671692
456.937160	7364.102415
457.310373	7021.619026
457.683526	7047.028962
458.056619	6938.538290
458.429653	6929.312978
458.802628	6863.104984
459.175542	6971.731767
459.548398	7326.918864
459.921194	7487.923236
460.293930	7482.206567
460.666607	8015.023761
461.039224	8327.532450
461.411782	8452.563148
461.784280	8468.616702
462.156719	8356.851801
462.529099	8234.611382
462.901419	7827.520565
463.273680	7719.413020
463.645882	7728.290492
464.018024	7600.693847
464.390106	7764.463292
464.762130	8151.424782
465.134094	8625.809961
465.505999	9642.056165
465.877845	10866.436488
466.249631	11510.839622
466.621358	11124.306631
466.993026	10487.765176
467.364634	10233.343182
467.736184	9876.164829
468.107674	9542.523624
468.479105	9572.765506
468.850477	9336.935287
469.221790	9107.923230
469.593043	8785.354919
469.964238	8649.929362
470.335373	8650.277202
470.706449	8715.406389
471.077467	8695.483749
471.448425	10011.187094
471.819324	11073.779146
472.190164	11092.711199
472.560945	9841.035549
472.931667	9063.248525
473.302330	8931.092156
473.672934	8574.690141
474.043479	8932.871683
474.413965	8875.226089
474.784393	8752.108509
475.154761	8912.800329
475.525070	9000.745779
475.895321	8827.405704
476.265513	9004.181325
476.635645	9171.295575
477.005719	9168.389350
477.375734	9285.601218
477.745691	9514.484726
478.115588	9659.014607
478.485427	9896.253827
478.855207	10430.921125
479.224928	11252.220868
479.594591	11869.800023
479.964194	11680.126610
480.333739	11625.604010
480.703226	11539.370033
481.072653	11621.697116
481.442022	11862.598735
481.811333	12055.100236
482.180584	11855.999864
482.549777	11569.317007
482.918912	11398.673949
483.287988	11412.882441
483.657005	11425.850810
484.025964	11112.454878
484.394864	11240.734599
484.763706	11207.057171
485.132489	10966.929369
485.501213	10935.066756
485.869879	11011.102480
486.238487	10847.564928
486.607036	10961.371497
486.975527	10746.429300
487.343959	10929.176168
487.712333	10984.336473
488.080648	10911.005329
488.448905	10955.969901
488.817104	10896.663246
489.185244	11163.577219
489.553326	11323.611168
489.921350	11858.754855
490.289315	12916.993870
490.657222	13250.882092
491.025070	13162.944205
491.392861	13034.498125
491.760593	12657.006443
492.128267	12304.486116
492.495883	11977.118627
492.863440	11644.059674
493.230939	11305.853704
493.598380	11239.567572
493.965763	11105.939187
494.333088	11013.580207
494.700354	10932.422671
495.067563	10989.314613
495.434713	10819.077368
495.801805	10951.168202
496.168839	10880.944929
496.535815	10803.127157
496.902733	10808.508589
497.269593	10740.001829
497.636395	10838.238794
498.003139	10834.863741
498.369825	10699.584378
498.736453	10852.734632
499.103023	10781.694692
499.469535	10812.876749
499.835989	10800.210850
500.202385	10765.948648
500.568723	10613.007602
500.935003	10837.409524
501.301226	10643.025152
501.667390	10900.073587
502.033497	11001.000008
502.399546	10856.651608
502.765537	10771.264544
503.131470	10833.648823
503.497345	11014.306133
503.863163	10624.249375
504.228923	10935.714545
504.594625	10995.679070
504.960269	10749.459033
505.325856	10961.260592
505.691385	10760.967988
506.056856	10911.285113
506.422270	10933.690521
506.787625	10824.388224
507.152924	10947.399939
507.518164	10927.570561
507.883347	10839.695687
508.248472	10764.816909
508.613540	11001.514205
508.978550	10877.393436
509.343503	10855.172030
509.708398	10973.092180
510.073236	11094.944430
510.438016	11093.056518
510.802738	11047.418952
511.167403	11099.652868
511.532010	10990.206897
511.896561	11223.488812
512.261053	11288.471806
512.625488	11164.315748
512.989866	11144.869497
513.354186	11135.487910
513.718449	11044.618591
514.082655	11228.439225
514.446803	11121.269335
514.810894	11247.920764
515.174927	11115.870260
515.538904	11137.627880
515.902822	11288.416353
516.266684	11175.877634
516.630488	11117.090219
516.994235	11176.545587
517.357925	11234.027344
517.721558	11326.903042
518.085133	11336.289670
518.448651	11346.636639
518.812112	11233.193033
519.175516	11246.350445
519.538863	11365.644309
519.902152	11285.951229
520.265385	11444.999632
520.628560	11359.975532
520.991678	11330.757004
521.354739	11404.420865
521.717743	11332.569299
522.080690	11313.778398
522.443580	11442.494179
522.806413	11398.207642
523.169189	11433.281470
523.531908	11487.972948
523.894569	11310.872173
524.257174	11314.257307
524.619722	11432.873137
524.982213	11376.797862
525.344647	11426.375090
525.707025	11377.183510
526.069345	11478.556073
526.431608	11394.162117
526.793815	11502.975422
527.155964	11289.684203
527.518057	11341.741678
527.880093	11288.587752
528.242072	11364.321006
528.603995	11265.302662
528.965860	11191.840448
529.327669	11239.335679
529.689421	11192.019409
530.051117	11156.799388
530.412755	11266.205029
530.774337	11157.200159
531.135862	11141.370936
531.497331	11156.504480
531.858743	11008.808755
532.220098	11169.792962
532.581396	11046.322501
532.942638	11029.648885
533.303824	10994.360808
533.664953	11011.044507
534.026025	10927.323544
534.387040	11022.755107
534.747999	11030.619307
535.108902	11086.974366
535.469748	10840.782056
535.830537	10946.757192
536.191270	10927.459655
536.551947	10947.374733
536.912567	10947.856164
537.273131	10870.729030
537.633638	10848.552995
537.994089	10836.882723
538.354483	10788.215424
538.714821	10935.281005
539.075103	10944.438261
539.435328	10902.609287
539.795497	10736.220963
540.155609	10887.400126
540.515665	10977.316667
540.875665	10713.455113
541.235609	10785.639395
541.595496	10777.886100
541.955328	10931.656416
542.315102	10812.354989
542.674821	10768.761612
543.034483	10772.867631
543.394090	10769.101889
543.753640	10695.702689
544.113134	10923.275498
544.472571	10773.316294
544.831953	10920.777606
545.191278	10721.841072
545.550548	10748.047510
545.909761	10894.702238
546.268918	10859.991373
546.628019	10944.002202
546.987064	10811.558487
547.346053	10739.674154
547.704986	10833.137146
548.063863	10822.684314
548.422684	10815.470423
548.781449	10734.144008
549.140158	10828.766466
549.498811	10703.697959
549.857408	10563.485827
550.215949	10791.782041
550.574434	10650.652418
550.932864	10745.615154
551.291237	10804.009359
551.649555	10754.628737
552.007817	10759.732905
552.366022	10727.051105
552.724173	10721.215969
553.082267	10705.016221
553.440305	10845.273724
553.798288	10640.204627
554.156215	10795.532659
554.514086	10767.521488
554.871902	10623.036977
555.229661	10658.960240
555.587365	10634.576178
555.945014	10530.667915
556.302606	10658.866978
556.660143	10548.281707
557.017625	10705.548063
557.375050	10606.406211
557.732421	10732.475386
558.089735	10648.855247
558.446994	10646.753086
558.804197	10688.191370
559.161345	10690.646412
559.518437	10535.388956
559.875474	10621.350711
560.232455	10654.534107
560.589381	10603.653741
560.946251	10603.946128
561.303065	10709.046624
561.659825	10648.313323
562.016528	10576.670965
562.373177	10454.780906
562.729770	10568.272402
563.086307	10490.023612
563.442789	10577.550646
563.799216	10459.118819
564.155587	10502.439974
564.511904	10460.616042
564.868164	10452.774527
565.224370	10464.843049
565.580520	10390.307069
565.936615	10394.183716
566.292654	10267.804510
566.648638	10397.221011
567.004567	10353.728457
567.360441	10341.150778
567.716260	10249.270708
568.072023	10344.354431
568.427732	10292.470876
568.783385	10202.304798
569.138982	10274.176528
569.494525	10285.279670
569.850013	10169.038224
570.205445	10245.555377
570.560823	10145.632146
570.916145	10060.555113
571.271412	10129.596236
571.626625	10070.035003
571.981782	10043.158092
572.336884	10027.414568
572.691931	10030.048571
573.046923	9969.597575
573.401860	9927.418240
573.756743	9866.851298
574.111570	9914.013812
574.466342	9895.550586
574.821059	9926.833467
575.175722	9821.475872
575.530330	9821.294390
575.884882	9821.465789
576.239380	9749.412577
576.593823	9727.730575
576.948211	9737.820444
577.302544	9626.801634
577.656823	9633.362695
578.011047	9634.988467
578.365216	9608.471998
578.719330	9538.253766
579.073389	9545.039159
579.427394	9493.631993
579.781344	9471.713056
580.135239	9423.759080
580.489080	9429.236294
580.842866	9327.173093
581.196597	9334.326490
581.550273	9379.792657
581.903895	9351.017751
582.257463	9410.485722
582.610975	9287.108523
582.964434	9315.243202
583.317837	9237.349814
583.671186	9218.493378
584.024481	9220.512360
584.377721	9134.520358
584.730906	9106.882232
585.084037	9140.100915
585.437113	9080.542203
585.790135	9100.535419
586.143103	8994.855190
586.496016	8969.662024
586.848874	9025.833081
587.201679	9018.777986
587.554428	8903.859843
587.907124	8948.234600
588.259765	8921.844159
588.612352	8924.989839
588.964884	8799.301271
589.317362	8814.200401
589.669786	8811.614289
590.022155	8869.272486
590.374470	8878.911172
590.726731	8821.462183
591.078937	8667.918719
591.431090	8784.402141
591.783188	8657.508737
592.135232	8644.716809
592.487222	8642.644895
592.839157	8700.809728
593.191038	8624.292574
593.542866	8578.385307
593.894639	8480.259247
594.246358	8524.681895
594.598022	8543.271149
594.949633	8445.437477
595.301190	8415.238445
595.652692	8450.496275
596.004141	8558.792862
596.355535	8337.773554
596.706876	8316.318403
597.058162	8248.915656
597.409395	8320.913415
597.760573	8380.262919
598.111698	8293.718911
598.462768	8280.465717
598.813785	8250.503619
599.164748	8217.789051
599.515657	8204.240950
599.866511	8113.442208
600.217312	8241.530365
600.568060	8104.801670
600.918753	8205.327319
601.269392	8175.224069
601.619978	8082.436591
601.970510	8150.086355
602.320988	8152.803537
602.671412	8207.736991
603.021783	8139.946074
603.372100	8108.199408
603.722363	8111.151003
604.072572	8093.731296
604.422728	8097.436544
604.772830	8029.380968
605.122878	8034.321298
605.472872	8031.437758
605.822813	8060.011018
606.172701	8007.547730
606.522534	8082.799554
606.872314	8082.285357
607.222041	8053.069349
607.571714	8109.323585
607.921333	8063.040752
608.270899	8072.301351
608.620411	8159.147829
608.969870	8064.338849
609.319276	8065.808345
609.668627	8073.170950
610.017926	8111.496322
610.367171	8154.885534
610.716362	8132.084395
611.065500	8125.533415
611.414585	8152.581726
611.763616	8138.743759
612.112594	8128.124568
612.461518	8137.942216
612.810389	8196.729631
613.159207	8135.489694
613.507971	8085.259637
613.856682	8207.437042
614.205340	8158.459712
614.553945	8244.184533
614.902496	8137.813666
615.250994	8191.479269
615.599439	8173.618461
615.947830	8189.016666
616.296169	8159.286461
616.644454	8168.506731
616.992686	8169.719129
617.340864	8233.827482
617.688990	8131.429045
618.037063	8223.160401
618.385082	8167.785846
618.733048	8258.430834
619.080961	8197.556380
619.428821	8219.445070
619.776628	8220.775935
620.124382	8168.433635
620.472083	8148.432857
620.819731	8178.218514
621.167326	8077.493740
621.514868	8079.986590
621.862357	7969.653377
622.209793	7984.958320
622.557176	7920.020697
622.904506	7893.922643
623.251783	7820.588978
623.599007	7779.271681
623.946179	7782.235880
624.293297	7742.541834
624.640363	7657.300964
624.987376	7642.790003
625.334336	7588.595078
625.681243	7532.572735
626.028097	7520.864656
626.374899	7500.546285
626.721647	7494.617888
627.068343	7427.799914
627.414987	7398.737663
627.761577	7358.965479
628.108115	7389.098976
628.454600	7284.497555
628.801032	7340.048549
629.147412	7292.565921
629.493739	7284.903367
629.840014	7229.261632
630.186236	7280.671319
630.532405	7162.393247
630.878521	7214.967440
631.224585	7169.997827
631.570597	7097.485870
631.916556	7127.621888
632.262462	7126.553163
632.608316	7082.707728
632.954117	7067.949750
633.299866	7055.538429
633.645562	7040.389762
633.991206	6962.887063
634.336797	6906.567292
634.682336	6860.415528
635.027823	6830.584501
635.373257	6818.074877
635.718639	6752.328149
636.063968	6765.951867
636.409245	6663.898749
636.754470	6656.919271
637.099642	6617.510051
637.444762	6560.277831
637.789829	6571.141518
638.134845	6512.056674
638.479808	6499.390775
638.824719	6500.220045
639.169577	6433.079437
639.514383	6450.496624
639.859137	6377.926694
640.203839	6387.078909
640.548489	6372.290684
640.893086	6346.671540
641.237632	6322.642880
641.582125	6344.579461
641.926566	6312.668957
642.270955	6322.831923
642.615292	6326.085988
642.959576	6335.616290
643.303809	6328.372152
643.647990	6331.744683
643.992118	6320.344114
644.336195	6268.856289
644.680219	6292.398478
645.024192	6284.367920
645.368112	6383.504731
645.711981	6401.310086
646.055797	6478.291026
646.399562	6437.248472
646.743274	6560.096350
647.086935	6616.837057
647.430544	6609.466890
647.774101	6631.975642
648.117606	6638.486292
648.461059	6632.545292
648.804460	6590.123983
649.147810	6502.816239
649.491108	6475.165510
649.834354	6446.625018
650.177548	6358.450196
650.520690	6275.591271
650.863781	6255.230050
651.206820	6276.047495
651.549807	6194.955494
651.892742	6139.001207
652.235626	6144.511188
652.578458	6128.719774
652.921238	6034.712337
653.263967	6076.135498
653.606644	6020.529051
653.949269	6017.897568
654.291843	5959.586542
654.634365	6011.737278
654.976836	5964.468899
655.319255	5960.430935
655.661622	5940.392349
656.003938	5933.125525
656.346203	5894.711933
656.688416	5925.324340
657.030577	5881.675509
657.372687	5851.410942
657.714746	5839.665054
658.056753	5886.409153
658.398708	5821.295089
658.740612	5810.474252
659.082465	5859.406212
659.424266	5851.000088
659.766016	5851.809193
660.107715	5829.187015
660.449362	5840.012893
660.790958	5837.779662
661.132503	5820.680068
661.473996	5859.481829
661.815438	5845.744685
662.156829	5842.223439
662.498168	5837.724209
662.839456	5814.156815
663.180693	5845.593451
663.521879	5851.219378
663.863013	5837.401576
664.204097	5859.786819
664.545129	5898.916255
664.886110	5894.774948
665.227040	5932.853303
665.567918	5896.960288
665.908746	5919.852167
666.249522	5926.327529
666.590248	5911.541825
666.930922	5940.084838
667.271545	5955.193176
667.612118	5955.470440
667.952639	5930.446152
668.293109	5950.033555
668.633528	5905.673922
668.973896	5910.238687
669.314213	5901.008334
669.654480	5886.099122
669.994695	5877.017483
670.334859	5867.827460
670.674973	5859.209607
671.015035	5862.776223
671.355047	5859.010482
671.695008	5847.594789
672.034918	5823.452703
672.374777	5834.369322
672.714585	5820.712836
673.054342	5818.338452
673.394049	5815.845602
673.733705	5847.428431
674.073310	5834.487789
674.412864	5791.794257
674.752368	5779.934942
675.091820	5784.063647
675.431223	5723.741200
675.770574	5723.950408
676.109875	5676.636659
676.449125	5681.786197
676.788324	5649.202700
677.127473	5592.459472
677.466571	5585.427062
677.805619	5571.362243
678.144616	5560.770779
678.483562	5542.113468
678.822458	5506.099465
679.161303	5498.114278
679.500098	5491.235623
679.838842	5477.309436
680.177535	5481.501155
680.516179	5492.213607
680.854771	5505.809599
681.193314	5585.732052
681.531805	5698.537952
681.870247	5842.803172
682.208638	5950.963648
682.546978	5959.508404
682.885268	5942.076094
683.223508	5854.879256
683.561697	5799.948323
683.899836	5766.245689
684.237925	5724.550306
684.575963	5687.575963
684.913951	5645.615919
685.251889	5712.529674
685.589776	5677.423079
685.927614	5652.902907
686.265401	5721.089553
686.603137	5703.334610
686.940824	5779.554335
687.278460	5802.433612
687.616046	5813.693029
687.953582	5881.690633
688.291068	5864.896029
688.628504	5929.511018
688.965889	5889.469133
689.303224	5834.462583
689.640510	5782.521054
689.977745	5704.867120
690.314930	5611.255414
690.652065	5554.711312
690.989150	5461.891067
691.326185	5386.467843
691.663170	5331.564637
692.000105	5257.303400
692.336990	5181.928067
692.673825	5153.957225
693.010610	5088.031536
693.347345	5017.765413
693.684030	5005.860728
694.020665	4962.501764
694.357251	4874.394997
694.693786	4883.990834
695.030272	4847.439948
695.366707	4812.015760
695.703093	4778.668527
696.039429	4802.513185
696.375716	4784.695227
696.711952	4761.415178
697.048139	4744.683588
697.384276	4724.186257
697.720363	4737.353751
698.056400	4744.371037
698.392388	4700.323955
698.728326	4678.989792
699.064214	4655.314013
699.400053	4650.915606
699.735842	4619.375627
700.071581	4593.174230
700.407270	4564.971495
700.742910	4551.806522
701.078501	4493.046833
701.414042	4495.282584
701.749533	4462.842759
702.084974	4392.982449
702.420366	4453.473775
702.755709	4395.760125
703.091002	4337.880117
703.426246	4390.149321
703.761440	4346.616437
704.096584	4307.965910
704.431679	4332.551618
704.766725	4311.603103
705.101721	4301.359478
705.436668	4330.467100
705.771565	4279.957259
706.106413	4309.160664
706.441212	4340.176363
706.775961	4346.296323
707.110661	4328.548941
707.445311	4354.586501
707.779913	4379.419225
708.114465	4391.976739
708.448967	4417.679062
708.783421	4474.109738
709.117825	4512.102394
709.452180	4521.292418
709.786485	4565.347061
710.120742	4651.986852
710.454949	4637.793483
710.789107	4706.181776
711.123216	4780.206079
711.457275	4767.993884
711.791286	4845.247046
712.125247	4858.283470
712.459159	4762.002472
712.793023	4837.886961
713.126837	4795.122853
713.460602	4789.880053
713.794318	4706.748906
714.127985	4719.389599
714.461602	4628.066577
714.795171	4604.678143
715.128691	4535.412689
715.462162	4482.679700
715.795584	4427.743726
716.128957	4411.551539
716.462281	4358.818550
716.795556	4336.423224
717.128782	4296.603149
717.461960	4229.318869
717.795088	4238.702977
718.128167	4198.923232
718.461198	4135.467708
718.794180	4129.912356
719.127113	4113.732773
719.459997	4094.667129
719.792833	4048.235582
720.125619	4041.583779
720.458357	4007.258563
720.791046	4010.404243
721.123686	3983.471878
721.456278	3945.282617
721.788821	3958.301397
722.121315	3931.890792
722.453761	3907.650404
722.786158	3919.834873
723.118506	3942.867905
723.450805	3896.065832
723.783056	3918.423350
724.115259	3935.316256
724.447412	3939.298768
724.779518	3929.435750
725.111574	3935.233077
725.443582	3962.062098
725.775542	3953.141776
726.107453	4002.809744
726.439315	4001.415865
726.771129	4015.468082
727.102895	4053.657343
727.434612	4100.126699
727.766281	4112.598513
728.097901	4112.994244
728.429473	4116.286118
728.760996	4124.530925
729.092471	4122.683342
729.423897	4106.216413
729.755276	4109.538533
730.086606	4111.038276
730.417887	4148.287362
730.749120	4211.082495
731.080305	4274.510293
731.411442	4307.882731
731.742530	4272.347638
732.073570	4276.322588
732.404562	4329.607584
732.735506	4323.774969
733.066401	4283.596973
733.397249	4219.702868
733.728048	4142.217813
734.058798	4056.805543
734.389501	3988.795337
734.720156	3928.379628
735.050762	3880.486146
735.381320	3876.579252
735.711831	3825.028413
736.042293	3795.555307
736.372707	3816.052638
736.703073	3791.787044
737.033391	3780.194911
737.363661	3799.109320
737.693883	3824.368022
738.024056	3831.644927
738.354182	3828.411027
738.684260	3893.351171
739.014290	3914.566867
739.344272	3907.612595
739.674207	3950.754790
740.004093	3953.603042
740.333931	3950.364100
740.663722	3951.006847
740.993464	3947.919141
741.323159	3924.019030
741.652806	3894.682036
741.982405	3866.441492
742.311956	3835.728262
742.641460	3827.158300
742.970915	3802.494455
743.300323	3762.795369
743.629683	3726.161304
743.958996	3716.570508
744.288260	3692.564534
744.617477	3658.062877
744.946647	3644.860095
745.275768	3619.674490
745.604842	3615.452524
745.933869	3570.533323
746.262847	3562.926222
746.591778	3597.745471
746.920662	3567.664906
747.249498	3538.277500
747.578286	3582.765682
747.907027	3599.822427
748.235720	3602.985751
748.564365	3625.159266
748.892963	3625.139101
749.221514	3606.111266
749.550017	3585.596290
749.878473	3585.165272
750.206881	3552.773338
750.535242	3548.601783
750.863555	3551.041701
751.191821	3545.778737
751.520039	3527.050850
751.848210	3507.481091
752.176334	3542.060886
752.504411	3546.739077
752.832440	3502.984382
753.160421	3483.689365
753.488356	3498.762415
753.816243	3510.601565
754.144082	3465.470635
754.471875	3452.361115
754.799620	3471.668734
755.127318	3461.200778
755.454969	3463.171869
755.782572	3466.239411
756.110129	3445.845423
756.437638	3436.620112
756.765100	3449.071762
757.092515	3458.939821
757.419882	3465.649596
757.747203	3439.244033
758.074477	3442.735032
758.401703	3455.925211
758.728882	3477.009837
759.056014	3484.047287
759.383099	3488.465859
759.710138	3484.034684
760.037129	3503.657376
760.364073	3532.805327
760.690970	3517.500384
761.017820	3494.260665
761.344623	3514.173223
761.671379	3557.539749
761.998088	3610.489508
762.324751	3737.249322
762.651366	3983.028257
762.977935	4458.265392
763.304456	4901.700407
763.630931	4991.871526
763.957359	4631.582781
764.283740	4289.111995
764.610074	4097.427161
764.936362	3902.858787
765.262602	3744.783326
765.588796	3633.905668
765.914943	3541.967624
766.241044	3458.004687
766.567097	3427.117537
766.893104	3379.128273
767.219064	3348.515866
767.544978	3324.245231
767.870845	3263.993360
768.196665	3247.218921
768.522438	3254.377359
768.848165	3252.010537
769.173846	3215.988973
769.499479	3200.018597
769.825066	3182.213242
770.150607	3164.760767
770.476101	3179.642253
770.801548	3173.378620
771.126949	3131.915129
771.452303	3112.269753
771.777611	3120.804426
772.102872	3125.580920
772.428087	3100.269286
772.753256	3092.528594
773.078378	3080.780185
773.403453	3050.228273
773.728482	3037.784184
774.053465	3054.964437
774.378401	3045.532438
774.703291	3015.877850
775.028135	3017.417923
775.352932	3010.118332
775.677683	2997.260869
776.002388	2994.843636
776.327046	2994.702483
776.651658	2984.342912
776.976224	2975.442755
777.300743	2974.376551
777.625216	2965.075622
777.949643	2958.443984
778.274024	2963.061681
778.598359	2953.942234
778.922647	2959.600929
779.246889	2955.096658
779.571086	2942.342539
779.895236	2934.692588
780.219339	2945.228600
780.543397	2956.820733
780.867409	2961.937504
781.191374	2955.628500
781.515294	2950.277315
781.839167	2951.588015
782.162995	2944.174998
782.486776	2951.071297
782.810511	2950.748663
783.134201	2936.714091
783.457844	2940.973866
783.781441	2934.518668
784.104993	2914.147366
784.428498	2914.850607
784.751958	2931.027669
785.075372	2923.324786
785.398739	2905.748803
785.722061	2923.483583
786.045337	2933.223092
786.368568	2920.048036
786.691752	2912.884557
787.014891	2960.543625
787.337983	2989.063953
787.661030	3016.722243
787.984031	3083.368818
788.306987	3128.288019
788.629897	3122.319293
788.952760	3104.755913
789.275579	3090.302925
789.598351	3029.559542
789.921078	2986.533294
790.243759	2980.118425
790.566395	2959.984057
790.888984	2935.995726
791.211529	2919.667429
791.534027	2909.214597
791.856480	2899.704460
792.178888	2888.654251
792.501249	2879.197046
792.823566	2872.441900
793.145836	2871.494163
793.468062	2867.899820
793.790241	2866.669779
794.112375	2871.413504
794.434464	2882.110833
794.756507	2889.352450
795.078505	2894.522154
795.400457	2908.052611
795.722364	2942.939916
796.044226	2971.883701
796.366042	2971.533340
796.687812	2960.122689
797.009538	2980.544403
797.331218	2967.636528
797.652852	2951.225052
797.974442	2937.132507
798.295986	2930.939449
798.617484	2926.117585
798.938938	2910.535379
799.260346	2898.749161
799.581709	2890.317831
799.903026	2885.990001
800.224299	2878.776110
800.545526	2865.613657
800.866708	2853.419106
801.187845	2841.118690
801.508936	2843.735049
801.829983	2852.872141
802.150984	2838.719101
802.471940	2825.702842
802.792851	2826.771567
803.113717	2824.250990
803.434538	2834.214830
803.755314	2824.379539
804.076045	2819.648416
804.396731	2818.488951
804.717372	2819.441729
805.037967	2811.292704
805.358518	2823.013386
805.679024	2829.582010
805.999485	2828.601505
806.319901	2832.485714
806.640272	2822.978098
806.960598	2828.561176
807.280879	2838.885459
807.601115	2845.834690
807.921306	2831.263235
808.241453	2832.422700
808.561554	2834.620643
808.881611	2837.647856
809.201623	2828.823316
809.521590	2832.387412
809.841513	2824.329127
810.161390	2831.202741
810.481223	2823.840136
810.801011	2812.774803
811.120755	2811.340595
811.440453	2813.314206
811.760107	2813.036943
812.079716	2812.689103
812.399281	2800.897844
812.718801	2794.616567
813.038276	2789.036009
813.357707	2796.610343
813.677093	2803.471353
813.996434	2796.570014
814.315731	2791.233952
814.634983	2788.000052
814.954191	2791.564148
815.273354	2805.024029
815.592473	2814.544248
815.911547	2813.485606
816.230577	2822.879796
816.549562	2831.666527
816.868502	2831.253152
817.187399	2840.039883
817.506250	2857.021010
817.825058	2846.225379
818.143821	2862.578882
818.462539	2877.828373
818.781213	2902.398957
819.099843	2941.283897
819.418429	2998.125427
819.736970	3064.340983
820.055466	3133.404790
820.373919	3238.999319
820.692327	3380.756566
821.010691	3545.990465
821.329011	3994.723734
821.647286	4897.138163
821.965517	6279.730058
822.283704	7023.847216
822.601847	7003.445666
822.919945	6366.233737
823.237999	5861.652046
823.556010	5281.246360
823.873976	4720.312130
824.191897	4309.148061
824.509775	4014.676621
824.827609	3745.486567
825.145398	3621.212042
825.463144	3608.278962
825.780845	3696.859597
826.098502	3804.430258
826.416116	4090.135132
826.733685	4411.846447
827.051210	4473.204851
827.368692	4354.324361
827.686129	4088.196808
828.003522	3761.197323
828.320872	3504.584948
828.638177	3306.691933
828.955439	3171.745286
829.272656	3091.069180
829.589830	3017.853983
829.906960	2968.087712
830.224046	2923.377718
830.541088	2892.165414
830.858086	2874.869215
831.175041	2857.497399
831.491952	2858.530836
831.808819	2872.371324
832.125642	2894.191958
832.442421	2938.629729
832.759157	3021.954961
833.075849	3201.326777
833.392497	3482.769355
833.709101	3688.415664
834.025662	3634.611429
834.342179	3475.298365
834.658653	3297.421251
834.975083	3151.109323
835.291469	3051.473438
835.607811	2965.494038
835.924110	2911.009247
836.240366	2856.852132
836.556578	2816.482572
836.872746	2790.918880
837.188871	2771.281066
837.504952	2752.270874
837.820990	2742.460789
838.136984	2729.686505
838.452935	2723.291802
838.768842	2721.051009
839.084706	2741.182857
839.400526	2819.850062
839.716303	2952.439970
840.032037	3033.295037
840.347727	3021.201309
840.663373	2958.189406
840.978977	2881.813405
841.294537	2808.799853
841.610054	2763.689088
841.925527	2739.725963
842.240957	2719.485730
842.556344	2694.438757
842.871687	2680.048784
843.186987	2670.770540
843.502244	2669.774912
843.817458	2661.613284
844.132629	2648.690286
844.447756	2641.073103
844.762840	2632.684623
845.077881	2637.451034
845.392879	2635.916002
845.707833	2630.751340
846.022745	2622.541821
846.337613	2627.000722
846.652438	2625.226236
846.967221	2625.677419
847.281960	2625.707666
847.596656	2624.200361
847.911309	2623.461832
848.225919	2617.641820
848.540485	2615.070831
848.855009	2616.336161
849.169490	2616.434463
849.483928	2613.651747
849.798323	2614.347426
850.112675	2612.383896
850.426984	2616.225256
850.741251	2611.257198
851.055474	2611.630244
851.369654	2617.969495
851.683792	2615.166613
851.997887	2615.322889
852.311938	2612.109153
852.625947	2615.136366
852.939914	2614.637292
853.253837	2618.080400
853.567718	2612.285594
853.881555	2612.668722
854.195350	2617.793054
854.509103	2615.373301
854.822812	2611.153855
855.136479	2613.077055
855.450103	2613.550923
855.763685	2617.167951
856.077224	2608.930706
856.390720	2610.190994
856.704173	2613.366921
857.017584	2615.232148
857.330953	2619.819598
857.644278	2621.546193
857.957561	2620.222891
858.270802	2615.945472
858.584000	2615.353136
858.897155	2619.597787
859.210268	2619.128960
859.523339	2617.049484
859.836367	2611.327775
860.149352	2613.971860
860.462295	2613.513115
860.775195	2610.644698
861.088054	2610.763165
861.400869	2610.634616
861.713642	2604.378544
862.026373	2607.781323
862.339062	2611.879781
862.651708	2613.702158
862.964312	2615.353136
863.276873	2614.697786
863.589392	2619.590226
863.901869	2621.762963
864.214303	2628.608850
864.526696	2631.242853
864.839045	2632.949283
865.151353	2634.363327
865.463619	2632.024232
865.775842	2633.211423
866.088023	2632.175466
866.400162	2634.060858
866.712258	2631.802421
867.024313	2631.250415
867.336325	2627.119189
867.648296	2630.693367
867.960224	2635.921044
868.272110	2634.985910
868.583954	2626.002573
868.895755	2629.851494
869.207515	2635.026239
869.519233	2640.427835
869.830909	2637.325005
870.142542	2631.678913
870.454134	2634.259983
870.765684	2640.493370
871.077191	2642.172074
871.388657	2645.307672
871.700081	2641.962867
872.011463	2641.506642
872.322803	2645.169040
872.634101	2647.553506
872.945357	2655.815957
873.256571	2663.160918
873.567744	2656.882161
873.878874	2657.275371
874.189963	2659.158242
874.501010	2662.787873
874.812015	2667.488749
875.122979	2667.014881
875.433900	2659.463232
875.744780	2659.022131
876.055618	2662.349293
876.366415	2669.449758
876.677169	2667.982782
876.987882	2662.314005
877.298554	2663.662513
877.609183	2671.935047
877.919771	2680.338650
878.230317	2686.483817
878.540822	2694.912626
878.851285	2710.215048
879.161707	2734.399984
879.472087	2773.078237
879.782425	2822.554641
880.092722	2936.361210
880.402977	3125.578399
880.713191	3386.468193
881.023363	3685.043132
881.333494	3874.648490
881.643583	4051.529976
881.953631	4044.474881
882.263637	3869.425855
882.573602	3648.209942
882.883526	3514.432842
883.193408	3398.282137
883.503248	3296.957465
883.813048	3180.161492
884.122806	3066.831313
884.432522	2980.889722
884.742197	2915.145514
885.051831	2877.651932
885.361424	2842.424349
885.670975	2809.064514
885.980485	2773.884822
886.289954	2755.461925
886.599382	2743.700913
886.908768	2732.570045
887.218113	2712.420553
887.527417	2699.820189
887.836680	2692.218129
888.145901	2686.128415
888.455082	2675.206756
888.764221	2667.367761
889.073319	2656.597336
889.382376	2656.614980
889.691392	2659.818633
890.000366	2661.741834
890.309300	2655.856287
890.618193	2656.831750
890.927044	2662.989519
891.235855	2661.076401
891.544625	2660.143788
891.853353	2661.663696
892.162041	2668.686023
892.470687	2688.896009
892.779293	2697.914633
893.087858	2710.983824
893.396381	2735.168760
893.704864	2772.627054
894.013306	2845.706140
894.321707	2939.640481
894.630068	2992.522184
894.938387	3012.560771
895.246665	3005.629184
895.554903	2961.483800
895.863100	2913.469330
896.171256	2856.771473
896.479371	2799.284675
896.787446	2757.402769
897.095480	2736.991137
897.403473	2729.767164
897.711425	2714.658826
898.019336	2698.214582
898.327207	2685.765452
898.635038	2682.897036
898.942827	2681.906449
899.250576	2671.279697
899.558284	2658.064312
899.865952	2654.593477
900.173579	2650.416882
900.481165	2646.835142
900.788711	2642.731642
901.096216	2635.905920
901.403681	2630.952987
901.711105	2631.988944
902.018489	2630.085908
902.325832	2636.125210
902.633135	2633.859212
902.940397	2651.064670
903.247619	2688.028930
903.554800	2758.829416
903.861941	2887.565361
904.169041	3014.554547
904.476101	3074.826583
904.783121	3071.680903
905.090100	3014.068076
905.397039	2936.656118
905.703938	2863.360261
906.010796	2798.558749
906.317614	2747.005389
906.624391	2709.529452
906.931129	2682.899556
907.237826	2657.829898
907.544483	2641.065541
907.851099	2629.286885
908.157675	2617.188116
908.464211	2611.347939
908.770707	2599.544077
909.077163	2596.204313
909.383578	2590.280957
909.689954	2594.306319
909.996289	2590.774990
910.302584	2590.049064
910.608839	2585.491861
910.915054	2587.972109
911.221229	2591.579054
911.527363	2593.630804
911.833458	2590.137284
912.139513	2591.911771
912.445527	2592.655341
912.751502	2598.644232
913.057436	2602.659511
913.363331	2610.087651
913.669186	2619.580143
913.975000	2637.851806
914.280775	2653.360915
914.586510	2669.860612
914.892205	2705.718339
915.197859	2774.898093
915.503475	2858.732482
915.809050	2927.934921
916.114585	2945.137859
916.420081	2956.364508
916.725536	2963.694346
917.030952	2938.125614
917.336328	2894.970816
917.641665	2842.888135
917.946961	2790.381997
918.252218	2756.712131
918.557435	2729.363871
918.862612	2706.887887
919.167750	2691.222501
919.472848	2672.348421
919.777906	2658.160094
920.082925	2642.996303
920.387904	2636.946918
920.692843	2629.339817
920.997743	2626.300002
921.302603	2618.340020
921.607423	2613.568567
921.912204	2605.182608
922.216946	2604.839810
922.521647	2600.743872
922.826310	2595.241453
923.130932	2593.688777
923.435516	2586.250555
923.740059	2588.239290
924.044564	2586.008579
924.349028	2580.627148
924.653454	2574.151786
924.957840	2568.876218
925.262186	2569.513924
925.566493	2570.189439
925.870761	2563.386402
926.174989	2567.620971
926.479178	2564.576114
926.783328	2563.151988
927.087438	2563.767009
927.391509	2561.768191
927.695541	2560.487738
927.999533	2557.689898
928.303486	2556.275854
928.607400	2559.807182
928.911275	2553.767880
929.215110	2556.984136
929.518906	2556.001111
929.822663	2556.938766
930.126381	2553.717468
930.430060	2558.526729
930.733699	2556.089331
931.037299	2557.889023
931.340861	2558.282233
931.644383	2558.438509
931.947866	2556.265772
932.251309	2559.615618
932.554714	2558.002449
932.858080	2557.208467
933.161407	2555.998591
933.464694	2556.154866
933.767943	2555.408776
934.071153	2554.660164
934.374323	2552.343754
934.677455	2553.961964
934.980548	2555.202088
935.283602	2552.915925
935.586617	2554.554300
935.889593	2553.745195
936.192530	2550.833928
936.495428	2552.673950
936.798287	2555.885165
937.101108	2556.333827
937.403890	2557.173179
937.706632	2562.536967
938.009336	2564.321536
938.312002	2568.266238
938.614628	2571.648853
938.917216	2576.848803
939.219765	2576.652198
939.522275	2577.713361
939.824747	2578.739236
940.127179	2571.454768
940.429573	2569.526527
940.731929	2567.845302
941.034246	2567.147102
941.336524	2567.878070
941.638763	2567.865467
941.940964	2566.690878
942.243126	2562.688202
942.545250	2565.518810
942.847335	2563.613253
943.149381	2561.223747
943.451389	2562.531926
943.753359	2559.015721
944.055290	2557.742830
944.357182	2557.107644
944.659036	2555.222253
944.960851	2556.895916
945.262628	2558.004970
945.564367	2557.941955
945.866067	2558.221739
946.167729	2558.763663
946.469352	2559.408931
946.770937	2556.404403
947.072484	2556.777449
947.373992	2556.490103
947.675462	2556.790052
947.976893	2554.982798
948.278286	2555.653272
948.579641	2551.874927
948.880958	2553.725030
949.182236	2555.292829
949.483476	2552.081614
949.784678	2553.593960
950.085841	2555.565051
950.386967	2552.663867
950.688054	2555.413817
950.989103	2556.772408
951.290114	2554.108158
951.591087	2556.071687
951.892021	2555.653272
952.192917	2558.811554
952.493776	2560.457491
952.794596	2561.483366
953.095378	2563.759447
953.396122	2560.076884
953.696828	2561.778273
953.997496	2558.229301
954.298126	2555.635627
954.598718	2556.711914
954.899272	2556.333827
955.199788	2555.295350
955.500266	2551.305276
955.800706	2550.599515
956.101108	2542.954605
956.401472	2545.984338
956.701798	2541.895963
957.002087	2540.345808
957.302337	2543.836807
957.602550	2546.390151
957.902724	2541.913607
958.202861	2544.232538
958.502960	2542.435366
958.803022	2543.383103
959.103045	2540.524769
959.403031	2541.580891
959.702979	2540.522248
960.002889	2540.885211
960.302762	2537.497556
960.602596	2541.719522
960.902393	2538.936805
961.202153	2539.990407
961.501875	2539.955118
961.801559	2540.441590
962.101205	2539.408153
962.400814	2540.340767
962.700385	2539.088040
962.999918	2538.833462
963.299414	2540.134079
963.598873	2539.332536
963.898293	2537.142155
964.197677	2541.091899
964.497022	2534.954294
964.796331	2536.731301
965.095601	2540.754141
965.394835	2540.169368
965.694030	2538.173071
965.993189	2537.704243
966.292309	2536.559901
966.591393	2538.536034
966.890439	2536.446475
967.189447	2539.665252
967.488419	2536.781712
967.787353	2535.995292
968.086249	2539.521579
968.385108	2536.393543
968.683930	2538.425128
968.982714	2534.704757
969.281462	2539.821528
969.580172	2537.666435
969.878844	2537.323636
970.177480	2537.870601
970.476078	2537.608461
970.774639	2539.824048
971.073162	2540.930582
971.371649	2537.684079
971.670098	2534.848430
971.968510	2536.494366
972.266885	2534.182997
972.565223	2536.088553
972.863524	2539.718184
973.161788	2536.658204
973.460014	2539.725746
973.758204	2541.018802
974.056356	2540.232382
974.354471	2537.467309
974.652550	2540.754141
974.950591	2539.587114
975.248595	2538.291538
975.546563	2539.529141
975.844493	2539.834131
976.142386	2539.030067
976.440243	2538.430169
976.738062	2536.557381
977.035845	2539.544264
977.333590	2538.180632
977.631299	2535.851619
977.928971	2535.776002
978.226606	2534.051927
978.524204	2536.900179
978.821765	2535.400436
979.119290	2535.896990
979.416777	2535.828934
979.714228	2539.330015
980.011642	2533.918337
980.309020	2540.217258
980.606360	2538.805735
980.903664	2537.248019
981.200931	2538.581404
981.498162	2537.621064
981.795356	2540.204656
982.092513	2545.757487
982.389633	2546.433001
982.686717	2551.708569
982.983764	2553.662016
983.280775	2555.507078
983.577749	2553.944320
983.874686	2551.355688
984.171587	2547.128680
984.468451	2547.952909
984.765279	2543.811601
985.062070	2541.986703
985.358824	2542.226158
985.655543	2542.808412
985.952224	2542.125335
986.248869	2537.774819
986.545478	2534.447658
986.842050	2534.407329
987.138586	2533.280631
987.435086	2533.162164
987.731549	2530.238294
988.027975	2536.436393
988.324366	2534.704757
988.620719	2533.489839
988.917037	2536.552340
989.213318	2533.139478
989.509563	2535.891948
989.805772	2534.843388
990.101944	2533.565456
990.398080	2536.262473
990.694180	2534.031763
990.990244	2534.674510
991.286271	2533.389016
991.582262	2535.523944
991.878217	2533.220137
992.174136	2535.055117
992.470019	2535.208872
992.765865	2534.697195
993.061676	2533.494880
993.357450	2533.492359
993.653188	2534.452699
993.948890	2537.177443
994.244556	2535.594520
994.540186	2535.685261
994.835780	2533.754499
995.131337	2533.961187
995.426859	2537.459747
995.722345	2538.515869
996.017795	2537.905889
996.313208	2538.846065
996.608586	2538.278935
996.903928	2536.322967
997.199234	2541.144831
997.494504	2536.648122
997.789738	2536.849768
998.084936	2537.575694
998.380099	2538.445293
998.675225	2536.222144
998.970316	2535.849099
999.265371	2537.056455
999.560390	2536.237268
999.855373	2535.733152
1000.150320	2533.015970
1000.445232	2534.704757
1000.740108	2534.359438
1001.034948	2534.780374
1001.329752	2532.181659
1001.624521	2534.475384
1001.919254	2526.853160
1002.213951	2526.280989
1002.508613	2529.890455
1002.803239	2532.811803
1003.097829	2529.580424
1003.392384	2531.874149
1003.686903	2532.554705
1003.981386	2533.857843
1004.275834	2530.409694
1004.570246	2537.399253
1004.864623	2530.253418
1005.158964	2532.471526
1005.453270	2532.703419
1005.747540	2533.878007
1006.041775	2529.958510
1006.335974	2533.794828
1006.630138	2531.619571
1006.924266	2533.850281
1007.218359	2532.022863
1007.512416	2531.934643
1007.806438	2533.757020
1008.100425	2530.124868
1008.394376	2532.451361
1008.688292	2530.591175
1008.982172	2534.553522
1009.276017	2530.311391
1009.569827	2532.496731
1009.863602	2533.736855
1010.157341	2530.603778
1010.451045	2531.533871
1010.744714	2532.380785
1011.038347	2531.692667
1011.331945	2529.877852
1011.625508	2533.446989
1011.919036	2531.599406
1012.212528	2531.460774
1012.505986	2532.431196
1012.799408	2530.535722
1013.092795	2529.081350
1013.386147	2531.743079
1013.679464	2531.755682
1013.972745	2533.842719
1014.265992	2531.024714
1014.559204	2532.849612
1014.852380	2530.601258
1015.145521	2532.837009
1015.438628	2530.868439
1015.731699	2533.666279
1016.024736	2531.964890
1016.317737	2533.986392
1016.610703	2528.279806
1016.903635	2529.474560
1017.196531	2525.759229
1017.489393	2526.384332
1017.782219	2523.266379
1018.075011	2531.533871
1018.367768	2532.022863
1018.660490	2531.586803
1018.953177	2531.586803
1019.245829	2531.586803
