Dividing Wavelength (nm)	Counts (n)	Blue Motor Position (mm): 19.400000	Red Motor Position (mm): 0.000000	
326.493990	2132.713067
326.888308	2132.713067
327.282561	2132.713067
327.676750	2101.223499
328.070874	2097.480443
328.464933	2100.306009
328.858929	2111.356218
329.252859	2118.386108
329.646726	2132.937398
330.040528	2142.084572
330.434265	2160.230205
330.827938	2176.256033
331.221547	2194.973837
331.615091	2215.256920
332.008571	2231.204610
332.401986	2253.766294
332.795338	2273.469644
333.188625	2292.379012
333.581847	2308.951805
333.975006	2329.968376
334.368100	2349.094513
334.761129	2366.257122
335.154095	2377.962681
335.546996	2403.264232
335.939833	2423.151584
336.332606	2438.005344
336.725315	2449.325255
337.117960	2459.510906
337.510540	2467.735548
337.903056	2479.279791
338.295508	2484.341109
338.687896	2492.837974
339.080220	2504.966990
339.472480	2511.311282
339.864676	2512.851355
340.256807	2517.832015
340.648875	2520.309742
341.040879	2524.395597
341.432818	2524.985412
341.824694	2526.076822
342.216506	2526.349044
342.608253	2528.413397
342.999937	2526.205371
343.391557	2527.601771
343.783113	2523.094979
344.174605	2523.387366
344.566033	2523.732685
344.957397	2521.108765
345.348697	2520.879392
345.739934	2518.633558
346.131106	2518.326048
346.522215	2516.150790
346.913260	2513.355470
347.304241	2511.782630
347.695159	2509.579646
348.086012	2506.572598
348.476802	2508.725170
348.867528	2503.351300
349.258191	2503.023625
349.648789	2498.647904
350.039324	2499.459530
350.429796	2501.571773
350.820203	2496.482728
351.210548	2495.587923
351.600828	2494.577172
351.991045	2496.427276
352.381198	2494.877121
352.771288	2496.334014
353.161314	2494.788901
353.551276	2493.430310
353.941175	2492.167501
354.331010	2494.022645
354.720782	2493.752943
355.110490	2491.549959
355.500135	2492.462408
355.889717	2495.497183
356.279235	2494.683036
356.668689	2495.247646
357.058080	2493.936946
357.447408	2492.656492
357.836672	2491.161790
358.225873	2491.484424
358.615010	2493.208499
359.004084	2496.475167
359.393095	2497.178408
359.782043	2494.534322
360.170927	2498.347955
360.559748	2497.856443
360.948505	2497.100270
361.337199	2498.594972
361.725830	2499.444406
362.114398	2499.404077
362.502903	2499.300733
362.891344	2501.113028
363.279722	2500.417349
363.668037	2500.853409
364.056289	2503.106804
364.444478	2503.119407
364.832603	2503.983965
365.220665	2503.011022
365.608665	2506.897752
365.996601	2505.130828
366.384474	2503.983965
366.772284	2505.960098
367.160031	2506.565036
367.547715	2509.536796
367.935336	2503.913389
368.322893	2504.732577
368.710388	2506.262567
369.097820	2510.219873
369.485189	2507.822804
369.872495	2508.896570
370.259738	2506.018071
370.646918	2506.365910
371.034035	2509.088133
371.421090	2508.876405
371.808081	2507.651405
372.195010	2508.760458
372.581875	2509.287259
372.968678	2512.450583
373.355418	2508.523524
373.742096	2511.427229
374.128710	2509.564522
374.515262	2509.947650
374.901751	2511.800274
375.288177	2511.175171
375.674540	2512.745491
376.060841	2507.951353
376.447079	2511.966632
376.833254	2511.157527
377.219367	2509.559481
377.605417	2513.126098
377.991404	2510.892867
378.377329	2509.287259
378.763191	2508.485716
379.148991	2513.191633
379.534727	2511.785151
379.920402	2514.744308
380.306013	2511.669204
380.691563	2514.593073
381.077049	2512.614421
381.462474	2515.359329
381.847835	2511.250788
382.233134	2516.884278
382.618371	2513.733557
383.003545	2514.656088
383.388657	2515.021572
383.773706	2514.676253
384.158693	2516.478465
384.543618	2517.353105
384.928480	2517.164062
385.313280	2517.400996
385.698017	2515.172806
386.082692	2519.659433
386.467305	2517.801768
386.851856	2517.758918
387.236344	2515.815553
387.620770	2517.648013
388.005133	2519.697242
388.389435	2520.322345
388.773674	2519.770338
389.157851	2518.494927
389.541965	2517.363188
389.926018	2515.702127
390.310008	2518.378980
390.693936	2518.338651
391.077802	2520.564320
391.461606	2520.251769
391.845348	2518.326048
392.229027	2520.098013
392.612645	2522.399300
392.996200	2520.367715
393.379694	2521.194464
393.763125	2519.488034
394.146494	2519.530884
394.529801	2523.793179
394.913047	2519.853518
395.296230	2524.569517
395.679351	2522.248066
396.062410	2519.777900
396.445408	2521.512057
396.828343	2522.311080
397.211217	2518.459638
397.594028	2520.690349
397.976778	2518.343692
398.359466	2521.847294
398.742092	2516.271778
399.124656	2525.010618
399.507158	2523.382325
399.889598	2523.578930
400.271977	2522.923580
400.654294	2526.205371
401.036549	2522.502644
401.418742	2524.574558
401.800874	2525.333252
402.182944	2525.045906
402.564952	2525.875176
402.946898	2523.684794
403.328783	2525.363499
403.710606	2528.005063
404.092367	2522.742099
404.474067	2525.774353
404.855705	2526.447347
405.237282	2527.697553
405.618797	2528.327697
406.000250	2526.888448
406.381642	2525.487007
406.762972	2526.913653
407.144240	2527.284178
407.525447	2529.265352
407.906593	2526.679240
408.287677	2527.667306
408.668700	2528.214271
409.049661	2528.748633
409.430560	2528.307533
409.811399	2528.015146
410.192176	2529.807276
410.572891	2526.346524
410.953545	2527.140505
411.334138	2530.719725
411.714669	2526.046575
412.095139	2529.209899
412.475547	2530.255938
412.855894	2529.593027
413.236180	2526.515402
413.616405	2529.484642
413.996568	2530.233253
414.376670	2530.389529
414.756711	2529.522451
415.136691	2532.285003
415.516609	2528.463808
415.896466	2533.767102
416.276262	2532.552184
416.655997	2527.896678
417.035670	2527.808458
417.415283	2528.559590
417.794834	2529.141843
418.174324	2528.236956
418.553753	2532.353058
418.933121	2531.874149
419.312428	2531.533871
419.691674	2532.090918
420.070859	2532.295085
420.449983	2531.080167
420.829045	2532.297606
421.208047	2534.377082
421.586988	2532.466484
421.965867	2533.542771
422.344686	2533.633512
422.723444	2534.901362
423.102141	2534.714839
423.480777	2533.331042
423.859352	2534.067051
424.237866	2535.544109
424.616319	2535.584438
424.994712	2535.092926
425.373044	2531.541433
425.751314	2534.808100
426.129524	2535.493697
426.507673	2534.344314
426.885762	2536.050745
427.263789	2533.189890
427.641756	2532.282482
428.019662	2535.019829
428.397508	2535.067720
428.775292	2536.995961
429.153016	2534.777853
429.530679	2539.123328
429.908282	2536.103677
430.285824	2535.760878
430.663305	2536.766589
431.040726	2533.744417
431.418086	2535.097967
431.795385	2536.880015
432.172624	2534.422452
432.549802	2536.025539
432.926920	2535.564273
433.303977	2536.781712
433.680974	2534.813142
434.057910	2538.387320
434.434786	2537.578214
434.811601	2537.086702
435.188355	2537.946219
435.565050	2539.743390
435.941683	2539.824048
436.318257	2536.242309
436.694770	2535.148378
437.071222	2534.646783
437.447614	2535.851619
437.823946	2532.360620
438.200218	2539.622402
438.576429	2538.291538
438.952580	2536.993441
439.328670	2538.684748
439.704700	2537.174922
440.080670	2539.050231
440.456580	2538.651980
440.832429	2539.340098
441.208218	2536.844727
441.583947	2538.669624
441.959616	2537.497556
442.335224	2540.696168
442.710773	2540.802032
443.086261	2539.491332
443.461689	2538.304141
443.837057	2541.822866
444.212365	2540.187012
444.587612	2540.514687
444.962800	2539.030067
445.337927	2542.354708
445.712995	2541.001158
446.088002	2540.146682
446.462949	2540.151723
446.837837	2542.999975
447.212664	2539.980324
447.587431	2541.245654
447.962139	2543.078113
448.336786	2542.420243
448.711374	2542.634492
449.085901	2541.328833
449.460369	2543.385624
449.834776	2544.237579
450.209124	2543.158772
450.583412	2543.050387
450.957640	2543.317568
451.331808	2542.377393
451.705917	2541.298586
452.079965	2544.797147
452.453954	2539.783719
452.827883	2542.034594
453.201752	2541.860675
453.575562	2544.371169
453.949311	2544.943340
454.323001	2544.015768
454.696632	2538.543595
455.070202	2546.440563
455.443713	2543.161292
455.817164	2540.277752
456.190556	2538.031918
456.563888	2543.105840
456.937160	2541.520397
457.310373	2547.809236
457.683526	2545.457538
458.056619	2541.517876
458.429653	2542.183308
458.802628	2542.437887
459.175542	2547.025337
459.548398	2545.223124
459.921194	2544.802188
460.293930	2546.430481
460.666607	2545.724719
461.039224	2546.342260
461.411782	2543.219266
461.784280	2546.876623
462.156719	2545.087013
462.529099	2545.694472
462.901419	2548.978784
463.273680	2549.210677
463.645882	2546.304452
464.018024	2545.399565
464.390106	2548.746891
464.762130	2549.296377
465.134094	2547.579864
465.505999	2546.470810
465.877845	2549.676984
466.249631	2549.404761
466.621358	2547.138763
466.993026	2552.653785
467.364634	2550.367622
467.736184	2548.121788
468.107674	2549.003990
468.479105	2548.928372
468.850477	2550.891902
469.221790	2549.172868
469.593043	2548.570450
469.964238	2551.522046
470.335373	2548.570450
470.706449	2551.857283
471.077467	2547.582384
471.448425	2552.492468
471.819324	2552.265616
472.190164	2551.262427
472.560945	2552.729402
472.931667	2549.949206
473.302330	2550.377704
473.672934	2551.456511
474.043479	2552.268137
474.413965	2549.976932
474.784393	2545.739842
475.154761	2551.542211
475.525070	2548.121788
475.895321	2548.232693
476.265513	2545.863351
476.635645	2553.548590
477.005719	2552.842828
477.375734	2552.232849
477.745691	2553.273847
478.115588	2551.771583
478.485427	2551.789227
478.855207	2551.771583
479.224928	2555.055895
479.594591	2556.918601
479.964194	2556.520350
480.333739	2556.837943
480.703226	2557.291647
481.072653	2557.188303
481.442022	2555.328117
481.811333	2559.532439
482.180584	2556.263251
482.549777	2559.038406
482.918912	2557.286605
483.287988	2556.979095
483.657005	2558.224260
484.025964	2558.584703
484.394864	2559.492110
484.763706	2560.515464
485.132489	2560.333983
485.501213	2559.461863
485.869879	2560.182748
486.238487	2557.037068
486.607036	2560.961607
486.975527	2561.586710
487.343959	2564.215671
487.712333	2560.989333
488.080648	2564.278686
488.448905	2566.731207
488.817104	2564.364385
489.185244	2565.864129
489.553326	2568.263718
489.921350	2573.032649
490.289315	2575.059193
490.657222	2575.086920
491.025070	2576.989955
491.392861	2579.150090
491.760593	2579.409709
492.128267	2584.430698
492.495883	2579.873495
492.863440	2583.351891
493.230939	2583.062025
493.598380	2586.167376
493.965763	2580.249061
494.333088	2585.698548
494.700354	2590.878334
495.067563	2595.158274
495.434713	2594.565938
495.801805	2604.635643
496.168839	2607.652773
496.535815	2611.302569
496.902733	2613.477827
497.269593	2622.758591
497.636395	2623.063581
498.003139	2630.945425
498.369825	2633.836527
498.736453	2641.370531
499.103023	2645.320275
499.469535	2653.247489
499.835989	2660.214364
500.202385	2663.861639
500.568723	2672.565191
500.935003	2680.487364
501.301226	2689.226204
501.667390	2700.009232
502.033497	2711.351829
502.399546	2715.911552
502.765537	2722.144939
503.131470	2731.970148
503.497345	2747.343147
503.863163	2750.211563
504.228923	2769.012546
504.594625	2777.801798
504.960269	2787.536266
505.325856	2802.420273
505.691385	2808.199956
506.056856	2826.010352
506.422270	2844.836541
506.787625	2855.659899
507.152924	2873.687065
507.518164	2886.486554
507.883347	2897.720766
508.248472	2913.267684
508.613540	2938.896910
508.978550	2954.819395
509.343503	2969.010243
509.708398	2996.426558
510.073236	3020.147707
510.438016	3043.866336
510.802738	3060.539953
511.167403	3089.662698
511.532010	3108.022581
511.896561	3139.733959
512.261053	3173.683610
512.625488	3185.162317
512.989866	3211.088971
513.354186	3236.471181
513.718449	3256.701331
514.082655	3299.218423
514.446803	3323.325220
514.810894	3365.617981
515.174927	3386.185888
515.538904	3410.799322
515.902822	3462.801344
516.266684	3479.038901
516.630488	3513.969056
516.994235	3545.350239
517.357925	3597.773197
517.721558	3634.581182
518.085133	3678.650949
518.448651	3715.612689
518.812112	3734.542222
519.175516	3778.019653
519.538863	3834.238601
519.902152	3857.125439
520.265385	3932.538580
520.628560	3953.943320
520.991678	4002.189682
521.354739	4047.497053
521.717743	4078.202721
522.080690	4117.715285
522.443580	4194.547510
522.806413	4230.009507
523.169189	4280.567239
523.531908	4337.423893
523.894569	4353.137169
524.257174	4408.141199
524.619722	4487.809074
524.982213	4510.864791
525.344647	4589.123663
525.707025	4621.394609
526.069345	4696.744736
526.431608	4738.505654
526.793815	4813.364268
527.155964	4819.002799
527.518057	4874.334504
527.880093	4921.197070
528.242072	4984.282069
528.603995	5024.797823
528.965860	5053.897883
529.327669	5124.968070
529.689421	5162.191950
530.051117	5204.630904
530.412755	5307.946831
530.774337	5315.425383
531.135862	5376.745978
531.497331	5432.513743
531.858743	5448.058141
532.220098	5556.140479
532.581396	5570.129681
532.942638	5618.910406
533.303824	5659.900028
533.664953	5736.737295
534.026025	5759.031798
534.387040	5855.635429
534.747999	5911.088121
535.108902	5990.866902
535.469748	5951.540860
535.830537	6046.458226
536.191270	6095.773313
536.551947	6164.338047
536.912567	6223.947170
537.273131	6245.583803
537.633638	6290.576101
537.994089	6352.158836
538.354483	6380.911057
538.714821	6502.440673
539.075103	6560.325722
539.435328	6603.709892
539.795497	6567.337967
540.155609	6708.500357
540.515665	6804.098278
540.875665	6730.235292
541.235609	6823.279869
541.595496	6872.310131
541.955328	7019.451329
542.315102	7008.885071
542.674821	7036.122425
543.034483	7089.619150
543.394090	7151.413614
543.753640	7165.864081
544.113134	7350.798810
544.472571	7320.007442
544.831953	7466.962118
545.191278	7404.993734
545.550548	7470.281718
545.909761	7602.216276
546.268918	7646.560786
546.628019	7749.075170
546.987064	7721.432003
547.346053	7711.029582
547.704986	7840.458686
548.063863	7881.980150
548.422684	7918.531036
548.781449	7918.914163
549.140158	8034.351545
549.498811	8014.421343
549.857408	7951.401879
550.215949	8164.758633
550.574434	8108.287628
550.932864	8227.218530
551.291237	8308.386148
551.649555	8333.105446
552.007817	8384.177375
552.366022	8397.143223
552.724173	8438.866333
553.082267	8466.000343
553.440305	8625.426834
553.798288	8509.376952
554.156215	8670.512393
554.514086	8698.084984
554.871902	8623.974981
555.229661	8697.036424
555.587365	8716.969146
555.945014	8668.896703
556.302606	8812.297366
556.660143	8764.454295
557.017625	8937.378475
557.375050	8890.515909
557.732421	9029.510602
558.089735	9002.449689
558.446994	9032.119400
558.804197	9108.457592
559.161345	9143.735587
559.518437	9047.351246
559.875474	9163.897682
560.232455	9217.278460
560.589381	9205.935864
560.946251	9253.607535
561.303065	9356.280715
561.659825	9340.456533
562.016528	9316.589191
562.373177	9236.714628
562.729770	9374.572542
563.086307	9333.693826
563.442789	9432.593702
563.799216	9369.796049
564.155587	9430.289895
564.511904	9423.507023
564.868164	9443.346483
565.224370	9474.939395
565.580520	9440.888921
565.936615	9457.517167
566.292654	9381.201659
566.648638	9516.939768
567.004567	9500.228343
567.360441	9507.769909
567.716260	9450.265467
568.072023	9562.476511
568.427732	9536.804435
568.783385	9474.049631
569.138982	9560.137415
569.494525	9595.929608
569.850013	9503.308488
570.205445	9593.698897
570.560823	9515.059417
570.916145	9459.765522
571.271412	9536.265031
571.626625	9506.852419
571.981782	9495.650975
572.336884	9494.410851
572.691931	9503.285803
573.046923	9478.901742
573.401860	9447.651629
573.756743	9406.006657
574.111570	9459.082445
574.466342	9457.219739
574.821059	9494.269699
575.175722	9406.167974
575.530330	9433.556563
575.884882	9429.115306
576.239380	9379.916165
576.593823	9368.208085
576.948211	9393.736488
577.302544	9286.927041
577.656823	9309.241709
578.011047	9324.967588
578.365216	9308.974528
578.719330	9241.481039
579.073389	9264.330069
579.427394	9215.526659
579.781344	9208.214465
580.135239	9171.242643
580.489080	9181.582049
580.842866	9099.446530
581.196597	9108.349208
581.550273	9154.921907
581.903895	9129.375860
582.257463	9188.042288
582.610975	9082.629241
582.964434	9116.636864
583.317837	9048.180516
583.671186	9031.834574
584.024481	9029.586220
584.377721	8954.551165
584.730906	8950.755177
585.084037	8975.925658
585.437113	8920.180578
585.790135	8940.498949
586.143103	8850.937810
586.496016	8831.075664
586.848874	8888.015496
587.201679	8882.825628
587.554428	8769.429914
587.907124	8818.210639
588.259765	8796.609295
588.612352	8801.809245
588.964884	8680.987911
589.317362	8700.862660
589.669786	8701.964152
590.022155	8749.499712
590.374470	8765.732227
590.726731	8707.106129
591.078937	8567.304850
591.431090	8679.173095
591.783188	8558.765136
592.135232	8555.135505
592.487222	8548.766007
592.839157	8607.898742
593.191038	8540.536323
593.542866	8484.269485
593.894639	8389.541163
594.246358	8444.333464
594.598022	8458.138664
594.949633	8363.589303
595.301190	8337.334974
595.652692	8369.384109
596.004141	8478.915779
596.355535	8260.827902
596.706876	8242.011796
597.058162	8176.751538
597.409395	8256.134588
597.760573	8316.610790
598.111698	8223.074701
598.462768	8212.377373
598.813785	8185.218156
599.164748	8154.643558
599.515657	8142.612845
599.866511	8053.550780
600.217312	8178.639451
600.568060	8039.518728
600.918753	8143.424470
601.269392	8115.385573
601.619978	8028.743262
601.970510	8089.779032
602.320988	8090.872962
602.671412	8143.258112
603.021783	8078.227228
603.372100	8058.007160
603.722363	8063.214672
604.072572	8037.663583
604.422728	8048.320583
604.772830	7977.749470
605.122878	7988.716500
605.472872	7981.724420
605.822813	8010.569902
606.172701	7959.644166
606.522534	8033.653345
606.872314	8028.140844
607.222041	7998.304775
607.571714	8059.486738
607.921333	8015.439657
608.270899	8021.093311
608.620411	8108.640509
608.969870	8021.012652
609.319276	8010.073348
609.668627	8029.935494
610.017926	8058.997746
610.367171	8113.671580
610.716362	8084.536232
611.065500	8076.898884
611.414585	8106.961805
611.763616	8089.673167
612.112594	8077.755880
612.461518	8089.889937
612.810389	8150.277919
613.159207	8092.612160
613.507971	8039.730456
613.856682	8157.776635
614.205340	8111.362732
614.553945	8189.896347
614.902496	8088.087725
615.250994	8142.736353
615.599439	8128.535422
615.947830	8140.659397
616.296169	8113.840459
616.644454	8128.323694
616.992686	8122.423023
617.340864	8181.472579
617.688990	8091.006553
618.037063	8174.833379
618.385082	8129.783108
618.733048	8215.039102
619.080961	8146.575192
619.428821	8172.259870
619.776628	8172.774068
620.124382	8124.260524
620.472083	8108.363245
620.819731	8134.541957
621.167326	8029.585134
621.514868	8032.526647
621.862357	7926.284330
622.209793	7947.731919
622.557176	7879.802371
622.904506	7845.630910
623.251783	7780.789068
623.599007	7745.115343
623.946179	7747.083914
624.293297	7699.611368
624.640363	7618.305118
624.987376	7596.313085
625.334336	7550.320118
625.681243	7501.758683
626.028097	7484.623801
626.374899	7472.401523
626.721647	7462.871222
627.068343	7390.245839
627.414987	7356.555808
627.761577	7316.072822
628.108115	7352.850560
628.454600	7251.109993
628.801032	7306.136707
629.147412	7258.432269
629.493739	7248.813747
629.840014	7186.341248
630.186236	7240.208497
630.532405	7124.788760
630.878521	7177.231883
631.224585	7138.462889
631.570597	7057.396094
631.916556	7093.619305
632.262462	7085.931546
632.608316	7052.120527
632.954117	7027.239912
633.299866	7009.966398
633.645562	7011.773652
633.991206	6929.854902
634.336797	6876.199381
634.682336	6832.137176
635.027823	6797.370858
635.373257	6787.066740
635.718639	6721.879580
636.063968	6736.912300
636.409245	6624.630681
636.754470	6630.344829
637.099642	6587.147181
637.444762	6535.702206
637.789829	6539.626745
638.134845	6483.047354
638.479808	6465.128573
638.824719	6472.402958
639.169577	6401.083234
639.514383	6423.458395
639.859137	6347.833526
640.203839	6359.145875
640.548489	6344.425706
640.893086	6320.563404
641.237632	6296.368386
641.582125	6313.541077
641.926566	6280.985305
642.270955	6296.905269
642.615292	6293.545340
642.959576	6307.027906
643.303809	6297.099354
643.647990	6303.978008
643.992118	6293.341173
644.336195	6240.986270
644.680219	6268.011896
645.024192	6256.996975
645.368112	6351.261511
645.711981	6376.822681
646.055797	6449.347241
646.399562	6401.146248
646.743274	6535.901332
647.086935	6585.975113
647.430544	6576.349030
647.774101	6603.674604
648.117606	6602.946157
648.461059	6600.909531
648.804460	6561.656587
649.147810	6469.199305
649.491108	6436.721671
649.834354	6413.696201
650.177548	6332.079920
650.520690	6243.413586
650.863781	6229.119394
651.206820	6244.832671
651.549807	6164.958108
651.892742	6106.808399
652.235626	6113.717300
652.578458	6101.437049
652.921238	6006.953223
653.263967	6048.847733
653.606644	5987.943032
653.949269	5990.813969
654.291843	5933.483447
654.634365	5976.340817
654.976836	5938.017965
655.319255	5938.993428
655.661622	5920.298309
656.003938	5912.663482
656.346203	5872.929107
656.688416	5906.331793
657.030577	5855.262384
657.372687	5827.047046
657.714746	5812.132792
658.056753	5855.733732
658.398708	5795.900277
658.740612	5789.482888
659.082465	5838.316545
659.424266	5826.149720
659.766016	5826.691644
660.107715	5802.264733
660.449362	5816.674872
660.790958	5810.050795
661.132503	5802.209281
661.473996	5836.347974
661.815438	5820.664945
662.156829	5816.974820
662.498168	5815.459953
662.839456	5785.187825
663.180693	5821.136293
663.521879	5823.452703
663.863013	5810.428882
664.204097	5829.391182
664.545129	5873.229056
664.886110	5865.258992
665.227040	5898.220576
665.567918	5867.734198
665.908746	5895.132869
666.249522	5900.347943
666.590248	5884.221292
666.930922	5916.396456
667.271545	5921.702271
667.612118	5929.402633
667.952639	5898.833076
668.293109	5920.749493
668.633528	5882.557711
668.973896	5886.018463
669.314213	5871.152101
669.654480	5853.369430
669.994695	5851.819276
670.334859	5835.748077
670.674973	5828.382951
671.015035	5837.245300
671.355047	5831.652140
671.695008	5820.599410
672.034918	5795.270132
672.374777	5800.449918
672.714585	5793.397344
673.054342	5796.762314
673.394049	5787.486591
673.733705	5819.472712
674.073310	5803.842614
674.412864	5765.522283
674.752368	5756.533906
675.091820	5762.232931
675.431223	5695.747673
675.770574	5698.968970
676.109875	5647.944932
676.449125	5654.672352
676.788324	5623.742352
677.127473	5565.574998
677.466571	5556.052259
677.805619	5547.366351
678.144616	5533.218352
678.483562	5510.792780
678.822458	5484.843440
679.161303	5473.760463
679.500098	5468.691583
679.838842	5452.590138
680.177535	5456.272701
680.516179	5472.641327
680.854771	5478.562162
681.193314	5562.764555
681.531805	5670.902346
681.870247	5822.875491
682.208638	5919.564822
682.546978	5929.964722
682.885268	5906.714920
683.223508	5826.192570
683.561697	5773.653665
683.899836	5745.539150
684.237925	5696.067786
684.575963	5664.540410
684.913951	5620.911744
685.251889	5682.214696
685.589776	5650.147916
685.927614	5622.504749
686.265401	5693.960584
686.603137	5680.364592
686.940824	5752.105252
687.278460	5778.246156
687.616046	5785.112207
687.953582	5848.456826
688.291068	5834.303787
688.628504	5896.236882
688.965889	5858.246747
689.303224	5803.575433
689.640510	5756.047435
689.977745	5680.314181
690.314930	5583.965128
690.652065	5528.956057
690.989150	5437.837201
691.326185	5361.529255
691.663170	5310.807686
692.000105	5233.173917
692.336990	5156.918903
692.673825	5131.148525
693.010610	5059.125560
693.347345	4996.363194
693.684030	4981.527078
694.020665	4942.190955
694.357251	4849.481615
694.693786	4862.719685
695.030272	4826.937575
695.366707	4791.223521
695.703093	4759.030712
696.039429	4786.381492
696.375716	4762.720837
696.711952	4740.239811
697.048139	4726.510229
697.384276	4704.450140
697.720363	4723.659456
698.056400	4730.449891
698.392388	4675.224050
698.728326	4660.919776
699.064214	4634.869614
699.400053	4628.588336
699.735842	4599.770580
700.071581	4571.250252
700.407270	4547.602199
700.742910	4532.854304
701.078501	4476.489163
701.414042	4473.086384
701.749533	4444.611426
702.084974	4379.363772
702.420366	4435.975930
702.755709	4377.836303
703.091002	4325.917459
703.426246	4371.890262
703.761440	4326.333354
704.096584	4293.835556
704.431679	4312.603772
704.766725	4295.557110
705.101721	4287.360194
705.436668	4316.671983
705.771565	4262.343468
706.106413	4289.908497
706.441212	4322.436542
706.775961	4329.852080
707.110661	4312.838185
707.445311	4338.406918
707.779913	4361.742419
708.114465	4373.231208
708.448967	4397.022934
708.783421	4461.060711
709.117825	4499.605374
709.452180	4503.603009
709.786485	4549.830389
710.120742	4634.236949
710.454949	4617.248260
710.789107	4683.557077
711.123216	4754.576853
711.457275	4751.993262
711.791286	4821.104960
712.125247	4838.963248
712.459159	4737.809975
712.793023	4816.787212
713.126837	4772.765336
713.460602	4763.308131
713.794318	4686.743087
714.127985	4695.101320
714.461602	4613.878249
714.795171	4581.264504
715.128691	4514.070965
715.462162	4459.717244
715.795584	4408.582300
716.128957	4392.586719
716.462281	4343.813555
716.795556	4314.411025
717.128782	4277.822331
717.461960	4211.740366
717.795088	4223.511460
718.128167	4180.880942
718.461198	4121.332313
718.794180	4119.948516
719.127113	4101.018983
719.459997	4075.760282
719.792833	4032.698746
720.125619	4027.249258
720.458357	3988.689472
720.791046	3997.645082
721.123686	3968.061071
721.456278	3923.242693
721.788821	3941.910085
722.121315	3918.269594
722.453761	3893.048702
722.786158	3907.542019
723.118506	3929.894495
723.450805	3881.333060
723.783056	3904.320722
724.115259	3918.415788
724.447412	3925.392745
724.779518	3914.622320
725.111574	3923.547682
725.443582	3951.452990
725.775542	3938.456895
726.107453	3986.728464
726.439315	3990.063187
726.771129	4000.437882
727.102895	4034.604302
727.434612	4084.718412
727.766281	4094.455401
728.097901	4093.847942
728.429473	4098.095114
728.760996	4105.608954
729.092471	4100.091411
729.423897	4084.272270
729.755276	4089.688990
730.086606	4089.754525
730.417887	4129.118375
730.749120	4192.324362
731.080305	4256.604114
731.411442	4277.761837
731.742530	4251.134462
732.073570	4258.718878
732.404562	4311.219975
732.735506	4302.546670
733.066401	4265.184158
733.397249	4203.903892
733.728048	4125.433291
734.058798	4042.975138
734.389501	3971.980568
734.720156	3911.151485
735.050762	3865.718086
735.381320	3860.455122
735.711831	3809.254642
736.042293	3782.198770
736.372707	3801.713076
736.703073	3779.514355
737.033391	3765.736882
737.363661	3786.211528
737.693883	3808.899241
738.024056	3819.513391
738.354182	3808.775733
738.684260	3878.245353
739.014290	3899.090525
739.344272	3890.024009
739.674207	3933.582099
740.004093	3939.049231
740.333931	3934.159311
740.663722	3934.600412
740.993464	3931.386677
741.323159	3906.153181
741.652806	3880.675190
741.982405	3852.704348
742.311956	3816.975170
742.641460	3810.824962
742.970915	3783.638019
743.300323	3747.717277
743.629683	3715.831979
743.958996	3700.970658
744.288260	3678.598017
744.617477	3645.006288
744.946647	3632.277375
745.275768	3609.267028
745.604842	3602.756378
745.933869	3557.421282
746.262847	3552.191084
746.591778	3586.947320
746.920662	3558.500088
747.249498	3527.151673
747.578286	3572.837130
747.907027	3591.716251
748.235720	3587.007813
748.564365	3614.368676
748.892963	3608.694857
749.221514	3594.483845
749.550017	3572.282603
749.878473	3568.224474
750.206881	3538.625339
750.535242	3539.537788
750.863555	3539.532747
751.191821	3530.307436
751.520039	3515.735980
751.848210	3493.567506
752.176334	3527.711241
752.504411	3532.538146
752.832440	3494.830315
753.160421	3474.524548
753.488356	3484.843790
753.816243	3495.289060
754.144082	3455.151393
754.471875	3439.765792
754.799620	3459.234728
755.127318	3450.216104
755.454969	3453.717185
755.782572	3456.015951
756.110129	3433.721448
756.437638	3424.385232
756.765100	3439.798559
757.092515	3447.493881
757.419882	3451.342802
757.747203	3425.910181
758.074477	3428.077877
758.401703	3445.558078
758.728882	3466.667909
759.056014	3471.983806
759.383099	3475.356338
759.710138	3474.801811
760.037129	3488.571723
760.364073	3518.395189
760.690970	3502.024042
761.017820	3482.832369
761.344623	3500.466325
761.671379	3544.939385
761.998088	3598.194134
762.324751	3719.902711
762.651366	3967.350268
762.977935	4435.169345
763.304456	4874.417683
763.630931	4958.869613
763.957359	4600.950210
764.283740	4264.554014
764.610074	4076.723142
764.936362	3881.391033
765.262602	3724.709451
765.588796	3616.228862
765.914943	3528.404400
766.241044	3442.364507
766.567097	3414.328130
766.893104	3368.864484
767.219064	3333.062209
767.544978	3307.674958
767.870845	3253.792585
768.196665	3235.198289
768.522438	3244.690782
768.848165	3238.049062
769.173846	3204.701829
769.499479	3186.780527
769.825066	3174.427180
770.150607	3157.801454
770.476101	3171.788136
770.801548	3167.125068
771.126949	3122.190744
771.452303	3104.266921
771.777611	3116.269908
772.102872	3115.513735
772.428087	3090.305446
772.753256	3082.710947
773.078378	3077.261460
773.403453	3042.074206
773.728482	3031.071888
774.053465	3050.923952
774.378401	3039.851057
774.703291	3007.605317
775.028135	3009.394926
775.352932	3004.194976
775.677683	2992.625528
776.002388	2988.859786
776.327046	2992.743995
776.651658	2981.668580
776.976224	2968.556539
777.300743	2968.546457
777.625216	2960.871300
777.949643	2952.949127
778.274024	2955.441977
778.598359	2943.625513
778.922647	2953.052470
779.246889	2946.874536
779.571086	2933.717125
779.895236	2929.369130
780.219339	2939.133845
780.543397	2950.862089
780.867409	2954.083386
781.191374	2948.185236
781.515294	2943.504525
781.839167	2946.110802
782.162995	2934.838782
782.486776	2946.897222
782.810511	2942.584514
783.134201	2928.065991
783.457844	2937.850871
783.781441	2928.494489
784.104993	2906.389030
784.428498	2910.076634
784.751958	2924.259920
785.075372	2914.669125
785.398739	2900.551374
785.722061	2916.836821
786.045337	2928.141609
786.368568	2913.360946
786.691752	2904.468350
787.014891	2951.404013
787.337983	2980.816625
787.661030	3006.276973
787.984031	3074.390523
788.306987	3121.142184
788.629897	3110.535596
788.952760	3094.766867
789.275579	3080.565936
789.598351	3019.227697
789.921078	2978.457365
790.243759	2972.665079
790.566395	2953.377625
790.888984	2929.137237
791.211529	2914.976635
791.534027	2906.792322
791.856480	2895.815210
792.178888	2880.371635
792.501249	2873.046838
792.823566	2869.185314
793.145836	2867.214223
793.468062	2863.854294
793.790241	2861.290868
794.112375	2867.299923
794.434464	2878.841645
794.756507	2882.851883
795.078505	2889.607029
795.400457	2905.070768
795.722364	2943.315482
796.044226	2961.077987
796.366042	2966.981178
796.687812	2955.036164
797.009538	2974.774802
797.331218	2961.229222
797.652852	2945.604166
797.974442	2929.326280
798.295986	2925.626073
798.617484	2921.661205
798.938938	2906.744431
799.260346	2891.028634
799.581709	2885.243910
799.903026	2880.195194
800.224299	2872.913248
800.545526	2861.840353
800.866708	2849.618076
801.187845	2839.253463
801.508936	2840.397805
801.829983	2847.626820
802.150984	2833.294820
802.471940	2821.014569
802.792851	2822.536997
803.113717	2823.436843
803.434538	2826.222081
803.755314	2819.598005
804.076045	2816.134732
804.396731	2811.451500
804.717372	2814.163641
805.037967	2808.096612
805.358518	2815.668425
805.679024	2825.201247
805.999485	2820.608756
806.319901	2828.314160
806.640272	2817.611790
806.960598	2823.588078
807.280879	2832.258862
807.601115	2840.501149
807.921306	2825.130671
808.241453	2823.323417
808.561554	2833.872032
808.881611	2831.238029
809.201623	2827.215188
809.521590	2825.959941
809.841513	2821.019610
810.161390	2827.610919
810.481223	2820.868375
810.801011	2808.870429
811.120755	2805.329019
811.440453	2807.872281
811.760107	2807.297589
812.079716	2807.138793
812.399281	2796.476752
812.718801	2789.993829
813.038276	2785.519805
813.357707	2789.716565
813.677093	2800.590334
813.996434	2794.230918
814.315731	2787.508540
814.634983	2784.282201
814.954191	2784.405710
815.273354	2800.413894
815.592473	2807.035449
815.911547	2808.116777
816.230577	2815.973415
816.549562	2828.684684
816.868502	2824.044302
817.187399	2835.701971
817.506250	2850.782582
817.825058	2843.568691
818.143821	2856.262317
818.462539	2870.337218
818.781213	2896.783111
819.099843	2933.739810
819.418429	2988.242245
819.736970	3049.678787
820.055466	3121.273254
820.373919	3225.662947
820.692327	3363.215871
821.010691	3527.128988
821.329011	3965.628714
821.647286	4845.239484
821.965517	6205.307504
822.283704	6920.233860
822.601847	6891.784108
822.919945	6269.680518
823.237999	5777.492503
823.556010	5202.185944
823.873976	4666.487731
824.191897	4262.726596
824.509775	3978.234119
824.827609	3713.399623
825.145398	3594.199019
825.463144	3584.310796
825.780845	3674.507121
826.098502	3781.913945
826.416116	4057.980132
826.733685	4364.885578
827.051210	4420.071089
827.368692	4311.671158
827.686129	4047.454203
828.003522	3730.340420
828.320872	3478.486895
828.638177	3290.119140
828.955439	3153.060249
829.272656	3075.108887
829.589830	3006.355111
829.906960	2959.976495
830.224046	2914.964033
830.541088	2884.699465
830.858086	2868.416538
831.175041	2850.212932
831.491952	2850.762418
831.808819	2862.127699
832.125642	2888.949158
832.442421	2930.788214
832.759157	3011.277797
833.075849	3186.384797
833.392497	3463.098773
833.709101	3662.214267
834.025662	3607.391719
834.342179	3453.996969
834.658653	3279.668828
834.975083	3133.349338
835.291469	3038.351314
835.607811	2956.356947
835.924110	2899.215468
836.240366	2849.718899
836.556578	2809.114925
836.872746	2788.168931
837.188871	2766.194541
837.504952	2748.162334
837.820990	2738.710171
838.136984	2726.591237
838.452935	2721.376163
838.768842	2718.061604
839.084706	2734.720097
839.400526	2815.310503
839.716303	2946.637602
840.032037	3021.670136
840.347727	3004.936026
840.663373	2946.582149
840.978977	2874.002137
841.294537	2802.198462
841.610054	2756.011411
841.925527	2734.299161
842.240957	2713.166644
842.556344	2691.575382
842.871687	2676.845131
843.186987	2667.866836
843.502244	2665.293327
843.817458	2661.245280
844.132629	2647.394710
844.447756	2641.060500
844.762840	2631.663789
845.077881	2636.558750
845.392879	2636.974645
845.707833	2633.826444
846.022745	2623.963427
846.337613	2626.978037
846.652438	2624.792697
846.967221	2626.332769
847.281960	2623.600464
847.596656	2621.818416
847.911309	2622.728344
848.225919	2614.778444
848.540485	2613.394648
848.855009	2615.479165
849.169490	2615.441356
849.483928	2616.484875
849.798323	2614.801130
850.112675	2614.811212
850.426984	2615.247272
850.741251	2609.515480
851.055474	2611.988166
851.369654	2616.631068
851.683792	2616.560492
851.997887	2612.116715
852.311938	2610.896756
852.625947	2614.881788
852.939914	2614.874226
853.253837	2615.224587
853.567718	2612.819956
853.881555	2610.158227
854.195350	2615.839607
854.509103	2615.017899
854.822812	2611.857096
855.136479	2611.519338
855.450103	2613.450100
855.763685	2613.475306
856.077224	2610.584204
856.390720	2610.944647
856.704173	2613.447580
857.017584	2615.048146
857.330953	2615.746346
857.644278	2618.665174
857.957561	2618.622324
858.270802	2616.477313
858.584000	2616.386572
858.897155	2618.246758
859.210268	2618.302211
859.523339	2615.335492
859.836367	2611.358022
860.149352	2612.898094
860.462295	2611.136211
860.775195	2609.772579
861.088054	2606.221086
861.400869	2608.353494
861.713642	2605.666559
862.026373	2607.199070
862.339062	2608.897938
862.651708	2615.038064
862.964312	2613.684514
863.276873	2615.098558
863.589392	2614.647374
863.901869	2620.081738
864.214303	2625.571555
864.526696	2629.450723
864.839045	2625.679940
865.151353	2631.920888
865.463619	2632.525827
865.775842	2629.478449
866.088023	2631.633542
866.400162	2631.802421
866.712258	2633.728142
867.024313	2630.030455
867.336325	2624.596092
867.648296	2630.007770
867.960224	2633.914664
868.272110	2632.021711
868.583954	2625.430402
868.895755	2627.328397
869.207515	2634.426342
869.519233	2639.603607
869.830909	2635.860550
870.142542	2630.272431
870.454134	2633.279479
870.765684	2639.023874
871.077191	2640.533699
871.388657	2643.800367
871.700081	2639.550674
872.011463	2637.871970
872.322803	2642.023360
872.634101	2646.215080
872.945357	2652.811430
873.256571	2658.505413
873.567744	2653.678508
873.878874	2649.645585
874.189963	2655.389980
874.501010	2659.213695
874.812015	2664.222081
875.122979	2663.256700
875.433900	2655.422747
875.744780	2654.633807
876.055618	2659.959786
876.366415	2664.837102
876.677169	2665.613440
876.987882	2659.531288
877.298554	2657.129178
877.609183	2667.024963
877.919771	2672.232475
878.230317	2682.256809
878.540822	2693.692667
878.851285	2702.860005
879.161707	2727.871690
879.472087	2763.142123
879.782425	2808.923361
880.092722	2920.337903
880.402977	3103.639298
880.713191	3355.442412
881.023363	3635.488590
881.333494	3821.950788
881.643583	3991.265502
881.953631	3989.687621
882.263637	3811.465188
882.573602	3596.485183
882.883526	3473.133189
883.193408	3364.045141
883.503248	3266.491252
883.813048	3153.236690
884.122806	3041.071017
884.432522	2959.046402
884.742197	2897.849315
885.051831	2863.216588
885.361424	2829.897082
885.670975	2795.176135
885.980485	2764.324273
886.289954	2748.550503
886.599382	2736.466857
886.908768	2722.843139
887.218113	2704.092567
887.527417	2694.479087
887.836680	2685.581450
888.145901	2682.072807
888.455082	2672.666014
888.764221	2660.592451
889.073319	2655.155566
889.382376	2654.401914
889.691392	2653.242448
890.000366	2658.565907
890.309300	2651.294042
890.618193	2657.045999
890.927044	2658.611277
891.235855	2657.293015
891.544625	2658.888541
891.853353	2656.630104
892.162041	2665.711742
892.470687	2685.044567
892.779293	2694.300126
893.087858	2705.065510
893.396381	2723.069991
893.704864	2766.229829
894.013306	2833.506548
894.321707	2922.992070
894.630068	2970.593165
894.938387	2989.837770
895.246665	2980.420895
895.554903	2940.439503
895.863100	2897.884603
896.171256	2843.780420
896.479371	2784.415792
896.787446	2745.556057
897.095480	2729.525188
897.403473	2723.536297
897.711425	2707.412167
898.019336	2691.759384
898.327207	2675.756241
898.635038	2676.540141
898.942827	2674.881601
899.250576	2665.195024
899.558284	2653.686070
899.865952	2650.253044
900.173579	2650.507622
900.481165	2645.862199
900.788711	2634.111269
901.096216	2630.801752
901.403681	2626.662965
901.711105	2628.906278
902.018489	2626.168932
902.325832	2631.857874
902.633135	2630.663120
902.940397	2646.666263
903.247619	2683.486851
903.554800	2748.961357
903.861941	2871.085829
904.169041	2989.941114
904.476101	3050.545865
904.783121	3042.227961
905.090100	2985.603201
905.397039	2916.367994
905.703938	2843.644308
906.010796	2784.995525
906.317614	2735.735890
906.624391	2701.819007
906.931129	2676.582991
907.237826	2654.984167
907.544483	2637.506487
907.851099	2624.943931
908.157675	2613.901284
908.464211	2610.962291
908.770707	2599.294540
909.077163	2595.047368
909.383578	2592.315063
909.689954	2590.154928
909.996289	2588.020000
910.302584	2586.053950
910.608839	2584.082859
910.915054	2584.954978
911.221229	2587.571337
911.527363	2590.840525
911.833458	2589.557552
912.139513	2591.513519
912.445527	2588.907243
912.751502	2597.686412
913.057436	2600.950559
913.363331	2606.621857
913.669186	2616.174844
913.975000	2630.980713
914.280775	2648.902015
914.586510	2663.385250
914.892205	2698.970755
915.197859	2763.573141
915.503475	2843.336798
915.809050	2905.650501
916.114585	2917.038467
916.420081	2926.757812
916.725536	2941.891356
917.030952	2914.165010
917.336328	2869.422249
917.641665	2822.481545
917.946961	2773.627723
918.252218	2741.709657
918.557435	2718.926162
918.862612	2699.275745
919.167750	2680.867971
919.472848	2667.473626
919.777906	2651.475524
920.082925	2637.798873
920.387904	2628.969292
920.692843	2625.755557
920.997743	2620.411934
921.302603	2613.566047
921.607423	2607.017588
921.912204	2605.086826
922.216946	2599.821341
922.521647	2599.105497
922.826310	2592.002511
923.130932	2589.610484
923.435516	2584.770976
923.740059	2584.040009
924.044564	2582.192426
924.349028	2580.954823
924.653454	2573.105746
924.957840	2572.344532
925.262186	2568.639284
925.566493	2570.282700
925.870761	2564.460167
926.174989	2566.297668
926.479178	2560.361709
926.783328	2564.649211
927.087438	2558.698128
927.391509	2560.185269
927.695541	2559.867676
927.999533	2558.105793
928.303486	2556.172510
928.607400	2557.725186
928.911275	2554.259392
929.215110	2558.640155
929.518906	2555.474311
929.822663	2557.939435
930.126381	2556.512788
930.430060	2556.905998
930.733699	2557.551266
931.037299	2557.826009
931.340861	2559.459343
931.644383	2557.712583
931.947866	2557.931873
932.251309	2556.686708
932.554714	2557.100083
932.858080	2560.273489
933.161407	2555.965823
933.464694	2556.895916
933.767943	2556.830381
934.071153	2556.656461
934.374323	2554.561862
934.677455	2555.323076
934.980548	2554.413148
935.283602	2556.011193
935.586617	2556.671585
935.889593	2552.394166
936.192530	2552.253013
936.495428	2556.021276
936.798287	2555.552448
937.101108	2556.212840
937.403890	2558.990515
937.706632	2562.441185
938.009336	2565.158367
938.312002	2567.106773
938.614628	2572.394943
938.917216	2571.386713
939.219765	2577.080696
939.522275	2580.060018
939.824747	2576.427867
940.127179	2570.149109
940.429573	2566.058213
940.731929	2566.642987
941.034246	2565.811197
941.336524	2566.965621
941.638763	2567.560477
941.940964	2565.118038
942.243126	2565.118038
942.545250	2565.571742
942.847335	2564.281206
943.149381	2562.690722
943.451389	2558.085628
943.753359	2560.142419
944.055290	2558.602347
944.357182	2559.340876
944.659036	2557.400031
944.960851	2558.683005
945.262628	2556.603529
945.564367	2558.504044
945.866067	2556.684187
946.167729	2557.268961
946.469352	2559.660989
946.770937	2558.456153
947.072484	2557.203426
947.373992	2560.780125
947.675462	2555.822150
947.976893	2557.210988
948.278286	2555.597819
948.579641	2552.636141
948.880958	2551.280071
949.182236	2553.972047
949.483476	2553.006666
949.784678	2555.383570
950.085841	2555.754095
950.386967	2555.935576
950.688054	2554.080432
950.989103	2553.278888
951.290114	2557.084959
951.591087	2558.617470
951.892021	2558.798952
952.192917	2559.771894
952.493776	2557.551266
952.794596	2561.390105
953.095378	2561.110321
953.396122	2562.486556
953.696828	2563.225085
953.997496	2558.360371
954.298126	2554.128322
954.598718	2556.739640
954.899272	2555.920453
955.199788	2555.396173
955.500266	2552.031203
955.800706	2550.861655
956.101108	2545.452497
956.401472	2546.286808
956.701798	2541.313709
957.002087	2546.201108
957.302337	2546.012065
957.602550	2546.392672
957.902724	2545.833104
958.202861	2545.757487
958.502960	2543.725902
958.803022	2547.526932
959.103045	2545.069369
959.403031	2542.848741
959.702979	2544.671118
960.002889	2541.175078
960.302762	2541.679193
960.602596	2543.249513
960.902393	2541.023843
961.202153	2540.527289
961.501875	2541.890922
961.801559	2540.118956
962.101205	2541.694317
962.400814	2539.342618
962.700385	2540.688606
962.999918	2541.742208
963.299414	2540.136600
963.598873	2540.376055
963.898293	2541.036446
964.197677	2541.051569
964.497022	2541.044008
964.796331	2541.051569
965.095601	2540.262629
965.394835	2538.528472
965.694030	2540.678524
965.993189	2541.906045
966.292309	2542.286652
966.591393	2538.586445
966.890439	2540.973432
967.189447	2541.044008
967.488419	2539.264480
967.787353	2538.450334
968.086249	2537.316074
968.385108	2542.689944
968.683930	2540.204656
968.982714	2540.144162
969.281462	2539.728267
969.580172	2540.360931
969.878844	2541.646426
970.177480	2539.435880
970.476078	2539.763555
970.774639	2543.672969
971.073162	2540.189532
971.371649	2538.982176
971.670098	2538.006713
971.968510	2538.089892
972.266885	2535.665097
972.565223	2540.887732
972.863524	2539.055273
973.161788	2542.889070
973.460014	2541.472506
973.758204	2541.832948
974.056356	2540.799512
974.354471	2540.098791
974.652550	2542.674821
974.950591	2541.807742
975.248595	2544.764379
975.546563	2540.499563
975.844493	2540.365973
976.142386	2542.485778
976.440243	2541.895963
976.738062	2540.847403
977.035845	2539.750952
977.333590	2541.578370
977.631299	2538.581404
977.928971	2541.265818
978.226606	2541.845551
978.524204	2537.709284
978.821765	2540.444110
979.119290	2541.021323
979.416777	2540.537372
979.714228	2537.086702
980.011642	2542.274049
980.309020	2538.362114
980.606360	2540.360931
980.903664	2538.672145
981.200931	2543.216745
981.498162	2541.457382
981.795356	2543.365459
982.092513	2549.011551
982.389633	2545.525593
982.686717	2551.322920
982.983764	2551.736295
983.280775	2553.417520
983.577749	2552.454659
983.874686	2554.171172
984.171587	2549.308979
984.468451	2550.423074
984.765279	2546.906870
985.062070	2544.073741
985.358824	2540.232382
985.655543	2541.565767
985.952224	2538.730118
986.248869	2540.333205
986.545478	2534.024201
986.842050	2538.657021
987.138586	2530.923891
987.435086	2534.815662
987.731549	2534.913965
988.027975	2538.581404
988.324366	2537.172402
988.620719	2538.888914
988.917037	2537.167360
989.213318	2537.800025
989.509563	2537.553009
989.805772	2535.879346
990.101944	2534.246012
990.398080	2533.784746
990.694180	2537.051414
990.990244	2535.554191
991.286271	2539.672814
991.582262	2536.363296
991.878217	2536.806918
992.174136	2539.267001
992.470019	2540.192053
992.765865	2538.720036
993.061676	2536.325488
993.357450	2536.433873
993.653188	2536.237267
993.948890	2535.745755
994.244556	2535.007226
994.540186	2537.530323
994.835780	2534.845909
995.131337	2539.025026
995.426859	2541.036446
995.722345	2535.531506
996.017795	2539.526620
996.313208	2541.837989
996.608586	2539.622402
996.903928	2542.095088
997.199234	2540.209697
997.494504	2542.458051
997.789738	2539.561908
998.084936	2540.733977
998.380099	2538.399923
998.675225	2540.698689
998.970316	2537.936136
999.265371	2539.226672
999.560390	2535.652494
999.855373	2539.428318
1000.150320	2537.406815
1000.445232	2535.624767
1000.740108	2535.886907
1001.034948	2536.398584
1001.329752	2534.251053
1001.624521	2537.409336
1001.919254	2530.979344
1002.213951	2533.436907
1002.508613	2530.187883
1002.803239	2532.388347
1003.097829	2529.794673
1003.392384	2534.714839
1003.686903	2535.281969
1003.981386	2534.477905
1004.275834	2534.281300
1004.570246	2536.607792
1004.864623	2538.331867
1005.158964	2532.385826
1005.453270	2536.668286
1005.747540	2536.078471
1006.041775	2533.820034
1006.335974	2538.231044
1006.630138	2533.699047
1006.924266	2531.438089
1007.218359	2537.401774
1007.512416	2536.587628
1007.806438	2535.788605
1008.100425	2534.929088
1008.394376	2532.403470
1008.688292	2533.918337
1008.982172	2533.751979
1009.276017	2535.707946
1009.569827	2534.387164
1009.863602	2535.488656
1010.157341	2537.061496
1010.451045	2536.103677
1010.744714	2532.892462
1011.038347	2533.089067
1011.331945	2533.857843
1011.625508	2537.237937
1011.919036	2535.160981
1012.212528	2532.690816
1012.505986	2535.682741
1012.799408	2535.836496
1013.092795	2533.310878
1013.386147	2536.665766
1013.679464	2533.141999
1013.972745	2533.255425
1014.265992	2534.848430
1014.559204	2534.467822
1014.852380	2534.873635
1015.145521	2535.619726
1015.438628	2533.419263
1015.731699	2534.956814
1016.024736	2534.535878
1016.317737	2538.329346
1016.610703	2536.030580
1016.903635	2531.251566
1017.196531	2532.554705
1017.489393	2533.567977
1017.782219	2530.258459
1018.075011	2530.578572
1018.367768	2532.630322
1018.660490	2538.072248
1018.953177	2538.072248
1019.245829	2538.072248
