Dividing Wavelength (nm)	Counts (n)	Blue Motor Position (mm): 38.400000	Red Motor Position (mm): 0.000000	
326.493990	2128.284413
326.888308	2128.284413
327.282561	2128.284413
327.676750	2098.546647
328.070874	2093.389546
328.464933	2099.723756
328.858929	2102.876998
329.252859	2113.627258
329.646726	2125.640328
330.040528	2136.887142
330.434265	2156.512354
330.827938	2172.631443
331.221547	2190.956038
331.615091	2210.301466
332.008571	2229.818293
332.401986	2247.207753
332.795338	2267.384971
333.188625	2288.530091
333.581847	2306.617751
333.975006	2325.103662
334.368100	2342.094871
334.761129	2358.418127
335.154095	2376.291538
335.546996	2398.772564
335.939833	2422.730647
336.332606	2439.384099
336.725315	2448.112857
337.117960	2460.781277
337.510540	2469.656228
337.903056	2482.483444
338.295508	2487.491830
338.687896	2496.981803
339.080220	2504.238543
339.472480	2513.713392
339.864676	2516.975019
340.256807	2518.197498
340.648875	2522.941224
341.040879	2522.979033
341.432818	2528.993129
341.824694	2528.332738
342.216506	2528.980527
342.608253	2530.873480
342.999937	2528.156298
343.391557	2529.063706
343.783113	2527.770650
344.174605	2527.306863
344.566033	2521.945596
344.957397	2525.010618
345.348697	2522.535411
345.739934	2519.997190
346.131106	2520.213960
346.522215	2515.329082
346.913260	2514.464524
347.304241	2511.933865
347.695159	2511.943947
348.086012	2510.144255
348.476802	2506.370952
348.867528	2508.084944
349.258191	2506.156703
349.648789	2505.145951
350.039324	2502.280055
350.429796	2498.756289
350.820203	2497.077584
351.210548	2499.388953
351.600828	2497.866525
351.991045	2499.840137
352.381198	2498.156391
352.771288	2498.726042
353.161314	2494.388129
353.551276	2496.371823
353.941175	2495.741679
354.331010	2498.433655
354.720782	2493.851246
355.110490	2497.400218
355.500135	2494.446102
355.889717	2495.731596
356.279235	2494.945176
356.668689	2496.207985
357.058080	2492.706904
357.447408	2491.678509
357.836672	2493.042141
358.225873	2493.899137
358.615010	2496.795280
359.004084	2499.031032
359.393095	2499.542709
359.782043	2499.149499
360.170927	2499.693943
360.559748	2499.651093
360.948505	2503.666372
361.337199	2499.220075
361.725830	2503.772237
362.114398	2502.363234
362.502903	2501.642349
362.891344	2499.154540
363.279722	2505.725684
363.668037	2504.687206
364.056289	2505.584532
364.444478	2506.738956
364.832603	2504.898935
365.220665	2505.773575
365.608665	2505.297186
365.996601	2507.046466
366.384474	2510.166940
366.772284	2510.461848
367.160031	2508.321878
367.547715	2508.841117
367.935336	2508.631909
368.322893	2509.067969
368.710388	2507.573267
369.097820	2511.984276
369.485189	2511.906138
369.872495	2511.593587
370.259738	2510.920593
370.646918	2510.507218
371.034035	2511.596108
371.421090	2513.922600
371.808081	2514.053670
372.195010	2512.284225
372.581875	2513.229441
372.968678	2513.388238
373.355418	2512.586694
373.742096	2512.967301
374.128710	2514.462003
374.515262	2516.236490
374.901751	2515.029133
375.288177	2515.674401
375.674540	2515.949144
376.060841	2515.399658
376.447079	2516.407889
376.833254	2516.624658
377.219367	2513.294976
377.605417	2515.742457
377.991404	2515.490399
378.377329	2514.464524
378.763191	2513.564678
379.148991	2518.094155
379.534727	2519.152797
379.920402	2519.712365
380.306013	2518.331089
380.691563	2518.477282
381.077049	2516.133146
381.462474	2523.762932
381.847835	2521.958199
382.233134	2522.966430
382.618371	2522.447191
383.003545	2526.333921
383.388657	2522.043899
383.773706	2522.701769
384.158693	2523.667150
384.543618	2524.375432
384.928480	2522.737058
385.313280	2524.211595
385.698017	2524.839219
386.082692	2524.559435
386.467305	2525.703777
386.851856	2527.100176
387.236344	2527.216123
387.620770	2527.662265
388.005133	2529.509848
388.389435	2530.576052
388.773674	2530.896165
389.157851	2528.925074
389.541965	2528.657893
389.926018	2530.203006
390.310008	2532.552184
390.693936	2531.523789
391.077802	2532.993285
391.461606	2534.520755
391.845348	2537.731970
392.229027	2538.828421
392.612645	2543.241951
392.996200	2548.104144
393.379694	2554.055226
393.763125	2561.596792
394.146494	2566.758933
394.529801	2577.322671
394.913047	2586.570668
395.296230	2597.038624
395.679351	2607.219234
396.062410	2620.606018
396.445408	2636.669655
396.828343	2653.902839
397.211217	2666.964469
397.594028	2678.919565
397.976778	2702.786908
398.359466	2725.129302
398.742092	2746.397930
399.124656	2760.452667
399.507158	2798.614202
399.889598	2820.714620
400.271977	2859.566793
400.654294	2882.655278
401.036549	2910.253074
401.418742	2931.589758
401.800874	2983.271667
402.182944	3021.400434
402.564952	3069.465316
402.946898	3103.558639
403.328783	3135.940491
403.710606	3143.686224
404.092367	3245.361256
404.474067	3268.479987
404.855705	3308.673107
405.237282	3317.570743
405.618797	3400.732138
406.000250	3456.487299
406.381642	3534.746172
406.762972	3557.607804
407.144240	3604.528344
407.525447	3644.784478
407.906593	3714.564129
408.287677	3776.832462
408.668700	3777.291207
409.049661	3848.991538
409.430560	3915.870005
409.811399	3905.477667
410.192176	4054.312693
410.572891	4051.182136
410.953545	4163.131040
411.334138	4115.900469
411.714669	4196.412737
412.095139	4155.775996
412.475547	4294.064928
412.855894	4317.881860
413.236180	4357.094475
413.616405	4351.241695
413.996568	4451.396819
414.376670	4434.186320
414.756711	4420.842386
415.136691	4476.388340
415.516609	4564.858069
415.896466	4618.468220
416.276262	4670.649203
416.655997	4675.627342
417.035670	4863.095251
417.415283	4965.546621
417.794834	4934.898926
418.174324	4909.478908
418.553753	4838.912836
418.933121	5030.464079
419.312428	5107.177838
419.691674	5064.675870
420.070859	5196.013051
420.449983	5123.405312
420.829045	5244.025000
421.208047	5166.333258
421.586988	5244.579527
421.965867	5263.120891
422.344686	5404.767232
422.723444	5266.611890
423.102141	5091.613276
423.480777	5389.626126
423.859352	5167.974153
424.237866	5427.480151
424.616319	5422.290283
424.994712	5536.507705
425.373044	5416.109828
425.751314	5559.444955
426.129524	5364.221232
426.507673	5559.908742
426.885762	5646.072143
427.263789	5579.594447
427.641756	5464.484740
428.019662	5586.616775
428.397508	5591.811684
428.775292	5535.630545
429.153016	5644.897554
429.530679	5569.837294
429.908282	5653.911137
430.285824	5522.730232
430.663305	5801.044774
431.040726	5535.199526
431.418086	5530.309607
431.795385	5637.454291
432.172624	5654.931971
432.549802	5648.244880
432.926920	5662.332385
433.303977	5666.624927
433.680974	5707.067584
434.057910	5725.727415
434.434786	5734.912397
434.811601	5699.488209
435.188355	5937.365136
435.565050	5807.182379
435.941683	5788.262928
436.318257	6003.827708
436.694770	5987.683413
437.071222	6023.679772
437.447614	5957.086130
437.823946	5869.410382
438.200218	6022.565677
438.576429	5888.349997
438.952580	5981.888607
439.328670	6027.100195
439.704700	5936.172903
440.080670	5926.642602
440.456580	6200.069745
440.832429	6080.223874
441.208218	5923.643115
441.583947	6084.110604
441.959616	6087.341983
442.335224	6009.582185
442.710773	6146.270551
443.086261	6175.728534
443.461689	5971.075332
443.837057	6118.135872
444.212365	6273.272340
444.587612	6167.453480
444.962800	6321.100287
445.337927	6298.326875
445.712995	5910.677267
446.088002	6491.496328
446.462949	6321.627088
446.837837	6250.113279
447.212664	6417.706439
447.587431	6565.263533
447.962139	7105.599607
448.336786	8028.319805
448.711374	7771.994776
449.085901	6845.569330
449.460369	6770.793895
449.834776	6698.607093
450.209124	7095.232475
450.583412	7243.782676
450.957640	7387.006897
451.331808	7150.972513
451.705917	6705.770573
452.079965	6629.414736
452.453954	6842.441294
452.827883	6718.844805
453.201752	6810.102292
453.575562	6612.330265
453.949311	6818.105124
454.323001	6703.655808
454.696632	6777.216325
455.070202	6917.768736
455.443713	7072.070893
455.817164	7167.560429
456.190556	7253.728872
456.563888	7333.351377
456.937160	7373.292438
457.310373	7029.992382
457.683526	7050.668675
458.056619	6942.530883
458.429653	6932.635098
458.802628	6869.114039
459.175542	6975.126984
459.548398	7333.830286
459.921194	7494.622929
460.293930	7490.113617
460.666607	8021.345368
461.039224	8328.391967
461.411782	8460.873490
461.784280	8473.753638
462.156719	8360.647790
462.529099	8243.050273
462.901419	7832.702871
463.273680	7726.127837
463.645882	7736.046308
464.018024	7606.251719
464.390106	7772.070393
464.762130	8159.039444
465.134094	8626.929098
465.505999	9648.571857
465.877845	10869.090655
466.249631	11519.555777
466.621358	11132.337189
466.993026	10500.050467
467.364634	10241.199820
467.736184	9880.132217
468.107674	9552.666425
468.479105	9584.415612
468.850477	9350.102781
469.221790	9121.612483
469.593043	8789.276937
469.964238	8649.183271
470.335373	8665.685488
470.706449	8724.634221
471.077467	8702.863998
471.448425	10013.117856
471.819324	11084.252143
472.190164	11100.335944
472.560945	9855.407878
472.931667	9067.619205
473.302330	8935.576262
473.672934	8583.323117
474.043479	8942.989279
474.413965	8884.179178
474.784393	8766.417824
475.154761	8922.421371
475.525070	9008.224330
475.895321	8837.256118
476.265513	9013.114250
476.635645	9180.200773
477.005719	9178.053242
477.375734	9295.887692
477.745691	9531.851501
478.115588	9662.750102
478.485427	9907.490559
478.855207	10449.863260
479.224928	11270.878179
479.594591	11883.912733
479.964194	11697.009434
480.333739	11637.559107
480.703226	11550.924357
481.072653	11643.875672
481.442022	11882.375181
481.811333	12069.132287
482.180584	11876.305632
482.549777	11579.931156
482.918912	11411.453274
483.287988	11427.534555
483.657005	11434.781214
484.025964	11118.456372
484.394864	11258.139183
484.763706	11227.408309
485.132489	10976.920936
485.501213	10948.554363
485.869879	11022.301403
486.238487	10869.166273
486.607036	10977.843467
486.975527	10761.701476
487.343959	10953.555188
487.712333	11003.581078
488.080648	10924.805488
488.448905	10967.526746
488.817104	10913.599003
489.185244	11178.037769
489.553326	11331.966881
489.921350	11868.204498
490.289315	12932.825614
490.657222	13267.046552
491.025070	13179.562368
491.392861	13051.575034
491.760593	12674.610152
492.128267	12321.205103
492.495883	11990.603713
492.863440	11660.723208
493.230939	11325.405819
493.598380	11253.743297
493.965763	11121.196239
494.333088	11022.629078
494.700354	10939.424834
495.067563	11001.272230
495.434713	10832.617907
495.801805	10956.753800
496.168839	10887.614375
496.535815	10821.650877
496.902733	10822.588532
497.269593	10766.906467
497.636395	10855.061124
498.003139	10848.338746
498.369825	10713.659279
498.736453	10870.877744
499.103023	10801.788731
499.469535	10831.740747
499.835989	10816.501338
500.202385	10780.588158
500.568723	10629.131732
500.935003	10857.072545
501.301226	10658.451083
501.667390	10913.689743
502.033497	11008.622232
502.399546	10869.050326
502.765537	10778.962386
503.131470	10850.050217
503.497345	11028.204594
503.863163	10639.287137
504.228923	10943.583786
504.594625	11014.041473
504.960269	10759.984963
505.325856	10983.456792
505.691385	10769.575758
506.056856	10926.958060
506.422270	10955.654829
506.787625	10841.094608
507.152924	10958.132556
507.518164	10934.663464
507.883347	10865.574451
508.248472	10784.941195
508.613540	11018.192863
508.978550	10896.832125
509.343503	10877.585000
509.708398	10995.048925
510.073236	11106.486152
510.438016	11113.788263
510.802738	11055.409181
511.167403	11112.318767
511.532010	11008.755823
511.896561	11242.146122
512.261053	11313.947277
512.625488	11187.300889
512.989866	11163.975470
513.354186	11152.219499
513.718449	11058.239789
514.082655	11248.034190
514.446803	11139.004115
514.810894	11266.328537
515.174927	11128.780655
515.538904	11153.240333
515.902822	11303.426388
516.266684	11193.814060
516.630488	11134.691407
516.994235	11188.253667
517.357925	11251.010991
517.721558	11342.737306
518.085133	11350.291475
518.448651	11362.029802
518.812112	11243.585372
519.175516	11264.801068
519.538863	11385.314892
519.902152	11301.256172
520.265385	11463.324227
520.628560	11371.262675
520.991678	11348.219561
521.354739	11417.898389
521.717743	11345.593120
522.080690	11326.552682
522.443580	11463.404885
522.806413	11418.838565
523.169189	11450.174377
523.531908	11507.376350
523.894569	11327.351705
524.257174	11330.303300
524.619722	11455.177722
524.982213	11397.839638
525.344647	11445.677668
525.707025	11394.542724
526.069345	11490.241468
526.431608	11413.537791
526.793815	11522.603155
527.155964	11310.340331
527.518057	11353.737104
527.880093	11309.279168
528.242072	11378.910106
528.603995	11283.062648
528.965860	11199.513084
529.327669	11257.743452
529.689421	11205.350740
530.051117	11172.724393
530.412755	11275.004363
530.774337	11169.092241
531.135862	11146.094497
531.497331	11174.723210
531.858743	11028.360870
532.220098	11188.939264
532.581396	11060.425129
532.942638	11044.676564
533.303824	11010.502583
533.664953	11017.658500
534.026025	10932.490727
534.387040	11037.008969
534.747999	11032.207270
535.108902	11094.664646
535.469748	10857.967349
535.830537	10959.168513
536.191270	10938.698908
536.551947	10959.884357
536.912567	10963.002310
537.273131	10889.661084
537.633638	10865.231652
537.994089	10848.512665
538.354483	10802.149173
538.714821	10954.641557
539.075103	10960.998452
539.435328	10919.928171
539.795497	10748.009702
540.155609	10906.465770
540.515665	10997.917342
540.875665	10727.300642
541.235609	10791.351022
541.595496	10787.335743
541.955328	10952.456217
542.315102	10832.562455
542.674821	10779.020360
543.034483	10777.553384
543.394090	10783.506987
543.753640	10715.267407
544.113134	10932.984760
544.472571	10787.802050
544.831953	10928.926631
545.191278	10733.092928
545.550548	10767.042578
545.909761	10906.001984
546.268918	10876.544001
546.628019	10959.760848
546.987064	10822.971659
547.346053	10748.256718
547.704986	10851.002995
548.063863	10834.198309
548.422684	10822.512914
548.781449	10748.682696
549.140158	10847.131389
549.498811	10723.434077
549.857408	10580.900493
550.215949	10801.090531
550.574434	10654.778603
550.932864	10757.872719
551.291237	10825.212452
551.649555	10763.677608
552.007817	10781.835844
552.366022	10741.246994
552.724173	10733.019831
553.082267	10718.813859
553.440305	10857.203615
553.798288	10660.187761
554.156215	10811.379526
554.514086	10785.175608
554.871902	10641.439709
555.229661	10673.393063
555.587365	10649.795422
555.945014	10543.069154
556.302606	10666.824440
556.660143	10567.347351
557.017625	10719.436442
557.375050	10612.858888
557.732421	10746.038611
558.089735	10665.816209
558.446994	10659.676083
558.804197	10696.358039
559.161345	10702.460356
559.518437	10546.668538
559.875474	10637.966354
560.232455	10669.561786
560.589381	10613.935174
560.946251	10620.322316
561.303065	10719.827131
561.659825	10656.139714
562.016528	10586.105484
562.373177	10463.650816
562.729770	10586.528941
563.086307	10491.372121
563.442789	10592.885836
563.799216	10472.117434
564.155587	10513.386840
564.511904	10468.596188
564.868164	10458.234096
565.224370	10476.420059
565.580520	10400.548173
565.936615	10406.325335
566.292654	10272.298698
566.648638	10410.456561
567.004567	10365.640703
567.360441	10342.567342
567.716260	10263.073387
568.072023	10352.261481
568.427732	10304.604933
568.783385	10216.094874
569.138982	10283.091809
569.494525	10295.533377
569.850013	10174.422176
570.205445	10260.572975
570.560823	10148.868567
570.916145	10071.867463
571.271412	10140.049068
571.626625	10083.494884
571.981782	10062.621987
572.336884	10036.337410
572.691931	10041.227330
573.046923	9985.431839
573.401860	9939.569942
573.756743	9872.807421
574.111570	9923.702910
574.466342	9905.083408
574.821059	9927.168703
575.175722	9828.077263
575.530330	9833.602367
575.884882	9825.959978
576.239380	9754.236962
576.593823	9735.990505
576.948211	9746.531558
577.302544	9629.876738
577.656823	9640.488366
578.011047	9647.916507
578.365216	9618.438359
578.719330	9540.340804
579.073389	9555.623062
579.427394	9494.362960
579.781344	9475.745979
580.135239	9422.612218
580.489080	9437.758364
580.842866	9336.816820
581.196597	9344.275208
581.550273	9383.835662
581.903895	9352.308286
582.257463	9424.800078
582.610975	9299.540008
582.964434	9325.348195
583.317837	9247.767358
583.671186	9232.845543
584.024481	9225.409841
584.377721	9138.664186
584.730906	9119.260785
585.084037	9145.021081
585.437113	9083.652595
585.790135	9103.315615
586.143103	9007.014453
586.496016	8977.569074
586.848874	9029.916415
587.201679	9020.527266
587.554428	8906.420749
587.907124	8959.788924
588.259765	8929.080736
588.612352	8925.645189
588.964884	8806.903331
589.317362	8824.784304
589.669786	8821.560486
590.022155	8865.511786
590.374470	8888.827122
590.726731	8818.288777
591.078937	8678.731994
591.431090	8787.215105
591.783188	8660.155342
592.135232	8653.511102
592.487222	8654.448756
592.839157	8703.670582
593.191038	8637.298751
593.542866	8579.297755
593.894639	8479.825708
594.246358	8534.323101
594.598022	8553.587871
594.949633	8451.476779
595.301190	8424.310001
595.652692	8449.326727
596.004141	8566.094973
596.355535	8336.004109
596.706876	8318.133219
597.058162	8255.378415
597.409395	8327.108993
597.760573	8392.598623
598.111698	8302.185528
598.462768	8287.616594
598.813785	8250.186027
599.164748	8221.146460
599.515657	8210.010551
599.866511	8120.366233
600.217312	8246.498423
600.568060	8104.859643
600.918753	8213.113381
601.269392	8179.264554
601.619978	8094.215247
601.970510	8152.962333
602.320988	8150.633320
602.671412	8207.323616
603.021783	8150.381263
603.372100	8124.585678
603.722363	8123.559804
604.072572	8094.248015
604.422728	8107.564222
604.772830	8034.263325
605.122878	8042.498050
605.472872	8038.944036
605.822813	8067.948315
606.172701	8007.903132
606.522534	8087.119823
606.872314	8083.916170
607.222041	8053.361736
607.571714	8109.910880
607.921333	8069.879077
608.270899	8079.076662
608.620411	8173.923451
608.969870	8071.179695
609.319276	8065.470588
609.668627	8085.219308
610.017926	8114.228628
610.367171	8159.435175
610.716362	8134.582287
611.065500	8126.239177
611.414585	8153.955441
611.763616	8148.223649
612.112594	8120.797251
612.461518	8143.053946
612.810389	8203.487298
613.159207	8141.937330
613.507971	8091.626615
613.856682	8212.072383
614.205340	8164.962800
614.553945	8237.605827
614.902496	8137.110425
615.250994	8202.884880
615.599439	8178.210952
615.947830	8190.120678
616.296169	8160.513982
616.644454	8177.295983
616.992686	8175.980242
617.340864	8235.450734
617.688990	8137.649829
618.037063	8229.731545
618.385082	8174.034357
618.733048	8265.846371
619.080961	8196.840537
619.428821	8218.744350
619.776628	8212.652116
620.124382	8171.970004
620.472083	8158.242942
620.819731	8182.732867
621.167326	8070.587359
621.514868	8082.229904
621.862357	7970.822924
622.209793	7987.690625
622.557176	7922.364833
622.904506	7895.558497
623.251783	7831.548447
623.599007	7785.247969
623.946179	7780.738657
624.293297	7743.512256
624.640363	7659.831623
624.987376	7639.762790
625.334336	7588.527023
625.681243	7543.438943
626.028097	7534.553909
626.374899	7507.240937
626.721647	7499.580904
627.068343	7429.753362
627.414987	7399.713126
627.761577	7358.433638
628.108115	7395.042497
628.454600	7293.748072
628.801032	7338.790782
629.147412	7296.155223
629.493739	7285.525950
629.840014	7226.373051
630.186236	7284.568131
630.532405	7161.810993
630.878521	7215.380815
631.224585	7173.206522
631.570597	7095.673576
631.916556	7130.896117
632.262462	7126.641384
632.608316	7090.186280
632.954117	7068.786582
633.299866	7057.446506
633.645562	7045.592233
633.991206	6964.396888
634.336797	6911.860503
634.682336	6867.090016
635.027823	6834.015006
635.373257	6821.054199
635.718639	6752.335711
636.063968	6766.922289
636.409245	6659.346587
636.754470	6658.335835
637.099642	6621.298478
637.444762	6564.822432
637.789829	6573.808288
638.134845	6515.056161
638.479808	6498.422874
638.824719	6502.672566
639.169577	6429.202790
639.514383	6451.794721
639.859137	6383.658486
640.203839	6387.235184
640.548489	6376.679008
640.893086	6350.865780
641.237632	6324.394681
641.582125	6345.580130
641.926566	6314.955121
642.270955	6331.245609
642.615292	6324.104815
642.959576	6337.002607
643.303809	6324.442572
643.647990	6340.768349
643.992118	6325.647408
644.336195	6273.637824
644.680219	6295.791174
645.024192	6282.787518
645.368112	6379.708742
645.711981	6405.602628
646.055797	6481.227498
646.399562	6438.264264
646.743274	6561.613737
647.086935	6619.783611
647.430544	6616.491738
647.774101	6632.807432
648.117606	6642.690614
648.461059	6631.380786
648.804460	6595.545744
649.147810	6504.636096
649.491108	6477.789431
649.834354	6443.179389
650.177548	6364.204673
650.520690	6278.996570
650.863781	6255.091419
651.206820	6277.191837
651.549807	6202.683583
651.892742	6137.630013
652.235626	6148.226519
652.578458	6135.598428
652.921238	6033.348705
653.263967	6080.014666
653.606644	6021.481829
653.949269	6020.995357
654.291843	5962.981759
654.634365	6011.717114
654.976836	5965.633406
655.319255	5962.921265
655.661622	5944.609274
656.003938	5943.452329
656.346203	5902.548407
656.688416	5932.548313
657.030577	5885.680706
657.372687	5855.832034
657.714746	5839.012224
658.056753	5887.054420
658.398708	5824.213917
658.740612	5818.502290
659.082465	5864.293611
659.424266	5857.974524
659.766016	5853.291293
660.107715	5830.671635
660.449362	5844.764181
660.790958	5838.452656
661.132503	5827.493188
661.473996	5862.793868
661.815438	5849.177711
662.156829	5847.244428
662.498168	5836.622717
662.839456	5813.312422
663.180693	5850.672413
663.521879	5852.895562
663.863013	5842.535991
664.204097	5859.617941
664.545129	5902.349281
664.886110	5899.576647
665.227040	5931.847593
665.567918	5894.462396
665.908746	5926.234268
666.249522	5924.991624
666.590248	5916.525006
666.930922	5944.694973
667.271545	5957.716274
667.612118	5953.655624
667.952639	5931.887922
668.293109	5953.237209
668.633528	5910.936887
668.973896	5909.545528
669.314213	5902.608901
669.654480	5885.627774
669.994695	5878.118975
670.334859	5865.974836
670.674973	5862.196491
671.015035	5862.771182
671.355047	5863.305545
671.695008	5852.031004
672.034918	5826.691644
672.374777	5837.988870
672.714585	5824.957487
673.054342	5819.923895
673.394049	5814.623122
673.733705	5850.979923
674.073310	5837.593139
674.412864	5796.958919
674.752368	5786.601868
675.091820	5794.077899
675.431223	5725.124997
675.770574	5733.140432
676.109875	5680.926681
676.449125	5688.206107
676.788324	5650.140354
677.127473	5594.478454
677.466571	5585.079223
677.805619	5579.967493
678.144616	5563.518208
678.483562	5541.722779
678.822458	5510.301267
679.161303	5511.274210
679.500098	5495.936499
679.838842	5478.383202
680.177535	5483.734386
680.516179	5493.887270
680.854771	5512.930229
681.193314	5593.734884
681.531805	5695.667015
681.870247	5847.919943
682.208638	5952.223937
682.546978	5968.322862
682.885268	5940.987205
683.223508	5855.834555
683.561697	5804.840763
683.899836	5773.837667
684.237925	5730.745884
684.575963	5690.552764
684.913951	5651.340149
685.251889	5715.534202
685.589776	5684.941960
685.927614	5654.957177
686.265401	5726.914607
686.603137	5713.434561
686.940824	5779.645076
687.278460	5807.638603
687.616046	5820.949770
687.953582	5887.646756
688.291068	5871.255444
688.628504	5933.475886
688.965889	5893.121449
689.303224	5835.206153
689.640510	5788.512466
689.977745	5716.613009
690.314930	5616.236074
690.652065	5559.523093
690.989150	5467.401048
691.326185	5390.924223
691.663170	5337.036809
692.000105	5259.496302
692.336990	5183.180794
692.673825	5160.813194
693.010610	5091.272998
693.347345	5020.895969
693.684030	5005.485162
694.020665	4967.663905
694.357251	4873.081777
694.693786	4884.096698
695.030272	4853.055793
695.366707	4816.686389
695.703093	4782.333446
696.039429	4807.040141
696.375716	4787.785454
696.711952	4764.424747
697.048139	4754.397892
697.384276	4729.839911
697.720363	4740.844750
698.056400	4753.324126
698.392388	4703.615829
698.728326	4683.017674
699.064214	4664.806506
699.400053	4655.997089
699.735842	4621.329074
700.071581	4597.512143
700.407270	4570.904933
700.742910	4553.528076
701.078501	4498.624869
701.414042	4497.092358
701.749533	4466.197647
702.084974	4403.208430
702.420366	4460.047439
702.755709	4399.334303
703.091002	4344.161395
703.426246	4390.396337
703.761440	4347.460830
704.096584	4309.417763
704.431679	4332.743181
704.766725	4312.210562
705.101721	4304.013646
705.436668	4333.380887
705.771565	4282.576139
706.106413	4310.448678
706.441212	4343.029656
706.775961	4346.699616
707.110661	4333.819468
707.445311	4359.141183
707.779913	4380.876118
708.114465	4395.465217
708.448967	4417.346346
708.783421	4480.920337
709.117825	4519.326368
709.452180	4526.172254
709.786485	4568.160025
710.120742	4659.021782
710.454949	4642.781705
710.789107	4706.922826
711.123216	4780.798415
711.457275	4770.272485
711.791286	4846.819886
712.125247	4864.126167
712.459159	4766.466414
712.793023	4841.808979
713.126837	4797.824912
713.460602	4796.912463
713.794318	4712.672262
714.127985	4721.156523
714.461602	4635.814830
714.795171	4608.743834
715.128691	4541.598185
715.462162	4483.453517
715.795584	4434.219088
716.128957	4414.162857
716.462281	4363.854662
716.795556	4340.783822
717.128782	4298.861586
717.461960	4234.039910
717.795088	4243.897886
718.128167	4206.016135
718.461198	4144.647649
718.794180	4136.700270
719.127113	4117.412815
719.459997	4095.456070
719.792833	4052.427301
720.125619	4041.714849
720.458357	4006.008357
720.791046	4013.905324
721.123686	3988.139987
721.456278	3949.726394
721.788821	3963.241728
722.121315	3937.927574
722.453761	3910.425559
722.786158	3921.546344
723.118506	3943.760189
723.450805	3898.117582
723.783056	3917.498298
724.115259	3934.345834
724.447412	3939.424797
724.779518	3932.200823
725.111574	3937.761216
725.443582	3969.371771
725.775542	3953.098926
726.107453	4003.792769
726.439315	4003.447450
726.771129	4018.243237
727.102895	4052.961663
727.434612	4103.151391
727.766281	4111.875108
728.097901	4114.975417
728.429473	4123.474803
728.760996	4127.835401
729.092471	4121.869195
729.423897	4103.481587
729.755276	4110.546764
730.086606	4111.837299
730.417887	4149.736694
730.749120	4213.640881
731.080305	4277.207310
731.411442	4310.158812
731.742530	4275.372330
732.073570	4278.545736
732.404562	4335.288964
732.735506	4325.105833
733.066401	4292.993683
733.397249	4224.892736
733.728048	4141.350734
734.058798	4065.244435
734.389501	3991.078979
734.720156	3929.186213
735.050762	3886.994276
735.381320	3880.440776
735.711831	3828.284998
736.042293	3801.075370
736.372707	3820.294769
736.703073	3794.481541
737.033391	3782.470992
737.363661	3802.552428
737.693883	3827.705266
738.024056	3835.766071
738.354182	3831.468487
738.684260	3896.396028
739.014290	3915.053338
739.344272	3909.770209
739.674207	3954.694452
740.004093	3959.012200
740.333931	3953.832414
740.663722	3952.874595
740.993464	3950.545582
741.323159	3927.013476
741.652806	3897.956265
741.982405	3870.560114
742.311956	3838.203468
742.641460	3829.325997
742.970915	3802.312974
743.300323	3766.440123
743.629683	3729.622056
743.958996	3720.550499
744.288260	3693.993701
744.617477	3661.886592
744.946647	3648.653563
745.275768	3624.690438
745.604842	3620.244141
745.933869	3574.299065
746.262847	3566.434865
746.591778	3600.863425
746.920662	3574.346956
747.249498	3542.121380
747.578286	3589.460335
747.907027	3605.337449
748.235720	3603.031121
748.564365	3626.570789
748.892963	3627.326962
749.221514	3610.975979
749.550017	3586.680138
749.878473	3586.680138
750.206881	3556.871796
750.535242	3550.961043
750.863555	3553.988256
751.191821	3547.797719
751.520039	3530.365409
751.848210	3509.290865
752.176334	3538.819424
752.504411	3548.319478
752.832440	3506.840864
753.160421	3489.166579
753.488356	3500.602437
753.816243	3512.083664
754.144082	3469.102787
754.471875	3457.309007
754.799620	3474.282572
755.127318	3464.404431
755.454969	3466.874597
755.782572	3470.841985
756.110129	3447.957667
756.437638	3437.058692
756.765100	3452.207360
757.092515	3461.321766
757.419882	3467.696305
757.747203	3440.479115
758.074477	3443.188735
758.401703	3459.310345
758.728882	3481.443531
759.056014	3485.032833
759.383099	3488.110457
759.710138	3487.860920
760.037129	3504.685771
760.364073	3535.913199
760.690970	3521.036754
761.017820	3497.335769
761.344623	3514.833614
761.671379	3562.462435
761.998088	3613.244499
762.324751	3737.390474
762.651366	3986.380624
762.977935	4461.519456
763.304456	4905.498917
763.630931	5000.403679
763.957359	4642.512003
764.283740	4300.084066
764.610074	4100.315742
764.936362	3906.266607
765.262602	3745.199221
765.588796	3634.503044
765.914943	3548.649674
766.241044	3457.891261
766.567097	3428.584513
766.893104	3382.049622
767.219064	3350.917976
767.544978	3324.119202
767.870845	3266.032507
768.196665	3248.045670
768.522438	3259.789038
768.848165	3250.110022
769.173846	3216.062069
769.499479	3200.482383
769.825066	3182.170392
770.150607	3166.005932
770.476101	3179.559074
770.801548	3179.410360
771.126949	3131.746251
771.452303	3116.353087
771.777611	3120.585136
772.102872	3125.328862
772.428087	3102.956221
772.753256	3091.709407
773.078378	3080.197932
773.403453	3047.964794
773.728482	3035.326622
774.053465	3060.020714
774.378401	3046.540668
774.703291	3017.072604
775.028135	3017.659898
775.352932	3011.320647
775.677683	3000.131806
776.002388	2998.768174
776.327046	2996.666013
776.651658	2986.588746
776.976224	2977.098774
777.300743	2975.871253
777.625216	2966.207361
777.949643	2959.588326
778.274024	2965.236939
778.598359	2952.956688
778.922647	2957.821402
779.246889	2954.519446
779.571086	2941.394802
779.895236	2935.978082
780.219339	2946.899742
780.543397	2958.322997
780.867409	2960.641928
781.191374	2953.498613
781.515294	2951.144394
781.839167	2951.691359
782.162995	2944.018723
782.486776	2953.281843
782.810511	2951.330916
783.134201	2935.940274
783.457844	2944.003599
783.781441	2934.407763
784.104993	2913.824732
784.428498	2912.572005
784.751958	2929.041455
785.075372	2922.843356
785.398739	2906.888104
785.722061	2922.409817
786.045337	2935.597475
786.368568	2918.969229
786.691752	2909.877508
787.014891	2960.125209
787.337983	2991.881958
787.661030	3016.344157
787.984031	3082.612645
788.306987	3130.002012
788.629897	3123.776187
788.952760	3105.393619
789.275579	3091.167483
789.598351	3030.595499
789.921078	2988.953048
790.243759	2979.833600
790.566395	2961.665282
790.888984	2937.944132
791.211529	2920.531987
791.534027	2907.389699
791.856480	2898.822258
792.178888	2886.332799
792.501249	2877.785523
792.823566	2877.815770
793.145836	2873.271170
793.468062	2867.693133
793.790241	2869.076930
794.112375	2872.719163
794.434464	2884.167624
794.756507	2888.613921
795.078505	2894.940569
795.400457	2908.566808
795.722364	2945.445369
796.044226	2968.412866
796.366042	2973.743886
796.687812	2960.977164
797.009538	2981.262767
797.331218	2966.280458
797.652852	2955.585650
797.974442	2938.349945
798.295986	2931.206630
798.617484	2928.378543
798.938938	2912.468661
799.260346	2894.917884
799.581709	2891.109293
799.903026	2885.793396
800.224299	2879.885163
800.545526	2871.965511
800.866708	2853.179651
801.187845	2844.352591
801.508936	2845.267560
801.829983	2851.899198
802.150984	2839.147599
802.471940	2827.411793
802.792851	2827.752071
803.113717	2824.868531
803.434538	2834.045952
803.755314	2822.335351
804.076045	2819.300577
804.396731	2818.335196
804.717372	2816.323775
805.037967	2811.978301
805.358518	2819.686225
805.679024	2831.464881
805.999485	2829.408090
806.319901	2830.015549
806.640272	2824.180413
806.960598	2828.714931
807.280879	2839.359328
807.601115	2847.135307
807.921306	2831.038903
808.241453	2828.094869
808.561554	2836.511076
808.881611	2836.601817
809.201623	2832.163081
809.521590	2829.851712
809.841513	2826.564879
810.161390	2829.435816
810.481223	2824.220743
810.801011	2814.730771
811.120755	2812.512663
811.440453	2812.709268
811.760107	2811.569967
812.079716	2806.125521
812.399281	2804.676189
812.718801	2794.843419
813.038276	2790.266051
813.357707	2797.487504
813.677093	2803.889769
813.996434	2798.301650
814.315731	2791.738068
814.634983	2787.705145
814.954191	2793.071453
815.273354	2804.673669
815.592473	2810.486119
815.911547	2815.623055
816.230577	2823.978767
816.549562	2830.592761
816.868502	2828.702328
817.187399	2839.051817
817.506250	2857.532687
817.825058	2850.618745
818.143821	2863.062833
818.462539	2879.509598
818.781213	2901.743607
819.099843	2941.513269
819.418429	3000.028463
819.736970	3061.679253
820.055466	3133.737507
820.373919	3243.291862
820.692327	3382.631875
821.010691	3550.560271
821.329011	3992.177951
821.647286	4899.494903
821.965517	6284.279699
822.283704	7042.804475
822.601847	7022.922164
822.919945	6380.323762
823.237999	5872.039344
823.556010	5287.517555
823.873976	4725.691041
824.191897	4319.074093
824.509775	4022.462683
824.827609	3751.987135
825.145398	3624.887043
825.463144	3614.550157
825.780845	3704.680947
826.098502	3808.959735
826.416116	4096.945731
826.733685	4417.033794
827.051210	4486.163137
827.368692	4364.089076
827.686129	4096.766770
828.003522	3768.272582
828.320872	3506.871111
828.638177	3311.952377
828.955439	3172.955163
829.272656	3088.949375
829.589830	3019.366329
829.906960	2970.454533
830.224046	2925.449633
830.541088	2892.419993
830.858086	2875.948022
831.175041	2854.616380
831.491952	2860.277596
831.808819	2870.962321
832.125642	2898.552556
832.442421	2940.003444
832.759157	3021.783562
833.075849	3205.190821
833.392497	3488.097854
833.709101	3689.053370
834.025662	3642.566370
834.342179	3478.212152
834.658653	3303.072385
834.975083	3152.994714
835.291469	3056.622976
835.607811	2970.351190
835.924110	2909.791809
836.240366	2858.324148
836.556578	2816.011224
836.872746	2792.463994
837.188871	2770.240067
837.504952	2753.654671
837.820990	2747.207035
838.136984	2731.140878
838.452935	2724.904971
838.768842	2721.119064
839.084706	2738.508524
839.400526	2819.587922
839.716303	2949.306893
840.032037	3035.107332
840.347727	3020.361957
840.663373	2958.761577
840.978977	2883.212325
841.294537	2811.607776
841.610054	2762.118768
841.925527	2739.272259
842.240957	2717.144114
842.556344	2693.816175
842.871687	2679.375790
843.186987	2668.504542
843.502244	2665.610919
843.817458	2662.349293
844.132629	2647.165337
844.447756	2640.211066
844.762840	2631.086577
845.077881	2633.912144
845.392879	2632.672020
845.707833	2633.881897
846.022745	2624.462501
846.337613	2627.212450
846.652438	2624.228087
846.967221	2626.100876
847.281960	2621.556276
847.596656	2623.071142
847.911309	2618.929835
848.225919	2619.257510
848.540485	2614.450769
848.855009	2614.780965
849.169490	2612.847682
849.483928	2612.840121
849.798323	2611.496653
850.112675	2609.797784
850.426984	2611.136211
850.741251	2609.454986
851.055474	2609.407095
851.369654	2616.648712
851.683792	2613.467744
851.997887	2609.638988
852.311938	2610.165789
852.625947	2614.475975
852.939914	2616.376490
853.253837	2613.838269
853.567718	2610.838783
853.881555	2610.788371
854.195350	2615.315327
854.509103	2614.092847
854.822812	2612.272991
855.136479	2610.869030
855.450103	2613.959257
855.763685	2613.283742
856.077224	2609.994389
856.390720	2610.085130
856.704173	2610.286776
857.017584	2619.232304
857.330953	2618.561830
857.644278	2621.339506
857.957561	2619.547376
858.270802	2615.564864
858.584000	2615.365739
858.897155	2617.835904
859.210268	2619.817078
859.523339	2611.675614
859.836367	2610.594287
860.149352	2610.211159
860.462295	2612.031016
860.775195	2609.303751
861.088054	2609.402054
861.400869	2605.517845
861.713642	2602.528441
862.026373	2607.239399
862.339062	2609.026488
862.651708	2616.250461
862.964312	2615.383383
863.276873	2613.966819
863.589392	2614.037395
863.901869	2619.486882
864.214303	2625.057357
864.526696	2626.983078
864.839045	2629.901906
865.151353	2633.491207
865.463619	2631.245373
865.775842	2632.266207
866.088023	2630.421145
866.400162	2632.364510
866.712258	2633.057668
867.024313	2631.504993
867.336325	2625.964765
867.648296	2628.356792
867.960224	2634.459109
868.272110	2631.951135
868.583954	2625.604322
868.895755	2627.434261
869.207515	2633.529016
869.519233	2642.114101
869.830909	2635.704274
870.142542	2631.381485
870.454134	2634.098667
870.765684	2639.054121
871.077191	2641.337763
871.388657	2645.194246
871.700081	2642.971097
872.011463	2639.815335
872.322803	2645.227014
872.634101	2647.130049
872.945357	2654.096924
873.256571	2659.652275
873.567744	2656.385608
873.878874	2654.545587
874.189963	2656.403252
874.501010	2662.719817
874.812015	2666.256187
875.122979	2664.837102
875.433900	2655.886533
875.744780	2659.080104
876.055618	2663.801145
876.366415	2664.340548
876.677169	2664.217040
876.987882	2663.009684
877.298554	2658.669250
877.609183	2669.963956
877.919771	2677.704647
878.230317	2682.282015
878.540822	2693.947245
878.851285	2712.221428
879.161707	2733.719428
879.472087	2773.300048
879.782425	2820.681853
880.092722	2935.849533
880.402977	3130.203658
880.713191	3393.306518
881.023363	3687.707382
881.333494	3881.000344
881.643583	4051.252712
881.953631	4052.593659
882.263637	3876.538923
882.573602	3650.423008
882.883526	3514.856299
883.193408	3404.316398
883.503248	3303.054741
883.813048	3183.428160
884.122806	3070.062692
884.432522	2981.333343
884.742197	2916.191553
885.051831	2879.008003
885.361424	2841.403516
885.670975	2805.507980
885.980485	2771.397012
886.289954	2758.383273
886.599382	2743.607652
886.908768	2732.910323
887.218113	2712.085317
887.527417	2697.929757
887.836680	2689.808458
888.145901	2683.585153
888.455082	2675.627692
888.764221	2664.897596
889.073319	2657.161945
889.382376	2656.115906
889.691392	2658.202944
890.000366	2658.107162
890.309300	2657.860145
890.618193	2658.530619
890.927044	2662.797955
891.235855	2663.382729
891.544625	2659.455670
891.853353	2661.572955
892.162041	2669.555622
892.470687	2692.233253
892.779293	2702.081147
893.087858	2713.252344
893.396381	2733.626167
893.704864	2774.890532
894.013306	2849.582788
894.321707	2939.063268
894.630068	2993.220384
894.938387	3013.110257
895.246665	3005.414935
895.554903	2957.707976
895.863100	2916.284815
896.171256	2857.560414
896.479371	2797.921043
896.787446	2755.779517
897.095480	2739.201683
897.403473	2733.666496
897.711425	2715.702344
898.019336	2697.544108
898.327207	2682.823939
898.635038	2681.344360
898.942827	2681.145235
899.250576	2669.507731
899.558284	2656.559527
899.865952	2654.485093
900.173579	2652.045174
900.481165	2648.697848
900.788711	2642.746766
901.096216	2637.546816
901.403681	2630.627832
901.711105	2633.299644
902.018489	2628.931484
902.325832	2632.069602
902.633135	2634.910292
902.940397	2652.324958
903.247619	2687.174455
903.554800	2758.010228
903.861941	2888.250958
904.169041	3015.204856
904.476101	3078.738518
904.783121	3072.752148
905.090100	3014.703261
905.397039	2938.385233
905.703938	2865.038965
906.010796	2798.256280
906.317614	2749.462952
906.624391	2708.821169
906.931129	2684.424505
907.237826	2659.619508
907.544483	2641.073103
907.851099	2626.748664
908.157675	2620.424537
908.464211	2611.206787
908.770707	2600.847216
909.077163	2594.525609
909.383578	2592.768767
909.689954	2590.323807
909.996289	2587.049578
910.302584	2589.308015
910.608839	2584.675194
910.915054	2587.319279
911.221229	2588.803899
911.527363	2591.490834
911.833458	2588.947572
912.139513	2589.733992
912.445527	2592.007552
912.751502	2600.151537
913.057436	2602.440220
913.363331	2609.676797
913.669186	2621.387397
913.975000	2633.680251
914.280775	2651.954433
914.586510	2669.074192
914.892205	2706.005685
915.197859	2774.472116
915.503475	2861.868080
915.809050	2926.397369
916.114585	2944.575770
916.420081	2956.185548
916.725536	2969.098463
917.030952	2941.571243
917.336328	2892.268758
917.641665	2841.872343
917.946961	2795.108079
918.252218	2757.405290
918.557435	2730.697257
918.862612	2708.715305
919.167750	2690.783921
919.472848	2674.052331
919.777906	2657.285454
920.082925	2643.570995
920.387904	2633.254273
920.692843	2629.148253
920.997743	2623.459311
921.302603	2617.057046
921.607423	2610.364914
921.912204	2605.462392
922.216946	2603.181270
922.521647	2598.082143
922.826310	2596.779005
923.130932	2593.030907
923.435516	2584.944896
923.740059	2583.006572
924.044564	2583.924062
924.349028	2581.421129
924.653454	2574.519790
924.957840	2568.253636
925.262186	2570.965776
925.566493	2569.579459
925.870761	2567.134499
926.174989	2565.294478
926.479178	2561.843808
926.783328	2561.266596
927.087438	2558.209137
927.391509	2561.377502
927.695541	2557.400031
927.999533	2557.417675
928.303486	2556.273333
928.607400	2554.408107
928.911275	2552.253013
929.215110	2552.575647
929.518906	2555.005483
929.822663	2557.631924
930.126381	2552.759649
930.430060	2556.787531
930.733699	2556.033879
931.037299	2554.786193
931.340861	2559.063612
931.644383	2554.082952
931.947866	2556.812737
932.251309	2557.084959
932.554714	2554.811399
932.858080	2557.765515
933.161407	2555.595298
933.464694	2552.472303
933.767943	2554.793755
934.071153	2550.468445
934.374323	2550.334854
934.677455	2553.480534
934.980548	2552.126984
935.283602	2549.480379
935.586617	2548.179761
935.889593	2551.678322
936.192530	2552.268137
936.495428	2554.100596
936.798287	2551.668239
937.101108	2556.648899
937.403890	2559.313149
937.706632	2559.499672
938.009336	2564.432441
938.312002	2565.982596
938.614628	2569.365210
938.917216	2572.710016
939.219765	2576.062383
939.522275	2577.168916
939.824747	2574.514749
940.127179	2568.064592
940.429573	2568.888821
940.731929	2567.056362
941.034246	2563.421690
941.336524	2567.386557
941.638763	2564.928995
941.940964	2564.361865
942.243126	2563.449416
942.545250	2560.991853
942.847335	2561.042265
943.149381	2558.408262
943.451389	2557.256358
943.753359	2557.155535
944.055290	2557.503375
944.357182	2557.440361
944.659036	2555.663354
944.960851	2554.771070
945.262628	2555.915412
945.564367	2557.210988
945.866067	2555.807027
946.167729	2558.698128
946.469352	2554.801317
946.770937	2555.721327
947.072484	2554.682849
947.373992	2557.349620
947.675462	2552.426933
947.976893	2553.591440
948.278286	2553.520863
948.579641	2551.315359
948.880958	2552.426933
949.182236	2553.268806
949.483476	2555.207129
949.784678	2549.976932
950.085841	2553.909032
950.386967	2552.189999
950.688054	2553.977088
950.989103	2554.753426
951.290114	2554.750905
951.591087	2555.759136
951.892021	2560.701987
952.192917	2555.224773
952.493776	2560.117213
952.794596	2560.684343
953.095378	2560.538150
953.396122	2561.284240
953.696828	2558.650237
953.997496	2554.834084
954.298126	2552.308466
954.598718	2557.838612
954.899272	2553.493137
955.199788	2550.775955
955.500266	2552.225287
955.800706	2548.005841
956.101108	2542.783206
956.401472	2546.236396
956.701798	2543.897301
957.002087	2542.770603
957.302337	2540.996117
957.602550	2542.155582
957.902724	2540.277752
958.202861	2544.111550
958.502960	2543.887218
958.803022	2541.689275
959.103045	2537.754655
959.403031	2542.795809
959.702979	2541.689275
960.002889	2542.004348
960.302762	2541.142310
960.602596	2540.991076
960.902393	2538.606610
961.202153	2538.830941
961.501875	2537.348842
961.801559	2537.424459
962.101205	2535.738193
962.400814	2536.847247
962.700385	2538.561239
962.999918	2537.696682
963.299414	2539.022505
963.598873	2538.188194
963.898293	2535.697864
964.197677	2538.026877
964.497022	2536.847247
964.796331	2535.962525
965.095601	2537.643749
965.394835	2537.873122
965.694030	2537.943698
965.993189	2538.878832
966.292309	2536.859850
966.591393	2540.353370
966.890439	2535.483615
967.189447	2536.433872
967.488419	2536.859850
967.787353	2536.222144
968.086249	2535.692823
968.385108	2535.551671
968.683930	2535.097967
968.982714	2537.351363
969.281462	2535.536547
969.580172	2537.477391
969.878844	2537.079140
970.177480	2538.135262
970.476078	2537.094264
970.774639	2537.860519
971.073162	2538.921682
971.371649	2533.550332
971.670098	2535.251722
971.968510	2532.441279
972.266885	2531.969931
972.565223	2536.648122
972.863524	2539.829090
973.161788	2535.715508
973.460014	2538.818338
973.758204	2537.482432
974.056356	2537.621064
974.354471	2537.512679
974.652550	2538.926723
974.950591	2538.485622
975.248595	2535.695343
975.546563	2535.140817
975.844493	2534.687113
976.142386	2536.527134
976.440243	2537.374048
976.738062	2535.632329
977.035845	2537.051414
977.333590	2537.545447
977.631299	2533.941022
977.928971	2534.742565
978.226606	2534.397246
978.524204	2535.733152
978.821765	2533.933460
979.119290	2537.167360
979.416777	2534.432534
979.714228	2534.314067
980.011642	2534.034283
980.309020	2536.020498
980.606360	2530.205527
980.903664	2537.530323
981.200931	2532.869777
981.498162	2535.990251
981.795356	2538.097453
982.092513	2542.873947
982.389633	2544.766900
982.686717	2546.685059
982.983764	2551.126315
983.280775	2552.726882
983.577749	2551.358208
983.874686	2549.578681
984.171587	2547.136242
984.468451	2545.797816
984.765279	2545.901159
985.062070	2538.898997
985.358824	2541.853113
985.655543	2539.997968
985.952224	2538.140303
986.248869	2536.569984
986.545478	2530.122348
986.842050	2536.063348
987.138586	2529.978675
987.435086	2529.865249
987.731549	2530.230733
988.027975	2534.689633
988.324366	2532.960517
988.620719	2530.762574
988.917037	2531.833820
989.213318	2532.416073
989.509563	2532.897503
989.805772	2531.480939
990.101944	2531.541433
990.398080	2530.855836
990.694180	2533.336083
990.990244	2533.462112
991.286271	2532.748789
991.582262	2531.556556
991.878217	2531.211237
992.174136	2531.304498
992.470019	2530.167718
992.765865	2531.072605
993.061676	2531.627132
993.357450	2533.411701
993.653188	2533.641073
993.948890	2535.902031
994.244556	2532.453882
994.540186	2533.777184
994.835780	2534.626619
995.131337	2533.625950
995.426859	2536.015457
995.722345	2532.776515
996.017795	2535.077802
996.313208	2535.231557
996.608586	2536.817000
996.903928	2538.251208
997.199234	2533.825075
997.494504	2537.101825
997.789738	2535.289531
998.084936	2537.051414
998.380099	2535.455889
998.675225	2534.240971
998.970316	2532.723583
999.265371	2533.217616
999.560390	2534.213244
999.855373	2532.224509
1000.150320	2534.170394
1000.445232	2531.551515
1000.740108	2531.909437
1001.034948	2530.775177
1001.329752	2534.762730
1001.624521	2529.290558
1001.919254	2529.146885
1002.213951	2528.456247
1002.508613	2529.645959
1002.803239	2527.884076
1003.097829	2524.778725
1003.392384	2533.368851
1003.686903	2528.305012
1003.981386	2531.110414
1004.275834	2531.760723
1004.570246	2530.770136
1004.864623	2532.940353
1005.158964	2529.565300
1005.453270	2532.486649
1005.747540	2531.889272
1006.041775	2531.967410
1006.335974	2532.504293
1006.630138	2530.260980
1006.924266	2529.993798
1007.218359	2531.669982
1007.512416	2531.947246
1007.806438	2534.188038
1008.100425	2532.108563
1008.394376	2531.319622
1008.688292	2530.946577
1008.982172	2527.732841
1009.276017	2529.764426
1009.569827	2530.439941
1009.863602	2531.649818
1010.157341	2529.053623
1010.451045	2531.617050
1010.744714	2528.849457
1011.038347	2531.904396
1011.331945	2529.988757
1011.625508	2531.664941
1011.919036	2528.967924
1012.212528	2526.921215
1012.505986	2529.204858
1012.799408	2530.414735
1013.092795	2528.970444
1013.386147	2531.639735
1013.679464	2533.570497
1013.972745	2528.549508
1014.265992	2530.578572
1014.559204	2529.560259
1014.852380	2531.387678
1015.145521	2527.942049
1015.438628	2532.186700
1015.731699	2530.127389
1016.024736	2532.562266
1016.317737	2528.365506
1016.610703	2530.744930
1016.903635	2527.626977
1017.196531	2525.645803
1017.489393	2526.195289
1017.782219	2524.806451
1018.075011	2528.574714
1018.367768	2530.742410
1018.660490	2530.974303
1018.953177	2530.974303
1019.245829	2530.974303
