Dividing Wavelength (nm)	Counts (n)	Blue Motor Position (mm): 47.300000	Red Motor Position (mm): 0.000000	
326.493990	2129.746348
326.888308	2129.746348
327.282561	2129.746348
327.676750	2100.273242
328.070874	2097.624115
328.464933	2098.534044
328.858929	2104.505290
329.252859	2115.447115
329.646726	2127.903806
330.040528	2139.737915
330.434265	2158.959834
330.827938	2175.421722
331.221547	2192.455781
331.615091	2212.050746
332.008571	2230.037583
332.401986	2249.632548
332.795338	2266.064189
333.188625	2288.598147
333.581847	2306.501804
333.975006	2323.419917
334.368100	2342.493122
334.761129	2364.230578
335.154095	2378.071066
335.546996	2401.577966
335.939833	2427.986050
336.332606	2440.389809
336.725315	2453.496809
337.117960	2462.170115
337.510540	2472.980869
337.903056	2481.540748
338.295508	2489.099958
338.687896	2498.723521
339.080220	2505.834069
339.472480	2512.359842
339.864676	2517.605163
340.256807	2521.396111
340.648875	2522.411903
341.040879	2524.624970
341.432818	2529.270393
341.824694	2528.554549
342.216506	2528.728469
342.608253	2531.997657
342.999937	2529.343490
343.391557	2532.592513
343.783113	2529.449354
344.174605	2528.730989
344.566033	2526.127233
344.957397	2522.996677
345.348697	2522.845442
345.739934	2523.132788
346.131106	2522.719413
346.522215	2519.518281
346.913260	2515.571057
347.304241	2514.242713
347.695159	2513.373114
348.086012	2511.986797
348.476802	2506.272649
348.867528	2507.742145
349.258191	2505.836589
349.648789	2505.430776
350.039324	2502.252329
350.429796	2506.837258
350.820203	2501.687720
351.210548	2500.145127
351.600828	2499.053717
351.991045	2502.325426
352.381198	2495.948366
352.771288	2498.479025
353.161314	2501.649911
353.551276	2501.481032
353.941175	2499.194869
354.331010	2500.261073
354.720782	2501.198728
355.110490	2498.905003
355.500135	2497.846360
355.889717	2498.499190
356.279235	2502.464057
356.668689	2502.428769
357.058080	2498.839468
357.447408	2500.800477
357.836672	2497.271669
358.225873	2498.773933
358.615010	2497.039776
359.004084	2504.150323
359.393095	2504.719974
359.782043	2502.509428
360.170927	2506.386075
360.559748	2503.968842
360.948505	2503.560508
361.337199	2506.013030
361.725830	2508.296672
362.114398	2507.134686
362.502903	2505.408091
362.891344	2510.048473
363.279722	2510.383710
363.668037	2508.722650
364.056289	2510.792043
364.444478	2510.169461
364.832603	2510.822290
365.220665	2511.512928
365.608665	2511.187774
365.996601	2511.160048
366.384474	2511.225583
366.772284	2513.967970
367.160031	2513.771365
367.547715	2515.407220
367.935336	2514.958557
368.322893	2515.606345
368.710388	2516.803619
369.097820	2518.671367
369.485189	2519.183044
369.872495	2518.217663
370.259738	2521.930473
370.646918	2523.914167
371.034035	2522.003570
371.421090	2528.741072
371.808081	2531.634694
372.195010	2534.543440
372.581875	2541.923689
372.968678	2548.830070
373.355418	2554.939948
373.742096	2563.230126
374.128710	2574.300500
374.515262	2582.280646
374.901751	2591.349682
375.288177	2607.246961
375.674540	2617.457818
376.060841	2632.740076
376.447079	2646.900677
376.833254	2666.099911
377.219367	2677.316478
377.605417	2704.480736
377.991404	2716.937427
378.377329	2738.473236
378.763191	2753.122829
379.148991	2788.844446
379.534727	2810.816315
379.920402	2838.134327
380.306013	2854.873479
380.691563	2898.605488
381.077049	2923.143305
381.462474	2943.660801
381.847835	2985.653612
382.233134	3009.389885
382.618371	3021.745753
383.003545	3083.136925
383.388657	3100.849019
383.773706	3137.208341
384.158693	3160.299346
384.543618	3195.484079
384.928480	3234.409349
385.313280	3286.600415
385.698017	3291.714665
386.082692	3348.052080
386.467305	3360.107999
386.851856	3396.575706
387.236344	3422.393976
387.620770	3458.866724
388.005133	3492.362671
388.389435	3525.301570
388.773674	3542.393602
389.157851	3584.121753
389.541965	3608.246195
389.926018	3576.781833
390.310008	3649.490395
390.693936	3672.987213
391.077802	3717.621589
391.461606	3706.168088
391.845348	3769.122017
392.229027	3778.183491
392.612645	3791.449287
392.996200	3868.014332
393.379694	3908.958583
393.763125	3974.173470
394.146494	3941.355558
394.529801	4008.468440
394.913047	4050.569636
395.296230	4021.595604
395.679351	4073.832040
396.062410	4097.744754
396.445408	4079.236157
396.828343	4115.918113
397.211217	4138.570538
397.594028	4056.676994
397.976778	4128.183241
398.359466	4152.254750
398.742092	4182.337836
399.124656	4103.743727
399.507158	4182.025284
399.889598	4213.169533
400.271977	4271.364613
400.654294	4241.437803
401.036549	4252.520780
401.418742	4220.887539
401.800874	4323.502746
402.182944	4344.388247
402.564952	4408.224378
402.946898	4398.016041
403.328783	4395.641658
403.710606	4303.577586
404.092367	4497.157893
404.474067	4460.644816
404.855705	4469.804593
405.237282	4399.024272
405.618797	4510.453937
406.000250	4542.099780
406.381642	4622.405361
406.762972	4585.007561
407.144240	4595.193212
407.525447	4592.949899
407.906593	4657.312831
408.287677	4698.491496
408.668700	4626.329899
409.049661	4677.704298
409.430560	4721.741297
409.811399	4646.431500
410.192176	4809.260769
410.572891	4744.257611
410.953545	4849.718549
411.334138	4733.295622
411.714669	4799.536383
412.095139	4691.572512
412.475547	4834.998380
412.855894	4814.198579
413.236180	4825.533614
413.616405	4778.456799
413.996568	4864.988204
414.376670	4802.853463
414.756711	4763.373666
415.136691	4793.996155
415.516609	4870.288978
415.896466	4909.483949
416.276262	4941.535605
416.655997	4924.844345
417.035670	5104.528712
417.415283	5194.873750
417.794834	5138.443074
418.174324	5092.066979
418.553753	5004.466849
418.933121	5187.264129
419.312428	5249.376185
419.691674	5194.641857
420.070859	5316.937729
420.449983	5229.808947
420.829045	5349.185990
421.208047	5252.118573
421.586988	5326.263864
421.965867	5336.656202
422.344686	5471.708714
422.723444	5324.804450
423.102141	5139.259741
423.480777	5441.923056
423.859352	5210.546698
424.237866	5468.994053
424.616319	5461.011385
424.994712	5568.730761
425.373044	5449.237771
425.751314	5589.686837
426.129524	5394.493360
426.507673	5585.976548
426.885762	5672.303787
427.263789	5600.048929
427.641756	5483.177339
428.019662	5603.638231
428.397508	5612.175425
428.775292	5563.364452
429.153016	5655.007588
429.530679	5585.875725
429.908282	5668.467469
430.285824	5542.080701
430.663305	5815.230581
431.040726	5553.090581
431.418086	5546.932812
431.795385	5654.967259
432.172624	5663.423795
432.549802	5659.206869
432.926920	5675.293191
433.303977	5680.145302
433.680974	5725.495522
434.057910	5738.446246
434.434786	5738.789045
434.811601	5711.281989
435.188355	5948.332166
435.565050	5822.767106
435.941683	5802.695752
436.318257	6021.587693
436.694770	5999.746894
437.071222	6038.220980
437.447614	5968.534590
437.823946	5881.262135
438.200218	6035.299632
438.576429	5903.806175
438.952580	6003.648747
439.328670	6041.873296
439.704700	5953.564884
440.080670	5941.645075
440.456580	6212.191199
440.832429	6089.897848
441.208218	5935.978818
441.583947	6093.903045
441.959616	6094.979331
442.335224	6024.851840
442.710773	6159.165823
443.086261	6188.704464
443.461689	5987.285162
443.837057	6138.560106
444.212365	6283.684843
444.587612	6181.041910
444.962800	6332.848696
445.337927	6312.313556
445.712995	5922.513897
446.088002	6503.232134
446.462949	6330.471792
446.837837	6260.538385
447.212664	6435.433656
447.587431	6577.823567
447.962139	7126.066692
448.336786	8051.864514
448.711374	7782.097248
449.085901	6862.593307
449.460369	6784.677233
449.834776	6715.721810
450.209124	7106.433918
450.583412	7259.813545
450.957640	7405.853251
451.331808	7168.389699
451.705917	6721.345217
452.079965	6643.865203
452.453954	6858.187338
452.827883	6734.638740
453.201752	6824.333470
453.575562	6624.751668
453.949311	6832.464851
454.323001	6722.532409
454.696632	6791.074457
455.070202	6935.241375
455.443713	7086.682678
455.817164	7187.886362
456.190556	7264.688341
456.563888	7341.165165
456.937160	7385.096300
457.310373	7045.846811
457.683526	7071.576860
458.056619	6962.549305
458.429653	6948.872655
458.802628	6886.480814
459.175542	6998.066755
459.548398	7352.694284
459.921194	7504.475864
460.293930	7512.914756
460.666607	8039.148203
461.039224	8345.040377
461.411782	8478.893094
461.784280	8491.430444
462.156719	8386.440853
462.529099	8267.603213
462.901419	7851.672733
463.273680	7741.092503
463.645882	7757.163701
464.018024	7623.028679
464.390106	7789.341386
464.762130	8184.938372
465.134094	8648.104464
465.505999	9672.401391
465.877845	10897.409337
466.249631	11543.468491
466.621358	11170.458394
466.993026	10537.286950
467.364634	10279.585686
467.736184	9913.318133
468.107674	9576.523686
468.479105	9615.552299
468.850477	9373.536585
469.221790	9148.900249
469.593043	8817.197367
469.964238	8677.912807
470.335373	8690.548459
470.706449	8750.303776
471.077467	8733.627639
471.448425	10040.113235
471.819324	11116.104673
472.190164	11137.030503
472.560945	9887.507425
472.931667	9095.388401
473.302330	8968.603382
473.672934	8609.617775
474.043479	8969.989699
474.413965	8907.781861
474.784393	8787.878016
475.154761	8951.292059
475.525070	9035.970841
475.895321	8864.543884
476.265513	9038.859422
476.635645	9208.703457
477.005719	9209.890649
477.375734	9326.116971
477.745691	9559.361077
478.115588	9698.212098
478.485427	9942.219068
478.855207	10476.488114
479.224928	11296.787189
479.594591	11918.550501
479.964194	11728.403219
480.333739	11675.496310
480.703226	11593.247364
481.072653	11680.993688
481.442022	11916.541602
481.811333	12098.096237
482.180584	11912.891806
482.549777	11617.460026
482.918912	11444.024169
483.287988	11464.834052
483.657005	11478.356947
484.025964	11154.621609
484.394864	11294.022116
484.763706	11258.774368
485.132489	11015.488284
485.501213	10981.768006
485.869879	11054.968080
486.238487	10898.616693
486.607036	11009.418734
486.975527	10787.313058
487.343959	10981.518468
487.712333	11030.112671
488.080648	10964.418875
488.448905	10999.059163
488.817104	10942.094125
489.185244	11206.734537
489.553326	11362.985101
489.921350	11903.522822
490.289315	12965.827528
490.657222	13302.536275
491.025070	13209.514384
491.392861	13091.619440
491.760593	12706.467724
492.128267	12348.502951
492.495883	12028.765248
492.863440	11686.760768
493.230939	11361.361849
493.598380	11288.877618
493.965763	11151.831331
494.333088	11053.347349
494.700354	10975.141409
495.067563	11034.490913
495.434713	10872.805986
495.801805	10994.791827
496.168839	10916.800135
496.535815	10847.723725
496.902733	10852.580877
497.269593	10783.020515
497.636395	10891.811136
498.003139	10875.029135
498.369825	10741.380584
498.736453	10905.283619
499.103023	10829.870478
499.469535	10856.265960
499.835989	10845.046872
500.202385	10805.383074
500.568723	10662.239510
500.935003	10877.673220
501.301226	10689.350836
501.667390	10948.067892
502.033497	11043.133971
502.399546	10904.167004
502.765537	10810.441872
503.131470	10878.489887
503.497345	11062.567619
503.863163	10667.620942
504.228923	10979.209620
504.594625	11042.700432
504.960269	10787.797008
505.325856	11012.831596
505.691385	10802.917949
506.056856	10965.502723
506.422270	10982.486370
506.787625	10868.266427
507.152924	10990.678245
507.518164	10968.373660
507.883347	10886.260825
508.248472	10809.511779
508.613540	11042.029959
508.978550	10926.811867
509.343503	10901.117106
509.708398	11024.615293
510.073236	11136.886830
510.438016	11145.862604
510.802738	11093.313617
511.167403	11136.377673
511.532010	11037.150122
511.896561	11268.803744
512.261053	11345.174704
512.625488	11214.646628
512.989866	11198.494771
513.354186	11187.870539
513.718449	11083.253994
514.082655	11280.680702
514.446803	11172.091728
514.810894	11295.426077
515.174927	11160.005562
515.538904	11188.435149
515.902822	11333.595174
516.266684	11217.028573
516.630488	11158.588997
516.994235	11218.896321
517.357925	11285.709253
517.721558	11373.102696
518.085133	11379.764581
518.448651	11392.284287
518.812112	11276.494024
519.175516	11290.878957
519.538863	11413.499983
519.902152	11327.475213
520.265385	11494.745739
520.628560	11405.335834
520.991678	11380.152750
521.354739	11444.987030
521.717743	11379.043696
522.080690	11357.210459
522.443580	11487.342804
522.806413	11449.408122
523.169189	11478.707308
523.531908	11533.403827
523.894569	11356.305572
524.257174	11361.185409
524.619722	11477.560445
524.982213	11427.864751
525.344647	11475.092800
525.707025	11432.905904
526.069345	11522.489729
526.431608	11433.231059
526.793815	11550.493338
527.155964	11337.454177
527.518057	11389.395706
527.880093	11340.342758
528.242072	11408.990671
528.603995	11309.473253
528.965860	11235.801830
529.327669	11280.476536
529.689421	11232.620862
530.051117	11205.118847
530.412755	11308.023921
530.774337	11195.364215
531.135862	11180.991885
531.497331	11208.829137
531.858743	11055.535210
532.220098	11218.031763
532.581396	11089.094171
532.942638	11076.377860
533.303824	11041.626666
533.664953	11051.817359
534.026025	10964.189502
534.387040	11069.784031
534.747999	11071.278733
535.108902	11125.277053
535.469748	10884.251926
535.830537	10991.152113
536.191270	10973.908847
536.551947	10989.276804
536.912567	10988.366876
537.273131	10908.961141
537.633638	10897.331199
537.994089	10885.991124
538.354483	10833.548000
538.714821	10974.544032
539.075103	10978.952521
539.435328	10953.061155
539.795497	10771.234298
540.155609	10924.399675
540.515665	11021.482216
540.875665	10753.338201
541.235609	10824.683131
541.595496	10820.173819
541.955328	10973.127468
542.315102	10857.816115
542.674821	10809.637807
543.034483	10806.295523
543.394090	10811.119907
543.753640	10742.308157
544.113134	10967.874586
544.472571	10816.831534
544.831953	10956.103491
545.191278	10764.494275
545.550548	10794.809253
545.909761	10937.942735
546.268918	10908.106666
546.628019	10996.891467
546.987064	10853.873933
547.346053	10783.302820
547.704986	10874.000739
548.063863	10860.477844
548.422684	10853.490805
548.781449	10773.802765
549.140158	10873.569721
549.498811	10747.281255
549.857408	10604.445202
550.215949	10838.826088
550.574434	10688.360249
550.932864	10789.430342
551.291237	10844.308343
551.649555	10802.194544
552.007817	10805.188989
552.366022	10767.899574
552.724173	10759.319530
553.082267	10743.515513
553.440305	10885.507173
553.798288	10687.737666
554.156215	10838.909267
554.514086	10816.871863
554.871902	10663.207412
555.229661	10705.288443
555.587365	10675.180152
555.945014	10569.736858
556.302606	10698.608915
556.660143	10590.768552
557.017625	10745.310164
557.375050	10637.825202
557.732421	10780.114290
558.089735	10686.207676
558.446994	10690.830414
558.804197	10731.966230
559.161345	10730.451363
559.518437	10580.897972
559.875474	10665.826291
560.232455	10685.305310
560.589381	10645.318877
560.946251	10641.538012
561.303065	10739.031407
561.659825	10680.317088
562.016528	10615.994485
562.373177	10497.134160
562.729770	10610.439134
563.086307	10526.609787
563.442789	10606.204565
563.799216	10494.464869
564.155587	10540.150326
564.511904	10493.557461
564.868164	10489.673252
565.224370	10502.465180
565.580520	10431.498337
565.936615	10438.127454
566.292654	10303.258945
566.648638	10432.325086
567.004567	10394.251772
567.360441	10376.317867
567.716260	10282.350759
568.072023	10376.345593
568.427732	10329.495630
568.783385	10242.545808
569.138982	10311.203803
569.494525	10324.799795
569.850013	10206.163801
570.205445	10282.968301
570.560823	10173.832361
570.916145	10102.063974
571.271412	10165.834570
571.626625	10111.024625
571.981782	10083.804915
572.336884	10064.842615
572.691931	10071.184386
573.046923	10017.123053
573.401860	9966.066246
573.756743	9905.025435
574.111570	9946.267115
574.466342	9929.984188
574.821059	9960.132808
575.175722	9848.320016
575.530330	9867.015135
575.884882	9853.212456
576.239380	9782.525397
576.593823	9762.270040
576.948211	9776.783522
577.302544	9653.676025
577.656823	9664.547273
578.011047	9675.935240
578.365216	9648.274428
578.719330	9565.176048
579.073389	9580.443183
579.427394	9529.358650
579.781344	9506.013067
580.135239	9455.649419
580.489080	9462.165111
580.842866	9364.500317
581.196597	9370.456440
581.550273	9406.760309
581.903895	9376.387358
582.257463	9444.125342
582.610975	9319.896188
582.964434	9346.941978
583.317837	9272.335422
583.671186	9250.514787
584.024481	9248.664684
584.377721	9168.648969
584.730906	9146.331781
585.084037	9176.117439
585.437113	9108.089588
585.790135	9124.654820
586.143103	9031.950521
586.496016	8999.961879
586.848874	9060.574193
587.201679	9053.589674
587.554428	8930.872866
587.907124	8980.699630
588.259765	8946.601266
588.612352	8954.911608
588.964884	8828.560128
589.317362	8842.267025
589.669786	8842.597221
590.022155	8892.088749
590.374470	8907.280266
590.726731	8847.724074
591.078937	8699.022639
591.431090	8809.890215
591.783188	8684.562089
592.135232	8678.699227
592.487222	8675.394751
592.839157	8731.893482
593.191038	8659.971340
593.542866	8605.824307
593.894639	8502.727670
594.246358	8560.206906
594.598022	8573.477743
594.949633	8468.460426
595.301190	8447.491747
595.652692	8474.857651
596.004141	8590.751257
596.355535	8359.349693
596.706876	8345.310079
597.058162	8279.684338
597.409395	8354.056481
597.760573	8414.356243
598.111698	8319.595153
598.462768	8303.007237
598.813785	8277.922455
599.164748	8244.151765
599.515657	8227.878921
599.866511	8148.049729
600.217312	8270.509438
600.568060	8128.578272
600.918753	8231.185918
601.269392	8202.322791
601.619978	8112.754090
601.970510	8180.487033
602.320988	8177.641302
602.671412	8227.135351
603.021783	8166.588572
603.372100	8137.717884
603.722363	8144.394892
604.072572	8117.752394
604.422728	8128.447202
604.772830	8054.314514
605.122878	8062.045124
605.472872	8058.745689
605.822813	8084.382477
606.172701	8029.451544
606.522534	8106.130014
606.872314	8109.167309
607.222041	8071.885456
607.571714	8131.272769
607.921333	8093.358251
608.270899	8101.189683
608.620411	8185.298815
608.969870	8086.605625
609.319276	8084.155625
609.668627	8101.966021
610.017926	8135.605641
610.367171	8181.482661
610.716362	8153.910070
611.065500	8148.246334
611.414585	8183.945265
611.763616	8166.490270
612.112594	8148.662229
612.461518	8164.546905
612.810389	8223.354485
613.159207	8159.745206
613.507971	8109.681507
613.856682	8230.205413
614.205340	8182.838732
614.553945	8268.165302
614.902496	8166.071854
615.250994	8212.500881
615.599439	8196.195269
615.947830	8211.752270
616.296169	8188.951131
616.644454	8195.623098
616.992686	8199.587965
617.340864	8252.996470
617.688990	8155.422417
618.037063	8247.728464
618.385082	8199.658542
618.733048	8281.872199
619.080961	8219.049340
619.428821	8242.465499
619.776628	8241.099347
620.124382	8194.813993
620.472083	8183.047940
620.819731	8201.430507
621.167326	8093.045699
621.514868	8105.076413
621.862357	7988.771953
622.209793	8005.095209
622.557176	7943.073893
622.904506	7914.828308
623.251783	7849.381528
623.599007	7806.219169
623.946179	7807.176988
624.293297	7757.703104
624.640363	7676.492637
624.987376	7662.642066
625.334336	7612.774973
625.681243	7554.221971
626.028097	7547.759211
626.374899	7531.133486
626.721647	7515.442895
627.068343	7445.292718
627.414987	7420.517968
627.761577	7377.252265
628.108115	7416.462359
628.454600	7310.832542
628.801032	7357.974893
629.147412	7321.237484
629.493739	7308.783313
629.840014	7242.396358
630.186236	7300.785523
630.532405	7184.294540
630.878521	7237.793785
631.224585	7194.071857
631.570597	7110.610514
631.916556	7148.310783
632.262462	7144.325751
632.608316	7102.527024
632.954117	7081.107162
633.299866	7068.663073
633.645562	7053.411062
633.991206	6984.569065
634.336797	6928.977741
634.682336	6879.193827
635.027823	6852.120310
635.373257	6841.917014
635.718639	6768.631240
636.063968	6785.982892
636.409245	6681.605802
636.754470	6677.812333
637.099642	6635.880016
637.444762	6579.875317
637.789829	6594.756803
638.134845	6532.738008
638.479808	6508.613566
638.824719	6521.486152
639.169577	6445.803310
639.514383	6472.491178
639.859137	6395.167440
640.203839	6401.783954
640.548489	6390.141410
640.893086	6368.812288
641.237632	6334.255178
641.582125	6356.622778
641.926566	6329.576987
642.270955	6344.629873
642.615292	6338.870354
642.959576	6351.848805
643.303809	6343.152815
643.647990	6349.809658
643.992118	6343.356981
644.336195	6285.106449
644.680219	6312.434544
645.024192	6302.253933
645.368112	6396.510907
645.711981	6424.128869
646.055797	6492.557491
646.399562	6452.800431
646.743274	6579.613177
647.086935	6630.985055
647.430544	6625.676720
647.774101	6650.728734
648.117606	6656.946998
648.461059	6645.622045
648.804460	6607.805830
649.147810	6515.882910
649.491108	6488.479198
649.834354	6465.007585
650.177548	6377.047012
650.520690	6295.382841
650.863781	6270.282936
651.206820	6288.723477
651.549807	6213.204471
651.892742	6152.786243
652.235626	6162.175392
652.578458	6142.940869
652.921238	6055.832251
653.263967	6094.369352
653.606644	6027.102715
653.949269	6039.302308
654.291843	5976.741588
654.634365	6024.992992
654.976836	5977.311239
655.319255	5980.542618
655.661622	5954.222754
656.003938	5957.728877
656.346203	5910.720117
656.688416	5946.461898
657.030577	5905.479838
657.372687	5866.100864
657.714746	5854.259194
658.056753	5897.560185
658.398708	5834.213046
658.740612	5827.384803
659.082465	5878.098811
659.424266	5865.833683
659.766016	5869.133118
660.107715	5846.216033
660.449362	5857.954360
660.790958	5857.369586
661.132503	5843.269479
661.473996	5875.918512
661.815438	5864.099526
662.156829	5860.606007
662.498168	5847.466239
662.839456	5828.264484
663.180693	5864.492736
663.521879	5865.949630
663.863013	5852.842630
664.204097	5872.210743
664.545129	5909.893368
664.886110	5907.894550
665.227040	5944.084994
665.567918	5909.235497
665.908746	5935.593170
666.249522	5944.281599
666.590248	5925.818373
666.930922	5954.694102
667.271545	5967.065094
667.612118	5973.532894
667.952639	5940.606598
668.293109	5966.162727
668.633528	5924.250574
668.973896	5923.479278
669.314213	5915.723462
669.654480	5899.006996
669.994695	5891.546088
670.334859	5883.618874
670.674973	5872.450198
671.015035	5881.768771
671.355047	5877.120827
671.695008	5862.130956
672.034918	5835.987532
672.374777	5848.794583
672.714585	5833.973591
673.054342	5836.806719
673.394049	5827.218445
673.733705	5862.579618
674.073310	5847.025138
674.412864	5810.166742
674.752368	5798.196522
675.091820	5801.924455
675.431223	5737.848869
675.770574	5738.804168
676.109875	5694.391603
676.449125	5694.207601
676.788324	5665.513353
677.127473	5606.284836
677.466571	5596.116829
677.805619	5582.087298
678.144616	5575.622018
678.483562	5553.171239
678.822458	5523.254512
679.161303	5520.391137
679.500098	5504.554352
679.838842	5492.654708
680.177535	5494.396427
680.516179	5510.896123
680.854771	5520.466754
681.193314	5599.403661
681.531805	5710.019180
681.870247	5863.968456
682.208638	5964.005113
682.546978	5973.265713
682.885268	5956.443383
683.223508	5864.754876
683.561697	5814.739068
683.899836	5782.027021
684.237925	5737.984981
684.575963	5704.355443
684.913951	5664.532848
685.251889	5726.075255
685.589776	5690.784657
685.927614	5662.531510
686.265401	5730.256892
686.603137	5719.617537
686.940824	5794.710564
687.278460	5820.042362
687.616046	5826.023691
687.953582	5892.478702
688.291068	5878.670982
688.628504	5939.069046
688.965889	5903.607049
689.303224	5846.964644
689.640510	5800.366739
689.977745	5722.715326
690.314930	5625.272342
690.652065	5570.041461
690.989150	5478.103417
691.326185	5400.056274
691.663170	5344.832954
692.000105	5272.883086
692.336990	5189.575498
692.673825	5163.863093
693.010610	5099.595943
693.347345	5033.864338
693.684030	5014.281976
694.020665	4974.124144
694.357251	4884.726842
694.693786	4898.158997
695.030272	4861.555179
695.366707	4825.100075
695.703093	4787.246050
696.039429	4811.657838
696.375716	4795.072442
696.711952	4771.938587
697.048139	4757.790588
697.384276	4736.683277
697.720363	4751.894959
698.056400	4757.004168
698.392388	4707.923495
698.728326	4685.578580
699.064214	4665.199716
699.400053	4660.682842
699.735842	4627.075990
700.071581	4598.946351
700.407270	4574.506838
700.742910	4558.785999
701.078501	4506.574769
701.414042	4502.146115
701.749533	4476.716015
702.084974	4409.829985
702.420366	4467.379798
702.755709	4408.277310
703.091002	4352.116336
703.426246	4401.149118
703.761440	4357.243189
704.096584	4315.376406
704.431679	4339.377340
704.766725	4324.979804
705.101721	4314.143844
705.436668	4343.085108
705.771565	4288.595277
706.106413	4315.278104
706.441212	4350.112477
706.775961	4356.141697
707.110661	4335.054550
707.445311	4366.377760
707.779913	4383.830234
708.114465	4398.011000
708.448967	4421.734670
708.783421	4479.891942
709.117825	4522.923231
709.452180	4528.816340
709.786485	4572.959203
710.120742	4662.240558
710.454949	4644.200789
710.789107	4713.216706
711.123216	4788.392913
711.457275	4778.408908
711.791286	4852.965052
712.125247	4871.312332
712.459159	4772.039410
712.793023	4845.206717
713.126837	4810.694977
713.460602	4804.360768
713.794318	4722.925968
714.127985	4726.137183
714.461602	4642.852281
714.795171	4615.340184
715.128691	4546.130182
715.462162	4492.265454
715.795584	4442.602527
716.128957	4422.092592
716.462281	4370.375395
716.795556	4343.057382
717.128782	4305.818379
717.461960	4236.590733
717.795088	4248.293772
718.128167	4209.860015
718.461198	4144.763596
718.794180	4143.518431
719.127113	4125.309783
719.459997	4100.098972
719.792833	4060.354516
720.125619	4051.489647
720.458357	4012.907176
720.791046	4019.455634
721.123686	3995.253055
721.456278	3950.301086
721.788821	3965.502685
722.121315	3938.308181
722.453761	3915.537289
722.786158	3927.958692
723.118506	3946.807566
723.450805	3905.981782
723.783056	3923.918207
724.115259	3941.015281
724.447412	3945.333029
724.779518	3940.410342
725.111574	3941.824386
725.443582	3972.696412
725.775542	3956.375676
726.107453	4007.535826
726.439315	4010.742000
726.771129	4022.074514
727.102895	4058.935431
727.434612	4110.997947
727.766281	4117.569091
728.097901	4121.753249
728.429473	4126.585195
728.760996	4129.435967
729.092471	4123.021099
729.423897	4108.026187
729.755276	4118.259729
730.086606	4117.289307
730.417887	4155.861696
730.749120	4220.406109
731.080305	4283.269298
731.411442	4311.885407
731.742530	4281.033546
732.073570	4281.832569
732.404562	4338.560673
732.735506	4332.851566
733.066401	4295.400834
733.397249	4228.837439
733.728048	4153.078979
734.058798	4066.051019
734.389501	3994.978312
734.720156	3936.513530
735.050762	3890.954102
735.381320	3882.575705
735.711831	3833.807582
736.042293	3800.772901
736.372707	3825.149401
736.703073	3795.935914
737.033391	3785.498205
737.363661	3804.790701
737.693883	3829.814988
738.024056	3838.735310
738.354182	3833.222808
738.684260	3899.004825
739.014290	3916.948812
739.344272	3915.267587
739.674207	3957.121767
740.004093	3963.899598
740.333931	3953.966005
740.663722	3955.765697
740.993464	3954.341571
741.323159	3931.709311
741.652806	3903.007501
741.982405	3873.731000
742.311956	3841.664221
742.641460	3833.852953
742.970915	3806.063592
743.300323	3769.381636
743.629683	3733.798652
743.958996	3724.689287
744.288260	3698.200544
744.617477	3666.227026
744.946647	3647.993172
745.275768	3623.518370
745.604842	3627.352168
745.933869	3574.656987
746.262847	3565.643403
746.591778	3606.854836
746.920662	3576.544899
747.249498	3545.682955
747.578286	3587.907659
747.907027	3606.718725
748.235720	3604.253601
748.564365	3630.719658
748.892963	3633.232674
749.221514	3615.603759
749.550017	3592.558124
749.878473	3587.441353
750.206881	3562.669123
750.535242	3556.380283
750.863555	3557.338102
751.191821	3555.319120
751.520039	3532.719628
751.848210	3512.439066
752.176334	3545.337636
752.504411	3552.629665
752.832440	3508.892614
753.160421	3492.730675
753.488356	3497.469359
753.816243	3514.223634
754.144082	3471.174701
754.471875	3456.540231
754.799620	3474.275011
755.127318	3468.245791
755.454969	3468.886017
755.782572	3474.653097
756.110129	3449.568316
756.437638	3439.349897
756.765100	3452.308183
757.092515	3464.308649
757.419882	3468.356696
757.747203	3441.552881
758.074477	3444.043211
758.401703	3461.861169
758.728882	3483.742298
759.056014	3491.838391
759.383099	3492.435767
759.710138	3489.206908
760.037129	3507.460926
760.364073	3539.063920
760.690970	3524.623535
761.017820	3500.635204
761.344623	3521.830735
761.671379	3562.664082
761.998088	3616.007051
762.324751	3740.813417
762.651366	3988.818022
762.977935	4465.811999
763.304456	4906.968413
763.630931	5003.945090
763.957359	4645.733300
764.283740	4299.418634
764.610074	4109.135241
764.936362	3905.913726
765.262602	3750.628544
765.588796	3634.689567
765.914943	3547.928789
766.241044	3463.882672
766.567097	3431.735234
766.893104	3383.420815
767.219064	3352.170703
767.544978	3327.320335
767.870845	3273.687499
768.196665	3252.300404
768.522438	3258.075046
768.848165	3254.846187
769.173846	3218.534755
769.499479	3200.184955
769.825066	3183.932275
770.150607	3167.057013
770.476101	3184.572502
770.801548	3181.089065
771.126949	3131.048051
771.452303	3118.447687
771.777611	3123.413223
772.102872	3130.228863
772.428087	3104.403032
772.753256	3092.896599
773.078378	3086.101123
773.403453	3050.079558
773.728482	3037.968186
774.053465	3061.638924
774.378401	3047.044784
774.703291	3015.746780
775.028135	3018.741226
775.352932	3013.536234
775.677683	2999.199193
776.002388	2997.573421
776.327046	2999.673061
776.651658	2990.243583
776.976224	2975.616675
777.300743	2977.786892
777.625216	2965.136116
777.949643	2963.013790
778.274024	2964.410190
778.598359	2954.353088
778.922647	2959.590847
779.246889	2959.542956
779.571086	2944.845472
779.895236	2937.432455
780.219339	2948.074331
780.543397	2958.880044
780.867409	2964.581589
781.191374	2955.570527
781.515294	2953.773355
781.839167	2953.591874
782.162995	2946.980401
782.486776	2954.927780
782.810511	2950.988118
783.134201	2937.545881
783.457844	2942.965122
783.781441	2935.773916
784.104993	2910.643764
784.428498	2916.168868
784.751958	2928.610436
785.075372	2925.462235
785.398739	2909.817014
785.722061	2921.893098
786.045337	2936.290634
786.368568	2919.889240
786.691752	2911.876326
787.014891	2961.191413
787.337983	2989.298367
787.661030	3019.338602
787.984031	3087.996597
788.306987	3132.255407
788.629897	3124.320631
788.952760	3108.924947
789.275579	3094.033379
789.598351	3035.510624
789.921078	2988.781648
790.243759	2977.212200
790.566395	2964.566466
790.888984	2940.827672
791.211529	2922.858479
791.534027	2913.436563
791.856480	2901.547002
792.178888	2886.723489
792.501249	2881.301728
792.823566	2875.184287
793.145836	2872.661190
793.468062	2868.703884
793.790241	2868.235057
794.112375	2875.390975
794.434464	2888.659292
794.756507	2891.812533
795.078505	2896.163049
795.400457	2911.145358
795.722364	2946.383024
796.044226	2971.072075
796.366042	2977.638178
796.687812	2962.776856
797.009538	2985.938438
797.331218	2975.145327
797.652852	2955.699076
797.974442	2935.037907
798.295986	2935.484049
798.617484	2930.147988
798.938938	2914.946388
799.260346	2900.710170
799.581709	2892.591392
799.903026	2883.446739
800.224299	2882.499002
800.545526	2868.638349
800.866708	2856.491689
801.187845	2847.024402
801.508936	2847.689834
801.829983	2855.475897
802.150984	2841.499297
802.471940	2830.675940
802.792851	2829.110662
803.113717	2830.146619
803.434538	2834.943277
803.755314	2825.329797
804.076045	2820.696976
804.396731	2818.632624
804.717372	2820.737305
805.037967	2816.926193
805.358518	2820.502892
805.679024	2833.725838
805.999485	2830.978409
806.319901	2835.487722
806.640272	2825.138233
806.960598	2831.084274
807.280879	2841.489215
807.601115	2845.612879
807.921306	2833.229285
808.241453	2830.552432
808.561554	2834.996209
808.881611	2839.301354
809.201623	2833.758606
809.521590	2833.002433
809.841513	2828.218378
810.161390	2832.941939
810.481223	2827.585713
810.801011	2815.318065
811.120755	2811.706078
811.440453	2816.797644
811.760107	2813.800678
812.079716	2814.123312
812.399281	2803.834317
812.718801	2796.663275
813.038276	2793.956176
813.357707	2798.851136
813.677093	2805.515541
813.996434	2797.840385
814.315731	2798.301650
814.634983	2789.378808
814.954191	2792.065743
815.273354	2805.434883
815.592473	2815.136583
815.911547	2815.018116
816.230577	2824.044302
816.549562	2835.076867
816.868502	2832.193327
817.187399	2842.842765
817.506250	2856.995804
817.825058	2850.585977
818.143821	2867.698174
818.462539	2879.073538
818.781213	2908.408012
819.099843	2943.461675
819.418429	3002.670027
819.736970	3066.349883
820.055466	3140.822848
820.373919	3245.416708
820.692327	3388.280488
821.010691	3557.585119
821.329011	4003.104652
821.647286	4910.845060
821.965517	6310.332382
822.283704	7068.842034
822.601847	7055.031793
822.919945	6412.488845
823.237999	5899.226286
823.556010	5302.454494
823.873976	4743.514041
824.191897	4333.486752
824.509775	4030.765463
824.827609	3759.569030
825.145398	3636.055720
825.463144	3623.654481
825.780845	3713.908779
826.098502	3814.061383
826.416116	4101.591154
826.733685	4423.846914
827.051210	4489.858303
827.368692	4374.657855
827.686129	4103.859673
828.003522	3778.803553
828.320872	3514.866381
828.638177	3315.183757
828.955439	3178.563447
829.272656	3094.345930
829.589830	3026.681043
829.906960	2974.157261
830.224046	2927.420724
830.541088	2893.440826
830.858086	2880.117057
831.175041	2861.830271
831.491952	2861.401773
831.808819	2876.323588
832.125642	2901.342835
832.442421	2947.958384
832.759157	3027.522916
833.075849	3209.201059
833.392497	3489.516939
833.709101	3701.232798
834.025662	3648.444355
834.342179	3487.467710
834.658653	3307.702685
834.975083	3153.947492
835.291469	3060.240004
835.607811	2971.737507
835.924110	2912.728281
836.240366	2859.062678
836.556578	2817.790751
836.872746	2795.831485
837.188871	2773.191663
837.504952	2755.814806
837.820990	2744.996489
838.136984	2732.668348
838.452935	2724.534446
838.768842	2725.562841
839.084706	2743.269894
839.400526	2822.521874
839.716303	2957.614715
840.032037	3039.740152
840.347727	3027.109541
840.663373	2961.703090
840.978977	2886.390773
841.294537	2812.754638
841.610054	2764.924171
841.925527	2740.653535
842.240957	2717.338199
842.556344	2697.619726
842.871687	2681.636747
843.186987	2673.954029
843.502244	2667.340035
843.817458	2664.529592
844.132629	2648.707930
844.447756	2640.929430
844.762840	2636.352062
845.077881	2637.433390
845.392879	2637.138482
845.707833	2634.234778
846.022745	2622.574589
846.337613	2626.236987
846.652438	2626.756226
846.967221	2626.642800
847.281960	2625.813530
847.596656	2626.915022
847.911309	2623.555093
848.225919	2619.101234
848.540485	2616.744494
848.855009	2614.672580
849.169490	2618.176182
849.483928	2617.634258
849.798323	2612.890532
850.112675	2613.535800
850.426984	2613.760131
850.741251	2611.859616
851.055474	2613.193002
851.369654	2617.346912
851.683792	2616.804988
851.997887	2613.311469
852.311938	2611.383227
852.625947	2612.915738
852.939914	2615.206942
853.253837	2616.442025
853.567718	2613.387086
853.881555	2612.260388
854.195350	2616.399175
854.509103	2615.030502
854.822812	2613.135028
855.136479	2613.780296
855.450103	2613.266098
855.763685	2616.812550
856.077224	2612.726695
856.390720	2611.360542
856.704173	2612.202415
857.017584	2617.122581
857.330953	2618.786162
857.644278	2623.837398
857.957561	2618.758435
858.270802	2618.634927
858.584000	2617.266254
858.897155	2617.919083
859.210268	2619.892695
859.523339	2615.222066
859.836367	2614.579319
860.149352	2610.664863
860.462295	2614.138218
860.775195	2611.042949
861.088054	2611.995728
861.400869	2609.034050
861.713642	2604.686054
862.026373	2610.175871
862.339062	2609.139914
862.651708	2615.741305
862.964312	2614.614607
863.276873	2614.816253
863.589392	2619.330606
863.901869	2624.439816
864.214303	2627.388891
864.526696	2629.571710
864.839045	2631.731845
865.151353	2634.411218
865.463619	2631.923409
865.775842	2636.480612
866.088023	2636.641929
866.400162	2634.494397
866.712258	2633.118162
867.024313	2632.079684
867.336325	2628.865949
867.648296	2632.477936
867.960224	2635.535395
868.272110	2636.440282
868.583954	2630.020373
868.895755	2629.259159
869.207515	2634.713687
869.519233	2640.450520
869.830909	2638.486991
870.142542	2634.970786
870.454134	2635.721918
870.765684	2644.352373
871.077191	2643.460089
871.388657	2645.327837
871.700081	2643.578556
872.011463	2644.604431
872.322803	2645.801705
872.634101	2648.869247
872.945357	2657.809734
873.256571	2662.026659
873.567744	2658.225629
873.878874	2657.817295
874.189963	2657.769404
874.501010	2665.167298
874.812015	2669.464881
875.122979	2670.841116
875.433900	2659.710249
875.744780	2658.759991
876.055618	2666.399860
876.366415	2669.911023
876.677169	2668.451609
876.987882	2664.774088
877.298554	2663.297030
877.609183	2675.181550
877.919771	2681.596418
878.230317	2687.991122
878.540822	2699.479911
878.851285	2712.095399
879.161707	2738.117835
879.472087	2775.319030
879.782425	2825.372646
880.092722	2941.893876
880.402977	3135.915285
880.713191	3403.708939
881.023363	3706.904096
881.333494	3901.767377
881.643583	4079.707505
881.953631	4077.663317
882.263637	3895.171027
882.573602	3671.873118
882.883526	3536.450082
883.193408	3418.615631
883.503248	3312.847182
883.813048	3194.027186
884.122806	3077.206007
884.432522	2991.622338
884.742197	2923.672626
885.051831	2886.012686
885.361424	2850.071780
885.670975	2812.031233
885.980485	2780.455966
886.289954	2760.445105
886.599382	2744.285687
886.908768	2736.940726
887.218113	2715.747715
887.527417	2702.834799
887.836680	2694.915147
888.145901	2686.708148
888.455082	2679.635409
888.764221	2667.342556
889.073319	2659.861483
889.382376	2659.304436
889.691392	2659.879127
890.000366	2662.399704
890.309300	2657.484579
890.618193	2661.625887
890.927044	2664.852226
891.235855	2663.975065
891.544625	2662.190496
891.853353	2663.173521
892.162041	2671.982938
892.470687	2691.381298
892.779293	2703.913606
893.087858	2714.736963
893.396381	2739.456261
893.704864	2779.535955
894.013306	2851.944568
894.321707	2951.361163
894.630068	3000.305726
894.938387	3021.806247
895.246665	3011.902900
895.554903	2970.920840
895.863100	2924.809406
896.171256	2865.296064
896.479371	2802.571507
896.787446	2761.007194
897.095480	2742.150758
897.403473	2736.406363
897.711425	2721.640824
898.019336	2704.309337
898.327207	2688.008766
898.635038	2684.364012
898.942827	2684.744619
899.250576	2673.275994
899.558284	2661.116731
899.865952	2656.284785
900.173579	2654.175062
900.481165	2652.544248
900.788711	2643.941519
901.096216	2637.425828
901.403681	2635.240488
901.711105	2637.093112
902.018489	2632.261166
902.325832	2637.178812
902.633135	2636.730149
902.940397	2654.943838
903.247619	2690.756195
903.554800	2764.392329
903.861941	2893.400497
904.169041	3026.547452
904.476101	3094.229984
904.783121	3087.431988
905.090100	3027.830426
905.397039	2949.979887
905.703938	2871.153885
906.010796	2805.742393
906.317614	2753.934455
906.624391	2713.590101
906.931129	2687.116482
907.237826	2663.420538
907.544483	2643.765079
907.851099	2630.380816
908.157675	2621.261368
908.464211	2614.889350
908.770707	2600.698502
909.077163	2599.498707
909.383578	2593.966041
909.689954	2593.716504
909.996289	2593.209868
910.302584	2591.153077
910.608839	2587.266347
910.915054	2587.508323
911.221229	2589.434043
911.527363	2592.083170
911.833458	2590.293560
912.139513	2594.976792
912.445527	2594.543253
912.751502	2598.795466
913.057436	2606.165633
913.363331	2612.076386
913.669186	2625.581637
913.975000	2637.899697
914.280775	2653.345792
914.586510	2675.393278
914.892205	2713.043136
915.197859	2782.424536
915.503475	2869.777650
915.809050	2941.089812
916.114585	2953.725464
916.420081	2969.496714
916.725536	2979.279073
917.030952	2952.941565
917.336328	2904.851478
917.641665	2851.251410
917.946961	2801.112093
918.252218	2765.019952
918.557435	2739.612537
918.862612	2714.442056
919.167750	2692.515557
919.472848	2678.821263
919.777906	2659.639672
920.082925	2648.657519
920.387904	2638.169398
920.692843	2633.009777
920.997743	2628.555918
921.302603	2617.039402
921.607423	2611.231993
921.912204	2608.434152
922.216946	2605.210334
922.521647	2604.078595
922.826310	2597.814962
923.130932	2594.888572
923.435516	2587.828436
923.740059	2588.962696
924.044564	2583.724937
924.349028	2581.960533
924.653454	2571.618606
924.957840	2572.873853
925.262186	2568.833368
925.566493	2574.182032
925.870761	2564.150136
926.174989	2567.263049
926.479178	2564.061916
926.783328	2564.137533
927.087438	2562.403377
927.391509	2563.373799
927.695541	2560.480176
927.999533	2558.564538
928.303486	2557.458005
928.607400	2557.505896
928.911275	2556.406924
929.215110	2557.815927
929.518906	2553.977088
929.822663	2557.344579
930.126381	2556.028838
930.430060	2557.624363
930.733699	2558.579661
931.037299	2559.227450
931.340861	2560.782646
931.644383	2560.631411
931.947866	2557.150494
932.251309	2556.169990
932.554714	2556.573282
932.858080	2560.303736
933.161407	2555.504557
933.464694	2553.110009
933.767943	2555.698642
934.071153	2557.485731
934.374323	2557.410114
934.677455	2557.057233
934.980548	2552.595812
935.283602	2554.534135
935.586617	2555.088662
935.889593	2554.241748
936.192530	2554.140925
936.495428	2552.174875
936.798287	2556.653941
937.101108	2553.861141
937.403890	2562.529405
937.706632	2560.691905
938.009336	2566.499314
938.312002	2569.092988
938.614628	2573.181363
938.917216	2576.069945
939.219765	2579.744946
939.522275	2578.134297
939.824747	2575.833010
940.127179	2573.135993
940.429573	2571.308575
940.731929	2570.786815
941.034246	2567.968810
941.336524	2567.134499
941.638763	2567.590724
941.940964	2569.236661
942.243126	2565.264231
942.545250	2563.736762
942.847335	2564.671896
943.149381	2563.451937
943.451389	2562.355486
943.753359	2559.693756
944.055290	2559.671071
944.357182	2557.321893
944.659036	2559.262738
944.960851	2557.629404
945.262628	2556.346430
945.564367	2558.650238
945.866067	2555.829712
946.167729	2557.737789
946.469352	2557.941955
946.770937	2558.471277
947.072484	2556.248128
947.373992	2557.326935
947.675462	2553.142777
947.976893	2557.251317
948.278286	2557.861297
948.579641	2554.264434
948.880958	2553.853580
949.182236	2553.835936
949.483476	2555.025648
949.784678	2553.972047
950.085841	2555.386090
950.386967	2555.751574
950.688054	2554.831563
950.989103	2555.393652
951.290114	2556.749723
951.591087	2557.750392
951.892021	2559.265258
952.192917	2561.231308
952.493776	2561.158212
952.794596	2562.272307
953.095378	2564.402194
953.396122	2563.426731
953.696828	2561.695094
953.997496	2556.081770
954.298126	2557.331976
954.598718	2558.395659
954.899272	2554.750905
955.199788	2555.302911
955.500266	2552.583209
955.800706	2547.453835
956.101108	2547.537014
956.401472	2547.922662
956.701798	2542.226158
957.002087	2542.848741
957.302337	2545.301262
957.602550	2545.306303
957.902724	2543.373021
958.202861	2544.361087
958.502960	2542.395037
958.803022	2543.635161
959.103045	2541.477547
959.403031	2541.313709
959.702979	2540.892773
960.002889	2540.660880
960.302762	2542.800850
960.602596	2538.430169
960.902393	2538.442772
961.202153	2539.529141
961.501875	2539.360262
961.801559	2540.033256
962.101205	2538.599048
962.400814	2537.951260
962.700385	2538.909079
962.999918	2538.798174
963.299414	2539.582073
963.598873	2540.192053
963.898293	2539.829090
964.197677	2536.128883
964.497022	2538.936805
964.796331	2536.862371
965.095601	2537.931095
965.394835	2539.138452
965.694030	2535.776002
965.993189	2539.720705
966.292309	2538.725077
966.591393	2535.155940
966.890439	2536.844727
967.189447	2535.465971
967.488419	2536.234747
967.787353	2537.510159
968.086249	2536.711136
968.385108	2538.162988
968.683930	2538.954449
968.982714	2536.605272
969.281462	2534.082174
969.580172	2538.470499
969.878844	2537.951260
970.177480	2537.386651
970.476078	2538.213400
970.774639	2536.360776
971.073162	2537.898328
971.371649	2536.423790
971.670098	2537.119469
971.968510	2537.641229
972.266885	2535.108049
972.565223	2540.015612
972.863524	2539.143493
973.161788	2538.654501
973.460014	2538.566281
973.758204	2540.018133
974.056356	2537.363965
974.354471	2540.096271
974.652550	2538.079809
974.950591	2540.300437
975.248595	2539.690458
975.546563	2539.209028
975.844493	2538.107536
976.142386	2539.410674
976.440243	2538.740200
976.738062	2537.684079
977.035845	2536.955632
977.333590	2539.962680
977.631299	2536.348173
977.928971	2537.706764
978.226606	2537.119469
978.524204	2538.301620
978.821765	2537.081661
979.119290	2537.053934
979.416777	2537.167360
979.714228	2538.278935
980.011642	2537.653832
980.309020	2539.428318
980.606360	2537.757175
980.903664	2539.025026
981.200931	2538.717515
981.498162	2537.331198
981.795356	2539.327495
982.092513	2544.351005
982.389633	2545.611293
982.686717	2549.107333
982.983764	2553.752757
983.280775	2555.476831
983.577749	2552.361398
983.874686	2551.098589
984.171587	2548.459545
984.468451	2547.214380
984.765279	2548.827549
985.062070	2543.546941
985.358824	2540.716333
985.655543	2539.400592
985.952224	2536.093595
986.248869	2537.376568
986.545478	2533.890610
986.842050	2535.244160
987.138586	2533.313398
987.435086	2532.837009
987.731549	2531.899355
988.027975	2536.393543
988.324366	2538.110056
988.620719	2535.627288
988.917037	2537.074099
989.213318	2536.854809
989.509563	2530.644107
989.805772	2535.019829
990.101944	2532.164015
990.398080	2533.998995
990.694180	2533.739376
990.990244	2532.095960
991.286271	2530.142512
991.582262	2531.443130
991.878217	2533.023532
992.174136	2534.182997
992.470019	2531.871628
992.765865	2533.484797
993.061676	2533.406660
993.357450	2536.227185
993.653188	2534.117462
993.948890	2534.238450
994.244556	2533.893131
994.540186	2536.648122
994.835780	2536.401105
995.131337	2535.007226
995.426859	2534.551002
995.722345	2536.028060
996.017795	2536.418749
996.313208	2540.159285
996.608586	2537.421939
996.903928	2539.680376
997.199234	2537.404295
997.494504	2534.911444
997.789738	2536.955632
998.084936	2535.163502
998.380099	2534.601413
998.675225	2535.264325
998.970316	2535.362627
999.265371	2535.450847
999.560390	2532.489170
999.855373	2533.618388
1000.150320	2533.560415
1000.445232	2534.314067
1000.740108	2533.603265
1001.034948	2531.682585
1001.329752	2530.760054
1001.624521	2533.502442
1001.919254	2528.592358
1002.213951	2531.531350
1002.508613	2531.107893
1002.803239	2532.002698
1003.097829	2526.412059
1003.392384	2531.783408
1003.686903	2535.077802
1003.981386	2530.094622
1004.275834	2532.335414
1004.570246	2533.323481
1004.864623	2530.329035
1005.158964	2532.990764
1005.453270	2531.821217
1005.747540	2532.910106
1006.041775	2531.891793
1006.335974	2530.013963
1006.630138	2531.823737
1006.924266	2533.532688
1007.218359	2532.201824
1007.512416	2529.829961
1007.806438	2530.588655
1008.100425	2530.538243
1008.394376	2531.561597
1008.688292	2531.833820
1008.982172	2531.329704
1009.276017	2531.790970
1009.569827	2531.261649
1009.863602	2532.786598
1010.157341	2530.260980
1010.451045	2531.448171
1010.744714	2529.547656
1011.038347	2532.620240
1011.331945	2528.085722
1011.625508	2532.080836
1011.919036	2530.568490
1012.212528	2530.528161
1012.505986	2531.980013
1012.799408	2528.972965
1013.092795	2532.012781
1013.386147	2531.821217
1013.679464	2529.978675
1013.972745	2532.133768
1014.265992	2531.682585
1014.559204	2531.475898
1014.852380	2530.475229
1015.145521	2531.848943
1015.438628	2529.620753
1015.731699	2532.335414
1016.024736	2528.494055
1016.317737	2533.018491
1016.610703	2532.773995
1016.903635	2530.069416
1017.196531	2525.494569
1017.489393	2530.104704
1017.782219	2528.078160
1018.075011	2530.001360
1018.367768	2530.114786
1018.660490	2528.801566
1018.953177	2528.801566
1019.245829	2528.801566
