Dividing Wavelength (nm)	Counts (n)	Blue Motor Position (mm): 32.800000	Red Motor Position (mm): 0.000000	
326.493990	2128.682664
326.888308	2128.682664
327.282561	2128.682664
327.676750	2096.265524
328.070874	2094.586820
328.464933	2099.174270
328.858929	2104.686772
329.252859	2114.736312
329.646726	2126.260390
330.040528	2140.141207
330.434265	2154.503454
330.827938	2171.902997
331.221547	2191.477797
331.615091	2210.094778
332.008571	2229.833416
332.401986	2252.004411
332.795338	2269.156937
333.188625	2289.886161
333.581847	2306.637916
333.975006	2324.667602
334.368100	2343.821466
334.761129	2362.146061
335.154095	2376.049563
335.546996	2398.679303
335.939833	2424.525298
336.332606	2438.600200
336.725315	2448.604370
337.117960	2461.850001
337.510540	2470.379634
337.903056	2481.860862
338.295508	2486.402941
338.687896	2494.357882
339.080220	2505.118225
339.472480	2509.491426
339.864676	2515.729854
340.256807	2520.488703
340.648875	2520.922242
341.040879	2527.727800
341.432818	2525.366019
341.824694	2529.769467
342.216506	2529.890455
342.608253	2527.753006
342.999937	2527.276617
343.391557	2523.974661
343.783113	2523.483148
344.174605	2526.480114
344.566033	2524.655217
344.957397	2520.466018
345.348697	2522.616070
345.739934	2518.580626
346.131106	2517.461490
346.522215	2515.515605
346.913260	2512.679956
347.304241	2513.249606
347.695159	2510.189626
348.086012	2509.935047
348.476802	2505.798781
348.867528	2507.263236
349.258191	2505.657628
349.648789	2504.581342
350.039324	2499.880466
350.429796	2501.274345
350.820203	2497.337204
351.210548	2496.099601
351.600828	2498.373161
351.991045	2496.512975
352.381198	2495.063643
352.771288	2493.304281
353.161314	2496.414673
353.551276	2495.101452
353.941175	2495.086329
354.331010	2495.713952
354.720782	2493.626915
355.110490	2495.585403
355.500135	2494.995588
355.889717	2494.950218
356.279235	2494.294867
356.668689	2496.896103
357.058080	2494.831750
357.447408	2494.804024
357.836672	2491.915443
358.225873	2494.511637
358.615010	2493.115238
359.004084	2498.947852
359.393095	2499.247801
359.782043	2498.416011
360.170927	2499.315857
360.559748	2500.485404
360.948505	2500.394664
361.337199	2499.451968
361.725830	2503.429438
362.114398	2504.730056
362.502903	2502.532113
362.891344	2501.843995
363.279722	2506.302896
363.668037	2502.453975
364.056289	2502.491784
364.444478	2504.956908
364.832603	2505.352638
365.220665	2506.900273
365.608665	2505.254336
365.996601	2504.712412
366.384474	2505.307268
366.772284	2505.662669
367.160031	2506.658297
367.547715	2506.441528
367.935336	2507.462361
368.322893	2509.609893
368.710388	2509.526714
369.097820	2511.580984
369.485189	2508.168123
369.872495	2509.002434
370.259738	2507.364059
370.646918	2510.388751
371.034035	2507.459841
371.421090	2510.315654
371.808081	2509.451097
372.195010	2509.433452
372.581875	2512.624503
372.968678	2511.296159
373.355418	2511.825480
373.742096	2513.622651
374.128710	2511.643998
374.515262	2512.233813
374.901751	2512.788340
375.288177	2512.647188
375.674540	2511.608710
376.060841	2513.393279
376.447079	2513.317662
376.833254	2512.664832
377.219367	2509.370438
377.605417	2510.121570
377.991404	2510.050994
378.377329	2514.290604
378.763191	2508.752897
379.148991	2513.960409
379.534727	2517.889988
379.920402	2516.022241
380.306013	2515.329082
380.691563	2514.620800
381.077049	2515.389576
381.462474	2516.246572
381.847835	2514.439318
382.233134	2516.695235
382.618371	2517.048115
383.003545	2516.765811
383.388657	2517.514422
383.773706	2517.511902
384.158693	2520.294618
384.543618	2516.952333
384.928480	2519.377128
385.313280	2516.385204
385.698017	2516.912004
386.082692	2521.539783
386.467305	2521.804444
386.851856	2518.550379
387.236344	2520.387880
387.620770	2519.359484
388.005133	2518.731861
388.389435	2522.154804
388.773674	2521.113806
389.157851	2519.813188
389.541965	2523.246214
389.926018	2521.035668
390.310008	2523.228570
390.693936	2523.258817
391.077802	2522.023734
391.461606	2521.481810
391.845348	2523.316790
392.229027	2523.677233
392.612645	2524.211595
392.996200	2525.323169
393.379694	2525.234949
393.763125	2525.232429
394.146494	2522.815195
394.529801	2525.436595
394.913047	2526.414579
395.296230	2527.090094
395.679351	2526.991791
396.062410	2528.017666
396.445408	2528.794004
396.828343	2527.667306
397.211217	2521.625483
397.594028	2526.054137
397.976778	2525.338293
398.359466	2527.092614
398.742092	2526.119672
399.124656	2529.063706
399.507158	2530.069416
399.889598	2530.964221
400.271977	2527.410207
400.654294	2533.915816
401.036549	2531.896834
401.418742	2532.569828
401.800874	2531.990095
402.182944	2534.664427
402.564952	2532.088398
402.946898	2531.859025
403.328783	2531.715353
403.710606	2532.877338
404.092367	2533.948584
404.474067	2535.902031
404.855705	2533.104190
405.237282	2534.898841
405.618797	2535.685261
406.000250	2534.619057
406.381642	2537.212731
406.762972	2536.943029
407.144240	2539.904707
407.525447	2538.901517
407.906593	2538.394881
408.287677	2540.696168
408.668700	2537.248019
409.049661	2541.638864
409.430560	2540.202135
409.811399	2540.592824
410.192176	2542.768082
410.572891	2547.733619
410.953545	2547.171530
411.334138	2549.180430
411.714669	2553.309135
412.095139	2555.045812
412.475547	2556.981616
412.855894	2562.587379
413.236180	2569.249263
413.616405	2573.914851
413.996568	2583.127560
414.376670	2587.263827
414.756711	2590.437233
415.136691	2604.867536
415.516609	2615.600152
415.896466	2623.537449
416.276262	2637.541775
416.655997	2647.432518
417.035670	2665.162257
417.415283	2686.771162
417.794834	2697.133254
418.174324	2707.157589
418.553753	2721.305587
418.933121	2747.252406
419.312428	2772.085130
419.691674	2786.447377
420.070859	2818.156235
420.449983	2830.517144
420.829045	2865.258256
421.208047	2880.411964
421.586988	2912.342633
421.965867	2942.415636
422.344686	2993.555621
422.723444	2995.627535
423.102141	2994.140395
423.480777	3073.200811
423.859352	3064.809810
424.237866	3150.388438
424.616319	3181.600742
424.994712	3241.519896
425.373044	3249.810074
425.751314	3327.753874
426.129524	3319.015034
426.507673	3410.171698
426.885762	3470.947849
427.263789	3502.165194
427.641756	3498.457426
428.019662	3589.356991
428.397508	3636.612767
428.775292	3670.464115
429.153016	3749.960591
429.530679	3767.513889
429.908282	3849.190663
430.285824	3838.332018
430.663305	4011.488091
431.040726	3944.198769
431.418086	3990.292559
431.795385	4091.077828
432.172624	4145.333246
432.549802	4195.749826
432.926920	4251.658742
433.303977	4299.864776
433.680974	4373.634501
434.057910	4434.536680
434.434786	4489.200432
434.811601	4512.571221
435.188355	4708.074729
435.565050	4679.400646
435.941683	4710.050862
436.318257	4904.137805
436.694770	4939.075522
437.071222	5013.480432
437.447614	5011.171584
437.823946	4988.995548
438.200218	5149.430269
438.576429	5090.184108
438.952580	5209.057037
439.328670	5284.422287
439.704700	5247.054734
440.080670	5277.468015
440.456580	5535.814547
440.832429	5478.680630
441.208218	5382.979365
441.583947	5545.213778
441.959616	5579.637297
442.335224	5550.391043
442.710773	5698.263209
443.086261	5757.458958
443.461689	5597.147745
443.837057	5757.000213
444.212365	5925.465492
444.587612	5847.045303
444.962800	6019.641808
445.337927	6020.692888
445.712995	5684.853740
446.088002	6242.664974
446.462949	6096.680721
446.837837	6051.695984
447.212664	6231.440845
447.587431	6389.425566
447.962139	6917.315032
448.336786	7820.914133
448.711374	7584.607525
449.085901	6712.185441
449.460369	6646.095914
449.834776	6594.386278
450.209124	6986.159549
450.583412	7147.378170
450.957640	7293.995088
451.331808	7068.867240
451.705917	6642.804040
452.079965	6571.806950
452.453954	6785.418283
452.827883	6672.211611
453.201752	6768.774913
453.575562	6569.808133
453.949311	6778.161542
454.323001	6672.151118
454.696632	6747.687767
455.070202	6888.653552
455.443713	7044.137860
455.817164	7144.227449
456.190556	7228.437403
456.563888	7308.269116
456.937160	7351.575148
457.310373	7012.350864
457.683526	7039.661315
458.056619	6925.695950
458.429653	6919.086997
458.802628	6852.979827
459.175542	6960.348842
459.548398	7321.693708
459.921194	7477.876216
460.293930	7486.060529
460.666607	8011.169799
461.039224	8315.552148
461.411782	8446.296993
461.784280	8461.546484
462.156719	8355.415072
462.529099	8233.293120
462.901419	7825.839340
463.273680	7715.985036
463.645882	7731.652942
464.018024	7598.891635
464.390106	7767.480422
464.762130	8152.201119
465.134094	8625.419272
465.505999	9639.051637
465.877845	10855.020795
466.249631	11505.644713
466.621358	11121.629778
466.993026	10491.455300
467.364634	10238.699408
467.736184	9877.868739
468.107674	9550.229027
468.479105	9575.812883
468.850477	9344.723870
469.221790	9115.946226
469.593043	8788.674519
469.964238	8654.214343
470.335373	8663.341352
470.706449	8723.434426
471.077467	8706.130666
471.448425	10006.176187
471.819324	11082.407080
472.190164	11099.158835
472.560945	9853.484678
472.931667	9063.918998
473.302330	8934.903268
473.672934	8576.164678
474.043479	8938.384185
474.413965	8884.002738
474.784393	8765.654090
475.154761	8912.858302
475.525070	9007.112756
475.895321	8832.058689
476.265513	9008.771296
476.635645	9175.706585
477.005719	9178.915279
477.375734	9293.203278
477.745691	9520.992856
478.115588	9664.327983
478.485427	9900.690043
478.855207	10440.348082
479.224928	11253.022412
479.594591	11879.370654
479.964194	11690.052642
480.333739	11622.251643
480.703226	11546.702391
481.072653	11632.775052
481.442022	11871.743388
481.811333	12057.081409
482.180584	11871.675332
482.549777	11575.946124
482.918912	11402.724516
483.287988	11421.548185
483.657005	11433.231059
484.025964	11121.246650
484.394864	11254.451579
484.763706	11222.014274
485.132489	10966.112702
485.501213	10939.959196
485.869879	11011.324291
486.238487	10860.369459
486.607036	10970.032199
486.975527	10746.031049
487.343959	10947.677203
487.712333	10985.579118
488.080648	10919.676114
488.448905	10958.787906
488.817104	10902.082487
489.185244	11163.423464
489.553326	11323.076806
489.921350	11865.073941
490.289315	12925.594079
490.657222	13257.334769
491.025070	13169.283456
491.392861	13042.415257
491.760593	12661.392247
492.128267	12316.133702
492.495883	11988.698157
492.863440	11646.403811
493.230939	11311.499796
493.598380	11253.619788
493.965763	11111.020670
494.333088	11016.075578
494.700354	10936.417786
495.067563	10998.534883
495.434713	10830.672022
495.801805	10958.732453
496.168839	10883.087419
496.535815	10818.250619
496.902733	10823.735394
497.269593	10751.377193
497.636395	10852.646412
498.003139	10843.027890
498.369825	10705.414472
498.736453	10865.448422
499.103023	10792.492843
499.469535	10823.768162
499.835989	10814.759620
500.202385	10774.785790
500.568723	10624.947575
500.935003	10852.795126
501.301226	10652.631071
501.667390	10917.513459
502.033497	11012.730773
502.399546	10867.132167
502.765537	10776.083888
503.131470	10848.011071
503.497345	11023.894408
503.863163	10636.554831
504.228923	10942.615884
504.594625	11011.140288
504.960269	10747.800494
505.325856	10971.461367
505.691385	10768.317990
506.056856	10921.932030
506.422270	10951.924375
506.787625	10838.165697
507.152924	10960.101126
507.518164	10935.021386
507.883347	10855.666063
508.248472	10784.547985
508.613540	11007.699701
508.978550	10896.171734
509.343503	10868.725172
509.708398	10988.371917
510.073236	11097.989287
510.438016	11104.739392
510.802738	11049.437934
511.167403	11117.105342
511.532010	11009.660710
511.896561	11231.968033
512.261053	11303.040740
512.625488	11178.350320
512.989866	11163.541931
513.354186	11150.865950
513.718449	11047.058510
514.082655	11241.843653
514.446803	11135.820626
514.810894	11263.376942
515.174927	11121.614654
515.538904	11149.887966
515.902822	11306.060391
516.266684	11187.076558
516.630488	11132.783331
516.994235	11187.091681
517.357925	11244.308777
517.721558	11338.245638
518.085133	11353.333812
518.448651	11356.255160
518.812112	11237.183106
519.175516	11259.901066
519.538863	11380.714839
519.902152	11302.352623
520.265385	11458.081427
520.628560	11371.232428
520.991678	11347.589417
521.354739	11410.387070
521.717743	11344.295023
522.080690	11323.916158
522.443580	11459.603855
522.806413	11409.867831
523.169189	11439.958479
523.531908	11495.083496
523.894569	11312.470218
524.257174	11326.587970
524.619722	11446.015425
524.982213	11389.758669
525.344647	11444.487955
525.707025	11391.495346
526.069345	11488.497228
526.431608	11405.633262
526.793815	11509.697801
527.155964	11301.631738
527.518057	11355.960253
527.880093	11299.834566
528.242072	11372.205371
528.603995	11269.040678
528.965860	11200.453259
529.327669	11249.158367
529.689421	11197.050481
530.051117	11171.116265
530.412755	11272.982860
530.774337	11161.076807
531.135862	11140.385391
531.497331	11170.108034
531.858743	11026.301559
532.220098	11184.198059
532.581396	11055.741897
532.942638	11044.056503
533.303824	11002.396407
533.664953	11016.191525
534.026025	10934.265213
534.387040	11028.519666
534.747999	11031.504029
535.108902	11082.361710
535.469748	10846.937305
535.830537	10951.125352
536.191270	10930.312948
536.551947	10957.900663
536.912567	10953.303130
537.273131	10879.533406
537.633638	10855.834941
537.994089	10851.907883
538.354483	10795.348657
538.714821	10940.216295
539.075103	10947.324322
539.435328	10910.816286
539.795497	10737.667775
540.155609	10898.263813
540.515665	10988.321506
540.875665	10718.627337
541.235609	10786.771134
541.595496	10782.531523
541.955328	10935.916191
542.315102	10824.335292
542.674821	10771.592219
543.034483	10776.542633
543.394090	10778.128075
543.753640	10712.419156
544.113134	10921.304406
544.472571	10779.491708
544.831953	10922.526886
545.191278	10730.504295
545.550548	10759.962278
545.909761	10894.979501
546.268918	10871.800276
546.628019	10956.305138
546.987064	10816.922275
547.346053	10750.835268
547.704986	10840.325832
548.063863	10824.204222
548.422684	10817.502008
548.781449	10739.018804
549.140158	10841.739875
549.498811	10715.532068
549.857408	10571.844060
550.215949	10800.069697
550.574434	10648.162088
550.932864	10751.886349
551.291237	10811.455143
551.649555	10760.010168
552.007817	10769.795048
552.366022	10730.693338
552.724173	10728.384490
553.082267	10708.749196
553.440305	10843.900010
553.798288	10654.279528
554.156215	10801.657661
554.514086	10782.720567
554.871902	10622.598397
555.229661	10664.644141
555.587365	10651.925309
555.945014	10537.244101
556.302606	10658.070476
556.660143	10557.149097
557.017625	10715.494259
557.375050	10610.325708
557.732421	10739.769936
558.089735	10658.768676
558.446994	10654.594600
558.804197	10689.199601
559.161345	10691.009375
559.518437	10544.047138
559.875474	10627.354726
560.232455	10660.419654
560.589381	10610.809659
560.946251	10609.272107
561.303065	10720.202697
561.659825	10650.380196
562.016528	10578.700029
562.373177	10461.321803
562.729770	10581.727242
563.086307	10487.787861
563.442789	10585.245967
563.799216	10461.909097
564.155587	10514.712663
564.511904	10462.156114
564.868164	10454.178488
565.224370	10467.880344
565.580520	10394.017358
565.936615	10403.119161
566.292654	10274.423545
566.648638	10400.275951
567.004567	10360.586946
567.360441	10341.559111
567.716260	10250.273897
568.072023	10353.925062
568.427732	10305.013266
568.783385	10206.521723
569.138982	10277.985120
569.494525	10300.002359
569.850013	10166.139560
570.205445	10256.577860
570.560823	10147.653649
570.916145	10066.191123
571.271412	10138.146033
571.626625	10081.682589
571.981782	10059.274660
572.336884	10026.431543
572.691931	10033.088387
573.046923	9981.892949
573.401860	9934.790928
573.756743	9873.677020
574.111570	9914.192773
574.466342	9901.176514
574.821059	9931.632645
575.175722	9821.324637
575.530330	9833.730917
575.884882	9818.148710
576.239380	9748.303524
576.593823	9732.381039
576.948211	9747.262525
577.302544	9624.671746
577.656823	9639.268407
578.011047	9638.930650
578.365216	9616.328637
578.719330	9537.210247
579.073389	9553.031909
579.427394	9498.554680
579.781344	9478.407708
580.135239	9426.148587
580.489080	9434.229557
580.842866	9333.852622
581.196597	9339.985186
581.550273	9380.634530
581.903895	9347.017595
582.257463	9412.489581
582.610975	9292.205129
582.964434	9321.123708
583.317837	9238.700843
583.671186	9220.827432
584.024481	9221.656702
584.377721	9139.448086
584.730906	9120.165672
585.084037	9144.585021
585.437113	9082.251154
585.790135	9099.673382
586.143103	9007.029577
586.496016	8977.780802
586.848874	9034.042600
587.201679	9021.288481
587.554428	8908.250688
587.907124	8954.684756
588.259765	8924.132843
588.612352	8926.204757
588.964884	8800.296899
589.317362	8821.366401
589.669786	8812.493971
590.022155	8868.773412
590.374470	8882.198005
590.726731	8819.612080
591.078937	8673.834513
591.431090	8783.913149
591.783188	8662.562493
592.135232	8645.848548
592.487222	8650.050350
592.839157	8700.610602
593.191038	8636.081312
593.542866	8580.774813
593.894639	8482.656316
594.246358	8531.671454
594.598022	8547.972025
594.949633	8442.443031
595.301190	8425.897964
595.652692	8443.937733
596.004141	8561.288233
596.355535	8340.677259
596.706876	8318.057601
597.058162	8252.507478
597.409395	8330.670568
597.760573	8394.083243
598.111698	8303.849109
598.462768	8286.991491
598.813785	8250.450687
599.164748	8217.476500
599.515657	8211.800161
599.866511	8120.661140
600.217312	8248.411540
600.568060	8101.630784
600.918753	8204.576187
601.269392	8171.644850
601.619978	8092.266841
601.970510	8154.134402
602.320988	8148.299266
602.671412	8205.244140
603.021783	8144.563771
603.372100	8112.325592
603.722363	8118.158207
604.072572	8093.537212
604.422728	8106.268646
604.772830	8037.177112
605.122878	8042.803040
605.472872	8033.905403
605.822813	8068.414622
606.172701	8013.970160
606.522534	8086.540090
606.872314	8079.444666
607.222041	8053.780152
607.571714	8112.209646
607.921333	8067.124086
608.270899	8073.649860
608.620411	8162.691760
608.969870	8072.848317
609.319276	8053.996922
609.668627	8074.582473
610.017926	8111.292156
610.367171	8159.248652
610.716362	8135.149416
611.065500	8129.939384
611.414585	8157.726224
611.763616	8141.871795
612.112594	8131.025753
612.461518	8148.057291
612.810389	8196.154940
613.159207	8146.759194
613.507971	8088.579237
613.856682	8206.481743
614.205340	8164.683016
614.553945	8240.254953
614.902496	8139.809963
615.250994	8197.269035
615.599439	8175.390427
615.947830	8189.220832
616.296169	8161.996081
616.644454	8177.686672
616.992686	8173.043770
617.340864	8229.572748
617.688990	8136.225703
618.037063	8225.980926
618.385082	8173.552926
618.733048	8262.471318
619.080961	8196.154940
619.428821	8216.377528
619.776628	8224.922284
620.124382	8170.550919
620.472083	8154.782190
620.819731	8179.680449
621.167326	8074.216990
621.514868	8083.860717
621.862357	7970.883418
622.209793	7987.841860
622.557176	7923.486490
622.904506	7893.645380
623.251783	7821.919843
623.599007	7781.406610
623.946179	7786.888865
624.293297	7740.306082
624.640363	7658.707446
624.987376	7640.191288
625.334336	7586.097186
625.681243	7540.608335
626.028097	7527.150974
626.374899	7506.041143
626.721647	7500.972263
627.068343	7431.059020
627.414987	7402.523569
627.761577	7359.666200
628.108115	7399.443424
628.454600	7290.458719
628.801032	7335.440935
629.147412	7297.486088
629.493739	7287.106352
629.840014	7221.130251
630.186236	7283.469159
630.532405	7167.570512
630.878521	7218.657565
631.224585	7173.128384
631.570597	7097.964780
631.916556	7128.718339
632.262462	7125.552494
632.608316	7085.739982
632.954117	7069.119298
633.299866	7048.178345
633.645562	7038.839607
633.991206	6965.077444
634.336797	6903.106540
634.682336	6864.032556
635.027823	6832.555592
635.373257	6825.739952
635.718639	6756.071206
636.063968	6771.807167
636.409245	6666.242885
636.754470	6661.405898
637.099642	6620.184383
637.444762	6564.603141
637.789829	6568.469706
638.134845	6513.558938
638.479808	6499.526886
638.824719	6503.123750
639.169577	6430.271515
639.514383	6456.044414
639.859137	6384.321397
640.203839	6391.084105
640.548489	6373.482917
640.893086	6354.059351
641.237632	6322.940308
641.582125	6344.203895
641.926566	6314.889586
642.270955	6326.002809
642.615292	6324.974414
642.959576	6333.761145
643.303809	6329.188818
643.647990	6328.288972
643.992118	6320.518034
644.336195	6271.046671
644.680219	6297.908459
645.024192	6286.641480
645.368112	6387.088991
645.711981	6400.984932
646.055797	6482.233208
646.399562	6438.297032
646.743274	6567.022895
647.086935	6616.698425
647.430544	6607.946982
647.774101	6634.075283
648.117606	6636.822711
648.461059	6628.991279
648.804460	6589.108190
649.147810	6499.796588
649.491108	6474.863041
649.834354	6446.206602
650.177548	6362.659559
650.520690	6280.846674
650.863781	6253.001860
651.206820	6276.990191
651.549807	6199.484971
651.892742	6141.604963
652.235626	6145.446322
652.578458	6130.169106
652.921238	6039.655188
653.263967	6078.220015
653.606644	6019.777919
653.949269	6022.979052
654.291843	5963.657274
654.634365	6010.318194
654.976836	5962.258353
655.319255	5962.117201
655.661622	5939.467297
656.003938	5941.955106
656.346203	5901.346092
656.688416	5930.521769
657.030577	5882.603082
657.372687	5855.869843
657.714746	5841.510116
658.056753	5885.544595
658.398708	5825.706099
658.740612	5815.459953
659.082465	5862.340164
659.424266	5853.135017
659.766016	5852.230130
660.107715	5829.696172
660.449362	5843.677812
660.790958	5841.283264
661.132503	5823.137631
661.473996	5866.264702
661.815438	5847.065468
662.156829	5845.603533
662.498168	5836.290001
662.839456	5814.912988
663.180693	5852.136868
663.521879	5849.389439
663.863013	5836.824363
664.204097	5859.542323
664.545129	5901.096554
664.886110	5896.486419
665.227040	5928.916162
665.567918	5894.830400
665.908746	5925.505821
666.249522	5928.565802
666.590248	5910.475621
666.930922	5940.465445
667.271545	5953.224606
667.612118	5957.890194
667.952639	5925.427683
668.293109	5950.116734
668.633528	5908.378501
668.973896	5911.188944
669.314213	5903.629734
669.654480	5884.521241
669.994695	5876.689808
670.334859	5869.168407
670.674973	5865.342171
671.015035	5862.803950
671.355047	5862.466193
671.695008	5849.225602
672.034918	5821.307692
672.374777	5836.234548
672.714585	5819.026570
673.054342	5825.113763
673.394049	5812.916691
673.733705	5849.162588
674.073310	5834.896122
674.412864	5793.972035
674.752368	5783.335201
675.091820	5791.355676
675.431223	5725.823197
675.770574	5729.949381
676.109875	5677.748233
676.449125	5681.997926
676.788324	5648.726311
677.127473	5592.194811
677.466571	5586.170632
677.805619	5576.161422
678.144616	5563.727416
678.483562	5537.699938
678.822458	5505.481924
679.161303	5503.034444
679.500098	5493.242002
679.838842	5478.531916
680.177535	5482.801773
680.516179	5495.326520
680.854771	5510.684395
681.193314	5588.350932
681.531805	5698.290935
681.870247	5847.093194
682.208638	5951.369461
682.546978	5960.493950
682.885268	5938.421258
683.223508	5853.616447
683.561697	5800.296163
683.899836	5772.143839
684.237925	5724.966201
684.575963	5688.669893
684.913951	5648.794366
685.251889	5715.476229
685.589776	5679.459705
685.927614	5651.269573
686.265401	5722.201128
686.603137	5706.825609
686.940824	5782.364778
687.278460	5810.680940
687.616046	5819.752496
687.953582	5880.568976
688.291068	5862.695565
688.628504	5926.115801
688.965889	5884.269183
689.303224	5831.437891
689.640510	5787.264780
689.977745	5711.569334
690.314930	5611.920846
690.652065	5553.824069
690.989150	5463.693279
691.326185	5395.395727
691.663170	5335.108568
692.000105	5259.350108
692.336990	5179.152912
692.673825	5155.076361
693.010610	5084.608592
693.347345	5020.071741
693.684030	5010.528837
694.020665	4965.614676
694.357251	4872.930542
694.693786	4883.055700
695.030272	4852.387840
695.366707	4816.119259
695.703093	4781.322695
696.039429	4803.443278
696.375716	4795.064880
696.711952	4762.864510
697.048139	4749.152571
697.384276	4726.938727
697.720363	4743.251901
698.056400	4752.497377
698.392388	4700.802865
698.728326	4678.969627
699.064214	4658.520187
699.400053	4649.819155
699.735842	4620.598107
700.071581	4593.557358
700.407270	4568.137340
700.742910	4549.432138
701.078501	4499.267616
701.414042	4497.649406
701.749533	4465.101196
702.084974	4395.379518
702.420366	4456.937047
702.755709	4400.516454
703.091002	4341.711394
703.426246	4390.396337
703.761440	4347.649873
704.096584	4310.506652
704.431679	4333.494313
704.766725	4317.017302
705.101721	4303.902740
705.436668	4328.417871
705.771565	4279.594296
706.106413	4305.621774
706.441212	4341.466898
706.775961	4349.212631
707.110661	4328.314528
707.445311	4352.978373
707.779913	4379.033577
708.114465	4392.710227
708.448967	4413.757044
708.783421	4475.831292
709.117825	4516.553733
709.452180	4519.530534
709.786485	4572.215633
710.120742	4653.748735
710.454949	4639.898165
710.789107	4703.736816
711.123216	4777.577117
711.457275	4766.652937
711.791286	4845.181511
712.125247	4859.523594
712.459159	4762.756125
712.793023	4838.136498
713.126837	4798.581085
713.460602	4791.828459
713.794318	4708.188155
714.127985	4715.500349
714.461602	4629.435250
714.795171	4599.858800
715.128691	4539.299419
715.462162	4481.278259
715.795584	4433.394859
716.128957	4413.568001
716.462281	4360.565309
716.795556	4335.336855
717.128782	4299.063233
717.461960	4229.765011
717.795088	4241.667175
718.128167	4199.823078
718.461198	4139.092298
718.794180	4136.029797
719.127113	4116.515490
719.459997	4095.355247
719.792833	4050.194070
720.125619	4039.983213
720.458357	4009.461547
720.791046	4014.331302
721.123686	3987.035974
721.456278	3943.072071
721.788821	3958.820636
722.121315	3933.128395
722.453761	3908.888007
722.786158	3919.918052
723.118506	3942.000826
723.450805	3895.410482
723.783056	3915.224737
724.115259	3931.699228
724.447412	3937.816668
724.779518	3930.000359
725.111574	3934.988581
725.443582	3966.349599
725.775542	3952.665387
726.107453	4003.502903
726.439315	4002.416534
726.771129	4017.139224
727.102895	4051.782033
727.434612	4098.319445
727.766281	4110.554326
728.097901	4113.642032
728.429473	4117.513638
728.760996	4122.078403
729.092471	4116.361735
729.423897	4102.927060
729.755276	4112.618678
730.086606	4108.268162
730.417887	4146.888442
730.749120	4214.205490
731.080305	4278.780150
731.411442	4301.770332
731.742530	4272.503913
732.073570	4277.615643
732.404562	4331.387111
732.735506	4320.485616
733.066401	4287.360194
733.397249	4222.268815
733.728048	4143.054644
734.058798	4060.238569
734.389501	3988.631499
734.720156	3924.119853
735.050762	3883.137793
735.381320	3875.472719
735.711831	3823.909277
736.042293	3797.627221
736.372707	3817.980880
736.703073	3796.253507
737.033391	3780.469654
737.363661	3799.106800
737.693883	3824.983042
738.024056	3836.991071
738.354182	3827.753157
738.684260	3893.507447
739.014290	3912.431938
739.344272	3906.874066
739.674207	3949.975932
740.004093	3954.820480
740.333931	3945.695992
740.663722	3949.832259
740.993464	3946.484932
741.323159	3926.542128
741.652806	3894.019124
741.982405	3870.055999
742.311956	3836.020649
742.641460	3826.739885
742.970915	3804.062254
743.300323	3760.582302
743.629683	3727.648444
743.958996	3717.240982
744.288260	3690.122095
744.617477	3658.531704
744.946647	3647.733553
745.275768	3618.656177
745.604842	3619.576188
745.933869	3572.423755
746.262847	3559.856159
746.591778	3599.777056
746.920662	3571.513827
747.249498	3541.740773
747.578286	3585.072010
747.907027	3601.186059
748.235720	3599.774536
748.564365	3623.997280
748.892963	3625.630614
749.221514	3610.983541
749.550017	3586.899429
749.878473	3580.792071
750.206881	3555.601425
750.535242	3550.461969
750.863555	3551.692010
751.191821	3545.062893
751.520039	3527.456663
751.848210	3508.378416
752.176334	3537.055020
752.504411	3545.385527
752.832440	3507.536544
753.160421	3488.075169
753.488356	3498.883403
753.816243	3508.640556
754.144082	3465.377374
754.471875	3446.916669
754.799620	3470.753765
755.127318	3464.971561
755.454969	3463.106334
755.782572	3470.897438
756.110129	3449.122173
756.437638	3437.182201
756.765100	3449.853141
757.092515	3462.307311
757.419882	3464.860656
757.747203	3438.137499
758.074477	3438.008950
758.401703	3455.295066
758.728882	3476.800629
759.056014	3484.405209
759.383099	3486.938389
759.710138	3483.994355
760.037129	3502.155112
760.364073	3532.225595
760.690970	3518.334695
761.017820	3491.215808
761.344623	3516.272863
761.671379	3558.895819
761.998088	3610.033284
762.324751	3737.811410
762.651366	3979.988441
762.977935	4455.097026
763.304456	4900.273761
763.630931	4998.598946
763.957359	4634.572186
764.283740	4289.898415
764.610074	4094.805761
764.936362	3902.100093
765.262602	3742.875249
765.588796	3631.604381
765.914943	3545.698078
766.241044	3454.251548
766.567097	3425.519491
766.893104	3378.445197
767.219064	3348.132738
767.544978	3323.569716
767.870845	3264.373967
768.196665	3246.820670
768.522438	3255.594798
768.848165	3249.608428
769.173846	3213.501163
769.499479	3195.471477
769.825066	3177.172088
770.150607	3161.917557
770.476101	3181.444466
770.801548	3178.200483
771.126949	3130.672485
771.452303	3113.711523
771.777611	3117.061370
772.102872	3124.781897
772.428087	3099.112341
772.753256	3091.104468
773.078378	3082.416040
773.403453	3047.314486
773.728482	3037.201931
774.053465	3059.171279
774.378401	3047.672408
774.703291	3014.516739
775.028135	3015.502284
775.352932	3010.667818
775.677683	2997.989316
776.002388	2994.021928
776.327046	2998.067454
776.651658	2986.261071
776.976224	2973.338073
777.300743	2974.051397
777.625216	2962.965899
777.949643	2958.023048
778.274024	2961.879531
778.598359	2949.563992
778.922647	2956.435085
779.246889	2955.212605
779.571086	2937.959256
779.895236	2934.526230
780.219339	2943.948147
780.543397	2955.391566
780.867409	2961.826599
781.191374	2953.702779
781.515294	2949.952161
781.839167	2951.585495
782.162995	2941.994699
782.486776	2950.836883
782.810511	2948.628858
783.134201	2934.753082
783.457844	2943.305399
783.781441	2932.209820
784.104993	2913.212232
784.428498	2916.166348
784.751958	2928.265117
785.075372	2922.301432
785.398739	2905.703433
785.722061	2921.472162
786.045337	2935.025304
786.368568	2917.550144
786.691752	2909.638053
787.014891	2957.276957
787.337983	2986.976915
787.661030	3013.783251
787.984031	3081.427974
788.306987	3129.321456
788.629897	3122.026906
788.952760	3105.297837
789.275579	3089.619849
789.598351	3029.927546
789.921078	2984.567244
790.243759	2976.713126
790.566395	2960.276444
790.888984	2935.776436
791.211529	2916.519228
791.534027	2908.884401
791.856480	2898.187073
792.178888	2885.173334
792.501249	2877.997251
792.823566	2871.473998
793.145836	2872.434338
793.468062	2865.815303
793.790241	2863.085518
794.112375	2871.622712
794.434464	2885.969836
794.756507	2888.626524
795.078505	2892.883779
795.400457	2909.060841
795.722364	2941.538475
796.044226	2968.407825
796.366042	2970.280614
796.687812	2962.970941
797.009538	2979.200935
797.331218	2966.194758
797.652852	2955.303346
797.974442	2935.834409
798.295986	2931.771239
798.617484	2926.992226
798.938938	2911.208373
799.260346	2894.091135
799.581709	2889.801113
799.903026	2883.968498
800.224299	2877.712426
800.545526	2867.294882
800.866708	2854.432378
801.187845	2840.256653
801.508936	2843.114987
801.829983	2850.830473
802.150984	2839.629029
802.471940	2824.818119
802.792851	2823.444405
803.113717	2824.056905
803.434538	2830.562514
803.755314	2823.825012
804.076045	2817.999959
804.396731	2816.590956
804.717372	2818.110864
805.037967	2814.428301
805.358518	2819.524908
805.679024	2829.655107
805.999485	2827.205106
806.319901	2828.946824
806.640272	2824.752584
806.960598	2828.861125
807.280879	2833.320025
807.601115	2843.359483
807.921306	2831.389263
808.241453	2828.031855
808.561554	2830.539829
808.881611	2833.730879
809.201623	2831.139726
809.521590	2830.554952
809.841513	2824.475321
810.161390	2828.470435
810.481223	2821.430464
810.801011	2815.149186
811.120755	2809.775316
811.440453	2813.601552
811.760107	2811.569967
812.079716	2811.736325
812.399281	2800.794501
812.718801	2794.246042
813.038276	2789.393931
813.357707	2795.753347
813.677093	2801.916157
813.996434	2797.081691
814.315731	2792.302677
814.634983	2786.129784
814.954191	2790.079528
815.273354	2805.134934
815.592473	2814.385452
815.911547	2811.035605
816.230577	2821.974909
816.549562	2830.537308
816.868502	2828.329283
817.187399	2839.210614
817.506250	2856.196782
817.825058	2848.262005
818.143821	2862.263810
818.462539	2880.096892
818.781213	2903.064389
819.099843	2939.607713
819.418429	2999.433606
819.736970	3058.284036
820.055466	3135.738845
820.373919	3237.802045
820.692327	3377.842779
821.010691	3548.896690
821.329011	3990.736181
821.647286	4895.739243
821.965517	6277.481703
822.283704	7019.844539
822.601847	7001.628330
822.919945	6366.533686
823.237999	5858.665163
823.556010	5275.552377
823.873976	4719.853385
824.191897	4312.197959
824.509775	4011.926671
824.827609	3748.743152
825.145398	3622.502578
825.463144	3610.136627
825.780845	3705.162377
826.098502	3805.206596
826.416116	4089.189916
826.733685	4406.530550
827.051210	4471.256445
827.368692	4355.498950
827.686129	4088.138835
828.003522	3760.357971
828.320872	3504.526975
828.638177	3307.112870
828.955439	3170.492559
829.272656	3086.532142
829.589830	3021.786083
829.906960	2969.995788
830.224046	2924.363264
830.541088	2890.612739
830.858086	2875.900131
831.175041	2855.715351
831.491952	2857.285671
831.808819	2872.658669
832.125642	2895.401835
832.442421	2938.710388
832.759157	3024.062163
833.075849	3199.098587
833.392497	3480.702482
833.709101	3684.294521
834.025662	3636.262407
834.342179	3475.643684
834.658653	3298.938639
834.975083	3149.803664
835.291469	3050.865978
835.607811	2966.290540
835.924110	2905.090933
836.240366	2855.700228
836.556578	2814.569454
836.872746	2791.947276
837.188871	2769.660335
837.504952	2752.467479
837.820990	2745.424987
838.136984	2731.027452
838.452935	2721.724003
838.768842	2719.904146
839.084706	2740.162023
839.400526	2818.337716
839.716303	2951.129270
840.032037	3029.710776
840.347727	3017.092768
840.663373	2957.022379
840.978977	2881.326933
841.294537	2809.916469
841.610054	2762.149015
841.925527	2736.557598
842.240957	2716.682849
842.556344	2694.766432
842.871687	2679.539627
843.186987	2670.185766
843.502244	2667.231650
843.817458	2660.373160
844.132629	2648.231541
844.447756	2639.356590
844.762840	2632.951804
845.077881	2635.558081
845.392879	2633.410549
845.707833	2630.844602
846.022745	2622.277161
846.337613	2624.636421
846.652438	2620.661471
846.967221	2624.369240
847.281960	2622.506533
847.596656	2621.616770
847.911309	2620.474948
848.225919	2617.109978
848.540485	2612.988835
848.855009	2612.252826
849.169490	2613.094699
849.483928	2611.854575
849.798323	2613.286263
850.112675	2611.012702
850.426984	2612.618310
850.741251	2610.017075
851.055474	2610.117898
851.369654	2615.282560
851.683792	2611.587394
851.997887	2614.554113
852.311938	2611.289966
852.625947	2611.564709
852.939914	2612.928341
853.253837	2616.678959
853.567718	2611.368104
853.881555	2610.969853
854.195350	2613.674432
854.509103	2612.242744
854.822812	2611.562188
855.136479	2610.322064
855.450103	2612.081427
855.763685	2613.172837
856.077224	2608.769389
856.390720	2607.511621
856.704173	2611.282404
857.017584	2615.527056
857.330953	2617.288939
857.644278	2617.596449
857.957561	2619.648199
858.270802	2614.047477
858.584000	2614.964967
858.897155	2616.651233
859.210268	2619.605349
859.523339	2613.805502
859.836367	2607.705706
860.149352	2608.494646
860.462295	2610.425408
860.775195	2606.006837
861.088054	2608.116560
861.400869	2606.016919
861.713642	2607.040273
862.026373	2606.871395
862.339062	2607.521703
862.651708	2611.879781
862.964312	2613.651747
863.276873	2612.978752
863.589392	2617.906480
863.901869	2619.875051
864.214303	2624.452419
864.526696	2628.197996
864.839045	2628.545836
865.151353	2633.700415
865.463619	2629.344858
865.775842	2632.210754
866.088023	2631.469705
866.400162	2633.216465
866.712258	2630.290075
867.024313	2630.595065
867.336325	2627.003242
867.648296	2630.242184
867.960224	2634.658235
868.272110	2632.906434
868.583954	2630.151443
868.895755	2627.993829
869.207515	2634.227216
869.519233	2639.038997
869.830909	2635.106897
870.142542	2630.698408
870.454134	2636.052114
870.765684	2636.964562
871.077191	2640.304327
871.388657	2644.133083
871.700081	2639.275932
872.011463	2640.735346
872.322803	2644.153248
872.634101	2647.971922
872.945357	2654.618683
873.256571	2658.512975
873.567744	2655.936945
873.878874	2655.521050
874.189963	2658.777635
874.501010	2661.182266
874.812015	2666.523368
875.122979	2667.511434
875.433900	2657.398880
875.744780	2658.704538
876.055618	2663.579334
876.366415	2668.554953
876.677169	2666.518327
876.987882	2659.949703
877.298554	2661.217554
877.609183	2668.870025
877.919771	2676.230110
878.230317	2683.164217
878.540822	2696.198120
878.851285	2709.678166
879.161707	2731.629870
879.472087	2769.549429
879.782425	2818.191523
880.092722	2937.129986
880.402977	3124.154273
880.713191	3384.711351
881.023363	3679.233203
881.333494	3870.227398
881.643583	4045.452865
881.953631	4039.131258
882.263637	3865.221532
882.573602	3641.543016
882.883526	3514.747914
883.193408	3397.596540
883.503248	3292.916980
883.813048	3176.536903
884.122806	3063.743606
884.432522	2979.122798
884.742197	2912.075451
885.051831	2875.416181
885.361424	2841.048114
885.670975	2802.468164
885.980485	2775.694596
886.289954	2756.147522
886.599382	2741.240830
886.908768	2727.584344
887.218113	2711.298897
887.527417	2697.702905
887.836680	2690.115968
888.145901	2683.570030
888.455082	2675.040397
888.764221	2664.224602
889.073319	2656.481390
889.382376	2653.781852
889.691392	2657.502223
890.000366	2657.996256
890.309300	2652.725730
890.618193	2659.874086
890.927044	2661.454488
891.235855	2661.278047
891.544625	2657.497182
891.853353	2658.054230
892.162041	2666.667041
892.470687	2688.913653
892.779293	2697.796166
893.087858	2708.664894
893.396381	2730.820765
893.704864	2772.969852
894.013306	2841.680779
894.321707	2938.037394
894.630068	2986.130001
894.938387	3009.374762
895.246665	3001.349245
895.554903	2957.629838
895.863100	2915.311872
896.171256	2854.790300
896.479371	2792.605146
896.787446	2755.940834
897.095480	2737.152454
897.403473	2728.900085
897.711425	2713.753938
898.019336	2695.194931
898.327207	2680.399144
898.635038	2678.135666
898.942827	2677.054338
899.250576	2668.917916
899.558284	2656.998108
899.865952	2652.932417
900.173579	2650.936120
900.481165	2645.844555
900.788711	2638.166878
901.096216	2632.777884
901.403681	2629.556587
901.711105	2630.363172
902.018489	2628.689508
902.325832	2631.988944
902.633135	2633.594551
902.940397	2648.654998
903.247619	2685.268899
903.554800	2756.553335
903.861941	2884.253323
904.169041	3012.386851
904.476101	3074.062848
904.783121	3069.840882
905.090100	3008.666480
905.397039	2933.621343
905.703938	2859.894468
906.010796	2797.293419
906.317614	2746.072776
906.624391	2707.875953
906.931129	2682.493743
907.237826	2658.656647
907.544483	2640.531179
907.851099	2626.632718
908.157675	2614.271808
908.464211	2608.817280
908.770707	2597.530137
909.077163	2594.865887
909.383578	2588.940010
909.689954	2589.658375
909.996289	2589.907912
910.302584	2589.217274
910.608839	2586.111923
910.915054	2584.032447
911.221229	2588.065370
911.527363	2591.856318
911.833458	2588.395566
912.139513	2588.440936
912.445527	2592.375557
912.751502	2594.467636
913.057436	2599.740682
913.363331	2607.539347
913.669186	2618.413116
913.975000	2631.515075
914.280775	2650.058960
914.586510	2667.612257
914.892205	2705.821683
915.197859	2771.540685
915.503475	2858.490507
915.809050	2922.646751
916.114585	2939.940429
916.420081	2951.073818
916.725536	2961.377936
917.030952	2938.196190
917.336328	2890.499313
917.641665	2840.148268
917.946961	2791.168417
918.252218	2754.428488
918.557435	2727.453274
918.862612	2705.816642
919.167750	2686.667819
919.472848	2671.592248
919.777906	2655.858807
920.082925	2642.517393
920.387904	2632.601444
920.692843	2628.815537
920.997743	2626.897378
921.302603	2614.889350
921.607423	2609.699482
921.912204	2605.807711
922.216946	2602.556167
922.521647	2598.341762
922.826310	2595.170877
923.130932	2588.045206
923.435516	2585.890112
923.740059	2583.903898
924.044564	2582.431881
924.349028	2578.504822
924.653454	2570.370920
924.957840	2571.366548
925.262186	2568.397308
925.566493	2569.138358
925.870761	2562.259704
926.174989	2566.017884
926.479178	2563.028480
926.783328	2563.144426
927.087438	2561.962276
927.391509	2562.179045
927.695541	2558.317521
927.999533	2556.941286
928.303486	2554.887016
928.607400	2556.028838
928.911275	2556.966492
929.215110	2556.318704
929.518906	2553.969526
929.822663	2560.031514
930.126381	2553.379711
930.430060	2553.898950
930.733699	2554.153528
931.037299	2555.890206
931.340861	2555.701162
931.644383	2555.663354
931.947866	2554.438353
932.251309	2554.919784
932.554714	2553.432643
932.858080	2553.203271
933.161407	2553.193188
933.464694	2552.973898
933.767943	2552.736964
934.071153	2553.543549
934.374323	2552.580688
934.677455	2553.213353
934.980548	2553.997252
935.283602	2552.426933
935.586617	2550.702858
935.889593	2551.751418
936.192530	2550.160934
936.495428	2552.371480
936.798287	2550.400389
937.101108	2555.426420
937.403890	2557.770556
937.706632	2558.309960
938.009336	2564.860939
938.312002	2565.884293
938.614628	2567.096691
938.917216	2574.048442
939.219765	2573.894687
939.522275	2575.122208
939.824747	2574.550037
940.127179	2570.272618
940.429573	2566.358162
940.731929	2565.944787
941.034246	2565.014694
941.336524	2566.337997
941.638763	2564.984447
941.940964	2564.160219
942.243126	2562.761298
942.545250	2563.232646
942.847335	2560.606205
943.149381	2558.320042
943.451389	2557.437840
943.753359	2556.739640
944.055290	2556.066646
944.357182	2554.614794
944.659036	2557.914229
944.960851	2553.286450
945.262628	2555.275185
945.564367	2554.965154
945.866067	2554.816440
946.167729	2556.848025
946.469352	2552.782334
946.770937	2554.168652
947.072484	2556.991698
947.373992	2554.599670
947.675462	2551.368291
947.976893	2551.796789
948.278286	2553.513302
948.579641	2551.592622
948.880958	2550.181099
949.182236	2553.054557
949.483476	2550.970040
949.784678	2551.015410
950.085841	2551.416182
950.386967	2555.668395
950.688054	2552.684032
950.989103	2552.058929
951.290114	2554.443395
951.591087	2556.351471
951.892021	2554.498847
952.192917	2556.611091
952.493776	2555.010524
952.794596	2556.812737
953.095378	2560.432285
953.396122	2560.278530
953.696828	2559.461863
953.997496	2554.909701
954.298126	2556.825340
954.598718	2553.795606
954.899272	2554.123281
955.199788	2551.033054
955.500266	2551.370811
955.800706	2549.009031
956.101108	2541.737166
956.401472	2544.076262
956.701798	2542.047197
957.002087	2541.517876
957.302337	2544.567774
957.602550	2544.383772
957.902724	2541.175078
958.202861	2541.036446
958.502960	2541.810263
958.803022	2539.571991
959.103045	2540.091230
959.403031	2541.175078
959.702979	2537.626105
960.002889	2540.948226
960.302762	2538.651980
960.602596	2539.574511
960.902393	2536.759027
961.202153	2536.522093
961.501875	2538.190715
961.801559	2537.767258
962.101205	2537.202648
962.400814	2537.578214
962.700385	2535.191228
962.999918	2541.366642
963.299414	2538.735159
963.598873	2536.413708
963.898293	2537.084181
964.197677	2537.800025
964.497022	2536.814480
964.796331	2538.420087
965.095601	2535.339942
965.394835	2537.379089
965.694030	2533.676361
965.993189	2537.248019
966.292309	2536.138965
966.591393	2536.451517
966.890439	2535.405477
967.189447	2536.363296
967.488419	2535.312216
967.787353	2538.102494
968.086249	2535.319778
968.385108	2538.861188
968.683930	2537.505118
968.982714	2538.863709
969.281462	2535.261804
969.580172	2534.727442
969.878844	2536.000333
970.177480	2537.462268
970.476078	2537.608461
970.774639	2539.302289
971.073162	2537.734490
971.371649	2533.089067
971.670098	2532.680733
971.968510	2534.399767
972.266885	2530.114786
972.565223	2535.657535
972.863524	2538.694830
973.161788	2537.749614
973.460014	2535.476053
973.758204	2539.337577
974.056356	2540.403781
974.354471	2537.389171
974.652550	2536.723739
974.950591	2538.936805
975.248595	2535.632329
975.546563	2536.728780
975.844493	2535.634850
976.142386	2537.913451
976.440243	2536.199459
976.738062	2535.672658
977.035845	2537.608461
977.333590	2535.947401
977.631299	2535.564273
977.928971	2534.588810
978.226606	2535.818852
978.524204	2534.487987
978.821765	2532.514375
979.119290	2535.027391
979.416777	2534.641742
979.714228	2536.186856
980.011642	2533.734335
980.309020	2537.668955
980.606360	2536.917823
980.903664	2535.960004
981.200931	2534.997144
981.498162	2539.284645
981.795356	2539.030067
982.092513	2540.701209
982.389633	2544.477033
982.686717	2547.055584
982.983764	2550.309648
983.280775	2549.147663
983.577749	2550.186140
983.874686	2551.070863
984.171587	2547.458876
984.468451	2541.976621
984.765279	2543.320089
985.062070	2539.619882
985.358824	2540.149203
985.655543	2537.343801
985.952224	2534.664428
986.248869	2537.048893
986.545478	2532.315250
986.842050	2533.247863
987.138586	2531.218799
987.435086	2531.785929
987.731549	2529.560259
988.027975	2534.301464
988.324366	2532.978162
988.620719	2534.215765
988.917037	2534.026722
989.213318	2531.561597
989.509563	2531.803573
989.805772	2535.476053
990.101944	2532.131248
990.398080	2532.171577
990.694180	2532.776515
990.990244	2532.713501
991.286271	2529.230064
991.582262	2532.277441
991.878217	2534.377082
992.174136	2532.552184
992.470019	2533.366330
992.765865	2533.416742
993.061676	2532.461443
993.357450	2535.831455
993.653188	2531.775846
993.948890	2533.830117
994.244556	2531.972451
994.540186	2533.464633
994.835780	2533.772143
995.131337	2533.777184
995.426859	2533.278110
995.722345	2533.658717
996.017795	2535.304654
996.313208	2537.563091
996.608586	2536.764068
996.903928	2537.409336
997.199234	2536.459078
997.494504	2536.343132
997.789738	2536.373379
998.084936	2535.528985
998.380099	2535.392874
998.675225	2535.085364
998.970316	2534.611495
999.265371	2532.521937
999.560390	2534.515713
999.855373	2534.833306
1000.150320	2530.228212
1000.445232	2533.878008
1000.740108	2529.230064
1001.034948	2532.030425
1001.329752	2531.901875
1001.624521	2532.070754
1001.919254	2527.009435
1002.213951	2528.519261
1002.508613	2527.478263
1002.803239	2530.235774
1003.097829	2526.011287
1003.392384	2533.817514
1003.686903	2532.504293
1003.981386	2531.085208
1004.275834	2532.627801
1004.570246	2532.295085
1004.864623	2531.725435
1005.158964	2533.671320
1005.453270	2531.980013
1005.747540	2531.120496
1006.041775	2530.084539
1006.335974	2530.427338
1006.630138	2529.615712
1006.924266	2530.495393
1007.218359	2528.796524
1007.512416	2529.305681
1007.806438	2531.405322
1008.100425	2531.417924
1008.394376	2531.576721
1008.688292	2531.269210
1008.982172	2530.548325
1009.276017	2531.546474
1009.569827	2531.755682
1009.863602	2527.601771
1010.157341	2530.044210
1010.451045	2530.041689
1010.744714	2530.946577
1011.038347	2530.001360
1011.331945	2526.510361
1011.625508	2532.620240
1011.919036	2529.305681
1012.212528	2528.330218
1012.505986	2532.965559
1012.799408	2527.795855
1013.092795	2528.181504
1013.386147	2530.823068
1013.679464	2532.305168
1013.972745	2528.519261
1014.265992	2531.579241
1014.559204	2531.506145
1014.852380	2530.843233
1015.145521	2529.651000
1015.438628	2529.310722
1015.731699	2527.009435
1016.024736	2526.442306
1016.317737	2531.498583
1016.610703	2530.049251
1016.903635	2526.248221
1017.196531	2526.195289
1017.489393	2530.203006
1017.782219	2523.957017
1018.075011	2529.625794
1018.367768	2528.501617
1018.660490	2528.869621
1018.953177	2528.869621
1019.245829	2528.869621
