Dividing Wavelength (nm)	Counts (n)	Blue Motor Position (mm): 11.000000	Red Motor Position (mm): 0.000000	
326.493990	2139.790847
326.888308	2139.790847
327.282561	2139.790847
327.676750	2105.639550
328.070874	2105.024529
328.464933	2108.175250
328.858929	2113.533997
329.252859	2122.655965
329.646726	2134.855557
330.040528	2148.897691
330.434265	2163.834630
330.827938	2180.331806
331.221547	2202.898531
331.615091	2220.257744
332.008571	2239.396485
332.401986	2259.419948
332.795338	2275.970056
333.188625	2296.860598
333.581847	2316.574030
333.975006	2335.707729
334.368100	2351.564679
334.761129	2373.627288
335.154095	2388.075235
335.546996	2408.128945
335.939833	2421.273754
336.332606	2438.080961
336.725315	2448.614452
337.117960	2456.758436
337.510540	2468.083388
337.903056	2478.309369
338.295508	2483.471510
338.687896	2496.419714
339.080220	2503.217710
339.472480	2509.123422
339.864676	2516.100378
340.256807	2517.166582
340.648875	2518.925945
341.040879	2523.077335
341.432818	2526.160001
341.824694	2523.969620
342.216506	2530.056813
342.608253	2527.558921
342.999937	2529.668644
343.391557	2525.494569
343.783113	2526.006246
344.174605	2522.686646
344.566033	2523.901564
344.957397	2523.941893
345.348697	2521.454084
345.739934	2518.152128
346.131106	2518.315966
346.522215	2517.151459
346.913260	2512.803464
347.304241	2510.010665
347.695159	2509.340191
348.086012	2508.863802
348.476802	2504.798112
348.867528	2504.173008
349.258191	2502.275014
349.648789	2503.552947
350.039324	2496.233191
350.429796	2502.441372
350.820203	2498.594972
351.210548	2497.526247
351.600828	2495.293016
351.991045	2497.836278
352.381198	2494.352841
352.771288	2494.267141
353.161314	2493.369816
353.551276	2493.846205
353.941175	2495.817296
354.331010	2493.468118
354.720782	2493.021976
355.110490	2492.893427
355.500135	2492.190186
355.889717	2493.639517
356.279235	2493.563900
356.668689	2495.968531
357.058080	2496.419714
357.447408	2489.488127
357.836672	2493.556338
358.225873	2493.420227
358.615010	2490.990391
359.004084	2496.263438
359.393095	2494.814106
359.782043	2497.233860
360.170927	2494.846874
360.559748	2496.039107
360.948505	2499.774602
361.337199	2500.797956
361.725830	2499.081443
362.114398	2501.589417
362.502903	2498.705877
362.891344	2501.327277
363.279722	2503.439521
363.668037	2503.396671
364.056289	2501.730569
364.444478	2500.470281
364.832603	2502.882473
365.220665	2505.627381
365.608665	2504.220899
365.996601	2506.413801
366.384474	2504.906496
366.772284	2506.426404
367.160031	2505.887001
367.547715	2507.696775
367.935336	2505.430776
368.322893	2506.479336
368.710388	2504.470437
369.097820	2509.143586
369.485189	2504.742659
369.872495	2507.830366
370.259738	2506.988493
370.646918	2508.377331
371.034035	2508.296672
371.421090	2510.537465
371.808081	2507.777433
372.195010	2507.210304
372.581875	2509.027640
372.968678	2510.812208
373.355418	2511.064266
373.742096	2508.417660
374.128710	2511.669204
374.515262	2509.206601
374.901751	2509.269615
375.288177	2510.376148
375.674540	2510.340860
376.060841	2510.809688
376.447079	2512.443021
376.833254	2511.606190
377.219367	2508.251302
377.605417	2509.211642
377.991404	2507.911024
378.377329	2507.966477
378.763191	2509.675428
379.148991	2514.714061
379.534727	2512.952178
379.920402	2515.414782
380.306013	2512.425377
380.691563	2514.746829
381.077049	2515.250944
381.462474	2515.737415
381.847835	2516.435615
382.233134	2517.295132
382.618371	2514.895543
383.003545	2513.022754
383.388657	2516.412930
383.773706	2514.686335
384.158693	2516.821263
384.543618	2516.415451
384.928480	2515.112312
385.313280	2517.002745
385.698017	2515.871006
386.082692	2515.419823
386.467305	2516.690193
386.851856	2519.319155
387.236344	2514.759432
387.620770	2516.894360
388.005133	2517.879906
388.389435	2517.136336
388.773674	2520.133302
389.157851	2518.867972
389.541965	2519.530884
389.926018	2518.257992
390.310008	2516.392765
390.693936	2519.062056
391.077802	2517.164062
391.461606	2521.075997
391.845348	2520.440812
392.229027	2519.384690
392.612645	2520.922242
392.996200	2519.535925
393.379694	2521.370905
393.763125	2517.617766
394.146494	2521.101203
394.529801	2524.171266
394.913047	2520.526512
395.296230	2520.970133
395.679351	2522.139681
396.062410	2522.101872
396.445408	2521.955679
396.828343	2522.560617
397.211217	2518.809999
397.594028	2520.738240
397.976778	2519.225894
398.359466	2519.306552
398.742092	2517.133815
399.124656	2524.503982
399.507158	2523.384846
399.889598	2523.546163
400.271977	2526.013807
400.654294	2525.973478
401.036549	2526.391894
401.418742	2525.696215
401.800874	2523.546163
402.182944	2524.541791
402.564952	2524.501461
402.946898	2526.386853
403.328783	2525.633200
403.710606	2527.059847
404.092367	2527.468180
404.474067	2527.188396
404.855705	2526.714528
405.237282	2527.042203
405.618797	2523.072294
406.000250	2525.061029
406.381642	2529.230064
406.762972	2523.341996
407.144240	2529.111597
407.525447	2528.683098
407.906593	2524.816533
408.287677	2529.126720
408.668700	2525.423992
409.049661	2528.801566
409.430560	2526.759898
409.811399	2528.098325
410.192176	2527.899199
410.572891	2530.674354
410.953545	2528.355423
411.334138	2527.677388
411.714669	2528.947759
412.095139	2529.134282
412.475547	2529.693850
412.855894	2528.075639
413.236180	2530.016484
413.616405	2529.557739
413.996568	2529.603109
414.376670	2527.765608
414.756711	2529.257790
415.136691	2529.411545
415.516609	2527.863911
415.896466	2530.535722
416.276262	2532.017822
416.655997	2527.816020
417.035670	2529.401463
417.415283	2528.337779
417.794834	2525.842408
418.174324	2529.855167
418.553753	2531.380116
418.933121	2531.266690
419.312428	2532.554705
419.691674	2530.684437
420.070859	2532.491690
420.449983	2530.162677
420.829045	2531.279293
421.208047	2532.337935
421.586988	2532.060672
421.965867	2532.539581
422.344686	2531.682585
422.723444	2533.958666
423.102141	2532.894983
423.480777	2532.897503
423.859352	2534.578728
424.237866	2532.784077
424.616319	2534.551002
424.994712	2535.294572
425.373044	2533.618388
425.751314	2533.653676
426.129524	2533.565456
426.507673	2536.179294
426.885762	2534.714839
427.263789	2533.552853
427.641756	2531.634694
428.019662	2535.655014
428.397508	2533.714170
428.775292	2535.213913
429.153016	2532.731145
429.530679	2535.309695
429.908282	2533.545291
430.285824	2533.976310
430.663305	2534.077133
431.040726	2534.261135
431.418086	2534.346835
431.795385	2536.391023
432.172624	2536.733821
432.549802	2536.028060
432.926920	2536.401105
433.303977	2535.599562
433.680974	2537.739531
434.057910	2537.353883
434.434786	2534.364479
434.811601	2538.609130
435.188355	2535.455889
435.565050	2536.827083
435.941683	2534.432534
436.318257	2534.614016
436.694770	2532.625281
437.071222	2536.910262
437.447614	2534.092257
437.823946	2532.713501
438.200218	2535.574356
438.576429	2535.402957
438.952580	2536.852288
439.328670	2536.567463
439.704700	2538.631816
440.080670	2536.189377
440.456580	2535.889428
440.832429	2536.721218
441.208218	2535.801208
441.583947	2538.115097
441.959616	2536.791794
442.335224	2537.873122
442.710773	2538.115097
443.086261	2536.529654
443.461689	2538.873791
443.837057	2540.391178
444.212365	2535.586959
444.587612	2539.370345
444.962800	2537.240457
445.337927	2540.824717
445.712995	2537.295910
446.088002	2540.945705
446.462949	2537.182484
446.837837	2538.659542
447.212664	2542.601724
447.587431	2539.849254
447.962139	2538.006713
448.336786	2541.651467
448.711374	2539.624923
449.085901	2539.219110
449.460369	2541.588452
449.834776	2536.569984
450.209124	2539.395550
450.583412	2539.042670
450.957640	2540.272711
451.331808	2540.176929
451.705917	2536.000333
452.079965	2541.550644
452.453954	2541.114584
452.827883	2539.352701
453.201752	2539.985365
453.575562	2543.680531
453.949311	2541.530479
454.323001	2539.849254
454.696632	2539.725746
455.070202	2542.231199
455.443713	2541.490150
455.817164	2540.030736
456.190556	2537.689120
456.563888	2538.188194
456.937160	2536.559901
457.310373	2541.122146
457.683526	2541.268339
458.056619	2544.083823
458.429653	2541.321271
458.802628	2543.630120
459.175542	2540.618030
459.548398	2540.958308
459.921194	2541.681714
460.293930	2543.400747
460.666607	2541.800181
461.039224	2544.371169
461.411782	2541.192722
461.784280	2542.475695
462.156719	2542.722712
462.529099	2545.036602
462.901419	2540.713812
463.273680	2544.204811
463.645882	2542.468134
464.018024	2542.785726
464.390106	2543.488967
464.762130	2544.613145
465.134094	2543.975439
465.505999	2543.907383
465.877845	2542.263967
466.249631	2543.400747
466.621358	2542.271529
466.993026	2545.013916
467.364634	2548.421736
467.736184	2543.977959
468.107674	2544.872764
468.479105	2541.341436
468.850477	2544.729091
469.221790	2544.877805
469.593043	2543.761190
469.964238	2544.834955
470.335373	2545.858310
470.706449	2544.746735
471.077467	2544.343443
471.448425	2546.241437
471.819324	2545.996941
472.190164	2544.562733
472.560945	2545.066848
472.931667	2543.597352
473.302330	2546.271684
473.672934	2545.843186
474.043479	2545.606252
474.413965	2545.949050
474.784393	2540.250026
475.154761	2543.683052
475.525070	2542.657177
475.895321	2543.748587
476.265513	2541.129707
476.635645	2544.197249
477.005719	2546.004503
477.375734	2543.418391
477.745691	2542.032074
478.115588	2546.574153
478.485427	2541.293545
478.855207	2549.762683
479.224928	2544.817311
479.594591	2545.470141
479.964194	2545.167672
480.333739	2545.336550
480.703226	2547.365615
481.072653	2546.019627
481.442022	2546.185985
481.811333	2544.295552
482.180584	2544.287990
482.549777	2546.468289
482.918912	2546.521221
483.287988	2549.142621
483.657005	2549.109854
484.025964	2548.832590
484.394864	2546.662374
484.763706	2549.117416
485.132489	2546.531304
485.501213	2549.790410
485.869879	2548.330996
486.238487	2547.108516
486.607036	2544.847558
486.975527	2549.293856
487.343959	2547.378217
487.712333	2548.371325
488.080648	2547.479041
488.448905	2547.017775
488.817104	2545.288659
489.185244	2547.461397
489.553326	2547.993238
489.921350	2547.577343
490.289315	2548.124308
490.657222	2550.173537
491.025070	2548.527601
491.392861	2549.135060
491.760593	2548.570450
492.128267	2550.533980
492.495883	2548.484751
492.863440	2547.660522
493.230939	2549.555996
493.598380	2546.657333
493.965763	2545.828063
494.333088	2546.233876
494.700354	2544.514842
495.067563	2545.928886
495.434713	2541.167516
495.801805	2547.597508
496.168839	2550.254196
496.535815	2549.228321
496.902733	2549.339226
497.269593	2549.344267
497.636395	2548.179761
498.003139	2550.491130
498.369825	2548.104144
498.736453	2548.925852
499.103023	2548.492313
499.469535	2548.946016
499.835989	2549.805533
500.202385	2549.619010
500.568723	2550.445760
500.935003	2547.489123
501.301226	2548.192364
501.667390	2549.031716
502.033497	2547.554658
502.399546	2551.252344
502.765537	2548.106664
503.131470	2550.077755
503.497345	2551.569937
503.863163	2552.696635
504.228923	2547.768907
504.594625	2550.561706
504.960269	2548.638506
505.325856	2549.334185
505.691385	2552.336192
506.056856	2550.176058
506.422270	2547.935265
506.787625	2549.382076
507.152924	2550.846531
507.518164	2549.795451
507.883347	2550.387786
508.248472	2550.685214
508.613540	2548.245296
508.978550	2548.023485
509.343503	2550.496171
509.708398	2551.743857
510.073236	2551.554813
510.438016	2554.115720
510.802738	2549.369473
511.167403	2552.444577
511.532010	2550.607077
511.896561	2549.576161
512.261053	2552.200081
512.625488	2550.022303
512.989866	2547.330327
513.354186	2547.615152
513.718449	2546.392672
514.082655	2548.893084
514.446803	2550.307128
514.810894	2553.425082
515.174927	2556.459856
515.538904	2550.586912
515.902822	2550.690256
516.266684	2553.762839
516.630488	2550.654968
516.994235	2553.273847
517.357925	2551.002807
517.721558	2555.002963
518.085133	2551.033054
518.448651	2553.722510
518.812112	2551.892571
519.175516	2551.511964
519.538863	2554.443395
519.902152	2552.774773
520.265385	2553.956923
520.628560	2554.730740
520.991678	2553.246121
521.354739	2554.445915
521.717743	2554.932387
522.080690	2554.745864
522.443580	2554.347613
522.806413	2554.786193
523.169189	2554.922304
523.531908	2554.103117
523.894569	2557.430278
524.257174	2556.106975
524.619722	2554.687891
524.982213	2554.430792
525.344647	2554.682849
525.707025	2557.843653
526.069345	2557.132850
526.431608	2555.524722
526.793815	2555.461708
527.155964	2554.125802
527.518057	2556.626214
527.880093	2557.367264
528.242072	2560.008828
528.603995	2557.629404
528.965860	2559.224929
529.327669	2558.244425
529.689421	2559.192162
530.051117	2560.439847
530.412755	2560.157542
530.774337	2558.698128
531.135862	2559.666030
531.497331	2557.011862
531.858743	2554.284598
532.220098	2558.531770
532.581396	2555.532284
532.942638	2555.905329
533.303824	2557.929352
533.664953	2561.213664
534.026025	2558.163766
534.387040	2560.255845
534.747999	2561.841288
535.108902	2558.176369
535.469748	2561.306926
535.830537	2561.284240
536.191270	2563.320867
536.551947	2562.201730
536.912567	2563.852708
537.273131	2563.154508
537.633638	2562.756257
537.994089	2562.957903
538.354483	2565.062585
538.714821	2563.366237
539.075103	2565.450754
539.435328	2565.448233
539.795497	2563.535116
540.155609	2562.468912
540.515665	2564.140054
540.875665	2564.608881
541.235609	2566.554767
541.595496	2566.486711
541.955328	2563.935887
542.315102	2565.954869
542.674821	2565.954869
543.034483	2567.850343
543.394090	2566.993347
543.753640	2565.934705
544.113134	2565.702812
544.472571	2568.299006
544.831953	2566.030487
545.191278	2565.942267
545.550548	2567.424366
545.909761	2565.153326
546.268918	2565.627194
546.628019	2568.503173
546.987064	2568.616599
547.346053	2568.757751
547.704986	2568.203224
548.063863	2567.442010
548.422684	2569.317319
548.781449	2567.318502
549.140158	2569.372772
549.498811	2569.564336
549.857408	2567.956208
550.215949	2564.525702
550.574434	2564.482852
550.932864	2566.605178
551.291237	2565.780950
551.649555	2568.215827
552.007817	2568.871177
552.366022	2570.116342
552.724173	2570.610375
553.082267	2569.907134
553.440305	2568.621640
553.798288	2568.235992
554.156215	2570.547361
554.514086	2570.877556
554.871902	2567.711712
555.229661	2568.009140
555.587365	2571.011147
555.945014	2568.261197
556.302606	2570.489387
556.660143	2568.823286
557.017625	2569.597103
557.375050	2569.531568
557.732421	2566.574931
558.089735	2568.853533
558.446994	2570.292782
558.804197	2568.276321
559.161345	2567.933522
559.518437	2570.123904
559.875474	2567.416804
560.232455	2571.215313
560.589381	2570.494428
560.946251	2569.786146
561.303065	2568.848492
561.659825	2567.353790
562.016528	2566.476629
562.373177	2569.035014
562.729770	2568.987123
563.086307	2568.364541
563.442789	2567.452092
563.799216	2567.842782
564.155587	2566.068295
564.511904	2566.290106
564.868164	2567.600806
565.224370	2569.208934
565.580520	2566.824468
565.936615	2567.315981
566.292654	2566.849674
566.648638	2565.249108
567.004567	2568.046948
567.360441	2566.963100
567.716260	2567.714232
568.072023	2567.948646
568.427732	2562.305074
568.783385	2564.959242
569.138982	2563.096535
569.494525	2563.456978
569.850013	2562.103428
570.205445	2565.634756
570.560823	2567.000909
570.916145	2567.855384
571.271412	2567.373954
571.626625	2566.763975
571.981782	2564.694581
572.336884	2565.687688
572.691931	2566.153995
573.046923	2566.990827
573.401860	2564.409756
573.756743	2566.872359
574.111570	2565.483522
574.466342	2568.551064
574.821059	2564.117369
575.175722	2565.450754
575.530330	2567.530230
575.884882	2568.712381
576.239380	2567.162226
576.593823	2567.931002
576.948211	2569.236661
577.302544	2565.712894
577.656823	2568.092319
578.011047	2567.013512
578.365216	2569.894531
578.719330	2567.278172
579.073389	2563.381360
579.427394	2564.359344
579.781344	2565.760785
580.135239	2566.090981
580.489080	2566.879921
580.842866	2567.174829
581.196597	2570.819583
581.550273	2568.142730
581.903895	2564.964283
582.257463	2567.356310
582.610975	2569.473595
582.964434	2568.500652
583.317837	2570.653225
583.671186	2566.373285
584.024481	2570.345714
584.377721	2567.366392
584.730906	2563.734241
585.084037	2568.006619
585.437113	2566.642987
585.790135	2568.200703
586.143103	2567.139541
586.496016	2569.261866
586.848874	2563.852708
587.201679	2565.962431
587.554428	2565.891855
587.907124	2567.290775
588.259765	2566.572411
588.612352	2569.771023
588.964884	2571.260684
589.317362	2571.792526
589.669786	2571.348904
590.022155	2573.498956
590.374470	2569.521486
590.726731	2569.070302
591.078937	2574.633216
591.431090	2572.722618
591.783188	2571.583318
592.135232	2573.640108
592.487222	2572.347052
592.839157	2572.878894
593.191038	2574.479461
593.542866	2570.373441
593.894639	2572.389902
594.246358	2572.478122
594.598022	2575.356621
594.949633	2574.907959
595.301190	2574.156827
595.652692	2577.259657
596.004141	2575.303689
596.355535	2573.960222
596.706876	2573.083061
597.058162	2576.813515
597.409395	2577.370562
597.760573	2576.190932
598.111698	2578.809812
598.462768	2579.744946
598.813785	2577.360480
599.164748	2581.524473
599.515657	2578.446849
599.866511	2581.842066
600.217312	2581.688311
600.568060	2582.194947
600.918753	2581.637899
601.269392	2583.558579
601.619978	2582.013465
601.970510	2585.592684
602.320988	2584.607139
602.671412	2586.805082
603.021783	2585.416244
603.372100	2587.611666
603.722363	2587.273909
604.072572	2588.148549
604.422728	2590.147367
604.772830	2586.447160
605.122878	2586.517736
605.472872	2589.194589
605.822813	2587.775504
606.172701	2590.830443
606.522534	2593.855135
606.872314	2593.046030
607.222041	2596.378233
607.571714	2598.936618
607.921333	2600.718666
608.270899	2600.577514
608.620411	2603.450972
608.969870	2603.055241
609.319276	2606.498349
609.668627	2610.518669
610.017926	2613.616458
610.367171	2618.080400
610.716362	2619.091152
611.065500	2620.311111
611.414585	2622.277161
611.763616	2620.391769
612.112594	2620.623662
612.461518	2622.690535
612.810389	2624.694394
613.159207	2626.375619
613.507971	2628.984416
613.856682	2632.735034
614.205340	2633.244191
614.553945	2638.486991
614.902496	2636.455406
615.250994	2641.085706
615.599439	2642.517393
615.947830	2647.578712
616.296169	2649.481747
616.644454	2650.147180
616.992686	2655.516009
617.340864	2657.761843
617.688990	2661.507420
618.037063	2666.389778
618.385082	2671.743483
618.733048	2678.637261
619.080961	2680.454597
619.428821	2682.569361
619.776628	2689.097655
620.124382	2689.763087
620.472083	2695.860363
620.819731	2698.448995
621.167326	2695.492359
621.514868	2699.144675
621.862357	2697.987730
622.209793	2702.497042
622.557176	2705.647763
622.904506	2703.427135
623.251783	2706.794626
623.599007	2705.519214
623.946179	2709.289997
624.293297	2713.363249
624.640363	2714.931048
624.987376	2720.864486
625.334336	2720.763663
625.681243	2724.526884
626.028097	2728.365723
626.374899	2735.239336
626.721647	2738.521127
627.068343	2740.030953
627.414987	2741.550861
627.761577	2746.085379
628.108115	2751.928076
628.454600	2752.016296
628.801032	2767.132196
629.147412	2765.024994
629.493739	2773.574791
629.840014	2773.489091
630.186236	2783.039557
630.532405	2785.948303
630.878521	2793.885599
631.224585	2794.833336
631.570597	2797.638738
631.916556	2808.431849
632.262462	2811.491829
632.608316	2821.080104
632.954117	2822.229487
633.299866	2826.123778
633.645562	2833.173832
633.991206	2833.972855
634.336797	2838.129286
634.682336	2839.853361
635.027823	2840.236488
635.373257	2843.959381
635.718639	2843.498115
636.063968	2850.485154
636.409245	2846.926100
636.754470	2854.825588
637.099642	2850.704444
637.444762	2859.493696
637.789829	2862.641897
638.134845	2867.461240
638.479808	2869.515510
638.824719	2877.941799
639.169577	2878.110677
639.514383	2886.547048
639.859137	2885.911863
640.203839	2893.632390
640.548489	2900.110273
640.893086	2900.566497
641.237632	2906.946077
641.582125	2912.362797
641.926566	2917.187181
642.270955	2927.483738
642.615292	2933.591096
642.959576	2944.359001
643.303809	2947.371090
643.647990	2960.916670
643.992118	2957.743264
644.336195	2959.737040
644.680219	2974.691623
645.024192	2974.341263
645.368112	2998.400170
645.711981	3010.577077
646.055797	3027.046527
646.399562	3034.764533
646.743274	3060.844943
647.086935	3077.364804
647.430544	3086.733788
647.774101	3102.552929
648.117606	3103.059565
648.461059	3110.417129
648.804460	3117.736884
649.147810	3103.483022
649.491108	3110.114660
649.834354	3113.809825
650.177548	3108.083075
650.520690	3104.125769
650.863781	3109.897890
651.206820	3117.225207
651.549807	3109.842437
651.892742	3113.517438
652.235626	3118.208232
652.578458	3123.889612
652.921238	3116.559775
653.263967	3129.954121
653.606644	3123.040178
653.949269	3136.220275
654.291843	3128.285499
654.634365	3145.828714
654.976836	3153.564365
655.319255	3155.124602
655.661622	3163.001405
656.003938	3170.159843
656.346203	3165.627846
656.688416	3184.401103
657.030577	3176.461285
657.372687	3182.152748
657.714746	3187.226669
658.056753	3202.670244
658.398708	3198.163453
658.740612	3196.618339
659.082465	3222.300497
659.424266	3225.965416
659.766016	3230.134450
660.107715	3240.698188
660.449362	3255.156217
660.790958	3262.216353
661.132503	3265.742641
661.473996	3287.754839
661.815438	3291.485293
662.156829	3293.630304
662.498168	3302.633804
662.839456	3296.506282
663.180693	3316.905311
663.521879	3324.020900
663.863013	3330.728155
664.204097	3351.066690
664.545129	3363.664533
664.886110	3378.510732
665.227040	3396.444636
665.567918	3386.546331
665.908746	3409.886873
666.249522	3419.137390
666.590248	3419.999428
666.930922	3437.416614
667.271545	3453.722226
667.612118	3458.899491
667.952639	3458.491158
668.293109	3482.247595
668.633528	3475.074033
668.973896	3476.926658
669.314213	3484.354798
669.654480	3494.477435
669.994695	3494.968947
670.334859	3496.695542
670.674973	3514.163140
671.015035	3515.909900
671.355047	3532.187786
671.695008	3534.274824
672.034918	3525.475490
672.374777	3541.992830
672.714585	3546.020712
673.054342	3555.530849
673.394049	3560.879513
673.733705	3583.063111
674.073310	3592.003597
674.412864	3577.369127
674.752368	3591.093669
675.091820	3599.557766
675.431223	3581.807863
675.770574	3594.622476
676.109875	3581.540682
676.449125	3592.643823
676.788324	3587.088472
677.127473	3574.939291
677.466571	3578.236206
677.805619	3588.807505
678.144616	3594.922425
678.483562	3595.703804
678.822458	3589.036878
679.161303	3597.485852
679.500098	3600.666820
679.838842	3598.849484
680.177535	3608.301647
680.516179	3619.598873
680.854771	3636.348107
681.193314	3670.297757
681.531805	3718.309707
681.870247	3795.031027
682.208638	3836.287830
682.546978	3849.362062
682.885268	3851.570088
683.223508	3829.199968
683.561697	3814.817556
683.899836	3816.448369
684.237925	3807.898572
684.575963	3794.463897
684.913951	3787.197074
685.251889	3833.369002
685.589776	3807.568377
685.927614	3803.782470
686.265401	3846.297041
686.603137	3844.285621
686.940824	3890.573495
687.278460	3901.800145
687.616046	3917.558792
687.953582	3945.002833
688.291068	3943.999644
688.628504	3992.982015
688.965889	3973.548367
689.303224	3951.203452
689.640510	3947.415025
689.977745	3920.643978
690.314930	3885.653329
690.652065	3870.033314
690.989150	3834.319259
691.326185	3812.302020
691.663170	3803.285916
692.000105	3776.285496
692.336990	3742.262749
692.673825	3747.218203
693.010610	3717.036815
693.347345	3681.781506
693.684030	3700.113662
694.020665	3683.261084
694.357251	3638.929178
694.693786	3654.639933
695.030272	3640.862460
695.366707	3634.092190
695.703093	3621.277577
696.039429	3636.766522
696.375716	3638.248622
696.711952	3627.135398
697.048139	3625.103813
697.384276	3619.782875
697.720363	3631.778301
698.056400	3648.736742
698.392388	3618.812453
698.728326	3612.911782
699.064214	3607.900876
699.400053	3611.775002
699.735842	3605.733179
700.071581	3591.398658
700.407270	3582.541351
700.742910	3584.242741
701.078501	3556.831467
701.414042	3567.574165
701.749533	3555.573699
702.084974	3516.645909
702.420366	3562.177610
702.755709	3535.605688
703.091002	3502.139988
703.426246	3546.832338
703.761440	3513.958974
704.096584	3496.599760
704.431679	3520.542721
704.766725	3517.737318
705.101721	3513.376720
705.436668	3535.023435
705.771565	3506.377078
706.106413	3527.776776
706.441212	3555.099830
706.775961	3565.492169
707.110661	3546.411402
707.445311	3562.399421
707.779913	3591.368412
708.114465	3594.015017
708.448967	3602.569855
708.783421	3648.787154
709.117825	3672.707429
709.452180	3676.853778
709.786485	3703.168601
710.120742	3753.098709
710.454949	3740.780650
710.789107	3785.553658
711.123216	3826.291222
711.457275	3824.567147
711.791286	3871.827965
712.125247	3884.498905
712.459159	3819.389882
712.793023	3867.323694
713.126837	3870.146740
713.460602	3866.300339
713.794318	3811.190446
714.127985	3830.997139
714.461602	3793.127991
714.795171	3775.410856
715.128691	3745.395826
715.462162	3720.048905
715.795584	3696.615101
716.128957	3694.258362
716.462281	3661.984895
716.795556	3651.900066
717.128782	3634.447592
717.461960	3597.503496
717.795088	3608.110083
718.128167	3590.947475
718.461198	3556.770973
718.794180	3553.703431
719.127113	3549.133625
719.459997	3541.841596
719.792833	3518.125487
720.125619	3510.364631
720.458357	3493.867455
720.791046	3502.485307
721.123686	3488.206239
721.456278	3460.348823
721.788821	3476.939260
722.121315	3460.608443
722.453761	3439.511214
722.786158	3460.164821
723.118506	3477.566884
723.450805	3443.516410
723.783056	3459.597691
724.115259	3480.957060
724.447412	3479.230465
724.779518	3476.727532
725.111574	3482.613079
725.443582	3504.211903
725.775542	3495.586488
726.107453	3531.295502
726.439315	3533.886655
726.771129	3541.211451
727.102895	3560.826581
727.434612	3599.199844
727.766281	3607.079168
728.097901	3608.289044
728.429473	3614.721557
728.760996	3624.282105
729.092471	3622.424440
729.423897	3619.621558
729.755276	3630.465080
730.086606	3633.232674
730.417887	3655.607835
730.749120	3706.031976
731.080305	3759.367384
731.411442	3775.811628
731.742530	3753.827156
732.073570	3763.644803
732.404562	3809.405877
732.735506	3801.612253
733.066401	3776.288017
733.397249	3740.853747
733.728048	3688.035057
734.058798	3642.402532
734.389501	3596.671705
734.720156	3551.099675
735.050762	3524.174872
735.381320	3523.726209
735.711831	3487.465190
736.042293	3466.909885
736.372707	3486.189778
736.703073	3467.724031
737.033391	3457.951754
737.363661	3472.931543
737.693883	3496.698063
738.024056	3499.049761
738.354182	3495.263855
738.684260	3545.471226
739.014290	3558.086714
739.344272	3549.151269
739.674207	3583.252154
740.004093	3591.938062
740.333931	3585.036722
740.663722	3585.840786
740.993464	3588.021085
741.323159	3574.609096
741.652806	3558.419430
741.982405	3537.969989
742.311956	3519.403420
742.641460	3518.034747
742.970915	3501.030935
743.300323	3474.194352
743.629683	3450.674849
743.958996	3447.766103
744.288260	3433.066098
744.617477	3413.788726
744.946647	3400.785070
745.275768	3383.539283
745.604842	3384.691186
745.933869	3345.188705
746.262847	3338.700740
746.591778	3376.214486
746.920662	3353.070549
747.249498	3327.514419
747.578286	3367.689895
747.907027	3384.441649
748.235720	3374.276162
748.564365	3399.247518
748.892963	3402.367992
749.221514	3388.499778
749.550017	3372.657952
749.878473	3370.596120
750.206881	3348.528469
750.535242	3349.629961
750.863555	3354.222452
751.191821	3346.030577
751.520039	3336.712004
751.848210	3316.076041
752.176334	3349.546782
752.504411	3355.570961
752.832440	3321.858245
753.160421	3304.771254
753.488356	3313.094199
753.816243	3329.175479
754.144082	3290.761887
754.471875	3282.224693
754.799620	3298.885707
755.127318	3290.214922
755.454969	3294.363792
755.782572	3299.057106
756.110129	3280.223355
756.437638	3274.247067
756.765100	3282.045732
757.092515	3294.734316
757.419882	3298.331180
757.747203	3276.064403
758.074477	3277.052469
758.401703	3293.665592
758.728882	3311.586894
759.056014	3311.750731
759.383099	3317.727019
759.710138	3314.760300
760.037129	3330.937363
760.364073	3362.111858
760.690970	3348.697348
761.017820	3325.112309
761.344623	3343.822552
761.671379	3388.323338
761.998088	3428.859256
762.324751	3539.754558
762.651366	3735.676482
762.977935	4117.004482
763.304456	4478.747600
763.630931	4564.122061
763.957359	4272.294706
764.283740	4002.245135
764.610074	3853.011858
764.936362	3689.088658
765.262602	3556.869275
765.588796	3461.621714
765.914943	3391.065725
766.241044	3318.032009
766.567097	3292.710293
766.893104	3253.694283
767.219064	3230.013463
767.544978	3208.575956
767.870845	3158.766835
768.196665	3144.427273
768.522438	3157.607370
768.848165	3152.992194
769.173846	3123.564458
769.499479	3107.626850
769.825066	3092.266454
770.150607	3077.606779
770.476101	3095.054212
770.801548	3094.419027
771.126949	3054.432595
771.452303	3034.262938
771.777611	3045.431615
772.102872	3050.911349
772.428087	3030.782022
772.753256	3024.581402
773.078378	3015.754342
773.403453	2983.871564
773.728482	2976.753455
774.053465	2997.429748
774.378401	2986.767707
774.703291	2959.003553
775.028135	2961.660241
775.352932	2957.350054
775.677683	2944.303548
776.002388	2944.278342
776.327046	2946.072993
776.651658	2933.122269
776.976224	2928.249993
777.300743	2926.629263
777.625216	2917.693817
777.949643	2913.131573
778.274024	2914.452355
778.598359	2908.478588
778.922647	2910.089237
779.246889	2913.083682
779.571086	2896.185734
779.895236	2889.493603
780.219339	2901.098339
780.543397	2911.258784
780.867409	2916.844383
781.191374	2907.742580
781.515294	2907.906417
781.839167	2908.544123
782.162995	2900.919378
782.486776	2909.388516
782.810511	2907.031777
783.134201	2897.045251
783.457844	2902.419121
783.781441	2895.774880
784.104993	2875.668238
784.428498	2879.769217
784.751958	2892.324211
785.075372	2886.302552
785.398739	2872.149513
785.722061	2887.537635
786.045337	2897.577093
786.368568	2880.870709
786.691752	2874.896942
787.014891	2920.156421
787.337983	2946.461162
787.661030	2967.202989
787.984031	3026.066022
788.306987	3067.269893
788.629897	3063.499110
788.952760	3049.804816
789.275579	3037.862322
789.598351	2982.951554
789.921078	2944.885801
790.243759	2939.055707
790.566395	2923.029879
790.888984	2904.143196
791.211529	2886.930176
791.534027	2878.781151
791.856480	2869.134903
792.178888	2855.286853
792.501249	2847.583970
792.823566	2845.159175
793.145836	2843.823269
793.468062	2840.125583
793.790241	2837.698267
794.112375	2846.306038
794.434464	2852.980525
794.756507	2857.530167
795.078505	2864.328163
795.400457	2877.518342
795.722364	2907.535892
796.044226	2931.698143
796.366042	2931.483894
796.687812	2922.114909
797.009538	2941.667024
797.331218	2929.787545
797.652852	2917.061153
797.974442	2902.328380
798.295986	2901.123545
798.617484	2896.004253
798.938938	2883.905484
799.260346	2868.053575
799.581709	2863.241794
799.903026	2855.576720
800.224299	2853.449353
800.545526	2842.346211
800.866708	2827.845332
801.187845	2823.189827
801.508936	2823.792245
801.829983	2832.876404
802.150984	2817.122798
802.471940	2803.569656
802.792851	2804.557722
803.113717	2804.540078
803.434538	2808.986376
803.755314	2802.407670
804.076045	2797.419448
804.396731	2793.986422
804.717372	2798.029428
805.037967	2792.181689
805.358518	2798.586475
805.679024	2809.102322
805.999485	2804.169553
806.319901	2806.813638
806.640272	2801.838020
806.960598	2806.448155
807.280879	2815.197077
807.601115	2820.621359
807.921306	2811.285142
808.241453	2805.419759
808.561554	2810.833959
808.881611	2814.778662
809.201623	2811.343115
809.521590	2808.948567
809.841513	2804.930767
810.161390	2808.709112
810.481223	2805.409677
810.801011	2793.915846
811.120755	2792.252266
811.440453	2793.925929
811.760107	2793.804941
812.079716	2795.087915
812.399281	2784.635082
812.718801	2776.846499
813.038276	2773.904986
813.357707	2778.633588
813.677093	2786.039043
813.996434	2780.307252
814.315731	2776.743156
814.634983	2769.851898
814.954191	2773.458844
815.273354	2787.619445
815.592473	2794.223357
815.911547	2797.653862
816.230577	2803.743576
816.549562	2811.280101
816.868502	2810.037456
817.187399	2818.894764
817.506250	2835.432269
817.825058	2829.307267
818.143821	2843.495594
818.462539	2857.290712
818.781213	2882.108312
819.099843	2915.649629
819.418429	2965.836837
819.736970	3025.080477
820.055466	3088.725044
820.373919	3189.575847
820.692327	3322.783296
821.010691	3477.478664
821.329011	3880.105539
821.647286	4684.618240
821.965517	5903.970012
822.283704	6550.230812
822.601847	6539.835952
822.919945	5995.139279
823.237999	5560.485954
823.556010	5038.444226
823.873976	4538.301271
824.191897	4165.820495
824.509775	3900.244949
824.827609	3653.351919
825.145398	3538.244732
825.463144	3528.611087
825.780845	3620.138277
826.098502	3715.743759
826.416116	3973.790342
826.733685	4261.660392
827.051210	4317.196263
827.368692	4212.607444
827.686129	3970.793376
828.003522	3670.524609
828.320872	3432.216664
828.638177	3251.531628
828.955439	3125.956486
829.272656	3049.451935
829.589830	2983.715289
829.906960	2942.627364
830.224046	2901.047927
830.541088	2867.272197
830.858086	2852.814167
831.175041	2834.585355
831.491952	2838.116683
831.808819	2849.905422
832.125642	2873.702188
832.442421	2916.342788
832.759157	2992.698625
833.075849	3157.032678
833.392497	3422.565375
833.709101	3609.667800
834.025662	3557.020510
834.342179	3409.486101
834.658653	3246.495515
834.975083	3106.850513
835.291469	3019.948582
835.607811	2939.763989
835.924110	2885.755587
836.240366	2836.203565
836.556578	2799.982875
836.872746	2777.895059
837.188871	2754.927562
837.504952	2739.824266
837.820990	2734.301682
838.136984	2719.969681
838.452935	2716.246789
838.768842	2711.641695
839.084706	2728.622822
839.400526	2805.419759
839.716303	2926.901485
840.032037	2999.857063
840.347727	2986.319045
840.663373	2928.570107
840.978977	2858.215764
841.294537	2792.111113
841.610054	2747.703589
841.925527	2728.106103
842.240957	2709.027857
842.556344	2684.890812
842.871687	2672.870181
843.186987	2665.353820
843.502244	2660.645383
843.817458	2654.001142
844.132629	2642.903042
844.447756	2635.588327
844.762840	2630.889972
845.077881	2632.054479
845.392879	2631.774695
845.707833	2631.643625
846.022745	2618.140894
846.337613	2624.298663
846.652438	2619.839763
846.967221	2623.940742
847.281960	2618.831532
847.596656	2617.861110
847.911309	2618.002262
848.225919	2614.894391
848.540485	2611.912548
848.855009	2614.057559
849.169490	2612.245265
849.483928	2612.683845
849.798323	2611.584873
850.112675	2609.454986
850.426984	2611.254678
850.741251	2609.230655
851.055474	2607.493977
851.369654	2613.341716
851.683792	2612.822477
851.997887	2608.545058
852.311938	2607.897269
852.625947	2611.461365
852.939914	2613.873557
853.253837	2611.408433
853.567718	2609.303751
853.881555	2605.800149
854.195350	2612.399020
854.509103	2609.394492
854.822812	2607.995572
855.136479	2610.858947
855.450103	2609.926334
855.763685	2613.064452
856.077224	2609.011364
856.390720	2606.160592
856.704173	2610.755604
857.017584	2613.986983
857.330953	2616.583177
857.644278	2618.123250
857.957561	2617.498147
858.270802	2611.247116
858.584000	2613.986983
858.897155	2617.561161
859.210268	2616.757097
859.523339	2610.758124
859.836367	2606.468102
860.149352	2608.920624
860.462295	2612.144442
860.775195	2606.319388
861.088054	2605.885849
861.400869	2605.238061
861.713642	2600.426279
862.026373	2604.181939
862.339062	2605.865684
862.651708	2611.955398
862.964312	2614.849021
863.276873	2610.465737
863.589392	2612.058742
863.901869	2617.674587
864.214303	2622.067953
864.526696	2624.376801
864.839045	2625.440485
865.151353	2628.162708
865.463619	2629.861577
865.775842	2629.110445
866.088023	2626.375619
866.400162	2628.364354
866.712258	2629.473408
867.024313	2626.216822
867.336325	2623.789507
867.648296	2624.275978
867.960224	2630.731176
868.272110	2628.906278
868.583954	2623.214815
868.895755	2621.833539
869.207515	2631.494911
869.519233	2637.456075
869.830909	2629.758233
870.142542	2627.209930
870.454134	2627.971144
870.765684	2634.776702
871.077191	2636.173101
871.388657	2640.271559
871.700081	2635.457257
872.011463	2635.953811
872.322803	2637.844244
872.634101	2644.271715
872.945357	2649.169196
873.256571	2652.443425
873.567744	2649.842190
873.878874	2649.406130
874.189963	2651.220946
874.501010	2653.224804
874.812015	2660.804179
875.122979	2656.970382
875.433900	2649.738846
875.744780	2649.771614
876.055618	2655.430309
876.366415	2662.031700
876.677169	2657.691267
876.987882	2652.115750
877.298554	2653.363436
877.609183	2663.062616
877.919771	2668.675941
878.230317	2674.695078
878.540822	2682.322344
878.851285	2697.523944
879.161707	2717.985987
879.472087	2756.097110
879.782425	2800.580252
880.092722	2910.066552
880.402977	3082.327820
880.713191	3321.031495
881.023363	3587.635437
881.333494	3755.493257
881.643583	3920.001231
881.953631	3921.899225
882.263637	3757.053494
882.573602	3550.668656
882.883526	3431.762960
883.193408	3324.950993
883.503248	3234.928588
883.813048	3129.278606
884.122806	3018.484127
884.432522	2943.769186
884.742197	2884.069321
885.051831	2850.875844
885.361424	2817.634475
885.670975	2784.594753
885.980485	2757.770773
886.289954	2737.505335
886.599382	2727.808675
886.908768	2717.456666
887.218113	2699.363965
887.527417	2687.945751
887.836680	2678.906962
888.145901	2675.179029
888.455082	2665.731907
888.764221	2657.640855
889.073319	2651.548621
889.382376	2649.849752
889.691392	2651.823363
890.000366	2650.013589
890.309300	2649.905204
890.618193	2652.957623
890.927044	2653.244969
891.235855	2652.592139
891.544625	2653.091214
891.853353	2653.829743
892.162041	2658.502892
892.470687	2680.252951
892.779293	2688.487675
893.087858	2696.210723
893.396381	2716.841645
893.704864	2757.077615
894.013306	2820.797799
894.321707	2907.488001
894.630068	2953.405351
894.938387	2971.147692
895.246665	2965.168884
895.554903	2926.472987
895.863100	2884.636451
896.171256	2833.488904
896.479371	2772.543875
896.787446	2738.301837
897.095480	2719.521018
897.403473	2714.641182
897.711425	2702.728935
898.019336	2685.226049
898.327207	2673.573422
898.635038	2669.043945
898.942827	2670.846157
899.250576	2660.302584
899.558284	2651.016779
899.865952	2645.577374
900.173579	2641.231899
900.481165	2640.188380
900.788711	2634.249901
901.096216	2627.217492
901.403681	2623.804630
901.711105	2625.863942
902.018489	2623.769342
902.325832	2625.102727
902.633135	2627.963582
902.940397	2641.761220
903.247619	2676.391427
903.554800	2738.964749
903.861941	2856.637882
904.169041	2973.010398
904.476101	3027.901002
904.783121	3022.675846
905.090100	2967.482773
905.397039	2899.575910
905.703938	2834.668534
906.010796	2776.206273
906.317614	2729.068964
906.624391	2695.063861
906.931129	2672.018226
907.237826	2647.830770
907.544483	2634.547329
907.851099	2620.054012
908.157675	2612.426746
908.464211	2605.593462
908.770707	2597.767071
909.077163	2590.848087
909.383578	2589.093766
909.689954	2589.212233
909.996289	2587.467993
910.302584	2586.666450
910.608839	2583.109916
910.915054	2585.454052
911.221229	2583.533373
911.527363	2588.312387
911.833458	2586.674012
912.139513	2588.660226
912.445527	2589.149218
912.751502	2593.547625
913.057436	2596.395877
913.363331	2606.810901
913.669186	2614.975049
913.975000	2626.718417
914.280775	2640.221148
914.586510	2657.313180
914.892205	2691.189734
915.197859	2753.934455
915.503475	2830.960765
915.809050	2889.768346
916.114585	2898.073647
916.420081	2908.362642
916.725536	2920.479055
917.030952	2901.685633
917.336328	2856.678212
917.641665	2811.343115
917.946961	2767.222937
918.252218	2733.878225
918.557435	2712.584391
918.862612	2691.325845
919.167750	2678.400327
919.472848	2662.402225
919.777906	2644.410347
920.082925	2635.477422
920.387904	2624.129785
920.692843	2622.146091
920.997743	2618.372787
921.302603	2610.306941
921.607423	2602.848554
921.912204	2599.934767
922.216946	2596.053078
922.521647	2598.505600
922.826310	2592.793972
923.130932	2587.790627
923.435516	2580.894329
923.740059	2583.825760
924.044564	2580.307034
924.349028	2577.143710
924.653454	2568.770354
924.957840	2571.626167
925.262186	2567.205076
925.566493	2567.331104
925.870761	2563.905640
926.174989	2567.321022
926.479178	2562.874724
926.783328	2562.491597
927.087438	2559.363561
927.391509	2559.749209
927.695541	2559.766853
927.999533	2558.990515
928.303486	2552.825184
928.607400	2556.149825
928.911275	2554.501368
929.215110	2556.623694
929.518906	2554.536656
929.822663	2555.139074
930.126381	2554.758467
930.430060	2554.987839
930.733699	2554.576985
931.037299	2554.236707
931.340861	2558.524209
931.644383	2557.679815
931.947866	2557.334496
932.251309	2555.403734
932.554714	2554.587067
932.858080	2558.299877
933.161407	2555.335679
933.464694	2553.548590
933.767943	2552.822664
934.071153	2553.137736
934.374323	2551.673281
934.677455	2553.072201
934.980548	2553.886347
935.283602	2554.163611
935.586617	2552.610935
935.889593	2553.972047
936.192530	2552.931048
936.495428	2553.059598
936.798287	2557.271482
937.101108	2553.548590
937.403890	2556.104455
937.706632	2561.564024
938.009336	2561.972358
938.312002	2566.771536
938.614628	2568.399829
938.917216	2573.110787
939.219765	2573.173802
939.522275	2575.023905
939.824747	2573.274625
940.127179	2568.059551
940.429573	2566.978224
940.731929	2564.636608
941.034246	2565.685168
941.336524	2565.601989
941.638763	2566.201886
941.940964	2565.518810
942.243126	2561.982440
942.545250	2563.819941
942.847335	2561.785835
943.149381	2558.441030
943.451389	2557.717624
943.753359	2560.147460
944.055290	2557.826009
944.357182	2559.603016
944.659036	2556.101934
944.960851	2554.544218
945.262628	2556.480021
945.564367	2555.650751
945.866067	2557.387428
946.167729	2556.147305
946.469352	2555.565051
946.770937	2557.652089
947.072484	2554.327448
947.373992	2559.159394
947.675462	2555.895247
947.976893	2557.236194
948.278286	2554.355174
948.579641	2553.228477
948.880958	2551.796789
949.182236	2552.888199
949.483476	2552.147149
949.784678	2553.462890
950.085841	2552.701676
950.386967	2555.224773
950.688054	2552.573127
950.989103	2555.406255
951.290114	2555.030689
951.591087	2556.404403
951.892021	2558.882131
952.192917	2558.882131
952.493776	2557.029507
952.794596	2560.704508
953.095378	2563.477142
953.396122	2561.064950
953.696828	2559.479507
953.997496	2557.906667
954.298126	2556.043961
954.598718	2555.582695
954.899272	2553.546069
955.199788	2553.349464
955.500266	2550.652447
955.800706	2550.990204
956.101108	2546.022147
956.401472	2546.949719
956.701798	2547.093392
957.002087	2545.946530
957.302337	2545.744884
957.602550	2549.611449
957.902724	2544.671118
958.202861	2543.443597
958.502960	2543.914945
958.803022	2546.750594
959.103045	2545.308824
959.403031	2543.511652
959.702979	2542.412681
960.002889	2542.730274
960.302762	2545.182795
960.602596	2540.126518
960.902393	2543.473844
961.202153	2543.262115
961.501875	2541.714481
961.801559	2543.582229
962.101205	2543.136087
962.400814	2541.462423
962.700385	2541.575849
962.999918	2540.108874
963.299414	2537.495035
963.598873	2541.764893
963.898293	2540.973432
964.197677	2543.844369
964.497022	2537.817669
964.796331	2542.412681
965.095601	2540.469316
965.394835	2543.506611
965.694030	2542.183308
965.993189	2542.954605
966.292309	2541.071734
966.591393	2537.875642
966.890439	2540.547454
967.189447	2540.653318
967.488419	2538.077289
967.787353	2538.362114
968.086249	2539.657690
968.385108	2540.360931
968.683930	2541.825387
968.982714	2540.802032
969.281462	2539.430838
969.580172	2541.500232
969.878844	2541.522917
970.177480	2539.871939
970.476078	2540.824717
970.774639	2542.947043
971.073162	2542.763041
971.371649	2537.870601
971.670098	2536.464119
971.968510	2539.836651
972.266885	2538.420087
972.565223	2543.257074
972.863524	2542.042156
973.161788	2539.932433
973.460014	2541.555685
973.758204	2538.714995
974.056356	2542.616848
974.354471	2541.590973
974.652550	2541.807743
974.950591	2543.373021
975.248595	2541.598535
975.546563	2542.425284
975.844493	2541.817825
976.142386	2541.590973
976.440243	2540.181970
976.738062	2543.869574
977.035845	2541.245654
977.333590	2539.720705
977.631299	2541.742208
977.928971	2539.314892
978.226606	2538.684748
978.524204	2542.715150
978.821765	2539.335057
979.119290	2544.141797
979.416777	2541.323792
979.714228	2539.990407
980.011642	2540.244985
980.309020	2544.189688
980.606360	2542.957126
980.903664	2542.127856
981.200931	2545.175233
981.498162	2543.927548
981.795356	2545.235727
982.092513	2547.993238
982.389633	2546.798485
982.686717	2551.063301
982.983764	2552.331151
983.280775	2554.695452
983.577749	2556.840463
983.874686	2553.977088
984.171587	2553.162942
984.468451	2551.378373
984.765279	2546.173382
985.062070	2546.538865
985.358824	2544.719009
985.655543	2545.684390
985.952224	2539.501415
986.248869	2541.154913
986.545478	2539.012423
986.842050	2538.878832
987.138586	2538.082330
987.435086	2535.455889
987.731549	2534.714839
988.027975	2539.861857
988.324366	2537.663914
988.620719	2538.210879
988.917037	2542.674821
989.213318	2540.434028
989.509563	2536.827082
989.805772	2538.596527
990.101944	2537.757175
990.398080	2540.285314
990.694180	2539.753472
990.990244	2540.431508
991.286271	2538.911600
991.582262	2539.743390
991.878217	2537.101825
992.174136	2538.387320
992.470019	2540.202135
992.765865	2538.205838
993.061676	2540.214738
993.357450	2538.399922
993.653188	2538.399922
993.948890	2539.609799
994.244556	2538.841023
994.540186	2541.054090
994.835780	2539.743390
995.131337	2541.192722
995.426859	2541.477547
995.722345	2538.934285
996.017795	2543.491488
996.313208	2544.456869
996.608586	2541.981662
996.903928	2543.292362
997.199234	2542.357228
997.494504	2543.587270
997.789738	2541.848072
998.084936	2543.680531
998.380099	2541.454862
998.675225	2539.350180
998.970316	2540.282793
999.265371	2537.933616
999.560390	2538.006712
999.855373	2539.690458
1000.150320	2537.235416
1000.445232	2537.837834
1000.740108	2537.774819
1001.034948	2539.196425
1001.329752	2539.483771
1001.624521	2541.217927
1001.919254	2532.161495
1002.213951	2535.486136
1002.508613	2535.695343
1002.803239	2537.706764
1003.097829	2534.104859
1003.392384	2535.904551
1003.686903	2535.304654
1003.981386	2536.050745
1004.275834	2540.179450
1004.570246	2539.181301
1004.864623	2538.074768
1005.158964	2537.714326
1005.453270	2536.945550
1005.747540	2535.748276
1006.041775	2539.256919
1006.335974	2536.075951
1006.630138	2537.260622
1006.924266	2539.902186
1007.218359	2537.384130
1007.512416	2538.876312
1007.806438	2537.936136
1008.100425	2537.505118
1008.394376	2537.069058
1008.688292	2538.246167
1008.982172	2537.921013
1009.276017	2538.019315
1009.569827	2539.345139
1009.863602	2539.161137
1010.157341	2538.687268
1010.451045	2537.237937
1010.744714	2537.021167
1011.038347	2536.496887
1011.331945	2537.885725
1011.625508	2537.338760
1011.919036	2537.064017
1012.212528	2536.806918
1012.505986	2536.945550
1012.799408	2537.875642
1013.092795	2537.066537
1013.386147	2537.121990
1013.679464	2536.741383
1013.972745	2538.571322
1014.265992	2538.432690
1014.559204	2537.777340
1014.852380	2537.200128
1015.145521	2539.287166
1015.438628	2536.756506
1015.731699	2538.828421
1016.024736	2537.595858
1016.317737	2539.430838
1016.610703	2540.013092
1016.903635	2534.747607
1017.196531	2533.510003
1017.489393	2534.109901
1017.782219	2531.186031
1018.075011	2535.508821
1018.367768	2536.756506
1018.660490	2535.135775
1018.953177	2535.135775
1019.245829	2535.135775
