Dividing Wavelength (nm)	Counts (n)	Blue Motor Position (mm): 38.800000	Red Motor Position (mm): 0.000000	
326.493990	2131.697274
326.888308	2131.697274
327.282561	2131.697274
327.676750	2097.402305
328.070874	2097.666965
328.464933	2100.275762
328.858929	2104.643922
329.252859	2112.815633
329.646726	2126.502365
330.040528	2140.234468
330.434265	2156.650986
330.827938	2173.339726
331.221547	2189.355471
331.615091	2209.779706
332.008571	2232.593448
332.401986	2251.452404
332.795338	2269.222472
333.188625	2290.377674
333.581847	2307.197484
333.975006	2326.318580
334.368100	2343.219048
334.761129	2362.153622
335.154095	2379.321272
335.546996	2402.523182
335.939833	2428.336411
336.332606	2438.632967
336.725315	2453.378342
337.117960	2462.419652
337.510540	2468.776547
337.903056	2480.121663
338.295508	2487.827067
338.687896	2499.368789
339.080220	2509.060407
339.472480	2513.126098
339.864676	2515.918897
340.256807	2522.134640
340.648875	2521.272602
341.040879	2526.505320
341.432818	2527.248890
341.824694	2529.406504
342.216506	2529.474560
342.608253	2529.882893
342.999937	2527.342152
343.391557	2529.663603
343.783113	2529.424148
344.174605	2528.698222
344.566033	2527.198479
344.957397	2522.732016
345.348697	2521.464166
345.739934	2521.015503
346.131106	2520.982736
346.522215	2518.505009
346.913260	2514.824967
347.304241	2514.086437
347.695159	2514.288084
348.086012	2510.471930
348.476802	2506.804491
348.867528	2508.783144
349.258191	2505.660149
349.648789	2505.503873
350.039324	2501.831393
350.429796	2504.483039
350.820203	2502.408605
351.210548	2499.588079
351.600828	2499.779643
351.991045	2498.675630
352.381198	2499.978768
352.771288	2499.646052
353.161314	2497.916937
353.551276	2496.291164
353.941175	2493.984837
354.331010	2497.092708
354.720782	2495.557677
355.110490	2498.819303
355.500135	2497.538850
355.889717	2496.969200
356.279235	2496.754951
356.668689	2498.852071
357.058080	2498.141268
357.447408	2495.693788
357.836672	2493.180773
358.225873	2494.125989
358.615010	2494.746051
359.004084	2501.917092
359.393095	2499.948522
359.782043	2500.160250
360.170927	2500.760147
360.559748	2501.367606
360.948505	2502.859788
361.337199	2499.865343
361.725830	2508.369769
362.114398	2505.294665
362.502903	2504.319202
362.891344	2505.612258
363.279722	2504.362052
363.668037	2506.617968
364.056289	2504.830879
364.444478	2508.352125
364.832603	2504.805673
365.220665	2507.900942
365.608665	2505.521517
365.996601	2509.630058
366.384474	2512.032167
366.772284	2510.260202
367.160031	2509.733401
367.547715	2509.481343
367.935336	2510.797085
368.322893	2511.764986
368.710388	2511.016375
369.097820	2512.009482
369.485189	2512.306910
369.872495	2513.073166
370.259738	2510.887825
370.646918	2513.448732
371.034035	2511.732219
371.421090	2514.547703
371.808081	2512.818587
372.195010	2513.786489
372.581875	2512.954698
372.968678	2513.466376
373.355418	2514.217507
373.742096	2513.277332
374.128710	2515.220697
374.515262	2515.707168
374.901751	2517.897550
375.288177	2518.429392
375.674540	2518.739423
376.060841	2517.935358
376.447079	2515.750018
376.833254	2517.935358
377.219367	2515.750018
377.605417	2515.089627
377.991404	2517.408558
378.377329	2514.890502
378.763191	2514.671211
379.148991	2521.229753
379.534727	2518.454597
379.920402	2521.000380
380.306013	2521.166738
380.691563	2522.454753
381.077049	2522.815195
381.462474	2523.639424
381.847835	2521.965761
382.233134	2523.979702
382.618371	2525.643283
383.003545	2522.424506
383.388657	2524.113292
383.773706	2522.999198
384.158693	2525.761750
384.543618	2526.810310
384.928480	2525.287881
385.313280	2528.504137
385.698017	2529.451874
386.082692	2529.656041
386.467305	2529.719056
386.851856	2528.378109
387.236344	2530.679395
387.620770	2529.661082
388.005133	2532.806762
388.389435	2531.957328
388.773674	2529.824920
389.157851	2529.855167
389.541965	2534.011598
389.926018	2535.163502
390.310008	2537.268183
390.693936	2535.907072
391.077802	2540.779347
391.461606	2542.369831
391.845348	2545.891077
392.229027	2548.099103
392.612645	2557.246276
392.996200	2568.513255
393.379694	2573.665314
393.763125	2588.138467
394.146494	2592.398242
394.529801	2610.095212
394.913047	2626.123561
395.296230	2638.670993
395.679351	2658.195382
396.062410	2677.051818
396.445408	2693.581761
396.828343	2716.347612
397.211217	2732.081053
397.594028	2745.954309
397.976778	2776.866664
398.359466	2804.358597
398.742092	2832.273986
399.124656	2847.354598
399.507158	2887.361195
399.889598	2919.438057
400.271977	2962.880200
400.654294	2985.562872
401.036549	3020.659385
401.418742	3045.902962
401.800874	3108.075513
402.182944	3145.543889
402.564952	3207.338353
402.946898	3239.977303
403.328783	3274.536933
403.710606	3277.808642
404.092367	3396.898340
404.474067	3416.765528
404.855705	3462.019966
405.237282	3461.162969
405.618797	3558.348854
406.000250	3615.485292
406.381642	3696.733568
406.762972	3716.855334
407.144240	3766.488014
407.525447	3804.667193
407.906593	3878.527658
408.287677	3945.789253
408.668700	3937.209209
409.049661	4005.741175
409.430560	4075.626691
409.811399	4059.207653
410.192176	4215.375038
410.572891	4199.941545
410.953545	4312.704595
411.334138	4255.036315
411.714669	4336.607226
412.095139	4283.039925
412.475547	4433.523408
412.855894	4441.591775
413.236180	4479.748269
413.616405	4465.035661
413.996568	4565.775559
414.376670	4535.765570
414.756711	4519.033981
415.136691	4569.253955
415.516609	4660.582019
415.896466	4708.909040
416.276262	4761.236217
416.655997	4756.885701
417.035670	4942.715235
417.415283	5042.575452
417.794834	5006.226212
418.174324	4975.550791
418.553753	4899.484820
418.933121	5083.302933
419.312428	5161.604656
419.691674	5113.839723
420.070859	5245.965845
420.449983	5164.372249
420.829045	5289.234068
421.208047	5200.229976
421.586988	5279.416421
421.965867	5296.069873
422.344686	5431.127425
422.723444	5290.186846
423.102141	5113.940546
423.480777	5412.717132
423.859352	5187.773285
424.237866	5446.991937
424.616319	5439.515905
424.994712	5550.852309
425.373044	5425.645171
425.751314	5575.120423
426.129524	5379.813520
426.507673	5570.986677
426.885762	5656.565305
427.263789	5587.904789
427.641756	5472.379187
428.019662	5590.508545
428.397508	5600.137149
428.775292	5550.522113
429.153016	5649.250591
429.530679	5575.942131
429.908282	5662.622251
430.285824	5535.993508
430.663305	5801.679959
431.040726	5537.916708
431.418086	5544.132451
431.795385	5651.592207
432.172624	5660.593187
432.549802	5652.023225
432.926920	5670.148694
433.303977	5677.947359
433.680974	5711.569334
434.057910	5733.856276
434.434786	5736.467593
434.811601	5706.767635
435.188355	5937.929745
435.565050	5813.017514
435.941683	5796.180061
436.318257	6009.430951
436.694770	5996.192881
437.071222	6029.683786
437.447614	5959.437828
437.823946	5872.750146
438.200218	6030.177819
438.576429	5896.297376
438.952580	5991.028218
439.328670	6039.067894
439.704700	5939.978974
440.080670	5928.646460
440.456580	6199.928593
440.832429	6081.421148
441.208218	5935.343633
441.583947	6084.186221
441.959616	6088.917344
442.335224	6018.414287
442.710773	6151.062168
443.086261	6183.411252
443.461689	5969.484848
443.837057	6123.166943
444.212365	6278.043792
444.587612	6169.991701
444.962800	6324.918961
445.337927	6306.294418
445.712995	5917.876035
446.088002	6491.786195
446.462949	6327.570608
446.837837	6253.137972
447.212664	6426.974600
447.587431	6572.074131
447.962139	7111.888447
448.336786	8037.149386
448.711374	7777.872761
449.085901	6854.923191
449.460369	6776.008969
449.834776	6708.316355
450.209124	7105.022395
450.583412	7253.491938
450.957640	7400.802015
451.331808	7160.109604
451.705917	6715.381532
452.079965	6635.562423
452.453954	6846.385997
452.827883	6725.383182
453.201752	6819.153684
453.575562	6617.991481
453.949311	6823.375651
454.323001	6708.449946
454.696632	6784.165556
455.070202	6923.434993
455.443713	7081.049188
455.817164	7179.956627
456.190556	7260.446210
456.563888	7333.739545
456.937160	7380.390383
457.310373	7036.893722
457.683526	7063.079995
458.056619	6947.506502
458.429653	6938.147600
458.802628	6872.186623
459.175542	6981.299877
459.548398	7342.579209
459.921194	7497.524113
460.293930	7497.115780
460.666607	8027.828292
461.039224	8335.749531
461.411782	8459.865259
461.784280	8481.277560
462.156719	8376.066159
462.529099	8252.444463
462.901419	7840.246957
463.273680	7734.700319
463.645882	7746.854541
464.018024	7614.728420
464.390106	7783.269316
464.762130	8166.767533
465.134094	8633.669120
465.505999	9653.565119
465.877845	10880.221523
466.249631	11520.755572
466.621358	11145.361010
466.993026	10516.517397
467.364634	10255.846893
467.736184	9892.230987
468.107674	9560.671777
468.479105	9592.715872
468.850477	9361.831026
469.221790	9135.500862
469.593043	8799.878483
469.964238	8662.126434
470.335373	8672.395264
470.706449	8732.632011
471.077467	8719.424188
471.448425	10031.351709
471.819324	11098.969791
472.190164	11116.397060
472.560945	9867.587306
472.931667	9084.905322
473.302330	8951.216442
473.672934	8594.948018
474.043479	8952.360784
474.413965	8893.202844
474.784393	8774.634905
475.154761	8929.446219
475.525070	9024.570272
475.895321	8843.005554
476.265513	9020.527266
476.635645	9192.264254
477.005719	9192.705355
477.375734	9310.265063
477.745691	9537.943735
478.115588	9672.666051
478.485427	9919.014637
478.855207	10460.124529
479.224928	11275.246338
479.594591	11904.203377
479.964194	11711.805220
480.333739	11645.292237
480.703226	11566.632593
481.072653	11661.184474
481.442022	11891.804660
481.811333	12089.780853
482.180584	11889.679813
482.549777	11598.177613
482.918912	11425.966756
483.287988	11443.915784
483.657005	11452.952053
484.025964	11138.215174
484.394864	11266.179823
484.763706	11247.540157
485.132489	10997.393062
485.501213	10958.629109
485.869879	11037.694566
486.238487	10881.358303
486.607036	10989.241516
486.975527	10770.866293
487.343959	10958.266146
487.712333	11008.425627
488.080648	10938.656058
488.448905	10981.957049
488.817104	10920.888511
489.185244	11185.647391
489.553326	11349.971362
489.921350	11884.981458
490.289315	12945.451184
490.657222	13293.860450
491.025070	13186.277185
491.392861	13062.491653
491.760593	12686.940815
492.128267	12327.569560
492.495883	12005.976712
492.863440	11670.906339
493.230939	11333.161634
493.598380	11268.339958
493.965763	11132.160748
494.333088	11037.382015
494.700354	10956.627771
495.067563	11021.560353
495.434713	10848.623571
495.801805	10976.757099
496.168839	10894.548482
496.535815	10836.108906
496.902733	10832.786786
497.269593	10763.987639
497.636395	10859.925838
498.003139	10854.398212
498.369825	10726.312576
498.736453	10888.100847
499.103023	10810.550256
499.469535	10835.259472
499.835989	10821.386217
500.202385	10791.187184
500.568723	10644.144288
500.935003	10860.969357
501.301226	10667.444502
501.667390	10924.815570
502.033497	11027.380366
502.399546	10879.571214
502.765537	10791.293049
503.131470	10866.441529
503.497345	11033.182734
503.863163	10646.357355
504.228923	10954.235744
504.594625	11023.811229
504.960269	10773.782601
505.325856	10988.959212
505.691385	10786.675352
506.056856	10940.049937
506.422270	10960.338061
506.787625	10851.149189
507.152924	10970.155708
507.518164	10945.905237
507.883347	10868.999915
508.248472	10791.880343
508.613540	11025.925993
508.978550	10914.087995
509.343503	10885.618078
509.708398	11009.799342
510.073236	11105.457756
510.438016	11117.014602
510.802738	11070.114227
511.167403	11121.702875
511.532010	11020.600014
511.896561	11249.302040
512.261053	11326.033443
512.625488	11196.952178
512.989866	11177.543736
513.354186	11163.599904
513.718449	11064.384955
514.082655	11260.662280
514.446803	11155.864254
514.810894	11276.463777
515.174927	11139.704835
515.538904	11166.841366
515.902822	11319.608492
516.266684	11200.828825
516.630488	11143.089970
516.994235	11202.759587
517.357925	11265.937848
517.721558	11344.340393
518.085133	11368.429547
518.448651	11378.017821
518.812112	11259.298648
519.175516	11275.198447
519.538863	11395.056921
519.902152	11315.777215
520.265385	11475.135650
520.628560	11385.957639
520.991678	11367.582633
521.354739	11426.216293
521.717743	11364.736902
522.080690	11342.833088
522.443580	11473.577934
522.806413	11427.839545
523.169189	11456.576642
523.531908	11516.584017
523.894569	11335.833446
524.257174	11342.858294
524.619722	11460.470934
524.982213	11403.251317
525.344647	11458.025974
525.707025	11405.310628
526.069345	11503.134219
526.431608	11420.784450
526.793815	11531.692355
527.155964	11319.689151
527.518057	11373.483303
527.880093	11321.244347
528.242072	11392.301931
528.603995	11291.131014
528.965860	11221.797505
529.327669	11268.279464
529.689421	11214.553367
530.051117	11183.545229
530.412755	11287.491301
530.774337	11182.073212
531.135862	11164.330872
531.497331	11185.907010
531.858743	11038.977540
532.220098	11205.164218
532.581396	11075.415000
532.942638	11056.150231
533.303824	11025.414316
533.664953	11029.923628
534.026025	10949.630650
534.387040	11049.334591
534.747999	11049.402646
535.108902	11114.773809
535.469748	10865.521518
535.830537	10974.299536
536.191270	10944.476070
536.551947	10971.824330
536.912567	10969.742333
537.273131	10898.495706
537.633638	10875.329083
537.994089	10867.331293
538.354483	10815.336832
538.714821	10957.416712
539.075103	10968.267796
539.435328	10929.075345
539.795497	10762.059398
540.155609	10912.429455
540.515665	11001.728454
540.875665	10743.573486
541.235609	10808.574124
541.595496	10806.570265
541.955328	10960.920314
542.315102	10840.734165
542.674821	10792.066866
543.034483	10793.226331
543.394090	10795.472165
543.753640	10723.376103
544.113134	10945.532192
544.472571	10803.848042
544.831953	10942.041193
545.191278	10747.538354
545.550548	10778.775864
545.909761	10918.443552
546.268918	10887.173274
546.628019	10974.029834
546.987064	10834.399955
547.346053	10756.662842
547.704986	10857.458193
548.063863	10848.883190
548.422684	10830.112454
548.781449	10751.001627
549.140158	10853.369817
549.498811	10735.989070
549.857408	10588.769734
550.215949	10821.146762
550.574434	10673.589668
550.932864	10768.973340
551.291237	10831.753349
551.649555	10778.637232
552.007817	10784.064034
552.366022	10746.749413
552.724173	10746.308312
553.082267	10727.144366
553.440305	10871.462518
553.798288	10666.365695
554.156215	10819.168109
554.514086	10806.555142
554.871902	10647.015226
555.229661	10681.771461
555.587365	10658.148614
555.945014	10552.879239
556.302606	10681.282469
556.660143	10572.496889
557.017625	10732.823226
557.375050	10622.366504
557.732421	10765.689028
558.089735	10672.717548
558.446994	10674.693681
558.804197	10708.330780
559.161345	10711.443692
559.518437	10554.310927
559.875474	10650.725515
560.232455	10676.967241
560.589381	10633.850252
560.946251	10632.574840
561.303065	10733.246683
561.659825	10669.793679
562.016528	10601.337331
562.373177	10480.788219
562.729770	10591.582698
563.086307	10510.064720
563.442789	10604.898906
563.799216	10479.860646
564.155587	10526.579540
564.511904	10479.517848
564.868164	10472.603905
565.224370	10488.055042
565.580520	10417.786398
565.936615	10415.366645
566.292654	10288.909300
566.648638	10416.258929
567.004567	10383.385565
567.360441	10365.076094
567.716260	10270.559500
568.072023	10359.319096
568.427732	10313.187497
568.783385	10231.104910
569.138982	10290.305700
569.494525	10307.213730
569.850013	10189.449856
570.205445	10267.355847
570.560823	10165.252317
570.916145	10080.339122
571.271412	10155.477520
571.626625	10096.947203
571.981782	10077.080016
572.336884	10047.899297
572.691931	10054.543538
573.046923	10003.338017
573.401860	9953.856572
573.756743	9889.312158
574.111570	9932.776987
574.466342	9920.486654
574.821059	9944.517834
575.175722	9834.207306
575.530330	9850.187763
575.884882	9841.441362
576.239380	9767.412017
576.593823	9747.159182
576.948211	9763.747098
577.302544	9642.184715
577.656823	9651.510849
578.011047	9658.228187
578.365216	9632.977047
578.719330	9554.277074
579.073389	9563.991377
579.427394	9514.988841
579.781344	9488.205191
580.135239	9445.100805
580.489080	9447.502915
580.842866	9349.712092
581.196597	9353.084624
581.550273	9397.615656
581.903895	9370.325370
582.257463	9430.589844
582.610975	9298.952714
582.964434	9337.361265
583.317837	9258.936035
583.671186	9240.384588
584.024481	9232.928722
584.377721	9151.672884
584.730906	9132.009863
585.084037	9161.319132
585.437113	9100.021221
585.790135	9116.531000
586.143103	9013.590639
586.496016	8985.060228
586.848874	9044.578611
587.201679	9035.441520
587.554428	8917.531452
587.907124	8972.185122
588.259765	8931.331611
588.612352	8943.493394
588.964884	8817.456987
589.317362	8827.070467
589.669786	8832.983740
590.022155	8880.599959
590.374470	8896.585458
590.726731	8835.136313
591.078937	8689.152059
591.431090	8797.357906
591.783188	8673.935337
592.135232	8660.367071
592.487222	8662.814551
592.839157	8718.635248
593.191038	8650.307448
593.542866	8593.571782
593.894639	8493.378850
594.246358	8547.979587
594.598022	8563.922236
594.949633	8464.881207
595.301190	8435.859284
595.652692	8468.117628
596.004141	8575.481602
596.355535	8351.240997
596.706876	8333.188625
597.058162	8265.848892
597.409395	8343.056683
597.760573	8401.639932
598.111698	8310.027043
598.462768	8304.534706
598.813785	8268.213193
599.164748	8231.929488
599.515657	8220.639824
599.866511	8135.535065
600.217312	8261.831092
600.568060	8118.576623
600.918753	8220.980102
601.269392	8186.533898
601.619978	8100.919982
601.970510	8170.150147
602.320988	8163.107656
602.671412	8217.247127
603.021783	8155.800503
603.372100	8126.498796
603.722363	8131.912996
604.072572	8107.443235
604.422728	8117.843135
604.772830	8048.000469
605.122878	8054.803506
605.472872	8050.962147
605.822813	8072.336639
606.172701	8020.644648
606.522534	8101.897966
606.872314	8092.952438
607.222041	8063.935557
607.571714	8127.116338
607.921333	8080.382321
608.270899	8088.077642
608.620411	8180.802106
608.969870	8083.951458
609.319276	8072.084582
609.668627	8094.434537
610.017926	8127.469218
610.367171	8175.065272
610.716362	8151.392014
611.065500	8143.691652
611.414585	8171.239037
611.763616	8157.602716
612.112594	8138.897514
612.461518	8157.113724
612.810389	8214.534987
613.159207	8154.131881
613.507971	8101.030887
613.856682	8221.764001
614.205340	8177.023761
614.553945	8256.792459
614.902496	8155.364443
615.250994	8215.046664
615.599439	8192.351389
615.947830	8204.361938
616.296169	8178.906632
616.644454	8191.910288
616.992686	8184.749329
617.340864	8243.453566
617.688990	8149.985532
618.037063	8237.633553
618.385082	8186.165893
618.733048	8275.013709
619.080961	8211.343936
619.428821	8232.007626
619.776628	8231.720280
620.124382	8190.710493
620.472083	8168.229468
620.819731	8195.005557
621.167326	8087.639062
621.514868	8099.697502
621.862357	7983.967733
622.209793	8001.062286
622.557176	7939.950898
622.904506	7909.895539
623.251783	7839.251330
623.599007	7796.041079
623.946179	7794.914382
624.293297	7761.221830
624.640363	7673.193201
624.987376	7658.001684
625.334336	7607.622913
625.681243	7551.217443
626.028097	7539.872326
626.374899	7518.742330
626.721647	7511.576330
627.068343	7440.044877
627.414987	7415.355826
627.761577	7368.336984
628.108115	7402.387458
628.454600	7301.219062
628.801032	7349.200764
629.147412	7312.977553
629.493739	7300.326778
629.840014	7236.904021
630.186236	7297.541540
630.532405	7172.692324
630.878521	7229.140644
631.224585	7188.191352
631.570597	7110.015658
631.916556	7144.320710
632.262462	7143.108313
632.608316	7101.518793
632.954117	7076.615493
633.299866	7068.267343
633.645562	7056.662607
633.991206	6975.086655
634.336797	6915.386791
634.682336	6876.020420
635.027823	6842.395924
635.373257	6833.833524
635.718639	6768.681652
636.063968	6782.373426
636.409245	6675.848804
636.754470	6669.159193
637.099642	6625.134796
637.444762	6571.149080
637.789829	6583.893117
638.134845	6525.206524
638.479808	6510.866962
638.824719	6515.366192
639.169577	6443.179389
639.514383	6465.645291
639.859137	6394.073510
640.203839	6398.426546
640.548489	6386.579834
640.893086	6362.747780
641.237632	6334.668553
641.582125	6357.686461
641.926566	6326.564898
642.270955	6338.003276
642.615292	6333.158727
642.959576	6347.102559
643.303809	6335.124777
643.647990	6343.084759
643.992118	6336.296845
644.336195	6284.680471
644.680219	6304.754346
645.024192	6296.633047
645.368112	6390.761472
645.711981	6413.484472
646.055797	6494.352142
646.399562	6445.309277
646.743274	6572.558082
647.086935	6626.049766
647.430544	6624.880218
647.774101	6646.325286
648.117606	6649.861656
648.461059	6641.326982
648.804460	6607.720130
649.147810	6512.134812
649.491108	6485.038610
649.834354	6450.385719
650.177548	6373.553493
650.520690	6286.863291
650.863781	6267.313696
651.206820	6286.601151
651.549807	6208.470828
651.892742	6148.541591
652.235626	6156.577190
652.578458	6141.945241
652.921238	6050.584410
653.263967	6093.527479
653.606644	6031.629672
653.949269	6035.987749
654.291843	5974.190765
654.634365	6024.151120
654.976836	5976.282843
655.319255	5978.783256
655.661622	5954.179904
656.003938	5947.192865
656.346203	5910.722638
656.688416	5942.802020
657.030577	5892.894597
657.372687	5863.416450
657.714746	5846.952042
658.056753	5889.406119
658.398708	5834.911246
658.740612	5821.118649
659.082465	5871.348706
659.424266	5865.889136
659.766016	5864.104568
660.107715	5838.898798
660.449362	5856.815059
660.790958	5846.533626
661.132503	5836.259754
661.473996	5873.697883
661.815438	5859.985945
662.156829	5853.024111
662.498168	5848.053534
662.839456	5824.675183
663.180693	5854.498649
663.521879	5860.348908
663.863013	5849.084450
664.204097	5868.266040
664.545129	5906.019241
664.886110	5906.810702
665.227040	5941.224139
665.567918	5908.660806
665.908746	5931.978663
666.249522	5934.655516
666.590248	5923.804432
666.930922	5949.504234
667.271545	5962.646522
667.612118	5966.316482
667.952639	5941.508964
668.293109	5960.677952
668.633528	5921.714874
668.973896	5922.629843
669.314213	5918.352424
669.654480	5897.945833
669.994695	5886.862857
670.334859	5878.466815
670.674973	5874.428851
671.015035	5877.940014
671.355047	5875.711824
671.695008	5862.201532
672.034918	5832.481409
672.374777	5844.043296
672.714585	5822.555378
673.054342	5835.276729
673.394049	5824.415563
673.733705	5853.102249
674.073310	5840.746381
674.412864	5806.166586
674.752368	5796.003620
675.091820	5797.952026
675.431223	5739.913222
675.770574	5738.090845
676.109875	5691.026632
676.449125	5695.939237
676.788324	5659.663094
677.127473	5605.016986
677.466571	5596.179843
677.805619	5588.048462
678.144616	5572.415844
678.483562	5552.417587
678.822458	5518.815776
679.161303	5511.914436
679.500098	5504.050236
679.838842	5488.843596
680.177535	5490.373586
680.516179	5508.809086
680.854771	5517.802504
681.193314	5600.532880
681.531805	5706.621442
681.870247	5856.852868
682.208638	5961.862623
682.546978	5971.523994
682.885268	5951.417352
683.223508	5866.027768
683.561697	5811.923584
683.899836	5781.744717
684.237925	5732.918621
684.575963	5705.348551
684.913951	5660.993958
685.251889	5723.156427
685.589776	5683.129665
685.927614	5661.104864
686.265401	5735.262758
686.603137	5717.386826
686.940824	5791.264936
687.278460	5819.323998
687.616046	5824.332384
687.953582	5891.581377
688.291068	5871.212594
688.628504	5939.371515
688.965889	5905.784828
689.303224	5845.971537
689.640510	5795.854906
689.977745	5719.698195
690.314930	5623.631447
690.652065	5564.312189
690.989150	5473.369774
691.326185	5397.984359
691.663170	5344.719528
692.000105	5268.404020
692.336990	5188.315209
692.673825	5166.091283
693.010610	5099.346406
693.347345	5026.801681
693.684030	5015.199466
694.020665	4974.371161
694.357251	4882.773395
694.693786	4890.544334
695.030272	4859.795816
695.366707	4823.474302
695.703093	4790.542965
696.039429	4808.549967
696.375716	4795.445487
696.711952	4769.133185
697.048139	4757.533490
697.384276	4734.956682
697.720363	4747.728445
698.056400	4758.997945
698.392388	4705.662537
698.728326	4689.498077
699.064214	4664.867000
699.400053	4660.695445
699.735842	4625.936689
700.071581	4602.316363
700.407270	4576.503134
700.742910	4555.685690
701.078501	4502.622504
701.414042	4501.216022
701.749533	4471.647134
702.084974	4405.774377
702.420366	4460.836380
702.755709	4402.429572
703.091002	4348.489225
703.426246	4396.780959
703.761440	4353.232951
704.096584	4315.363803
704.431679	4338.144778
704.766725	4321.050225
705.101721	4310.700736
705.436668	4339.392463
705.771565	4287.415647
706.106413	4315.943536
706.441212	4345.109132
706.775961	4354.326882
707.110661	4332.047502
707.445311	4363.592522
707.779913	4385.254360
708.114465	4398.610898
708.448967	4420.265174
708.783421	4485.308661
709.117825	4521.413405
709.452180	4529.771638
709.786485	4571.449378
710.120742	4660.473634
710.454949	4642.496879
710.789107	4710.154205
711.123216	4787.049445
711.457275	4776.447899
711.791286	4850.867932
712.125247	4863.906877
712.459159	4769.143267
712.793023	4848.604454
713.126837	4804.325480
713.460602	4800.206857
713.794318	4719.901276
714.127985	4721.781627
714.461602	4639.063854
714.795171	4612.007981
715.128691	4543.506262
715.462162	4487.705730
715.795584	4442.053041
716.128957	4422.697531
716.462281	4369.011763
716.795556	4343.440510
717.128782	4303.454078
717.461960	4233.349272
717.795088	4247.277980
718.128167	4206.366496
718.461198	4145.822238
718.794180	4145.247546
719.127113	4119.010861
719.459997	4100.459415
719.792833	4056.117426
720.125619	4042.939850
720.458357	4015.208462
720.791046	4020.995707
721.123686	3990.161489
721.456278	3949.522228
721.788821	3964.043271
722.121315	3941.741207
722.453761	3914.788678
722.786158	3923.194802
723.118506	3951.405099
723.450805	3899.471132
723.783056	3922.420985
724.115259	3939.089560
724.447412	3943.361938
724.779518	3935.638890
725.111574	3942.396557
725.443582	3969.959065
725.775542	3956.753763
726.107453	4006.207482
726.439315	4008.012215
726.771129	4018.875902
727.102895	4055.847724
727.434612	4104.411680
727.766281	4113.843678
728.097901	4115.991210
728.429473	4123.736943
728.760996	4130.827326
729.092471	4125.637458
729.423897	4106.201289
729.755276	4117.382568
730.086606	4114.141107
730.417887	4156.552334
730.749120	4218.273701
731.080305	4282.684524
731.411442	4307.650838
731.742530	4278.601189
732.073570	4282.550933
732.404562	4336.783666
732.735506	4329.327800
733.066401	4288.965801
733.397249	4226.049681
733.728048	4146.991786
734.058798	4069.204261
734.389501	3992.825739
734.720156	3935.006225
735.050762	3885.814646
735.381320	3881.605282
735.711831	3831.541584
736.042293	3802.683498
736.372707	3823.117816
736.703073	3797.675112
737.033391	3786.541724
737.363661	3805.473777
737.693883	3828.569823
738.024056	3838.891586
738.354182	3831.884382
738.684260	3893.585585
739.014290	3915.504522
739.344272	3915.058379
739.674207	3957.325934
740.004093	3962.450267
740.333931	3954.702013
740.663722	3956.025316
740.993464	3953.764359
741.323159	3929.934824
741.652806	3898.384763
741.982405	3872.916854
742.311956	3842.037266
742.641460	3832.191893
742.970915	3806.514775
743.300323	3766.616563
743.629683	3735.036255
743.958996	3723.058473
744.288260	3699.617108
744.617477	3665.428003
744.946647	3648.961074
745.275768	3622.616004
745.604842	3619.951754
745.933869	3574.919127
746.262847	3566.235739
746.591778	3605.327367
746.920662	3574.001637
747.249498	3540.813200
747.578286	3586.206270
747.907027	3605.574383
748.235720	3606.335597
748.564365	3628.622538
748.892963	3628.395687
749.221514	3611.767441
749.550017	3590.531580
749.878473	3585.518153
750.206881	3557.864903
750.535242	3553.353070
750.863555	3556.934810
751.191821	3549.355435
751.520039	3529.319369
751.848210	3510.714991
752.176334	3543.767316
752.504411	3549.937689
752.832440	3505.885566
753.160421	3488.486023
753.488356	3503.027232
753.816243	3513.648943
754.144082	3470.345431
754.471875	3457.868575
754.799620	3473.531440
755.127318	3467.381233
755.454969	3465.216057
755.782572	3472.694609
756.110129	3447.483798
756.437638	3437.903086
756.765100	3451.335240
757.092515	3460.865541
757.419882	3471.013384
757.747203	3442.931637
758.074477	3440.925257
758.401703	3457.888740
758.728882	3481.564519
759.056014	3486.404027
759.383099	3495.195799
759.710138	3485.463852
760.037129	3507.181142
760.364073	3535.451933
760.690970	3522.579347
761.017820	3498.167559
761.344623	3516.565250
761.671379	3562.608629
761.998088	3612.793315
762.324751	3740.657142
762.651366	3985.735356
762.977935	4458.865289
763.304456	4904.997322
763.630931	5004.429040
763.957359	4642.827075
764.283740	4299.612718
764.610074	4107.532154
764.936362	3906.294333
765.262602	3747.853389
765.588796	3637.200062
765.914943	3549.277297
766.241044	3460.588278
766.567097	3432.040224
766.893104	3382.505846
767.219064	3353.746063
767.544978	3325.792865
767.870845	3265.445212
768.196665	3248.736308
768.522438	3260.509923
768.848165	3255.514139
769.173846	3218.237327
769.499479	3200.086653
769.825066	3184.070907
770.150607	3166.999040
770.476101	3182.873633
770.801548	3176.408353
771.126949	3131.821868
771.452303	3114.855865
771.777611	3122.425157
772.102872	3128.635859
772.428087	3101.116200
772.753256	3091.565734
773.078378	3086.181782
773.403453	3050.780279
773.728482	3037.340563
774.053465	3059.713203
774.378401	3049.106616
774.703291	3016.233252
775.028135	3018.305166
775.352932	3013.125380
775.677683	3001.689523
776.002388	2997.364213
776.327046	2998.372443
776.651658	2987.695280
776.976224	2976.549288
777.300743	2978.112046
777.625216	2968.667444
777.949643	2962.766774
778.274024	2964.430355
778.598359	2951.900567
778.922647	2958.963223
779.246889	2954.998356
779.571086	2942.902107
779.895236	2933.943977
780.219339	2949.465689
780.543397	2959.530353
780.867409	2965.380612
781.191374	2953.044909
781.515294	2952.553396
781.839167	2952.185392
782.162995	2944.840431
782.486776	2952.596246
782.810511	2953.773355
783.134201	2936.250305
783.457844	2940.457148
783.781441	2934.995057
784.104993	2913.595359
784.428498	2916.277253
784.751958	2930.531116
785.075372	2922.785383
785.398739	2906.830131
785.722061	2921.787234
786.045337	2935.143771
786.368568	2918.908735
786.691752	2910.484967
787.014891	2959.696711
787.337983	2987.470948
787.661030	3016.886081
787.984031	3084.545927
788.306987	3129.523102
788.629897	3120.146556
788.952760	3108.468723
789.275579	3090.779314
789.598351	3032.478370
789.921078	2988.164107
790.243759	2980.229331
790.566395	2962.287864
790.888984	2937.460182
791.211529	2924.464087
791.534027	2911.142838
791.856480	2902.144378
792.178888	2887.330948
792.501249	2879.804505
792.823566	2876.293341
793.145836	2871.917620
793.468062	2868.154398
793.790241	2867.080633
794.112375	2870.223792
794.434464	2885.558982
794.756507	2890.474107
795.078505	2895.487535
795.400457	2908.975142
795.722364	2948.699434
796.044226	2972.221458
796.366042	2975.921665
796.687812	2963.021352
797.009538	2980.897284
797.331218	2970.709112
797.652852	2953.957358
797.974442	2939.874894
798.295986	2931.284768
798.617484	2928.534819
798.938938	2912.322468
799.260346	2899.344017
799.581709	2892.329252
799.903026	2887.099055
800.224299	2881.757952
800.545526	2869.545757
800.866708	2854.490351
801.187845	2843.407374
801.508936	2847.034484
801.829983	2854.707121
802.150984	2838.046107
802.471940	2828.208295
802.792851	2828.183090
803.113717	2826.708552
803.434538	2830.476815
803.755314	2824.311483
804.076045	2818.609938
804.396731	2816.532983
804.717372	2817.314362
805.037967	2814.251861
805.358518	2822.358036
805.679024	2832.710046
805.999485	2828.104952
806.319901	2832.936898
806.640272	2824.487924
806.960598	2830.020590
807.280879	2838.469564
807.601115	2847.004237
807.921306	2832.949501
808.241453	2828.251145
808.561554	2837.849502
808.881611	2839.807990
809.201623	2833.282217
809.521590	2831.714418
809.841513	2827.147132
810.161390	2830.244922
810.481223	2824.387101
810.801011	2813.503250
811.120755	2809.472847
811.440453	2815.514670
811.760107	2812.958805
812.079716	2812.225317
812.399281	2803.766261
812.718801	2796.328038
813.038276	2788.700773
813.357707	2796.537246
813.677093	2803.078143
813.996434	2797.013635
814.315731	2794.329221
814.634983	2791.052471
814.954191	2791.296967
815.273354	2806.072589
815.592473	2813.286480
815.911547	2814.342602
816.230577	2822.572285
816.549562	2834.479491
816.868502	2829.834067
817.187399	2839.588700
817.506250	2858.019159
817.825058	2851.798375
818.143821	2862.803214
818.462539	2877.616644
818.781213	2906.472209
819.099843	2943.358332
819.418429	3002.332270
819.736970	3061.790159
820.055466	3137.788074
820.373919	3244.693303
820.692327	3385.291083
821.010691	3551.886095
821.329011	3995.507633
821.647286	4902.484307
821.965517	6293.623478
822.283704	7046.471914
822.601847	7026.897114
822.919945	6388.177880
823.237999	5877.501434
823.556010	5290.403616
823.873976	4731.258996
824.191897	4322.181964
824.509775	4023.745656
824.827609	3752.518977
825.145398	3630.583547
825.463144	3618.073924
825.780845	3706.873849
826.098502	3812.848985
826.416116	4095.803909
826.733685	4413.822579
827.051210	4479.153412
827.368692	4365.540928
827.686129	4098.695011
828.003522	3766.969444
828.320872	3508.713653
828.638177	3309.262922
828.955439	3174.182684
829.272656	3093.698142
829.589830	3021.803727
829.906960	2971.198104
830.224046	2927.662699
830.541088	2892.883779
830.858086	2879.050852
831.175041	2861.921012
831.491952	2860.822040
831.808819	2874.949874
832.125642	2897.819068
832.442421	2944.059052
832.759157	3026.353368
833.075849	3205.279041
833.392497	3485.050477
833.709101	3690.782486
834.025662	3644.456803
834.342179	3481.829180
834.658653	3301.774288
834.975083	3156.725168
835.291469	3058.657082
835.607811	2970.235243
835.924110	2914.792633
836.240366	2858.795496
836.556578	2815.305462
836.872746	2792.277471
837.188871	2768.848709
837.504952	2755.335896
837.820990	2746.450862
838.136984	2733.691702
838.452935	2724.738613
838.768842	2721.832387
839.084706	2739.771333
839.400526	2820.800320
839.716303	2952.984415
840.032037	3033.045500
840.347727	3021.491175
840.663373	2959.545477
840.978977	2883.391286
841.294537	2809.414874
841.610054	2761.299581
841.925527	2739.408370
842.240957	2716.771069
842.556344	2692.961699
842.871687	2678.488547
843.186987	2672.678617
843.502244	2667.576969
843.817458	2661.008346
844.132629	2650.429484
844.447756	2640.873977
844.762840	2636.047072
845.077881	2638.333236
845.392879	2634.413739
845.707833	2631.459622
846.022745	2624.122223
846.337613	2628.722276
846.652438	2626.965434
846.967221	2624.429733
847.281960	2623.303036
847.596656	2624.674229
847.911309	2621.473097
848.225919	2618.496295
848.540485	2617.546038
848.855009	2614.294494
849.169490	2613.644185
849.483928	2616.706686
849.798323	2613.664349
850.112675	2613.538321
850.426984	2612.308279
850.741251	2612.116715
851.055474	2610.387599
851.369654	2615.516973
851.683792	2618.186264
851.997887	2610.634616
852.311938	2611.809205
852.625947	2615.587550
852.939914	2616.237858
853.253837	2617.377159
853.567718	2609.903649
853.881555	2611.781478
854.195350	2615.890019
854.509103	2614.183588
854.822812	2609.646550
855.136479	2610.856427
855.450103	2613.989504
855.763685	2612.774586
856.077224	2612.928341
856.390720	2610.125459
856.704173	2611.413474
857.017584	2615.214504
857.330953	2620.177520
857.644278	2623.083745
857.957561	2619.549897
858.270802	2615.756428
858.584000	2619.590226
858.897155	2619.257510
859.210268	2620.651389
859.523339	2615.343054
859.836367	2610.997579
860.149352	2612.948506
860.462295	2613.881119
860.775195	2609.386930
861.088054	2608.908021
861.400869	2609.149996
861.713642	2603.103132
862.026373	2606.732763
862.339062	2611.955398
862.651708	2614.037395
862.964312	2616.011007
863.276873	2612.348608
863.589392	2618.234155
863.901869	2622.385546
864.214303	2623.038375
864.526696	2626.032820
864.839045	2628.724797
865.151353	2629.763274
865.463619	2634.673358
865.775842	2634.355765
866.088023	2632.908954
866.400162	2634.055817
866.712258	2633.960035
867.024313	2632.223357
867.336325	2629.244035
867.648296	2632.281331
867.960224	2636.868781
868.272110	2636.268883
868.583954	2626.736061
868.895755	2629.039869
869.207515	2634.665796
869.519233	2640.395068
869.830909	2638.103863
870.142542	2632.692185
870.454134	2634.625467
870.765684	2641.753659
871.077191	2641.647794
871.388657	2644.574184
871.700081	2645.030409
872.011463	2644.765748
872.322803	2644.826242
872.634101	2647.850934
872.945357	2655.826040
873.256571	2659.004487
873.567744	2657.179589
873.878874	2657.116575
874.189963	2657.935762
874.501010	2662.676968
874.812015	2668.335663
875.122979	2666.581341
875.433900	2657.126657
875.744780	2654.117088
876.055618	2666.588903
876.366415	2666.893893
876.677169	2668.242402
876.987882	2660.905002
877.298554	2660.330311
877.609183	2672.860098
877.919771	2680.555420
878.230317	2687.875175
878.540822	2694.189220
878.851285	2709.521890
879.161707	2736.993658
879.472087	2774.194852
879.782425	2820.823005
880.092722	2936.716611
880.402977	3130.715335
880.713191	3393.906415
881.023363	3693.597970
881.333494	3883.379769
881.643583	4056.089699
881.953631	4055.991397
882.263637	3879.359448
882.573602	3654.803771
882.883526	3522.095396
883.193408	3405.543919
883.503248	3299.631797
883.813048	3186.934282
884.122806	3069.603947
884.432522	2982.230669
884.742197	2918.979312
885.051831	2881.805843
885.361424	2843.528362
885.670975	2807.443783
885.980485	2773.726025
886.289954	2757.453181
886.599382	2743.564802
886.908768	2733.603482
887.218113	2711.248485
887.527417	2702.033256
887.836680	2690.219312
888.145901	2686.219156
888.455082	2678.594411
888.764221	2666.548574
889.073319	2658.550783
889.382376	2655.730258
889.691392	2658.308808
890.000366	2659.806031
890.309300	2655.389980
890.618193	2660.675630
890.927044	2663.521361
891.235855	2661.451967
891.544625	2661.298212
891.853353	2661.890548
892.162041	2668.751558
892.470687	2688.306194
892.779293	2700.256249
893.087858	2711.447611
893.396381	2732.585169
893.704864	2775.593773
894.013306	2846.747139
894.321707	2941.611572
894.630068	2994.813389
894.938387	3010.390554
895.246665	3003.859739
895.554903	2961.488841
895.863100	2919.012079
896.171256	2858.180476
896.479371	2799.390539
896.787446	2760.157760
897.095480	2738.412742
897.403473	2730.709859
897.711425	2717.958261
898.019336	2700.352031
898.327207	2684.059022
898.635038	2684.074145
898.942827	2680.910821
899.250576	2669.490087
899.558284	2660.511792
899.865952	2654.694301
900.173579	2651.175575
900.481165	2649.007879
900.788711	2640.339615
901.096216	2635.081692
901.403681	2634.159160
901.711105	2630.632873
902.018489	2628.286216
902.325832	2632.684623
902.633135	2634.902731
902.940397	2651.273878
903.247619	2691.144363
903.554800	2761.632297
903.861941	2888.671895
904.169041	3017.710310
904.476101	3081.959815
904.783121	3076.701892
905.090100	3019.822553
905.397039	2942.085440
905.703938	2865.338914
906.010796	2802.957156
906.317614	2749.268867
906.624391	2712.662529
906.931129	2686.138498
907.237826	2661.759478
907.544483	2646.512508
907.851099	2628.898716
908.157675	2618.917232
908.464211	2611.819287
908.770707	2596.753799
909.077163	2597.174735
909.383578	2592.191555
909.689954	2592.544435
909.996289	2589.708786
910.302584	2592.262131
910.608839	2587.170565
910.915054	2587.105030
911.221229	2590.051585
911.527363	2590.608632
911.833458	2587.835998
912.139513	2591.039651
912.445527	2592.325145
912.751502	2598.866042
913.057436	2602.578852
913.363331	2607.955243
913.669186	2619.489403
913.975000	2636.210910
914.280775	2651.964516
914.586510	2671.924964
914.892205	2707.213041
915.197859	2775.865995
915.503475	2859.264324
915.809050	2930.347113
916.114585	2947.121553
916.420081	2960.760395
916.725536	2969.799183
917.030952	2942.486212
917.336328	2894.030641
917.641665	2845.486850
917.946961	2793.114303
918.252218	2759.038623
918.557435	2732.693553
918.862612	2707.598690
919.167750	2693.506144
919.472848	2674.402692
919.777906	2657.908036
920.082925	2644.354894
920.387904	2635.449696
920.692843	2629.039869
920.997743	2624.938890
921.302603	2618.574433
921.607423	2613.543362
921.912204	2603.045159
922.216946	2603.821497
922.521647	2601.661362
922.826310	2595.611977
923.130932	2593.650969
923.435516	2586.676532
923.740059	2584.566809
924.044564	2584.206367
924.349028	2581.496747
924.653454	2573.476271
924.957840	2570.358317
925.262186	2568.263718
925.566493	2570.184397
925.870761	2565.002091
926.174989	2565.034859
926.479178	2566.900086
926.783328	2561.334652
927.087438	2562.418500
927.391509	2561.251473
927.695541	2557.581513
927.999533	2556.422048
928.303486	2557.231153
928.607400	2558.375495
928.911275	2553.916594
929.215110	2557.810885
929.518906	2554.763508
929.822663	2558.589744
930.126381	2557.132850
930.430060	2556.474980
930.733699	2554.914743
931.037299	2552.832746
931.340861	2554.619835
931.644383	2557.024465
931.947866	2556.525391
932.251309	2555.038251
932.554714	2556.754764
932.858080	2559.940773
933.161407	2553.604042
933.464694	2556.139743
933.767943	2554.337530
934.071153	2552.384083
934.374323	2553.170503
934.677455	2553.548590
934.980548	2548.361242
935.283602	2553.674619
935.586617	2552.774773
935.889593	2553.858621
936.192530	2550.952396
936.495428	2555.950700
936.798287	2554.960113
937.101108	2556.810216
937.403890	2558.400700
937.706632	2562.917574
938.009336	2564.218192
938.312002	2565.627194
938.614628	2574.101374
938.917216	2576.120356
939.219765	2575.528021
939.522275	2576.989955
939.824747	2577.675552
940.127179	2570.741445
940.429573	2568.969479
940.731929	2569.365210
941.034246	2566.411094
941.336524	2565.561659
941.638763	2566.521999
941.940964	2566.133830
942.243126	2564.921433
942.545250	2566.978224
942.847335	2559.393808
943.149381	2560.008828
943.451389	2561.231308
943.753359	2560.523026
944.055290	2558.768705
944.357182	2555.665874
944.659036	2554.627397
944.960851	2556.220401
945.262628	2555.580175
945.564367	2558.244425
945.866067	2556.253169
946.167729	2552.467262
946.469352	2554.516491
946.770937	2557.284085
947.072484	2555.345761
947.373992	2555.549928
947.675462	2554.317366
947.976893	2557.115206
948.278286	2553.117571
948.579641	2552.840308
948.880958	2551.917777
949.182236	2551.375853
949.483476	2551.917777
949.784678	2553.236038
950.085841	2551.887530
950.386967	2552.991542
950.688054	2551.741336
950.989103	2555.441543
951.290114	2556.905998
951.591087	2555.539846
951.892021	2556.742161
952.192917	2559.361040
952.493776	2558.993036
952.794596	2559.603016
953.095378	2561.049827
953.396122	2561.120403
953.696828	2559.867676
953.997496	2558.909857
954.298126	2555.091183
954.598718	2555.370967
954.899272	2553.669578
955.199788	2553.823333
955.500266	2550.778476
955.800706	2549.808054
956.101108	2544.280428
956.401472	2543.466282
956.701798	2543.854451
957.002087	2543.700696
957.302337	2543.925027
957.602550	2545.228165
957.902724	2544.005686
958.202861	2540.749100
958.502960	2543.146169
958.803022	2539.788760
959.103045	2540.897814
959.403031	2539.055273
959.702979	2541.689275
960.002889	2541.759852
960.302762	2538.667104
960.602596	2539.524100
960.902393	2536.824562
961.202153	2539.914789
961.501875	2538.465458
961.801559	2539.604758
962.101205	2539.425797
962.400814	2538.795653
962.700385	2538.962011
962.999918	2541.157434
963.299414	2535.786084
963.598873	2538.004192
963.898293	2538.654501
964.197677	2541.081816
964.497022	2538.042001
964.796331	2539.032587
965.095601	2535.297092
965.394835	2537.119469
965.694030	2537.915972
965.993189	2539.100643
966.292309	2536.764068
966.591393	2538.493184
966.890439	2536.885056
967.189447	2536.973276
967.488419	2536.612833
967.787353	2535.818852
968.086249	2534.833306
968.385108	2537.542926
968.683930	2538.341949
968.982714	2538.289017
969.281462	2538.379758
969.580172	2535.798687
969.878844	2535.241640
970.177480	2538.735159
970.476078	2537.028729
970.774639	2538.525951
971.073162	2540.108874
971.371649	2535.750796
971.670098	2535.249201
971.968510	2536.481763
972.266885	2534.523275
972.565223	2535.662576
972.863524	2537.976466
973.161788	2539.261960
973.460014	2537.432021
973.758204	2534.896321
974.056356	2539.501415
974.354471	2536.353214
974.652550	2536.479243
974.950591	2538.883873
975.248595	2536.277597
975.546563	2535.597041
975.844493	2537.273225
976.142386	2538.460416
976.440243	2538.344470
976.738062	2539.362783
977.035845	2537.283307
977.333590	2537.311033
977.631299	2535.017308
977.928971	2536.146527
978.226606	2537.021167
978.524204	2534.740045
978.821765	2534.861033
979.119290	2536.144006
979.416777	2534.608975
979.714228	2538.689789
980.011642	2538.573842
980.309020	2540.413863
980.606360	2535.123172
980.903664	2539.017464
981.200931	2539.203987
981.498162	2539.443441
981.795356	2540.176929
982.092513	2545.122301
982.389633	2545.079451
982.686717	2549.745039
982.983764	2551.333003
983.280775	2550.130687
983.577749	2552.832746
983.874686	2551.307797
984.171587	2548.681356
984.468451	2545.754966
984.765279	2542.876467
985.062070	2543.448638
985.358824	2543.040305
985.655543	2541.215407
985.952224	2539.330015
986.248869	2537.835313
986.545478	2532.060672
986.842050	2533.852802
987.138586	2531.911958
987.435086	2533.220137
987.731549	2529.363654
988.027975	2534.298944
988.324366	2533.184849
988.620719	2534.586290
988.917037	2533.184849
989.213318	2533.477236
989.509563	2534.384643
989.805772	2534.001516
990.101944	2533.978831
990.398080	2533.618388
990.694180	2531.488501
990.990244	2534.712318
991.286271	2532.481608
991.582262	2532.942873
991.878217	2535.566794
992.174136	2533.878007
992.470019	2534.122503
992.765865	2534.533357
993.061676	2533.315919
993.357450	2534.336753
993.653188	2533.386495
993.948890	2533.608306
994.244556	2534.659386
994.540186	2532.027904
994.835780	2536.007895
995.131337	2534.798018
995.426859	2537.898328
995.722345	2535.055117
996.017795	2538.921682
996.313208	2540.307999
996.608586	2538.399922
996.903928	2537.157278
997.199234	2537.794984
997.494504	2539.050231
997.789738	2536.590148
998.084936	2536.096115
998.380099	2535.304654
998.675225	2534.893800
998.970316	2534.707277
999.265371	2532.660569
999.560390	2533.565456
999.855373	2536.832124
1000.150320	2532.627801
1000.445232	2533.835158
1000.740108	2531.803573
1001.034948	2534.926568
1001.329752	2532.221988
1001.624521	2533.545291
1001.919254	2526.477594
1002.213951	2531.047400
1002.508613	2529.509848
1002.803239	2531.848943
1003.097829	2524.501461
1003.392384	2535.120652
1003.686903	2534.009077
1003.981386	2533.517565
1004.275834	2532.950435
1004.570246	2533.336083
1004.864623	2530.528161
1005.158964	2531.236443
1005.453270	2530.424817
1005.747540	2534.296423
1006.041775	2530.122348
1006.335974	2534.377082
1006.630138	2530.792821
1006.924266	2529.835002
1007.218359	2530.883562
1007.512416	2532.605116
1007.806438	2530.966741
1008.100425	2534.795497
1008.394376	2531.349869
1008.688292	2529.771988
1008.982172	2529.577903
1009.276017	2528.705784
1009.569827	2531.160826
1009.863602	2534.137627
1010.157341	2530.555887
1010.451045	2530.399611
1010.744714	2530.964221
1011.038347	2534.064530
1011.331945	2533.104190
1011.625508	2533.744417
1011.919036	2531.669982
1012.212528	2531.453212
1012.505986	2531.375075
1012.799408	2532.368182
1013.092795	2529.645959
1013.386147	2529.393901
1013.679464	2528.536905
1013.972745	2531.160826
1014.265992	2532.743748
1014.559204	2532.448840
1014.852380	2532.388347
1015.145521	2530.457585
1015.438628	2529.298119
1015.731699	2533.076464
1016.024736	2531.226361
1016.317737	2531.070085
1016.610703	2533.623429
1016.903635	2526.021369
1017.196531	2525.741585
1017.489393	2529.812317
1017.782219	2525.686132
1018.075011	2529.527492
1018.367768	2529.948428
1018.660490	2530.838192
1018.953177	2530.838192
1019.245829	2530.838192
