Dividing Wavelength (nm)	Counts (n)	Blue Motor Position (mm): 47.800000	Red Motor Position (mm): 0.000000	
326.493990	2131.203241
326.888308	2131.203241
327.282561	2131.203241
327.676750	2099.393560
328.070874	2096.295771
328.464933	2099.572521
328.858929	2105.132914
329.252859	2115.230345
329.646726	2127.460184
330.040528	2140.635240
330.434265	2156.628301
330.827938	2172.535662
331.221547	2194.215144
331.615091	2210.339274
332.008571	2233.374827
332.401986	2249.110788
332.795338	2268.277255
333.188625	2288.152004
333.581847	2306.998358
333.975006	2325.118786
334.368100	2343.763493
334.761129	2364.180166
335.154095	2379.719523
335.546996	2400.607544
335.939833	2425.596543
336.332606	2440.503235
336.725315	2453.915225
337.117960	2460.251956
337.510540	2470.540951
337.903056	2482.047384
338.295508	2489.745226
338.687896	2498.957935
339.080220	2508.079903
339.472480	2516.869154
339.864676	2520.619773
340.256807	2522.011131
340.648875	2524.662778
341.040879	2530.122348
341.432818	2529.887934
341.824694	2532.272400
342.216506	2531.647297
342.608253	2532.189221
342.999937	2530.878521
343.391557	2531.385157
343.783113	2530.986906
344.174605	2529.056144
344.566033	2526.858201
344.957397	2524.793848
345.348697	2524.335103
345.739934	2522.570699
346.131106	2521.517098
346.522215	2516.511232
346.913260	2517.242200
347.304241	2515.177847
347.695159	2515.510563
348.086012	2512.120388
348.476802	2512.556447
348.867528	2511.197856
349.258191	2507.550582
349.648789	2506.713750
350.039324	2506.504542
350.429796	2503.121928
350.820203	2504.709891
351.210548	2501.665034
351.600828	2500.228306
351.991045	2499.630929
352.381198	2500.273676
352.771288	2500.530775
353.161314	2501.012205
353.551276	2500.969355
353.941175	2499.406598
354.331010	2498.640342
354.720782	2498.002636
355.110490	2498.940291
355.500135	2498.390805
355.889717	2499.225116
356.279235	2500.167812
356.668689	2499.761999
357.058080	2500.755106
357.447408	2497.344766
357.836672	2499.099087
358.225873	2500.739983
358.615010	2499.499859
359.004084	2503.207628
359.393095	2501.942298
359.782043	2504.727535
360.170927	2502.932885
360.559748	2506.408760
360.948505	2505.897083
361.337199	2507.570746
361.725830	2508.397495
362.114398	2509.572084
362.502903	2510.111488
362.891344	2512.059894
363.279722	2511.717095
363.668037	2511.621313
364.056289	2509.892197
364.444478	2514.207425
364.832603	2513.355470
365.220665	2513.141221
365.608665	2514.479648
365.996601	2514.356139
366.384474	2513.335306
366.772284	2514.462003
367.160031	2515.069463
367.547715	2517.204391
367.935336	2518.336130
368.322893	2517.955523
368.710388	2520.725637
369.097820	2520.405524
369.485189	2521.353261
369.872495	2521.504495
370.259738	2524.209074
370.646918	2525.083715
371.034035	2529.545136
371.421090	2535.546629
371.808081	2540.330684
372.195010	2546.869061
372.581875	2551.791748
372.968678	2560.296174
373.355418	2568.387226
373.742096	2577.418453
374.128710	2589.897830
374.515262	2602.876280
374.901751	2614.990173
375.288177	2623.655916
375.674540	2643.124852
376.060841	2659.861483
376.447079	2674.581652
376.833254	2694.700897
377.219367	2703.971579
377.605417	2737.591034
377.991404	2748.058990
378.377329	2770.444234
378.763191	2785.476955
379.148991	2822.269816
379.534727	2847.767972
379.920402	2874.823845
380.306013	2890.590054
380.691563	2939.983279
381.077049	2965.153760
381.462474	2981.693786
381.847835	3025.375384
382.233134	3051.725495
382.618371	3057.570713
383.003545	3125.260806
383.388657	3137.599030
383.773706	3173.192097
384.158693	3195.466435
384.543618	3227.608832
384.928480	3265.830861
385.313280	3316.403716
385.698017	3318.430260
386.082692	3378.586349
386.467305	3389.744943
386.851856	3423.719799
387.236344	3450.412709
387.620770	3485.080724
388.005133	3514.347143
388.389435	3545.657749
388.773674	3561.219791
389.157851	3604.467850
389.541965	3624.889564
389.926018	3589.407403
390.310008	3658.556910
390.693936	3681.363090
391.077802	3728.061819
391.461606	3715.143862
391.845348	3779.637864
392.229027	3783.272536
392.612645	3796.354330
392.996200	3873.451216
393.379694	3913.606527
393.763125	3977.682113
394.146494	3946.416877
394.529801	4009.189325
394.913047	4058.988363
395.296230	4023.738095
395.679351	4078.631219
396.062410	4101.197944
396.445408	4081.668514
396.828343	4115.474492
397.211217	4141.819562
397.594028	4058.718661
397.976778	4129.713231
398.359466	4153.484792
398.742092	4185.264226
399.124656	4106.244139
399.507158	4185.324719
399.889598	4214.308833
400.271977	4271.402421
400.654294	4242.836723
401.036549	4247.966097
401.418742	4221.994073
401.800874	4322.693641
402.182944	4346.676931
402.564952	4405.671033
402.946898	4398.106782
403.328783	4392.062439
403.710606	4307.005570
404.092367	4499.819623
404.474067	4463.019200
404.855705	4472.060509
405.237282	4398.142070
405.618797	4510.758927
406.000250	4545.802508
406.381642	4625.346874
406.762972	4588.513683
407.144240	4597.877627
407.525447	4596.289663
407.906593	4656.796112
408.287677	4696.734654
408.668700	4627.350733
409.049661	4678.082384
409.430560	4721.824476
409.811399	4645.786232
410.192176	4807.627435
410.572891	4747.657869
410.953545	4852.077809
411.334138	4731.488368
411.714669	4798.896157
412.095139	4691.711144
412.475547	4836.031817
412.855894	4815.952901
413.236180	4828.954037
413.616405	4777.856901
413.996568	4867.884347
414.376670	4808.166839
414.756711	4763.845014
415.136691	4795.206032
415.516609	4872.159246
415.896466	4907.759874
416.276262	4944.141882
416.655997	4926.664201
417.035670	5107.528198
417.415283	5199.448597
417.794834	5140.278054
418.174324	5095.744501
418.553753	5001.527856
418.933121	5186.941495
419.312428	5253.761989
419.691674	5191.236558
420.070859	5319.894366
420.449983	5232.357250
420.829045	5346.098283
421.208047	5252.854581
421.586988	5324.529707
421.965867	5337.669474
422.344686	5474.337676
422.723444	5324.685982
423.102141	5142.473477
423.480777	5438.366522
423.859352	5212.905958
424.237866	5467.706038
424.616319	5463.622703
424.994712	5574.800310
425.373044	5445.799704
425.751314	5590.621971
426.129524	5393.152413
426.507673	5587.345221
426.885762	5672.150032
427.263789	5604.051605
427.641756	5482.358151
428.019662	5605.516060
428.397508	5613.680209
428.775292	5560.337240
429.153016	5660.799874
429.530679	5587.380509
429.908282	5672.326472
430.285824	5541.458118
430.663305	5818.666127
431.040726	5554.439090
431.418086	5551.336259
431.795385	5653.893493
432.172624	5669.395041
432.549802	5663.562426
432.926920	5676.984498
433.303977	5684.359707
433.680974	5725.644236
434.057910	5742.083439
434.434786	5743.971351
434.811601	5715.403132
435.188355	5949.491631
435.565050	5824.859185
435.941683	5805.261699
436.318257	6020.453433
436.694770	6003.258058
437.071222	6039.350199
437.447614	5970.790506
437.823946	5880.868925
438.200218	6039.529160
438.576429	5902.311473
438.952580	5999.504919
439.328670	6049.838319
439.704700	5954.905831
440.080670	5936.586278
440.456580	6210.946034
440.832429	6092.587304
441.208218	5936.132574
441.583947	6090.124700
441.959616	6097.119301
442.335224	6026.212952
442.710773	6161.056255
443.086261	6193.518766
443.461689	5982.584286
443.837057	6127.363704
444.212365	6284.413290
444.587612	6181.117527
444.962800	6332.624365
445.337927	6312.812630
445.712995	5926.655204
446.088002	6503.874882
446.462949	6332.316854
446.837837	6261.450834
447.212664	6437.969357
447.587431	6579.845070
447.962139	7121.567462
448.336786	8050.465593
448.711374	7791.655276
449.085901	6861.310333
449.460369	6785.498941
449.834776	6714.887499
450.209124	7113.794003
450.583412	7259.216168
450.957640	7401.752272
451.331808	7175.278436
451.705917	6722.260187
452.079965	6643.824874
452.453954	6860.866712
452.827883	6738.054122
453.201752	6828.172308
453.575562	6627.819211
453.949311	6831.464182
454.323001	6719.588375
454.696632	6791.291227
455.070202	6933.650891
455.443713	7087.673264
455.817164	7189.318049
456.190556	7274.087572
456.563888	7347.000301
456.937160	7392.133751
457.310373	7048.306894
457.683526	7068.116108
458.056619	6963.872608
458.429653	6949.081863
458.802628	6881.089300
459.175542	6995.425190
459.548398	7351.340734
459.921194	7509.990887
460.293930	7511.541042
460.666607	8043.634830
461.039224	8345.967950
461.411782	8473.405798
461.784280	8492.166452
462.156719	8383.920276
462.529099	8264.384436
462.901419	7850.606529
463.273680	7741.505877
463.645882	7761.909947
464.018024	7631.386913
464.390106	7789.921119
464.762130	8182.206067
465.134094	8653.180906
465.505999	9673.422224
465.877845	10903.650286
466.249631	11542.235928
466.621358	11158.165540
466.993026	10535.522547
467.364634	10280.041911
467.736184	9916.912476
468.107674	9579.878574
468.479105	9614.067679
468.850477	9375.737049
469.221790	9148.829673
469.593043	8820.826998
469.964238	8679.263836
470.335373	8692.186834
470.706449	8754.427440
471.077467	8727.963903
471.448425	10047.705212
471.819324	11116.860846
472.190164	11142.159877
472.560945	9889.150842
472.931667	9098.894523
473.302330	8959.841856
473.672934	8615.962067
474.043479	8970.508938
474.413965	8915.688910
474.784393	8794.129047
475.154761	8950.525804
475.525070	9038.199031
475.895321	8865.534471
476.265513	9042.899907
476.635645	9212.514569
477.005719	9210.629178
477.375734	9325.428854
477.745691	9562.277385
478.115588	9695.593219
478.485427	9944.089336
478.855207	10485.814249
479.224928	11297.671911
479.594591	11928.234558
479.964194	11733.640978
480.333739	11668.489106
480.703226	11598.026378
481.072653	11677.477483
481.442022	11918.212744
481.811333	12107.268616
482.180584	11913.106055
482.549777	11623.975717
482.918912	11444.636669
483.287988	11471.049795
483.657005	11478.243522
484.025964	11164.288022
484.394864	11287.813935
484.763706	11265.736202
485.132489	11020.721001
485.501213	10985.266566
485.869879	11055.474716
486.238487	10897.326158
486.607036	11008.150884
486.975527	10796.177927
487.343959	10982.622481
487.712333	11027.960098
488.080648	10954.583583
488.448905	11005.862200
488.817104	10941.998343
489.185244	11209.025742
489.553326	11358.405212
489.921350	11908.072463
490.289315	12967.183598
490.657222	13310.466010
491.025070	13220.907392
491.392861	13090.033997
491.760593	12706.896222
492.128267	12356.271369
492.495883	12030.249868
492.863440	11697.047242
493.230939	11359.872188
493.598380	11293.901128
493.965763	11156.038173
494.333088	11056.205683
494.700354	10974.019752
495.067563	11039.537108
495.434713	10861.291990
495.801805	10997.077990
496.168839	10914.645042
496.535815	10855.676145
496.902733	10855.666063
497.269593	10791.567792
497.636395	10886.664118
498.003139	10879.064578
498.369825	10744.760678
498.736453	10907.625235
499.103023	10833.548000
499.469535	10859.393996
499.835989	10843.736172
500.202385	10812.914558
500.568723	10661.105251
500.935003	10883.452903
501.301226	10686.570639
501.667390	10953.492174
502.033497	11047.479446
502.399546	10905.576006
502.765537	10811.661831
503.131470	10882.394260
503.497345	11057.965046
503.863163	10670.368371
504.228923	10980.507717
504.594625	11048.661597
504.960269	10791.968563
505.325856	11014.545588
505.691385	10807.371809
506.056856	10959.985180
506.422270	10986.035342
506.787625	10867.522857
507.152924	10989.629685
507.518164	10979.096194
507.883347	10888.194108
508.248472	10807.386932
508.613540	11045.082377
508.978550	10933.100706
509.343503	10907.194217
509.708398	11028.330623
510.073236	11132.473300
510.438016	11137.756429
510.802738	11092.673390
511.167403	11146.170115
511.532010	11040.686491
511.896561	11277.837492
512.261053	11346.495486
512.625488	11214.815507
512.989866	11198.220028
513.354186	11184.056907
513.718449	11091.864285
514.082655	11285.893255
514.446803	11172.742037
514.810894	11302.534104
515.174927	11161.717033
515.538904	11181.750579
515.902822	11337.098776
516.266684	11218.069572
516.630488	11162.387507
516.994235	11222.047042
517.357925	11279.443099
517.721558	11371.502130
518.085133	11385.763554
518.448651	11395.906356
518.812112	11280.320260
519.175516	11293.641509
519.538863	11410.230794
519.902152	11324.077475
520.265385	11491.537044
520.628560	11410.699622
520.991678	11380.714839
521.354739	11453.993051
521.717743	11380.724921
522.080690	11358.165757
522.443580	11500.381749
522.806413	11444.553490
523.169189	11483.231743
523.531908	11534.316276
523.894569	11360.550223
524.257174	11365.793023
524.619722	11478.046917
524.982213	11429.059504
525.344647	11479.859211
525.707025	11432.961357
526.069345	11522.318330
526.431608	11441.773294
526.793815	11548.136599
527.155964	11343.317039
527.518057	11393.554657
527.880093	11345.222595
528.242072	11411.695250
528.603995	11322.834831
528.965860	11231.675646
529.327669	11287.675303
529.689421	11228.887888
530.051117	11207.241173
530.412755	11312.626494
530.774337	11198.240193
531.135862	11178.370485
531.497331	11204.390401
531.858743	11056.034284
532.220098	11225.288504
532.581396	11097.217990
532.942638	11075.157901
533.303824	11030.699965
533.664953	11051.497246
534.026025	10965.898453
534.387040	11069.118599
534.747999	11069.501727
535.108902	11127.908535
535.469748	10888.841896
535.830537	10997.037661
536.191270	10969.959103
536.551947	10995.787454
536.912567	10987.956022
537.273131	10921.017061
537.633638	10891.639737
537.994089	10880.186235
538.354483	10831.027423
538.714821	10976.232819
539.075103	10979.386060
539.435328	10949.403798
539.795497	10784.404312
540.155609	10930.133987
540.515665	11024.340550
540.875665	10763.561661
541.235609	10830.062042
541.595496	10819.372276
541.955328	10981.621812
542.315102	10862.950530
542.674821	10812.097891
543.034483	10818.273304
543.394090	10814.258025
543.753640	10737.090563
544.113134	10965.164965
544.472571	10815.233488
544.831953	10956.506784
545.191278	10768.270099
545.550548	10791.837493
545.909761	10939.273599
546.268918	10909.308981
546.628019	10988.291259
546.987064	10863.394152
547.346053	10776.096490
547.704986	10880.047603
548.063863	10864.699810
548.422684	10857.611948
548.781449	10774.626994
549.140158	10874.963600
549.498811	10749.080947
549.857408	10607.595923
550.215949	10838.984885
550.574434	10687.977121
550.932864	10790.050404
551.291237	10846.581903
551.649555	10794.441249
552.007817	10813.096039
552.366022	10774.390060
552.724173	10760.539490
553.082267	10751.659497
553.440305	10889.411547
553.798288	10689.139107
554.156215	10839.042858
554.514086	10816.602162
554.871902	10662.363018
555.229661	10707.073012
555.587365	10681.635350
555.945014	10568.557228
556.302606	10703.004801
556.660143	10588.626061
557.017625	10746.222613
557.375050	10645.943980
557.732421	10779.768971
558.089735	10697.903153
558.446994	10693.966012
558.804197	10733.947403
559.161345	10724.580939
559.518437	10579.189021
559.875474	10660.591053
560.232455	10698.082114
560.589381	10644.683692
560.946251	10639.365275
561.303065	10753.131514
561.659825	10682.298261
562.016528	10614.361152
562.373177	10498.631383
562.729770	10607.003588
563.086307	10524.207677
563.442789	10617.663107
563.799216	10495.788172
564.155587	10552.365042
564.511904	10501.610705
564.868164	10490.626030
565.224370	10507.680254
565.580520	10433.154356
565.936615	10439.720459
566.292654	10307.768257
566.648638	10439.481004
567.004567	10390.770855
567.360441	10379.186283
567.716260	10284.052149
568.072023	10387.385720
568.427732	10335.928142
568.783385	10240.970448
569.138982	10312.864863
569.494525	10330.753398
569.850013	10205.669768
570.205445	10287.616244
570.560823	10177.711529
570.916145	10095.820505
571.271412	10172.604840
571.626625	10107.026990
571.981782	10090.103837
572.336884	10061.502850
572.691931	10068.867976
573.046923	10022.252427
573.401860	9969.574889
573.756743	9908.443337
574.111570	9952.215676
574.466342	9932.887892
574.821059	9959.429567
575.175722	9857.588177
575.530330	9859.609680
575.884882	9854.288742
576.239380	9778.815107
576.593823	9766.101317
576.948211	9783.258884
577.302544	9657.598042
577.656823	9668.018107
578.011047	9674.995064
578.365216	9654.149893
578.719330	9572.649559
579.073389	9578.214993
579.427394	9525.786993
579.781344	9505.685392
580.135239	9453.600190
580.489080	9466.508065
580.842866	9368.825627
581.196597	9370.549701
581.550273	9414.571577
581.903895	9380.553871
582.257463	9447.553326
582.610975	9327.168052
582.964434	9352.968677
583.317837	9276.010423
583.671186	9258.368905
584.024481	9251.122246
584.377721	9169.067385
584.730906	9143.029825
585.084037	9172.598713
585.437113	9113.445814
585.790135	9133.733938
586.143103	9033.344400
586.496016	9006.112087
586.848874	9068.491325
587.201679	9050.887615
587.554428	8932.125592
587.907124	8983.963777
588.259765	8949.378942
588.612352	8952.854817
588.964884	8828.766815
589.317362	8844.928754
589.669786	8851.693983
590.022155	8899.637877
590.374470	8915.678828
590.726731	8849.362449
591.078937	8699.204120
591.431090	8813.698806
591.783188	8688.474024
592.135232	8678.200153
592.487222	8679.115122
592.839157	8729.103204
593.191038	8664.616764
593.542866	8608.662477
593.894639	8507.867126
594.246358	8563.874345
594.598022	8574.967404
594.949633	8480.239082
595.301190	8448.416799
595.652692	8475.946540
596.004141	8591.457018
596.355535	8367.957463
596.706876	8346.119184
597.058162	8284.569216
597.409395	8354.386677
597.760573	8417.443949
598.111698	8331.406577
598.462768	8312.023340
598.813785	8277.960264
599.164748	8246.659739
599.515657	8240.305365
599.866511	8152.874113
600.217312	8272.523379
600.568060	8131.121534
600.918753	8234.918892
601.269392	8206.028039
601.619978	8115.244420
601.970510	8180.754215
602.320988	8173.056373
602.671412	8233.532575
603.021783	8167.969848
603.372100	8145.019996
603.722363	8148.586612
604.072572	8119.778938
604.422728	8129.044579
604.772830	8058.090339
605.122878	8069.995023
605.472872	8061.901451
605.822813	8090.225174
606.172701	8034.563274
606.522534	8111.211497
606.872314	8112.486909
607.222041	8079.469872
607.571714	8137.455744
607.921333	8089.153929
608.270899	8096.856812
608.620411	8188.290740
608.969870	8099.009384
609.319276	8088.564114
609.668627	8104.317719
610.017926	8137.891804
610.367171	8182.934514
610.716362	8166.558325
611.065500	8155.061974
611.414585	8184.053650
611.763616	8178.886467
612.112594	8153.804206
612.461518	8166.076895
612.810389	8226.248107
613.159207	8163.735279
613.507971	8115.352805
613.856682	8235.191114
614.205340	8188.504989
614.553945	8268.137575
614.902496	8165.272831
615.250994	8218.799803
615.599439	8205.236578
615.947830	8212.291673
616.296169	8192.374074
616.644454	8199.940846
616.992686	8200.409673
617.340864	8251.957992
617.688990	8156.909557
618.037063	8257.072243
618.385082	8197.543778
618.733048	8286.361347
619.080961	8226.790032
619.428821	8249.200481
619.776628	8247.662929
620.124382	8195.187038
620.472083	8177.059049
620.819731	8208.934265
621.167326	8101.552647
621.514868	8110.561188
621.862357	7996.679002
622.209793	8016.137856
622.557176	7945.990201
622.904506	7925.099659
623.251783	7854.160542
623.599007	7807.003068
623.946179	7810.027761
624.293297	7769.721215
624.640363	7688.430089
624.987376	7671.675814
625.334336	7616.931404
625.681243	7563.273362
626.028097	7554.763895
626.374899	7527.975203
626.721647	7523.458329
627.068343	7459.526416
627.414987	7423.459481
627.761577	7373.438632
628.108115	7419.431599
628.454600	7308.672408
628.801032	7360.432455
629.147412	7318.999212
629.493739	7312.967471
629.840014	7247.487924
630.186236	7308.344733
630.532405	7185.151536
630.878521	7236.697334
631.224585	7194.323915
631.570597	7118.031093
631.916556	7153.881258
632.262462	7149.601319
632.608316	7110.907942
632.954117	7086.695281
633.299866	7075.592139
633.645562	7063.188380
633.991206	6987.240877
634.336797	6929.791888
634.682336	6887.995681
635.027823	6853.284816
635.373257	6846.320462
635.718639	6774.733557
636.063968	6784.147912
636.409245	6686.203334
636.754470	6680.625297
637.099642	6640.873278
637.444762	6581.995122
637.789829	6590.731442
638.134845	6535.026692
638.479808	6522.746441
638.824719	6521.261821
639.169577	6449.957221
639.514383	6474.605942
639.859137	6395.679117
640.203839	6409.554893
640.548489	6398.164406
640.893086	6373.545931
641.237632	6340.269275
641.582125	6367.917483
641.926566	6333.564540
642.270955	6348.756057
642.615292	6339.984449
642.959576	6352.816707
643.303809	6346.472414
643.647990	6351.866449
643.992118	6343.848494
644.336195	6294.309075
644.680219	6315.013094
645.024192	6308.452032
645.368112	6397.793881
645.711981	6422.331697
646.055797	6501.697103
646.399562	6456.843437
646.743274	6580.848260
647.086935	6639.050901
647.430544	6631.736187
647.774101	6653.629918
648.117606	6659.175188
648.461059	6646.022817
648.804460	6610.671726
649.147810	6521.201327
649.491108	6491.529096
649.834354	6468.513708
650.177548	6384.152519
650.520690	6296.260002
650.863781	6276.165962
651.206820	6299.163706
651.549807	6214.890737
651.892742	6158.437376
652.235626	6163.418036
652.578458	6150.275748
652.921238	6054.718156
653.263967	6099.783551
653.606644	6041.119644
653.949269	6040.933121
654.291843	5983.060675
654.634365	6026.752355
654.976836	5983.799204
655.319255	5982.123020
655.661622	5960.539320
656.003938	5960.493950
656.346203	5919.174132
656.688416	5951.387105
657.030577	5903.400362
657.372687	5873.052616
657.714746	5854.307085
658.056753	5904.895064
658.398708	5842.135219
658.740612	5836.022820
659.082465	5880.742896
659.424266	5877.791300
659.766016	5871.767121
660.107715	5849.263411
660.449362	5858.695409
660.790958	5854.095357
661.132503	5842.626732
661.473996	5879.782556
661.815438	5868.366863
662.156829	5864.298652
662.498168	5854.980079
662.839456	5832.932593
663.180693	5867.588005
663.521879	5868.230752
663.863013	5860.079206
664.204097	5877.226691
664.545129	5917.928967
664.886110	5907.839098
665.227040	5945.352844
665.567918	5914.324542
665.908746	5941.524088
666.249522	5942.098779
666.590248	5930.897335
666.930922	5961.683662
667.271545	5974.132791
667.612118	5973.825281
667.952639	5951.591272
668.293109	5976.648327
668.633528	5930.390699
668.973896	5927.650832
669.314213	5922.781078
669.654480	5904.774076
669.994695	5898.835597
670.334859	5890.694133
670.674973	5879.107041
671.015035	5886.063834
671.355047	5884.654831
671.695008	5869.657398
672.034918	5844.711249
672.374777	5853.979410
672.714585	5837.318397
673.054342	5841.119427
673.394049	5836.300083
673.733705	5868.066914
674.073310	5847.887176
674.412864	5811.719417
674.752368	5802.869672
675.091820	5806.721113
675.431223	5743.164766
675.770574	5749.793883
676.109875	5699.256316
676.449125	5703.682449
676.788324	5671.855124
677.127473	5614.809427
677.466571	5605.359785
677.805619	5592.973670
678.144616	5582.147792
678.483562	5558.177105
678.822458	5526.551427
679.161303	5520.761661
679.500098	5510.984343
679.838842	5496.617055
680.177535	5502.308518
680.516179	5514.828223
680.854771	5522.846178
681.193314	5608.150063
681.531805	5719.221806
681.870247	5863.683631
682.208638	5970.354447
682.546978	5983.204348
682.885268	5958.981603
683.223508	5875.921032
683.561697	5818.441796
683.899836	5788.182270
684.237925	5735.887861
684.575963	5708.393407
684.913951	5671.575340
685.251889	5727.605245
685.589776	5701.610535
685.927614	5672.525598
686.265401	5742.958079
686.603137	5726.513835
686.940824	5801.377490
687.278460	5822.749462
687.616046	5832.557027
687.953582	5900.723509
688.291068	5880.087546
688.628504	5948.916940
688.965889	5908.897740
689.303224	5854.659966
689.640510	5804.901257
689.977745	5729.062138
690.314930	5635.279033
690.652065	5576.355506
690.989150	5479.978727
691.326185	5404.883178
691.663170	5352.061968
692.000105	5279.358448
692.336990	5199.652764
692.673825	5170.540101
693.010610	5102.335810
693.347345	5037.163773
693.684030	5021.208521
694.020665	4976.586748
694.357251	4891.124067
694.693786	4899.336106
695.030272	4865.557855
695.366707	4828.951516
695.703093	4797.540087
696.039429	4818.859126
696.375716	4801.681394
696.711952	4774.678454
697.048139	4761.536166
697.384276	4745.200307
697.720363	4751.559722
698.056400	4766.693266
698.392388	4713.806521
698.728326	4693.450342
699.064214	4669.315818
699.400053	4666.608718
699.735842	4632.134788
700.071581	4607.115541
700.407270	4580.062189
700.742910	4565.135332
701.078501	4508.674409
701.414042	4509.057537
701.749533	4482.611644
702.084974	4412.211931
702.420366	4468.592195
702.755709	4409.719080
703.091002	4354.573898
703.426246	4400.259355
703.761440	4362.112944
704.096584	4320.742715
704.431679	4338.159901
704.766725	4326.040967
705.101721	4317.193742
705.436668	4346.639122
705.771565	4291.980411
706.106413	4319.190039
706.441212	4353.885781
706.775961	4359.854507
707.110661	4341.381198
707.445311	4368.621073
707.779913	4389.262078
708.114465	4407.034666
708.448967	4427.370680
708.783421	4487.186491
709.117825	4533.676012
709.452180	4536.655334
709.786485	4577.745779
710.120742	4666.800282
710.454949	4652.332171
710.789107	4718.923292
711.123216	4787.651863
711.457275	4783.571049
711.791286	4857.789437
712.125247	4874.964648
712.459159	4779.069299
712.793023	4853.723746
713.126837	4811.320081
713.460602	4805.374040
713.794318	4721.738777
714.127985	4730.321341
714.461602	4644.591479
714.795171	4616.698775
715.128691	4550.122776
715.462162	4495.315352
715.795584	4446.287610
716.128957	4429.863531
716.462281	4377.236405
716.795556	4348.668186
717.128782	4311.779543
717.461960	4244.054162
717.795088	4254.322992
718.128167	4214.570973
718.461198	4153.512518
718.794180	4147.395078
719.127113	4129.887151
719.459997	4104.668778
719.792833	4065.650248
720.125619	4056.669432
720.458357	4014.931199
720.791046	4024.806819
721.123686	3996.609125
721.456278	3955.584215
721.788821	3970.291782
722.121315	3945.582566
722.453761	3917.498298
722.786158	3928.271244
723.118506	3954.654122
723.450805	3909.089653
723.783056	3930.552366
724.115259	3941.660548
724.447412	3950.142290
724.779518	3943.649283
725.111574	3948.398050
725.443582	3976.421825
725.775542	3963.609732
726.107453	4011.699819
726.439315	4012.942464
726.771129	4026.460318
727.102895	4064.427768
727.434612	4110.980303
727.766281	4123.169813
728.097901	4124.813229
728.429473	4128.160555
728.760996	4135.286226
729.092471	4133.579796
729.423897	4116.702013
729.755276	4121.561685
730.086606	4122.587560
730.417887	4160.184485
730.749120	4224.829722
731.080305	4287.700472
731.411442	4317.781037
731.742530	4286.651912
732.073570	4287.375317
732.404562	4346.893700
732.735506	4335.256197
733.066401	4299.612718
733.397249	4233.611412
733.728048	4154.387158
734.058798	4068.284251
734.389501	4002.461905
734.720156	3937.899847
735.050762	3893.252868
735.381320	3886.096951
735.711831	3838.460567
736.042293	3809.552071
736.372707	3827.969926
736.703073	3799.396666
737.033391	3791.827374
737.363661	3810.656083
737.693883	3832.862366
738.024056	3842.473326
738.354182	3839.488963
738.684260	3905.417173
739.014290	3922.176489
739.344272	3917.054676
739.674207	3960.995894
740.004093	3968.963437
740.333931	3963.811378
740.663722	3964.920432
740.993464	3959.516315
741.323159	3937.690640
741.652806	3906.352307
741.982405	3879.374572
742.311956	3847.365766
742.641460	3836.817151
742.970915	3812.480981
743.300323	3770.084877
743.629683	3737.443406
743.958996	3727.918146
744.288260	3701.925957
744.617477	3667.915812
744.946647	3653.256137
745.275768	3630.409627
745.604842	3629.391314
745.933869	3581.797781
746.262847	3569.956111
746.591778	3609.942543
746.920662	3579.990527
747.249498	3546.875188
747.578286	3596.318825
747.907027	3611.706947
748.235720	3609.491360
748.564365	3636.050679
748.892963	3634.959269
749.221514	3616.556537
749.550017	3594.294801
749.878473	3594.093155
750.206881	3562.626273
750.535242	3559.498237
750.863555	3563.241294
751.191821	3555.639234
751.520039	3536.860936
751.848210	3518.211187
752.176334	3545.284704
752.504411	3554.217628
752.832440	3513.669107
753.160421	3499.569000
753.488356	3504.368178
753.816243	3519.491640
754.144082	3476.412460
754.471875	3461.238587
754.799620	3480.828511
755.127318	3472.193014
755.454969	3470.637818
755.782572	3477.390444
756.110129	3453.994449
756.437638	3445.711833
756.765100	3458.125674
757.092515	3469.188486
757.419882	3469.034731
757.747203	3445.731998
758.074477	3451.501598
758.401703	3465.445430
758.728882	3487.306393
759.056014	3493.638082
759.383099	3494.734533
759.710138	3495.087414
760.037129	3513.679190
760.364073	3539.003426
760.690970	3525.593957
761.017820	3502.608816
761.344623	3521.303935
761.671379	3566.064340
761.998088	3621.471662
762.324751	3748.092843
762.651366	3994.965709
762.977935	4470.868276
763.304456	4915.427469
763.630931	5014.297099
763.957359	4657.443901
764.283740	4307.625632
764.610074	4116.739821
764.936362	3913.838420
765.262602	3754.134666
765.588796	3644.839930
765.914943	3554.996487
766.241044	3464.711942
766.567097	3436.584824
766.893104	3389.644120
767.219064	3359.498020
767.544978	3328.338648
767.870845	3274.756224
768.196665	3256.792072
768.522438	3262.952362
768.848165	3259.690735
769.173846	3221.229252
769.499479	3206.902293
769.825066	3188.761701
770.150607	3170.621109
770.476101	3185.610980
770.801548	3183.584436
771.126949	3137.843526
771.452303	3117.384003
771.777611	3126.337093
772.102872	3129.775160
772.428087	3108.438476
772.753256	3094.812237
773.078378	3089.624890
773.403453	3055.781103
773.728482	3044.796429
774.053465	3067.655541
774.378401	3051.027295
774.703291	3021.700383
775.028135	3017.881709
775.352932	3013.281656
775.677683	3005.795543
776.002388	3001.918895
776.327046	3003.375789
776.651658	2991.977740
776.976224	2977.633137
777.300743	2978.288487
777.625216	2972.508804
777.949643	2966.255252
778.274024	2969.466467
778.598359	2958.602781
778.922647	2960.437761
779.246889	2958.600260
779.571086	2945.155503
779.895236	2942.120728
780.219339	2950.478961
780.543397	2962.275261
780.867409	2966.802218
781.191374	2958.038172
781.515294	2958.244859
781.839167	2960.006742
782.162995	2949.379990
782.486776	2958.670836
782.810511	2953.299487
783.134201	2941.762806
783.457844	2949.432922
783.781441	2938.644853
784.104993	2918.301276
784.428498	2919.677511
784.751958	2934.117897
785.075372	2925.658840
785.398739	2912.561923
785.722061	2927.965168
786.045337	2936.900613
786.368568	2926.266299
786.691752	2916.466296
787.014891	2967.729790
787.337983	2993.648882
787.661030	3021.113088
787.984031	3089.778645
788.306987	3136.225316
788.629897	3130.155767
788.952760	3112.025257
789.275579	3094.045982
789.598351	3037.343083
789.921078	2992.023110
790.243759	2980.814105
790.566395	2966.010756
790.888984	2942.551747
791.211529	2923.108017
791.534027	2915.165679
791.856480	2904.768299
792.178888	2888.351781
792.501249	2880.119577
792.823566	2880.059083
793.145836	2874.607075
793.468062	2874.125645
793.790241	2871.390819
794.112375	2877.044473
794.434464	2889.768346
794.756507	2892.702297
795.078505	2898.171949
795.400457	2912.372879
795.722364	2950.075669
796.044226	2976.977787
796.366042	2980.022643
796.687812	2967.923874
797.009538	2985.938438
797.331218	2973.804380
797.652852	2959.777370
797.974442	2939.358176
798.295986	2938.186108
798.617484	2932.565221
798.938938	2917.129208
799.260346	2902.406518
799.581709	2896.919222
799.903026	2890.746329
800.224299	2884.112171
800.545526	2873.266128
800.866708	2858.004035
801.187845	2847.039526
801.508936	2848.403158
801.829983	2858.593850
802.150984	2842.550378
802.471940	2830.169304
802.792851	2832.140395
803.113717	2828.689726
803.434538	2836.871518
803.755314	2828.911536
804.076045	2822.005156
804.396731	2821.274188
804.717372	2824.150167
805.037967	2815.328147
805.358518	2823.598160
805.679024	2836.415294
805.999485	2830.388594
806.319901	2836.145592
806.640272	2829.186279
806.960598	2832.783142
807.280879	2842.555419
807.601115	2848.065400
807.921306	2836.838751
808.241453	2833.441013
808.561554	2838.255315
808.881611	2839.586180
809.201623	2836.684996
809.521590	2832.246260
809.841513	2829.284582
810.161390	2835.046621
810.481223	2829.455981
810.801011	2819.630772
811.120755	2812.731953
811.440453	2814.763538
811.760107	2815.123981
812.079716	2817.347129
812.399281	2804.126703
812.718801	2798.939356
813.038276	2793.648665
813.357707	2800.819707
813.677093	2805.563432
813.996434	2802.236271
814.315731	2794.808131
814.634983	2791.221350
814.954191	2795.402987
815.273354	2807.272383
815.592473	2816.674135
815.911547	2817.505926
816.230577	2828.074705
816.549562	2836.798422
816.868502	2833.141064
817.187399	2847.667149
817.506250	2864.234901
817.825058	2853.600587
818.143821	2868.887886
818.462539	2883.250134
818.781213	2911.770462
819.099843	2947.746656
819.418429	3006.705471
819.736970	3070.912127
820.055466	3141.994917
820.373919	3251.009868
820.692327	3390.876682
821.010691	3564.108372
821.329011	4014.071682
821.647286	4919.319240
821.965517	6320.833106
822.283704	7085.218222
822.601847	7068.731129
822.919945	6423.400422
823.237999	5911.209109
823.556010	5319.304551
823.873976	4757.243623
824.191897	4341.519830
824.509775	4039.958007
824.827609	3768.648148
825.145398	3640.244919
825.463144	3624.549286
825.780845	3718.854151
826.098502	3823.937003
826.416116	4110.357721
826.733685	4435.285292
827.051210	4502.015045
827.368692	4383.550450
827.686129	4113.599183
828.003522	3780.706588
828.320872	3518.254037
828.638177	3319.872030
828.955439	3182.359435
829.272656	3094.718976
829.589830	3026.890251
829.906960	2976.272025
830.224046	2931.546908
830.541088	2896.223543
830.858086	2879.643188
831.175041	2864.277751
831.491952	2866.019470
831.808819	2877.505739
832.125642	2901.279820
832.442421	2945.836059
832.759157	3031.732279
833.075849	3209.412787
833.392497	3497.066067
833.709101	3702.427551
834.025662	3654.511384
834.342179	3490.880571
834.658653	3313.177378
834.975083	3162.033503
835.291469	3062.745457
835.607811	2979.364773
835.924110	2916.849424
836.240366	2864.885210
836.556578	2820.238231
836.872746	2798.006743
837.188871	2774.797270
837.504952	2760.182965
837.820990	2750.352715
838.136984	2733.263204
838.452935	2727.760784
838.768842	2724.360526
839.084706	2741.419791
839.400526	2824.029179
839.716303	2958.630507
840.032037	3041.723846
840.347727	3025.831608
840.663373	2963.790128
840.978977	2891.227760
841.294537	2815.549958
841.610054	2765.544232
841.925527	2745.566140
842.240957	2722.152501
842.556344	2695.144519
842.871687	2681.609021
843.186987	2673.717095
843.502244	2667.498831
843.817458	2664.211999
844.132629	2652.995432
844.447756	2643.157620
844.762840	2634.189407
845.077881	2639.245685
845.392879	2636.223513
845.707833	2634.068420
846.022745	2626.511730
846.337613	2628.893675
846.652438	2629.801083
846.967221	2627.149436
847.281960	2624.036523
847.596656	2624.190279
847.911309	2625.047275
848.225919	2620.870679
848.540485	2617.228445
848.855009	2618.120729
849.169490	2617.150307
849.483928	2616.071500
849.798323	2616.862962
850.112675	2613.485388
850.426984	2615.612755
850.741251	2613.888681
851.055474	2612.772065
851.369654	2618.277005
851.683792	2617.445215
851.997887	2616.401696
852.311938	2611.627723
852.625947	2617.387242
852.939914	2616.479834
853.253837	2618.612242
853.567718	2613.911366
853.881555	2614.944802
854.195350	2617.152828
854.509103	2615.990842
854.822812	2611.292487
855.136479	2613.258537
855.450103	2612.184771
855.763685	2618.995370
856.077224	2614.685183
856.390720	2611.471447
856.704173	2617.127622
857.017584	2617.356995
857.330953	2620.553086
857.644278	2621.258848
857.957561	2623.620628
858.270802	2620.963940
858.584000	2617.021758
858.897155	2620.805144
859.210268	2624.354116
859.523339	2616.028651
859.836367	2613.709720
860.149352	2612.167127
860.462295	2614.370111
860.775195	2612.777106
861.088054	2608.098916
861.400869	2609.838114
861.713642	2606.052207
862.026373	2610.085130
862.339062	2613.046808
862.651708	2615.794237
862.964312	2620.406893
863.276873	2615.307766
863.589392	2619.875051
863.901869	2626.219343
864.214303	2628.747482
864.526696	2631.580610
864.839045	2632.735034
865.151353	2636.631846
865.463619	2637.483801
865.775842	2633.138327
866.088023	2634.842237
866.400162	2635.323667
866.712258	2635.220323
867.024313	2635.064047
867.336325	2629.249077
867.648296	2634.900210
867.960224	2637.380458
868.272110	2637.113277
868.583954	2629.274282
868.895755	2632.798049
869.207515	2636.702423
869.519233	2643.018988
869.830909	2640.548823
870.142542	2635.124541
870.454134	2635.936167
870.765684	2641.932620
871.077191	2643.097126
871.388657	2648.536531
871.700081	2644.299441
872.011463	2645.466468
872.322803	2649.479227
872.634101	2649.766573
872.945357	2653.154228
873.256571	2663.012204
873.567744	2660.655465
873.878874	2658.326452
874.189963	2663.327277
874.501010	2662.457677
874.812015	2672.474450
875.122979	2667.345076
875.433900	2659.884168
875.744780	2662.213182
876.055618	2666.092349
876.366415	2672.066117
876.677169	2671.098215
876.987882	2665.449602
877.298554	2664.285096
877.609183	2674.259019
877.919771	2682.158507
878.230317	2688.596060
878.540822	2700.513348
878.851285	2713.582539
879.161707	2739.015160
879.472087	2778.152158
879.782425	2828.672082
880.092722	2943.461675
880.402977	3140.850575
880.713191	3404.467633
881.023363	3709.626319
881.333494	3909.084612
881.643583	4082.268411
881.953631	4078.777412
882.263637	3901.079260
882.573602	3679.051721
882.883526	3540.969476
883.193408	3422.209974
883.503248	3317.616114
883.813048	3197.419882
884.122806	3079.719023
884.432522	2994.586537
884.742197	2927.642534
885.051831	2884.525546
885.361424	2848.362828
885.670975	2815.300421
885.980485	2780.052673
886.289954	2762.602719
886.599382	2749.929258
886.908768	2739.471385
887.218113	2719.795761
887.527417	2702.587783
887.836680	2694.910105
888.145901	2688.948941
888.455082	2681.220852
888.764221	2670.518482
889.073319	2663.493635
889.382376	2661.693943
889.691392	2665.336176
890.000366	2663.044972
890.309300	2659.385094
890.618193	2662.278717
890.927044	2662.455157
891.235855	2663.012204
891.544625	2662.218223
891.853353	2665.086639
892.162041	2674.609379
892.470687	2693.942204
892.779293	2704.054758
893.087858	2716.143445
893.396381	2738.216137
893.704864	2781.602828
894.013306	2854.873479
894.321707	2951.656071
894.630068	3005.251098
894.938387	3025.559386
895.246665	3016.291225
895.554903	2968.445634
895.863100	2924.360743
896.171256	2865.742206
896.479371	2804.076292
896.787446	2762.305291
897.095480	2743.965573
897.403473	2734.899058
897.711425	2721.799620
898.019336	2704.495859
898.327207	2687.933148
898.635038	2685.669670
898.942827	2684.991635
899.250576	2673.787671
899.558284	2664.380878
899.865952	2659.248983
900.173579	2652.692962
900.481165	2652.302273
900.788711	2646.714154
901.096216	2639.656539
901.403681	2633.929788
901.711105	2637.413225
902.018489	2633.758389
902.325832	2636.856178
902.633135	2636.999851
902.940397	2655.851245
903.247619	2694.650486
903.554800	2764.601537
903.861941	2898.171949
904.169041	3030.759336
904.476101	3092.168152
904.783121	3086.827049
905.090100	3029.070550
905.397039	2946.514094
905.703938	2874.707898
906.010796	2805.986889
906.317614	2754.249527
906.624391	2716.473641
906.931129	2689.689991
907.237826	2663.826351
907.544483	2647.293887
907.851099	2628.976854
908.157675	2621.236162
908.464211	2615.219545
908.770707	2602.374685
909.077163	2598.374530
909.383578	2594.374374
909.689954	2593.540063
909.996289	2592.788931
910.302584	2591.027048
910.608839	2587.122674
910.915054	2589.650813
911.221229	2592.194075
911.527363	2592.408324
911.833458	2592.191555
912.139513	2594.263469
912.445527	2595.541401
912.751502	2602.140272
913.057436	2607.153699
913.363331	2613.926489
913.669186	2624.770011
913.975000	2638.388688
914.280775	2654.384270
914.586510	2676.008299
914.892205	2713.544731
915.197859	2783.258847
915.503475	2869.626415
915.809050	2941.780450
916.114585	2955.729323
916.420081	2970.068885
916.725536	2976.569453
917.030952	2953.637244
917.336328	2908.236613
917.641665	2853.557737
917.946961	2800.872639
918.252218	2767.646394
918.557435	2739.110942
918.862612	2714.910883
919.167750	2697.024869
919.472848	2681.004082
919.777906	2662.273675
920.082925	2648.309679
920.387904	2636.760396
920.692843	2635.621095
920.997743	2629.221350
921.302603	2622.186420
921.607423	2615.413630
921.912204	2608.855089
922.216946	2603.945005
922.521647	2602.563729
922.826310	2599.917123
923.130932	2595.727924
923.435516	2588.677870
923.740059	2588.314907
924.044564	2586.971440
924.349028	2583.513208
924.653454	2576.173288
924.957840	2573.798905
925.262186	2570.053327
925.566493	2570.675910
925.870761	2567.550395
926.174989	2568.334294
926.479178	2565.370096
926.783328	2565.521330
927.087438	2563.409087
927.391509	2564.732390
927.695541	2558.539332
927.999533	2558.430947
928.303486	2556.144784
928.607400	2558.677964
928.911275	2554.642520
929.215110	2558.420865
929.518906	2555.905329
929.822663	2558.582182
930.126381	2558.055381
930.430060	2556.699311
930.733699	2557.584033
931.037299	2558.327604
931.340861	2559.542522
931.644383	2559.968499
931.947866	2558.803993
932.251309	2558.670402
932.554714	2558.801472
932.858080	2558.103272
933.161407	2559.476987
933.464694	2558.655279
933.767943	2556.248128
934.071153	2555.106306
934.374323	2553.233518
934.677455	2556.911039
934.980548	2553.145298
935.283602	2552.817622
935.586617	2552.328631
935.889593	2556.936245
936.192530	2549.165307
936.495428	2556.744681
936.798287	2556.205278
937.101108	2556.568241
937.403890	2561.823644
937.706632	2564.429920
938.009336	2567.066444
938.312002	2574.119018
938.614628	2571.510221
938.917216	2579.618917
939.219765	2579.117322
939.522275	2581.892477
939.824747	2576.372414
940.127179	2572.304203
940.429573	2570.353276
940.731929	2573.020047
941.034246	2566.711043
941.336524	2568.903944
941.638763	2568.659448
941.940964	2569.685323
942.243126	2567.444530
942.545250	2565.221382
942.847335	2564.387071
943.149381	2565.372616
943.451389	2561.858932
943.753359	2562.325239
944.055290	2558.715772
944.357182	2558.388097
944.659036	2557.889023
944.960851	2557.548745
945.262628	2558.776266
945.564367	2559.529919
945.866067	2558.272151
946.167729	2559.164435
946.469352	2561.722821
946.770937	2560.011349
947.072484	2556.727037
947.373992	2557.745350
947.675462	2559.164435
947.976893	2556.895916
948.278286	2555.320555
948.579641	2555.431461
948.880958	2554.027499
949.182236	2555.108827
949.483476	2553.218394
949.784678	2552.830225
950.085841	2553.964485
950.386967	2555.517160
950.688054	2555.776780
950.989103	2556.280895
951.290114	2556.701832
951.591087	2559.592933
951.892021	2557.745350
952.192917	2560.591082
952.493776	2559.965979
952.794596	2561.995043
953.095378	2565.503686
953.396122	2567.454613
953.696828	2561.513613
953.997496	2562.136195
954.298126	2557.972202
954.598718	2557.934394
954.899272	2556.248128
955.199788	2554.037582
955.500266	2552.386604
955.800706	2550.697817
956.101108	2544.406457
956.401472	2546.344781
956.701798	2547.476520
957.002087	2542.410160
957.302337	2546.581715
957.602550	2546.430481
957.902724	2544.663556
958.202861	2542.425284
958.502960	2541.187681
958.803022	2543.355377
959.103045	2539.098122
959.403031	2543.519214
959.702979	2539.554347
960.002889	2540.945705
960.302762	2542.200953
960.602596	2543.458720
960.902393	2541.104502
961.202153	2541.774975
961.501875	2539.209028
961.801559	2540.567619
962.101205	2538.530993
962.400814	2539.672814
962.700385	2537.668955
962.999918	2537.926054
963.299414	2537.802546
963.598873	2538.054603
963.898293	2538.321785
964.197677	2541.147351
964.497022	2540.232382
964.796331	2536.448996
965.095601	2536.476722
965.394835	2538.047042
965.694030	2537.903369
965.993189	2537.608461
966.292309	2536.945550
966.591393	2537.588297
966.890439	2538.278935
967.189447	2537.371527
967.488419	2538.369676
967.787353	2537.331198
968.086249	2535.166022
968.385108	2541.369162
968.683930	2538.263811
968.982714	2535.423121
969.281462	2539.995448
969.580172	2537.489994
969.878844	2537.313554
970.177480	2536.811959
970.476078	2537.860519
970.774639	2538.294058
971.073162	2537.928575
971.371649	2537.910931
971.670098	2536.101156
971.968510	2537.169881
972.266885	2534.664428
972.565223	2539.660211
972.863524	2539.705581
973.161788	2540.612989
973.460014	2540.000489
973.758204	2539.614841
974.056356	2540.408822
974.354471	2539.148534
974.652550	2541.868236
974.950591	2539.138452
975.248595	2542.047197
975.546563	2539.214069
975.844493	2540.239944
976.142386	2538.606610
976.440243	2539.052752
976.738062	2540.038297
977.035845	2537.769778
977.333590	2536.877494
977.631299	2538.243647
977.928971	2537.888245
978.226606	2535.644932
978.524204	2538.052083
978.821765	2535.639891
979.119290	2538.024357
979.416777	2537.263142
979.714228	2535.473533
980.011642	2537.714326
980.309020	2537.570653
980.606360	2539.130890
980.903664	2538.261291
981.200931	2537.454706
981.498162	2538.972093
981.795356	2540.842362
982.092513	2544.474513
982.389633	2548.956099
982.686717	2551.234700
982.983764	2549.956768
983.280775	2555.865000
983.577749	2549.760163
983.874686	2554.950031
984.171587	2549.346788
984.468451	2546.415357
984.765279	2544.454348
985.062070	2544.068700
985.358824	2542.228679
985.655543	2538.473019
985.952224	2541.187681
986.248869	2536.738862
986.545478	2531.987575
986.842050	2538.583925
987.138586	2534.982020
987.435086	2532.683254
987.731549	2532.020342
988.027975	2534.190559
988.324366	2534.919006
988.620719	2534.785415
988.917037	2535.087884
989.213318	2534.785415
989.509563	2536.328008
989.805772	2535.541588
990.101944	2534.669469
990.398080	2531.448171
990.694180	2533.910775
990.990244	2533.812472
991.286271	2535.564273
991.582262	2534.419932
991.878217	2533.489839
992.174136	2534.447658
992.470019	2535.047555
992.765865	2532.831968
993.061676	2533.449509
993.357450	2534.513193
993.653188	2535.067720
993.948890	2534.989582
994.244556	2535.428162
994.540186	2534.838347
994.835780	2534.835827
995.131337	2534.563604
995.426859	2537.111908
995.722345	2536.907741
996.017795	2537.026208
996.313208	2537.394212
996.608586	2538.881353
996.903928	2540.398740
997.199234	2538.500746
997.494504	2538.341949
997.789738	2537.467309
998.084936	2536.239788
998.380099	2538.916641
998.675225	2538.016795
998.970316	2533.454551
999.265371	2536.438914
999.560390	2534.011598
999.855373	2535.740714
1000.150320	2535.128214
1000.445232	2533.046217
1000.740108	2534.351876
1001.034948	2534.104859
1001.329752	2532.859694
1001.624521	2535.798687
1001.919254	2528.819210
1002.213951	2528.335259
1002.508613	2530.818027
1002.803239	2530.089580
1003.097829	2526.820392
1003.392384	2533.966228
1003.686903	2531.548994
1003.981386	2533.149561
1004.275834	2532.209386
1004.570246	2533.167205
1004.864623	2532.917668
1005.158964	2533.820034
1005.453270	2532.431196
1005.747540	2530.394570
1006.041775	2531.216278
1006.335974	2531.614529
1006.630138	2530.548325
1006.924266	2533.192411
1007.218359	2533.575538
1007.512416	2532.731145
1007.806438	2529.771988
1008.100425	2531.980013
1008.394376	2529.910619
1008.688292	2531.347348
1008.982172	2529.857687
1009.276017	2534.016639
1009.569827	2532.390867
1009.863602	2534.719880
1010.157341	2534.417411
1010.451045	2534.508152
1010.744714	2531.972451
1011.038347	2530.865918
1011.331945	2533.068902
1011.625508	2534.215765
1011.919036	2531.612009
1012.212528	2532.471526
1012.505986	2529.925743
1012.799408	2533.462112
1013.092795	2530.394570
1013.386147	2533.895652
1013.679464	2533.361289
1013.972745	2532.675692
1014.265992	2532.647966
1014.559204	2530.747451
1014.852380	2532.693336
1015.145521	2533.792308
1015.438628	2529.610671
1015.731699	2531.841381
1016.024736	2531.667462
1016.317737	2534.699716
1016.610703	2535.138296
1016.903635	2529.560259
1017.196531	2528.501617
1017.489393	2529.043541
1017.782219	2526.946421
1018.075011	2529.086391
1018.367768	2530.936494
1018.660490	2529.386339
1018.953177	2529.386339
1019.245829	2529.386339
