Dividing Wavelength (nm)	Counts (n)	Blue Motor Position (mm): 12.800000	Red Motor Position (mm): 0.000000	
326.493990	2137.781947
326.888308	2137.781947
327.282561	2137.781947
327.676750	2106.536875
328.070874	2105.206011
328.464933	2105.730291
328.858929	2112.435025
329.252859	2122.446757
329.646726	2135.311782
330.040528	2148.774183
330.434265	2165.561225
330.827938	2181.501354
331.221547	2201.202183
331.615091	2217.492672
332.008571	2238.083264
332.401986	2259.752664
332.795338	2278.992228
333.188625	2297.198355
333.581847	2315.086889
333.975006	2336.030363
334.368100	2352.020903
334.761129	2369.859026
335.154095	2384.851418
335.546996	2405.936043
335.939833	2422.203847
336.332606	2439.863009
336.725315	2450.711572
337.117960	2461.633232
337.510540	2466.445013
337.903056	2480.419092
338.295508	2486.418065
338.687896	2495.711432
339.080220	2503.515138
339.472480	2507.048987
339.864676	2513.272291
340.256807	2518.290760
340.648875	2522.467356
341.040879	2523.392408
341.432818	2525.902902
341.824694	2525.479445
342.216506	2527.475742
342.608253	2529.572862
342.999937	2528.345341
343.391557	2528.698222
343.783113	2525.378622
344.174605	2527.458098
344.566033	2525.539939
344.957397	2521.890144
345.348697	2519.881244
345.739934	2518.346212
346.131106	2517.738753
346.522215	2516.080214
346.913260	2515.845800
347.304241	2511.253309
347.695159	2510.224914
348.086012	2509.922444
348.476802	2507.321209
348.867528	2507.051507
349.258191	2503.389109
349.648789	2503.621002
350.039324	2500.659324
350.429796	2503.242916
350.820203	2500.240908
351.210548	2497.911895
351.600828	2497.420383
351.991045	2496.800321
352.381198	2494.100783
352.771288	2497.231340
353.161314	2494.390649
353.551276	2493.294198
353.941175	2494.236894
354.331010	2497.634632
354.720782	2491.557521
355.110490	2494.846874
355.500135	2494.645228
355.889717	2495.575321
356.279235	2494.985506
356.668689	2497.569097
357.058080	2494.791421
357.447408	2493.367295
357.836672	2492.043992
358.225873	2491.807058
358.615010	2490.788745
359.004084	2499.383912
359.393095	2496.553304
359.782043	2498.834427
360.170927	2498.910044
360.559748	2503.056393
360.948505	2499.777122
361.337199	2500.268635
361.725830	2501.450785
362.114398	2501.556650
362.502903	2500.916423
362.891344	2503.379027
363.279722	2502.335508
363.668037	2501.274345
364.056289	2505.171157
364.444478	2503.946157
364.832603	2505.526558
365.220665	2504.425066
365.608665	2503.535303
365.996601	2508.084944
366.384474	2505.866836
366.772284	2506.643174
367.160031	2506.872546
367.547715	2507.530417
367.935336	2504.225941
368.322893	2510.363545
368.710388	2508.392454
369.097820	2511.437311
369.485189	2506.139058
369.872495	2507.200221
370.259738	2507.981600
370.646918	2510.378669
371.034035	2510.875223
371.421090	2509.221724
371.808081	2508.223576
372.195010	2511.885974
372.581875	2512.654750
372.968678	2511.223062
373.355418	2512.952178
373.742096	2511.643998
374.128710	2511.671725
374.515262	2508.631909
374.901751	2512.727847
375.288177	2510.270284
375.674540	2511.903618
376.060841	2511.104595
376.447079	2512.080058
376.833254	2512.639626
377.219367	2509.284738
377.605417	2510.890346
377.991404	2507.565705
378.377329	2510.381189
378.763191	2508.485716
379.148991	2515.626510
379.534727	2514.235152
379.920402	2513.957888
380.306013	2511.848165
380.691563	2514.157014
381.077049	2517.153980
381.462474	2515.601304
381.847835	2514.146931
382.233134	2516.334792
382.618371	2515.112312
383.003545	2517.229597
383.388657	2516.342354
383.773706	2516.473424
384.158693	2519.402334
384.543618	2516.670029
384.928480	2514.446880
385.313280	2520.113137
385.698017	2517.007786
386.082692	2516.281860
386.467305	2518.018538
386.851856	2517.832015
387.236344	2518.131963
387.620770	2517.632889
388.005133	2517.736233
388.389435	2519.167921
388.773674	2517.655574
389.157851	2518.552900
389.541965	2518.227745
389.926018	2521.421316
390.310008	2520.556758
390.693936	2520.579444
391.077802	2519.755215
391.461606	2522.096831
391.845348	2519.994670
392.229027	2523.339475
392.612645	2523.228570
392.996200	2522.663961
393.379694	2523.299146
393.763125	2521.328055
394.146494	2523.107582
394.529801	2522.795031
394.913047	2521.068436
395.296230	2522.837881
395.679351	2526.207892
396.062410	2523.462984
396.445408	2522.966430
396.828343	2524.667819
397.211217	2519.651871
397.594028	2521.181862
397.976778	2521.078518
398.359466	2522.810154
398.742092	2520.221522
399.124656	2524.188910
399.507158	2524.456091
399.889598	2525.751667
400.271977	2527.498427
400.654294	2524.640093
401.036549	2524.708149
401.418742	2526.286030
401.800874	2524.992974
402.182944	2523.500792
402.564952	2526.575896
402.946898	2527.579086
403.328783	2530.661751
403.710606	2529.008253
404.092367	2526.223015
404.474067	2527.347193
404.855705	2525.524816
405.237282	2527.989940
405.618797	2527.160670
406.000250	2529.288037
406.381642	2526.979188
406.762972	2524.965247
407.144240	2528.781401
407.525447	2529.051103
407.906593	2530.732328
408.287677	2529.277955
408.668700	2527.692512
409.049661	2528.095804
409.430560	2529.459436
409.811399	2529.305681
410.192176	2528.184024
410.572891	2531.473377
410.953545	2529.703932
411.334138	2528.794004
411.714669	2529.703932
412.095139	2527.410207
412.475547	2526.515402
412.855894	2531.458254
413.236180	2530.492873
413.616405	2532.894982
413.996568	2530.790301
414.376670	2534.119983
414.756711	2531.438089
415.136691	2529.955990
415.516609	2532.915147
415.896466	2530.482790
416.276262	2532.070754
416.655997	2529.078829
417.035670	2527.168232
417.415283	2532.272400
417.794834	2527.488345
418.174324	2530.003881
418.553753	2531.866587
418.933121	2533.802390
419.312428	2534.082174
419.691674	2533.820034
420.070859	2532.973120
420.449983	2531.571680
420.829045	2533.663758
421.208047	2533.386495
421.586988	2534.598892
421.965867	2533.116793
422.344686	2536.292720
422.723444	2534.069571
423.102141	2535.226516
423.480777	2534.049407
423.859352	2533.744417
424.237866	2537.003523
424.616319	2534.281300
424.994712	2534.636701
425.373044	2533.293234
425.751314	2533.421783
426.129524	2534.004036
426.507673	2533.913296
426.885762	2534.487987
427.263789	2534.377082
427.641756	2537.021167
428.019662	2533.721732
428.397508	2537.532844
428.775292	2537.686599
429.153016	2536.219623
429.530679	2538.594007
429.908282	2534.049407
430.285824	2536.998482
430.663305	2535.919675
431.040726	2537.454706
431.418086	2533.555374
431.795385	2538.185673
432.172624	2538.616692
432.549802	2537.502597
432.926920	2534.561084
433.303977	2537.812628
433.680974	2537.545447
434.057910	2536.756506
434.434786	2536.479243
434.811601	2538.341949
435.188355	2537.689120
435.565050	2539.057793
435.941683	2539.100643
436.318257	2538.049562
436.694770	2534.435055
437.071222	2537.938657
437.447614	2533.817514
437.823946	2536.479243
438.200218	2536.771630
438.576429	2537.729449
438.952580	2539.166178
439.328670	2537.114428
439.704700	2539.672814
440.080670	2537.457227
440.456580	2537.774819
440.832429	2541.159954
441.208218	2539.037628
441.583947	2541.313709
441.959616	2538.954449
442.335224	2541.066693
442.710773	2542.266488
443.086261	2541.820345
443.461689	2538.432690
443.837057	2541.757331
444.212365	2540.164326
444.587612	2539.413194
444.962800	2541.240613
445.337927	2541.228010
445.712995	2540.139121
446.088002	2538.974614
446.462949	2539.146013
446.837837	2540.938143
447.212664	2539.904707
447.587431	2542.702547
447.962139	2542.654656
448.336786	2542.752959
448.711374	2539.763555
449.085901	2543.801519
449.460369	2540.381096
449.834776	2545.056766
450.209124	2540.421425
450.583412	2542.165664
450.957640	2538.503266
451.331808	2542.669780
451.705917	2540.113915
452.079965	2541.780016
452.453954	2542.503422
452.827883	2542.155582
453.201752	2541.475026
453.575562	2542.989893
453.949311	2541.895963
454.323001	2542.014430
454.696632	2542.455531
455.070202	2539.715664
455.443713	2541.404450
455.817164	2541.364121
456.190556	2538.762886
456.563888	2542.526107
456.937160	2536.305323
457.310373	2542.725232
457.683526	2545.820501
458.056619	2542.783206
458.429653	2546.082641
458.802628	2542.339584
459.175542	2545.737322
459.548398	2544.008206
459.921194	2542.984852
460.293930	2544.119112
460.666607	2541.326312
461.039224	2549.482899
461.411782	2544.222455
461.784280	2543.788916
462.156719	2541.036446
462.529099	2545.949050
462.901419	2546.226314
463.273680	2543.325130
463.645882	2545.238248
464.018024	2545.286139
464.390106	2543.282280
464.762130	2545.886036
465.134094	2543.007537
465.505999	2545.969215
465.877845	2547.786551
466.249631	2547.209339
466.621358	2544.839997
466.993026	2550.055070
467.364634	2552.210163
467.736184	2545.346633
468.107674	2546.508618
468.479105	2542.793288
468.850477	2547.053063
469.221790	2546.291849
469.593043	2543.738504
469.964238	2545.487785
470.335373	2543.123484
470.706449	2546.359904
471.077467	2546.329657
471.448425	2547.531973
471.819324	2547.592467
472.190164	2547.317724
472.560945	2545.114739
472.931667	2546.606921
473.302330	2545.530635
473.672934	2544.935778
474.043479	2544.325799
474.413965	2543.738504
474.784393	2542.707588
475.154761	2545.490305
475.525070	2544.134235
475.895321	2542.407640
476.265513	2541.676673
476.635645	2547.597508
477.005719	2546.617003
477.375734	2545.449976
477.745691	2548.053732
478.115588	2549.944165
478.485427	2548.204967
478.855207	2548.459545
479.224928	2549.765204
479.594591	2549.843342
479.964194	2549.208156
480.333739	2548.358722
480.703226	2549.344268
481.072653	2548.315872
481.442022	2549.485420
481.811333	2549.122457
482.180584	2549.692107
482.549777	2551.017931
482.918912	2549.739998
483.287988	2551.464073
483.657005	2549.016592
484.025964	2548.794782
484.394864	2550.196223
484.763706	2551.338044
485.132489	2550.370142
485.501213	2549.576161
485.869879	2547.322765
486.238487	2548.953578
486.607036	2549.419885
486.975527	2548.386448
487.343959	2547.781510
487.712333	2547.758825
488.080648	2551.330482
488.448905	2548.504915
488.817104	2549.583722
489.185244	2551.529608
489.553326	2550.236552
489.921350	2548.535162
490.289315	2550.793599
490.657222	2549.664381
491.025070	2549.339226
491.392861	2551.895091
491.760593	2551.428785
492.128267	2551.632951
492.495883	2547.781510
492.863440	2550.014741
493.230939	2548.341078
493.598380	2550.768393
493.965763	2547.408464
494.333088	2550.027344
494.700354	2547.274874
495.067563	2551.559855
495.434713	2547.388300
495.801805	2550.312169
496.168839	2550.445760
496.535815	2548.436860
496.902733	2549.543393
497.269593	2551.234700
497.636395	2550.715461
498.003139	2550.208825
498.369825	2551.217056
498.736453	2551.506922
499.103023	2552.540359
499.469535	2550.443239
499.835989	2549.704710
500.202385	2554.488765
500.568723	2552.164793
500.935003	2551.461552
501.301226	2551.595143
501.667390	2552.883157
502.033497	2552.043805
502.399546	2554.793755
502.765537	2550.355019
503.131470	2549.692107
503.497345	2551.824515
503.863163	2554.335010
504.228923	2551.837118
504.594625	2550.798640
504.960269	2551.607746
505.325856	2553.160421
505.691385	2552.905843
506.056856	2554.216543
506.422270	2551.920297
506.787625	2552.961295
507.152924	2550.518856
507.518164	2556.099414
507.883347	2552.363919
508.248472	2553.543549
508.613540	2555.121430
508.978550	2551.305276
509.343503	2554.342572
509.708398	2554.824002
510.073236	2553.654454
510.438016	2551.350647
510.802738	2555.343241
511.167403	2551.895091
511.532010	2553.803168
511.896561	2555.212171
512.261053	2552.414330
512.625488	2552.595812
512.989866	2552.326110
513.354186	2553.518343
513.718449	2547.768907
514.082655	2551.562375
514.446803	2554.786193
514.810894	2557.286605
515.174927	2558.428427
515.538904	2556.570762
515.902822	2554.329969
516.266684	2556.096893
516.630488	2554.826522
516.994235	2557.059753
517.357925	2557.218550
517.721558	2558.279713
518.085133	2559.166956
518.448651	2556.905998
518.812112	2557.281564
519.175516	2557.382387
519.538863	2556.553117
519.902152	2559.161915
520.265385	2558.919939
520.628560	2561.770712
520.991678	2561.135526
521.354739	2561.248952
521.717743	2563.409087
522.080690	2560.323901
522.443580	2560.822975
522.806413	2562.121072
523.169189	2559.756771
523.531908	2564.687019
523.894569	2559.668551
524.257174	2563.338511
524.619722	2562.055537
524.982213	2563.519992
525.344647	2563.278017
525.707025	2562.973027
526.069345	2563.305743
526.431608	2566.486711
526.793815	2564.898748
527.155964	2565.720456
527.518057	2561.450598
527.880093	2564.586196
528.242072	2563.048644
528.603995	2568.876218
528.965860	2566.736248
529.327669	2567.575600
529.689421	2565.060065
530.051117	2567.258008
530.412755	2566.277503
530.774337	2567.341187
531.135862	2568.470405
531.497331	2566.821948
531.858743	2563.272976
532.220098	2564.654252
532.581396	2564.898748
532.942638	2562.962945
533.303824	2567.862946
533.664953	2568.427555
534.026025	2568.893862
534.387040	2570.512072
534.747999	2571.033832
535.108902	2571.154820
535.469748	2570.438976
535.830537	2571.442165
536.191270	2569.637432
536.551947	2570.469223
536.912567	2574.449214
537.273131	2570.086095
537.633638	2568.845971
537.994089	2573.516600
538.354483	2571.474933
538.714821	2571.162381
539.075103	2575.477609
539.435328	2573.972825
539.795497	2572.374779
540.155609	2575.807805
540.515665	2572.624316
540.875665	2573.365366
541.235609	2573.657753
541.595496	2576.115315
541.955328	2574.676066
542.315102	2573.622464
542.674821	2575.913669
543.034483	2574.116497
543.394090	2574.751683
543.753640	2575.459965
544.113134	2573.927454
544.472571	2573.498956
544.831953	2578.668659
545.191278	2574.103895
545.550548	2574.890315
545.909761	2578.041036
546.268918	2574.852506
546.628019	2576.863926
546.987064	2574.834862
547.346053	2579.026581
547.704986	2576.339646
548.063863	2576.480799
548.422684	2578.265367
548.781449	2578.623289
549.140158	2578.633371
549.498811	2582.751994
549.857408	2578.162023
550.215949	2574.043401
550.574434	2574.986097
550.932864	2577.007599
551.291237	2575.868298
551.649555	2578.741756
552.007817	2577.650346
552.366022	2577.892322
552.724173	2580.019689
553.082267	2580.052456
553.440305	2578.877867
553.798288	2577.831828
554.156215	2579.334092
554.514086	2578.895511
554.871902	2580.198650
555.229661	2580.309555
555.587365	2580.390213
555.945014	2579.848289
556.302606	2583.606470
556.660143	2580.274267
557.017625	2580.662436
557.375050	2579.387024
557.732421	2584.103023
558.089735	2581.043043
558.446994	2581.587487
558.804197	2582.174782
559.161345	2582.416757
559.518437	2583.414906
559.875474	2583.997159
560.232455	2584.914649
560.589381	2582.595718
560.946251	2589.229877
561.303065	2583.014134
561.659825	2585.048240
562.016528	2583.014134
562.373177	2585.680904
562.729770	2585.136460
563.086307	2586.038826
563.442789	2585.096131
563.799216	2587.757860
564.155587	2587.427664
564.511904	2588.163673
564.868164	2588.090576
565.224370	2589.484455
565.580520	2586.598394
565.936615	2590.969075
566.292654	2589.613004
566.648638	2590.590988
567.004567	2590.938828
567.360441	2593.802203
567.716260	2591.503437
568.072023	2592.481421
568.427732	2589.043354
568.783385	2590.966554
569.138982	2591.102665
569.494525	2593.514857
569.850013	2591.788262
570.205445	2598.714808
570.560823	2596.983171
570.916145	2600.827051
571.271412	2602.334356
571.626625	2603.766044
571.981782	2605.018771
572.336884	2603.677824
572.691931	2602.495673
573.046923	2605.878287
573.401860	2605.613627
573.756743	2606.422732
574.111570	2610.327106
574.466342	2610.400202
574.821059	2613.298866
575.175722	2614.150821
575.530330	2614.165944
575.884882	2615.895060
576.239380	2616.096706
576.593823	2619.260030
576.948211	2622.955196
577.302544	2621.011831
577.656823	2622.902264
578.011047	2625.211112
578.365216	2626.476442
578.719330	2628.266052
579.073389	2631.401649
579.427394	2629.483490
579.781344	2632.099849
580.135239	2635.154788
580.489080	2636.044552
580.842866	2642.061169
581.196597	2643.117291
581.550273	2646.590646
581.903895	2650.187509
582.257463	2651.271357
582.610975	2656.541883
582.964434	2655.793272
583.317837	2661.512461
583.671186	2660.594971
584.024481	2664.683347
584.377721	2668.275169
584.730906	2665.789880
585.084037	2673.701971
585.437113	2674.440500
585.790135	2679.864782
586.143103	2681.964422
586.496016	2684.721933
586.848874	2683.340657
587.201679	2692.054292
587.554428	2689.972295
587.907124	2700.382278
588.259765	2699.671475
588.612352	2711.828218
588.964884	2710.399051
589.317362	2718.038919
589.669786	2723.024620
590.022155	2725.956051
590.374470	2733.036352
590.726731	2733.520303
591.078937	2737.046590
591.431090	2744.000862
591.783188	2742.576736
592.135232	2753.233735
592.487222	2755.421596
592.839157	2761.186155
593.191038	2764.195724
593.542866	2768.763009
593.894639	2772.054883
594.246358	2777.532096
594.598022	2786.848149
594.949633	2786.102058
595.301190	2793.779735
595.652692	2798.982206
596.004141	2812.757159
596.355535	2806.770789
596.706876	2813.261274
597.058162	2818.294866
597.409395	2827.033707
597.760573	2836.954697
598.111698	2837.363031
598.462768	2848.549351
598.813785	2849.698734
599.164748	2860.643079
599.515657	2863.075436
599.866511	2870.538864
600.217312	2880.865668
600.568060	2882.826677
600.918753	2897.899727
601.269392	2903.530696
601.619978	2910.061510
601.970510	2922.283788
602.320988	2930.107659
602.671412	2946.072993
603.021783	2947.960905
603.372100	2953.879220
603.722363	2965.511682
604.072572	2972.531489
604.422728	2983.120433
604.772830	2985.807368
605.122878	2996.313132
605.472872	3002.899400
605.822813	3020.324148
606.172701	3025.025024
606.522534	3042.911038
606.872314	3056.839746
607.222041	3064.076322
607.571714	3079.560226
607.921333	3087.195054
608.270899	3099.366920
608.620411	3117.426853
608.969870	3126.594192
609.319276	3135.212044
609.668627	3152.777945
610.017926	3172.357786
610.367171	3190.836136
610.716362	3199.305274
611.065500	3215.033674
611.414585	3230.935994
611.763616	3239.662231
612.112594	3251.743356
612.461518	3269.001747
612.810389	3287.565796
613.159207	3296.896971
613.507971	3306.729742
613.856682	3336.555729
614.205340	3343.787264
614.553945	3370.820451
614.902496	3373.356152
615.250994	3395.181827
615.599439	3409.057603
615.947830	3429.136519
616.296169	3443.150927
616.644454	3462.876962
616.992686	3476.528406
617.340864	3507.360103
617.688990	3504.378261
618.037063	3536.737427
618.385082	3549.524314
618.733048	3582.180909
619.080961	3586.904470
619.428821	3609.564456
619.776628	3627.750419
620.124382	3635.055051
620.472083	3652.620951
620.819731	3667.812468
621.167326	3666.360616
621.514868	3680.001978
621.862357	3670.023014
622.209793	3688.503884
622.557176	3693.779452
622.904506	3701.366388
623.251783	3697.368753
623.599007	3705.686657
623.946179	3718.982701
624.293297	3731.336048
624.640363	3724.152404
624.987376	3740.611771
625.334336	3739.999271
625.681243	3752.571909
626.028097	3760.791510
626.374899	3770.629322
626.721647	3794.852066
627.068343	3786.239255
627.414987	3798.572438
627.761577	3803.059064
628.108115	3823.291735
628.454600	3817.166733
628.801032	3852.948843
629.147412	3852.235520
629.493739	3868.427706
629.840014	3867.232953
630.186236	3898.914084
630.532405	3882.593349
630.878521	3912.880601
631.224585	3923.832508
631.570597	3906.599323
631.916556	3938.466977
632.262462	3953.217393
632.608316	3959.511274
632.954117	3966.468066
633.299866	3975.199345
633.645562	3990.607632
633.991206	3979.869974
634.336797	3974.823779
634.682336	3971.995692
635.027823	3979.517093
635.373257	3986.216787
635.718639	3977.515755
636.063968	3996.725072
636.409245	3973.863439
636.754470	3990.065707
637.099642	3985.306858
637.444762	3981.914162
637.789829	3998.912932
638.134845	3995.734485
638.479808	4006.068850
638.824719	4017.860109
639.169577	4003.260928
639.514383	4027.708003
639.859137	4012.692927
640.203839	4029.555586
640.548489	4042.528996
640.893086	4041.500600
641.237632	4044.570663
641.582125	4065.037747
641.926566	4068.677461
642.270955	4090.533383
642.615292	4101.835650
642.959576	4121.894401
643.303809	4126.365905
643.647990	4149.048576
643.992118	4150.606293
644.336195	4140.881907
644.680219	4168.429292
645.024192	4168.212523
645.368112	4231.237028
645.711981	4252.548506
646.055797	4294.964774
646.399562	4296.885454
646.743274	4366.889437
647.086935	4404.826640
647.430544	4417.064041
647.774101	4446.020429
648.117606	4454.983600
648.461059	4469.464315
648.804460	4469.418944
649.147810	4435.514664
649.491108	4436.568265
649.834354	4433.677164
650.177548	4410.220675
650.520690	4379.817476
650.863781	4385.430801
651.206820	4408.365530
651.549807	4381.854102
651.892742	4369.024366
652.235626	4379.555336
652.578458	4384.959453
652.921238	4353.235472
653.263967	4385.952560
653.606644	4359.143704
653.949269	4378.935274
654.291843	4354.667159
654.634365	4393.688211
654.976836	4381.717991
655.319255	4389.120925
655.661622	4395.127460
656.003938	4406.817896
656.346203	4385.040111
656.688416	4421.747273
657.030577	4402.169952
657.372687	4397.721134
657.714746	4401.776742
658.056753	4437.100107
658.398708	4415.130759
658.740612	4415.405502
659.082465	4457.242037
659.424266	4457.758756
659.766016	4468.947597
660.107715	4467.687308
660.449362	4487.005010
660.790958	4492.782172
661.132503	4500.873224
661.473996	4534.427144
661.815438	4531.377246
662.156829	4538.860839
662.498168	4548.265111
662.839456	4534.021331
663.180693	4571.421651
663.521879	4580.841047
663.863013	4583.046552
664.204097	4609.164770
664.545129	4641.334893
664.886110	4648.137931
665.227040	4689.046894
665.567918	4664.166279
665.908746	4697.601732
666.249522	4709.191345
666.590248	4706.015418
666.930922	4730.699428
667.271545	4753.616513
667.612118	4765.049850
667.952639	4754.838993
668.293109	4780.863950
668.633528	4760.517853
668.973896	4771.472280
669.314213	4777.118372
669.654480	4778.844967
669.994695	4780.022077
670.334859	4785.721101
670.674973	4795.347185
671.015035	4802.616528
671.355047	4815.884845
671.695008	4816.474660
672.034918	4798.744922
672.374777	4815.037932
672.714585	4815.133713
673.054342	4825.175692
673.394049	4834.642979
673.733705	4861.376218
674.073310	4866.445098
674.412864	4838.965768
674.752368	4846.038507
675.091820	4857.134087
675.431223	4820.731915
675.770574	4828.684335
676.109875	4801.830108
676.449125	4819.582532
676.788324	4800.882372
677.127473	4768.692084
677.466571	4771.860449
677.805619	4774.756592
678.144616	4773.395480
678.483562	4767.414151
678.822458	4753.235906
679.161303	4754.332357
679.500098	4751.715998
679.838842	4745.822889
680.177535	4758.990383
680.516179	4775.943783
680.854771	4791.178150
681.193314	4859.339592
681.531805	4941.149957
681.870247	5058.810488
682.208638	5136.343434
682.546978	5154.126104
682.885268	5146.362727
683.223508	5090.211835
683.561697	5056.299993
683.899836	5039.938928
684.237925	5016.810114
684.575963	4988.930013
684.913951	4961.591836
685.251889	5022.357904
685.589776	4993.726671
685.927614	4975.754957
686.265401	5037.035223
686.603137	5026.733626
686.940824	5090.214355
687.278460	5113.930464
687.616046	5117.451710
687.953582	5174.915822
688.291068	5162.423843
688.628504	5219.348552
688.965889	5190.732443
689.303224	5152.223068
689.640510	5127.506291
689.977745	5074.397735
690.314930	5006.972303
690.652065	4967.376560
690.989150	4902.474224
691.326185	4853.501935
691.663170	4821.286442
692.000105	4762.332668
692.336990	4705.838977
692.673825	4694.844221
693.010610	4644.014267
693.347345	4591.162810
693.684030	4588.722891
694.020665	4558.203746
694.357251	4488.159434
694.693786	4504.288606
695.030272	4481.174915
695.366707	4455.810350
695.703093	4426.352367
696.039429	4449.524031
696.375716	4440.341569
696.711952	4422.798354
697.048139	4410.200510
697.384276	4397.156525
697.720363	4413.222682
698.056400	4421.583436
698.392388	4381.135738
698.728326	4364.416751
699.064214	4354.369731
699.400053	4351.788661
699.735842	4327.490299
700.071581	4309.586641
700.407270	4294.218684
700.742910	4277.771919
701.078501	4237.084767
701.414042	4240.724480
701.749533	4217.295717
702.084974	4164.764373
702.420366	4217.565419
702.755709	4168.762008
703.091002	4123.331130
703.426246	4168.008356
703.761440	4132.357316
704.096584	4102.269189
704.431679	4124.372128
704.766725	4112.122124
705.101721	4104.580558
705.436668	4130.711379
705.771565	4086.550872
706.106413	4115.237558
706.441212	4148.662928
706.775961	4156.675842
707.110661	4141.645642
707.445311	4164.721524
707.779913	4188.931665
708.114465	4203.029252
708.448967	4221.810070
708.783421	4280.592445
709.117825	4315.603258
709.452180	4325.012572
709.786485	4362.846432
710.120742	4438.879634
710.454949	4423.672994
710.789107	4483.115759
711.123216	4545.242939
711.457275	4533.454201
711.791286	4603.884162
712.125247	4619.673055
712.459159	4527.724930
712.793023	4604.673102
713.126837	4569.329573
713.460602	4567.038368
713.794318	4498.947503
714.127985	4507.933360
714.461602	4439.318215
714.795171	4413.326026
715.128691	4358.463148
715.462162	4313.228875
715.795584	4269.517030
716.128957	4258.456738
716.462281	4212.746076
716.795556	4189.632385
717.128782	4159.564423
717.461960	4101.427317
717.795088	4105.379581
718.128167	4076.224068
718.461198	4020.809184
718.794180	4019.644678
719.127113	4003.384436
719.459997	3980.880725
719.792833	3944.009726
720.125619	3933.811472
720.458357	3902.001791
720.791046	3914.665169
721.123686	3885.804564
721.456278	3848.648739
721.788821	3869.435937
722.121315	3839.919981
722.453761	3818.003565
722.786158	3831.851615
723.118506	3852.570757
723.450805	3810.497287
723.783056	3831.415555
724.115259	3845.929037
724.447412	3854.446066
724.779518	3842.765713
725.111574	3852.142259
725.443582	3877.564798
725.775542	3862.804299
726.107453	3910.589397
726.439315	3912.590735
726.771129	3925.357457
727.102895	3962.813230
727.434612	4005.221937
727.766281	4015.515973
728.097901	4014.013709
728.429473	4020.244575
728.760996	4026.775390
729.092471	4024.524515
729.423897	4011.851054
729.755276	4019.755583
730.086606	4020.166437
730.417887	4056.487951
730.749120	4117.432980
731.080305	4182.657949
731.411442	4203.689643
731.742530	4178.093184
732.073570	4183.761962
732.404562	4235.383377
732.735506	4225.908528
733.066401	4194.275288
733.397249	4132.374960
733.728048	4064.999939
734.058798	3983.819718
734.389501	3918.577105
734.720156	3861.055019
735.050762	3823.722754
735.381320	3816.871826
735.711831	3765.872993
736.042293	3739.762337
736.372707	3764.103548
736.703073	3736.921647
737.033391	3728.858321
737.363661	3746.411619
737.693883	3769.333745
738.024056	3775.647790
738.354182	3774.427831
738.684260	3832.864887
739.014290	3850.897094
739.344272	3845.981969
739.674207	3888.236920
740.004093	3890.954102
740.333931	3887.437897
740.663722	3886.258267
740.993464	3887.178278
741.323159	3865.755895
741.652806	3838.679858
741.982405	3811.439983
742.311956	3784.757155
742.641460	3775.234416
742.970915	3749.998400
743.300323	3713.374417
743.629683	3685.927855
743.958996	3670.998478
744.288260	3651.257319
744.617477	3616.763224
744.946647	3607.482460
745.275768	3581.197884
745.604842	3577.538006
745.933869	3533.190976
746.262847	3527.744009
746.591778	3562.790110
746.920662	3534.529402
747.249498	3506.409846
747.578286	3552.049932
747.907027	3567.899320
748.235720	3562.296077
748.564365	3587.859768
748.892963	3585.530755
749.221514	3571.218920
749.550017	3549.801577
749.878473	3546.605486
750.206881	3517.404602
750.535242	3515.327647
750.863555	3519.383255
751.191821	3512.882687
751.520039	3498.706963
751.848210	3473.924650
752.176334	3509.805063
752.504411	3514.281607
752.832440	3473.556646
753.160421	3459.975778
753.488356	3469.727890
753.816243	3476.543530
754.144082	3435.392591
754.471875	3423.119902
754.799620	3442.309054
755.127318	3434.964093
755.454969	3434.467539
755.782572	3438.911316
756.110129	3416.614293
756.437638	3409.246647
756.765100	3418.902977
757.092515	3431.334462
757.419882	3434.936367
757.747203	3411.931061
758.074477	3411.822676
758.401703	3430.732044
758.728882	3449.475054
759.056014	3455.375725
759.383099	3457.709779
759.710138	3453.833132
760.037129	3472.800473
760.364073	3503.750637
760.690970	3486.290601
761.017820	3466.062971
761.344623	3480.808346
761.671379	3528.860624
761.998088	3579.365424
762.324751	3704.214640
762.651366	3945.201959
762.977935	4406.427207
763.304456	4832.777752
763.630931	4914.323457
763.957359	4564.900919
764.283740	4233.974375
764.610074	4051.494688
764.936362	3863.978888
765.262602	3705.981565
765.588796	3599.877879
765.914943	3514.800846
766.241044	3428.440840
766.567097	3400.946387
766.893104	3359.049357
767.219064	3327.476611
767.544978	3299.248670
767.870845	3246.288828
768.196665	3227.969275
768.522438	3238.417066
768.848165	3233.297774
769.173846	3197.102290
769.499479	3181.469672
769.825066	3162.691374
770.150607	3149.213849
770.476101	3167.407373
770.801548	3162.749347
771.126949	3115.221348
771.452303	3100.128134
771.777611	3106.278342
772.102872	3109.736573
772.428087	3088.772935
772.753256	3077.710123
773.078378	3070.176118
773.403453	3036.599513
773.728482	3025.587113
774.053465	3047.695093
774.378401	3036.912065
774.703291	3002.468381
775.028135	3006.362672
775.352932	2999.179028
775.677683	2989.908346
776.002388	2982.518015
776.327046	2987.352481
776.651658	2976.899649
776.976224	2963.648976
777.300743	2962.915488
777.625216	2956.815692
777.949643	2950.494085
778.274024	2953.173458
778.598359	2942.985286
778.922647	2949.337140
779.246889	2948.938889
779.571086	2930.727721
779.895236	2921.782193
780.219339	2936.640994
780.543397	2951.088941
780.867409	2951.759414
781.191374	2946.183898
781.515294	2942.481171
781.839167	2940.968825
782.162995	2935.453802
782.486776	2945.218517
782.810511	2942.458486
783.134201	2929.066660
783.457844	2932.701332
783.781441	2924.113727
784.104993	2907.742580
784.428498	2906.767116
784.751958	2920.466452
785.075372	2912.065369
785.398739	2897.304871
785.722061	2916.899836
786.045337	2924.501896
786.368568	2909.285173
786.691752	2903.661766
787.014891	2952.094651
787.337983	2978.457365
787.661030	3003.277486
787.984031	3071.910275
788.306987	3115.443159
788.629897	3109.834876
788.952760	3090.930549
789.275579	3080.051739
789.598351	3020.644261
789.921078	2974.056438
790.243759	2968.785912
790.566395	2950.511729
790.888984	2927.574479
791.211529	2910.807601
791.534027	2900.959707
791.856480	2891.709190
792.178888	2876.449617
792.501249	2872.550285
792.823566	2869.754965
793.145836	2864.096270
793.468062	2858.326669
793.790241	2856.549662
794.112375	2863.614839
794.434464	2876.263094
794.756507	2883.083776
795.078505	2886.809188
795.400457	2899.860736
795.722364	2936.071344
796.044226	2959.973975
796.366042	2961.786269
796.687812	2952.157666
797.009538	2969.748772
797.331218	2958.489355
797.652852	2944.588373
797.974442	2929.104469
798.295986	2924.368305
798.617484	2921.260434
798.938938	2904.911972
799.260346	2888.059394
799.581709	2883.855072
799.903026	2879.002962
800.224299	2872.457023
800.545526	2862.213399
800.866708	2848.138497
801.187845	2835.187773
801.508936	2836.097701
801.829983	2846.676562
802.150984	2832.019408
802.471940	2819.477017
802.792851	2821.574137
803.113717	2820.659167
803.434538	2827.184941
803.755314	2819.119095
804.076045	2811.819504
804.396731	2812.303455
804.717372	2813.203301
805.037967	2806.609472
805.358518	2813.273877
805.679024	2829.702997
805.999485	2820.555824
806.319901	2825.412976
806.640272	2813.563743
806.960598	2821.637151
807.280879	2830.325580
807.601115	2839.571056
807.921306	2824.833243
808.241453	2820.197902
808.561554	2828.916577
808.881611	2829.110662
809.201623	2827.873059
809.521590	2825.264262
809.841513	2819.071204
810.161390	2823.330979
810.481223	2819.219918
810.801011	2805.603762
811.120755	2806.110397
811.440453	2809.369503
811.760107	2808.136941
812.079716	2803.554532
812.399281	2794.606484
812.718801	2787.813530
813.038276	2782.951337
813.357707	2789.764456
813.677093	2799.551856
813.996434	2793.295784
814.315731	2785.981070
814.634983	2783.785648
814.954191	2784.970319
815.273354	2798.394912
815.592473	2805.197949
815.911547	2808.020995
816.230577	2813.939309
816.549562	2823.724189
816.868502	2823.008345
817.187399	2833.955211
817.506250	2850.243179
817.825058	2840.042404
818.143821	2854.588653
818.462539	2870.155737
818.781213	2898.207237
819.099843	2932.892896
819.418429	2990.636793
819.736970	3046.765000
820.055466	3117.641102
820.373919	3222.610528
820.692327	3355.424768
821.010691	3519.113553
821.329011	3947.064665
821.647286	4821.533458
821.965517	6156.224309
822.283704	6858.527616
822.601847	6826.909499
822.919945	6209.589964
823.237999	5727.534669
823.556010	5169.521788
823.873976	4639.268020
824.191897	4246.604986
824.509775	3960.887509
824.827609	3699.843960
825.145398	3581.417174
825.463144	3574.566246
825.780845	3665.589320
826.098502	3769.568159
826.416116	4043.471691
826.733685	4345.560315
827.051210	4401.330600
827.368692	4291.619969
827.686129	4032.660937
828.003522	3718.365159
828.320872	3467.976089
828.638177	3280.818211
828.955439	3148.717295
829.272656	3070.077816
829.589830	3004.104235
829.906960	2956.011628
830.224046	2914.316244
830.541088	2879.933054
830.858086	2864.093749
831.175041	2848.957685
831.491952	2850.901049
831.808819	2861.328676
832.125642	2886.768859
832.442421	2928.086156
832.759157	3008.958867
833.075849	3177.635874
833.392497	3455.577371
833.709101	3650.738080
834.025662	3595.154318
834.342179	3442.309054
834.658653	3270.766150
834.975083	3127.380612
835.291469	3035.979451
835.607811	2953.722944
835.924110	2899.371744
836.240366	2848.488857
836.556578	2807.206848
836.872746	2784.579629
837.188871	2764.805703
837.504952	2750.425812
837.820990	2741.447517
838.136984	2729.628532
838.452935	2721.507233
838.768842	2717.960781
839.084706	2736.209758
839.400526	2813.009217
839.716303	2941.861109
840.032037	3015.580422
840.347727	3002.758247
840.663373	2945.762962
840.978977	2872.888042
841.294537	2799.997998
841.610054	2755.711462
841.925527	2733.212792
842.240957	2713.701006
842.556344	2690.932635
842.871687	2678.065090
843.186987	2669.023780
843.502244	2665.242915
843.817458	2658.588592
844.132629	2647.205667
844.447756	2639.192752
844.762840	2633.947432
845.077881	2634.708646
845.392879	2636.107566
845.707833	2632.026752
846.022745	2622.103241
846.337613	2626.501648
846.652438	2624.129785
846.967221	2626.486524
847.281960	2620.885802
847.596656	2618.496295
847.911309	2621.765484
848.225919	2618.163579
848.540485	2615.239710
848.855009	2611.897425
849.169490	2614.460852
849.483928	2614.881788
849.798323	2611.405912
850.112675	2612.923300
850.426984	2615.083434
850.741251	2610.206118
851.055474	2609.533124
851.369654	2614.481016
851.683792	2615.360698
851.997887	2612.572940
852.311938	2613.283742
852.625947	2615.022940
852.939914	2617.934207
853.253837	2615.232148
853.567718	2613.790378
853.881555	2610.417846
854.195350	2615.254833
854.509103	2611.486571
854.822812	2610.624534
855.136479	2609.386930
855.450103	2614.423043
855.763685	2617.535956
856.077224	2614.198712
856.390720	2610.248968
856.704173	2612.267950
857.017584	2617.099896
857.330953	2616.101747
857.644278	2619.922942
857.957561	2621.977212
858.270802	2615.574947
858.584000	2613.966819
858.897155	2618.783641
859.210268	2620.323714
859.523339	2614.322220
859.836367	2608.653443
860.149352	2610.130501
860.462295	2612.993876
860.775195	2609.754935
861.088054	2607.735952
861.400869	2606.831065
861.713642	2607.652773
862.026373	2604.028184
862.339062	2609.369286
862.651708	2615.602673
862.964312	2614.591922
863.276873	2613.470265
863.589392	2614.806171
863.901869	2620.253137
864.214303	2625.085083
864.526696	2629.181021
864.839045	2629.478449
865.151353	2631.005919
865.463619	2628.661782
865.775842	2630.844602
866.088023	2629.259159
866.400162	2633.047586
866.712258	2631.666310
867.024313	2629.072636
867.336325	2625.032151
867.648296	2627.744292
867.960224	2632.702267
868.272110	2632.336783
868.583954	2628.003912
868.895755	2628.097173
869.207515	2634.040693
869.519233	2638.938174
869.830909	2636.707464
870.142542	2630.244704
870.454134	2628.165228
870.765684	2637.884573
871.077191	2638.408853
871.388657	2643.336581
871.700081	2639.114615
872.011463	2640.503452
872.322803	2640.833648
872.634101	2645.214411
872.945357	2650.600884
873.256571	2657.832419
873.567744	2653.854948
873.878874	2652.750936
874.189963	2655.044661
874.501010	2660.151350
874.812015	2664.396001
875.122979	2660.867193
875.433900	2653.494506
875.744780	2653.514671
876.055618	2657.595485
876.366415	2662.364416
876.677169	2664.451454
876.987882	2655.972233
877.298554	2654.732109
877.609183	2667.665189
877.919771	2671.577125
878.230317	2677.566016
878.540822	2688.235618
878.851285	2705.720860
879.161707	2725.381360
879.472087	2762.577513
879.782425	2807.015285
880.092722	2914.406985
880.402977	3095.696960
880.713191	3343.794826
881.023363	3617.683235
881.333494	3798.877427
881.643583	3963.239207
881.953631	3961.873055
882.263637	3790.062970
882.573602	3577.951381
882.883526	3456.487299
883.193408	3347.888243
883.503248	3249.444590
883.813048	3139.877632
884.122806	3032.793442
884.432522	2954.703448
884.742197	2892.309087
885.051831	2858.427492
885.361424	2825.750733
885.670975	2792.365692
885.980485	2761.609612
886.289954	2743.456417
886.599382	2734.541136
886.908768	2722.875906
887.218113	2703.989223
887.527417	2689.629497
887.836680	2682.902077
888.145901	2677.553413
888.455082	2671.093174
888.764221	2660.136226
889.073319	2653.469300
889.382376	2653.071049
889.691392	2651.021820
890.000366	2652.650113
890.309300	2652.831594
890.618193	2652.342602
890.927044	2655.818478
891.235855	2657.514826
891.544625	2655.979795
891.853353	2656.589774
892.162041	2663.846515
892.470687	2683.801923
892.779293	2690.607481
893.087858	2704.395036
893.396381	2722.462532
893.704864	2760.886206
894.013306	2826.958089
894.321707	2918.157603
894.630068	2963.167546
894.938387	2980.773775
895.246665	2970.308340
895.554903	2932.156888
895.863100	2892.818244
896.171256	2836.642146
896.479371	2776.213835
896.787446	2744.048752
897.095480	2724.211812
897.403473	2719.183261
897.711425	2705.867053
898.019336	2689.143025
898.327207	2673.497804
898.635038	2673.409584
898.942827	2672.240037
899.250576	2664.522030
899.558284	2651.783034
899.865952	2647.954278
900.173579	2646.585605
900.481165	2644.276756
900.788711	2634.111269
901.096216	2628.525671
901.403681	2627.620784
901.711105	2627.625825
902.018489	2623.088787
902.325832	2630.148922
902.633135	2632.982051
902.940397	2644.664925
903.247619	2679.378310
903.554800	2747.131418
903.861941	2865.590972
904.169041	2981.540031
904.476101	3041.212169
904.783121	3032.518699
905.090100	2979.737818
905.397039	2907.664442
905.703938	2842.494925
906.010796	2780.602159
906.317614	2732.058368
906.624391	2700.226002
906.931129	2674.432938
907.237826	2655.059784
907.544483	2634.138996
907.851099	2621.785648
908.157675	2616.197529
908.464211	2606.611775
908.770707	2599.130703
909.077163	2592.370516
909.383578	2590.505289
909.689954	2593.391349
909.996289	2588.524115
910.302584	2585.696028
910.608839	2585.322982
910.915054	2586.958837
911.221229	2588.309866
911.527363	2589.973447
911.833458	2588.629979
912.139513	2590.258272
912.445527	2591.417737
912.751502	2595.095259
913.057436	2601.091712
913.363331	2605.840479
913.669186	2616.321037
913.975000	2631.462143
914.280775	2645.010244
914.586510	2660.264776
914.892205	2694.612677
915.197859	2759.116761
915.503475	2839.127435
915.809050	2897.330076
916.114585	2907.576222
916.420081	2920.569796
916.725536	2931.521702
917.030952	2908.029925
917.336328	2863.075436
917.641665	2816.585915
917.946961	2770.671086
918.252218	2738.942064
918.557435	2713.781665
918.862612	2693.173428
919.167750	2679.501819
919.472848	2664.665703
919.777906	2649.181799
920.082925	2638.807104
920.387904	2625.853859
920.692843	2623.620628
920.997743	2621.132819
921.302603	2614.937241
921.607423	2608.721498
921.912204	2602.324274
922.216946	2596.983171
922.521647	2600.441403
922.826310	2591.085021
923.130932	2590.752305
923.435516	2583.140163
923.740059	2581.726119
924.044564	2582.169741
924.349028	2579.944071
924.653454	2573.360324
924.957840	2571.548030
925.262186	2564.293809
925.566493	2570.842268
925.870761	2565.796073
926.174989	2566.466547
926.479178	2567.295816
926.783328	2563.822461
927.087438	2563.119220
927.391509	2561.634601
927.695541	2560.815413
927.999533	2559.209806
928.303486	2556.699311
928.607400	2559.681153
928.911275	2554.077911
929.215110	2555.766697
929.518906	2554.738302
929.822663	2555.799465
930.126381	2555.865000
930.430060	2554.582026
930.733699	2557.485731
931.037299	2556.318704
931.340861	2557.400031
931.644383	2560.018911
931.947866	2561.241391
932.251309	2558.493962
932.554714	2557.599157
932.858080	2557.972202
933.161407	2558.665361
933.464694	2555.650751
933.767943	2554.105637
934.071153	2556.137222
934.374323	2554.168652
934.677455	2555.948179
934.980548	2557.841132
935.283602	2554.322407
935.586617	2554.191337
935.889593	2555.370967
936.192530	2551.764021
936.495428	2551.774104
936.798287	2555.393652
937.101108	2557.563869
937.403890	2559.098900
937.706632	2560.709549
938.009336	2565.947308
938.312002	2569.468554
938.614628	2571.101887
938.917216	2574.592887
939.219765	2577.708320
939.522275	2575.059193
939.824747	2579.361818
940.127179	2570.507031
940.429573	2568.664490
940.731929	2566.826989
941.034246	2565.302040
941.336524	2565.859087
941.638763	2566.365723
941.940964	2568.394788
942.243126	2564.780281
942.545250	2564.656772
942.847335	2564.881104
943.149381	2562.758778
943.451389	2561.145609
943.753359	2561.437996
944.055290	2558.914898
944.357182	2558.831719
944.659036	2557.674774
944.960851	2558.466235
945.262628	2558.882131
945.564367	2556.787531
945.866067	2557.652089
946.167729	2558.577141
946.469352	2557.785680
946.770937	2556.694270
947.072484	2556.921122
947.373992	2553.891388
947.675462	2556.658982
947.976893	2557.349620
948.278286	2555.595298
948.579641	2556.235525
948.880958	2554.680329
949.182236	2556.071687
949.483476	2554.312325
949.784678	2555.562531
950.085841	2555.454146
950.386967	2555.512119
950.688054	2555.232335
950.989103	2555.189485
951.290114	2557.631924
951.591087	2560.407080
951.892021	2558.491441
952.192917	2556.822819
952.493776	2561.034703
952.794596	2563.126782
953.095378	2559.660989
953.396122	2561.415310
953.696828	2561.251473
953.997496	2560.374312
954.298126	2558.496482
954.598718	2555.683518
954.899272	2557.331976
955.199788	2555.396173
955.500266	2554.748384
955.800706	2546.874102
956.101108	2547.957950
956.401472	2552.074052
956.701798	2548.089020
957.002087	2547.113557
957.302337	2549.344267
957.602550	2547.842004
957.902724	2546.632127
958.202861	2546.521221
958.502960	2547.345450
958.803022	2545.467620
959.103045	2544.731612
959.403031	2545.664225
959.702979	2543.660367
960.002889	2543.093237
960.302762	2545.949050
960.602596	2543.839327
960.902393	2543.962836
961.202153	2542.458051
961.501875	2543.617517
961.801559	2542.737835
962.101205	2541.717002
962.400814	2542.926879
962.700385	2543.073072
962.999918	2543.037784
963.299414	2540.902855
963.598873	2545.477703
963.898293	2543.829245
964.197677	2543.307486
964.497022	2541.737166
964.796331	2542.309337
965.095601	2540.310520
965.394835	2543.816642
965.694030	2543.050387
965.993189	2545.306303
966.292309	2540.335726
966.591393	2541.210366
966.890439	2542.059800
967.189447	2543.405788
967.488419	2540.628112
967.787353	2541.984183
968.086249	2541.659028
968.385108	2541.880839
968.683930	2541.956457
968.982714	2541.180119
969.281462	2542.079965
969.580172	2544.124153
969.878844	2540.184491
970.177480	2544.466951
970.476078	2542.556354
970.774639	2541.538041
971.073162	2542.052238
971.371649	2542.513504
971.670098	2540.098791
971.968510	2537.714326
972.266885	2537.726928
972.565223	2543.272198
972.863524	2543.395706
973.161788	2541.124666
973.460014	2542.269008
973.758204	2542.838658
974.056356	2544.802188
974.354471	2546.216232
974.652550	2544.167002
974.950591	2541.263298
975.248595	2542.412681
975.546563	2540.781868
975.844493	2542.730274
976.142386	2542.949564
976.440243	2541.616179
976.738062	2541.812784
977.035845	2539.798843
977.333590	2541.863195
977.631299	2542.581560
977.928971	2540.179450
978.226606	2540.542413
978.524204	2543.264636
978.821765	2544.167002
979.119290	2541.469985
979.416777	2541.109543
979.714228	2541.593493
980.011642	2540.565098
980.309020	2543.214224
980.606360	2538.556198
980.903664	2544.018288
981.200931	2545.180274
981.498162	2543.831766
981.795356	2544.590459
982.092513	2548.416695
982.389633	2548.630944
982.686717	2551.885009
982.983764	2552.157231
983.280775	2554.972716
983.577749	2555.562531
983.874686	2553.672098
984.171587	2556.664023
984.468451	2548.935934
984.765279	2548.661191
985.062070	2548.774617
985.358824	2545.727240
985.655543	2545.928886
985.952224	2543.209183
986.248869	2544.146838
986.545478	2535.612164
986.842050	2538.420087
987.138586	2537.890766
987.435086	2539.708102
987.731549	2536.239788
988.027975	2542.034594
988.324366	2539.655170
988.620719	2538.906558
988.917037	2539.592155
989.213318	2539.824048
989.509563	2541.321271
989.805772	2543.730943
990.101944	2539.650129
990.398080	2540.441590
990.694180	2536.988399
990.990244	2541.026364
991.286271	2539.788760
991.582262	2539.516538
991.878217	2538.223482
992.174136	2539.173740
992.470019	2536.895138
992.765865	2537.749614
993.061676	2539.322454
993.357450	2541.225489
993.653188	2536.441434
993.948890	2538.299099
994.244556	2538.863709
994.540186	2540.877650
994.835780	2538.359593
995.131337	2539.370345
995.426859	2540.779347
995.722345	2540.663401
996.017795	2540.590304
996.313208	2545.666746
996.608586	2543.022661
996.903928	2543.123484
997.199234	2542.059800
997.494504	2544.517363
997.789738	2540.653318
998.084936	2542.246323
998.380099	2541.422094
998.675225	2540.907897
998.970316	2541.462423
999.265371	2539.118287
999.560390	2542.090047
999.855373	2540.837320
1000.150320	2539.352701
1000.445232	2540.716333
1000.740108	2537.830272
1001.034948	2539.340098
1001.329752	2537.792463
1001.624521	2539.151054
1001.919254	2536.146527
1002.213951	2534.112421
1002.508613	2535.544109
1002.803239	2535.859181
1003.097829	2535.090405
1003.392384	2539.463606
1003.686903	2536.383461
1003.981386	2539.519059
1004.275834	2538.568801
1004.570246	2538.140303
1004.864623	2538.412525
1005.158964	2535.128214
1005.453270	2539.655170
1005.747540	2533.991433
1006.041775	2540.098791
1006.335974	2538.427649
1006.630138	2537.991589
1006.924266	2539.635005
1007.218359	2538.631816
1007.512416	2538.772968
1007.806438	2537.263142
1008.100425	2536.985879
1008.394376	2537.563091
1008.688292	2537.580735
1008.982172	2539.892104
1009.276017	2536.391023
1009.569827	2537.752134
1009.863602	2537.613502
1010.157341	2537.061496
1010.451045	2537.351363
1010.744714	2538.258770
1011.038347	2538.188194
1011.331945	2534.165353
1011.625508	2536.413708
1011.919036	2537.442103
1012.212528	2537.913451
1012.505986	2537.686599
1012.799408	2536.640560
1013.092795	2534.624098
1013.386147	2535.407998
1013.679464	2537.865560
1013.972745	2539.738349
1014.265992	2536.837165
1014.559204	2539.791281
1014.852380	2536.199459
1015.145521	2537.091743
1015.438628	2534.956814
1015.731699	2539.357742
1016.024736	2538.372196
1016.317737	2537.172402
1016.610703	2538.750283
1016.903635	2534.760209
1017.196531	2535.019829
1017.489393	2535.244160
1017.782219	2531.889272
1018.075011	2533.820034
1018.367768	2536.632998
1018.660490	2538.798174
1018.953177	2538.798174
1019.245829	2538.798174
