Dividing Wavelength (nm)	Counts (n)	Blue Motor Position (mm): 22.300000	Red Motor Position (mm): 0.000000	
326.493990	2133.779271
326.888308	2133.779271
327.282561	2133.779271
327.676750	2099.690988
328.070874	2100.578232
328.464933	2103.295413
328.858929	2111.119284
329.252859	2120.304267
329.646726	2130.505041
330.040528	2142.442494
330.434265	2161.392191
330.827938	2178.648061
331.221547	2194.056347
331.615091	2214.399924
332.008571	2234.035218
332.401986	2253.814185
332.795338	2273.252874
333.188625	2291.532098
333.581847	2309.040025
333.975006	2329.466781
334.368100	2347.438494
334.761129	2365.659745
335.154095	2383.651623
335.546996	2401.063768
335.939833	2422.655030
336.332606	2441.067845
336.725315	2452.604525
337.117960	2463.190948
337.510540	2470.654377
337.903056	2479.889770
338.295508	2488.905874
338.687896	2495.217399
339.080220	2507.210304
339.472480	2511.643998
339.864676	2515.200533
340.256807	2518.777231
340.648875	2520.682787
341.040879	2523.798220
341.432818	2525.948273
341.824694	2527.566483
342.216506	2530.160157
342.608253	2527.342152
342.999937	2527.382481
343.391557	2526.376771
343.783113	2525.943231
344.174605	2525.277799
344.566033	2524.307377
344.957397	2521.718744
345.348697	2522.089269
345.739934	2521.943076
346.131106	2517.612725
346.522215	2516.939731
346.913260	2513.877230
347.304241	2512.856396
347.695159	2509.186436
348.086012	2510.905469
348.476802	2507.434635
348.867528	2506.590242
349.258191	2504.964470
349.648789	2501.987668
350.039324	2500.404746
350.429796	2500.676968
350.820203	2499.061278
351.210548	2499.149499
351.600828	2496.412152
351.991045	2498.010198
352.381198	2494.299909
352.771288	2497.798469
353.161314	2493.765546
353.551276	2499.222595
353.941175	2494.622542
354.331010	2496.717142
354.720782	2495.892913
355.110490	2494.068016
355.500135	2494.715804
355.889717	2495.827378
356.279235	2495.068685
356.668689	2496.119765
357.058080	2495.166987
357.447408	2493.405104
357.836672	2492.631287
358.225873	2493.659682
358.615010	2492.386791
359.004084	2497.884169
359.393095	2499.880466
359.782043	2499.217554
360.170927	2499.958604
360.559748	2500.187976
360.948505	2499.807369
361.337199	2500.780312
361.725830	2502.196876
362.114398	2501.589417
362.502903	2502.690909
362.891344	2503.686537
363.279722	2503.409274
363.668037	2505.145951
364.056289	2502.247288
364.444478	2507.071672
364.832603	2504.367093
365.220665	2505.329953
365.608665	2504.394819
365.996601	2507.701816
366.384474	2504.173008
366.772284	2506.703668
367.160031	2506.310458
367.547715	2506.340705
367.935336	2507.051507
368.322893	2509.325068
368.710388	2507.406909
369.097820	2511.286077
369.485189	2508.659635
369.872495	2510.066117
370.259738	2508.939419
370.646918	2510.597959
371.034035	2509.950171
371.421090	2511.727178
371.808081	2509.481343
372.195010	2512.072497
372.581875	2506.076044
372.968678	2510.996210
373.355418	2511.137362
373.742096	2512.206087
374.128710	2510.434122
374.515262	2511.016375
374.901751	2514.489730
375.288177	2512.803464
375.674540	2512.405213
376.060841	2512.889163
376.447079	2511.608710
376.833254	2512.490912
377.219367	2507.260715
377.605417	2512.838752
377.991404	2510.449245
378.377329	2509.105778
378.763191	2508.132835
379.148991	2513.501664
379.534727	2514.819925
379.920402	2514.330933
380.306013	2513.506705
380.691563	2515.999555
381.077049	2516.075173
381.462474	2514.293125
381.847835	2515.871006
382.233134	2515.465193
382.618371	2515.503002
383.003545	2517.249762
383.388657	2517.113650
383.773706	2517.668177
384.158693	2518.255472
384.543618	2517.932838
384.928480	2518.978877
385.313280	2515.782786
385.698017	2517.685821
386.082692	2519.891326
386.467305	2517.965605
386.851856	2519.785462
387.236344	2517.741274
387.620770	2518.517612
388.005133	2515.190450
388.389435	2519.102386
388.773674	2517.612725
389.157851	2520.410565
389.541965	2519.714886
389.926018	2521.585154
390.310008	2520.332427
390.693936	2521.489372
391.077802	2521.368384
391.461606	2519.934176
391.845348	2520.420647
392.229027	2524.909795
392.612645	2519.616583
392.996200	2521.622962
393.379694	2522.235463
393.763125	2523.251255
394.146494	2522.069105
394.529801	2524.473735
394.913047	2523.974661
395.296230	2525.681091
395.679351	2522.686646
396.062410	2523.997346
396.445408	2523.110103
396.828343	2523.894002
397.211217	2519.213291
397.594028	2521.330576
397.976778	2520.287057
398.359466	2524.992974
398.742092	2520.337468
399.124656	2526.404497
399.507158	2525.809641
399.889598	2528.153777
400.271977	2524.781245
400.654294	2525.600433
401.036549	2526.500279
401.418742	2526.845598
401.800874	2524.894671
402.182944	2528.617563
402.564952	2525.887779
402.946898	2529.353572
403.328783	2529.829961
403.710606	2527.843746
404.092367	2527.455578
404.474067	2525.413910
404.855705	2529.746782
405.237282	2528.166380
405.618797	2528.189065
406.000250	2527.422810
406.381642	2526.754857
406.762972	2530.752492
407.144240	2530.931453
407.525447	2533.293234
407.906593	2531.722914
408.287677	2530.293747
408.668700	2529.993798
409.049661	2530.429858
409.430560	2532.181659
409.811399	2529.618233
410.192176	2530.684437
410.572891	2532.852133
410.953545	2529.267872
411.334138	2532.572349
411.714669	2530.923891
412.095139	2532.191742
412.475547	2530.006401
412.855894	2531.712832
413.236180	2532.310209
413.616405	2532.877338
413.996568	2531.231402
414.376670	2534.777853
414.756711	2532.831968
415.136691	2533.328522
415.516609	2532.015301
415.896466	2534.732483
416.276262	2533.872966
416.655997	2529.567821
417.035670	2529.351051
417.415283	2532.405991
417.794834	2529.769467
418.174324	2532.653007
418.553753	2534.150230
418.933121	2533.320960
419.312428	2535.002185
419.691674	2535.103008
420.070859	2533.157123
420.449983	2532.438758
420.829045	2532.816845
421.208047	2535.123173
421.586988	2537.260622
421.965867	2535.213913
422.344686	2534.442617
422.723444	2537.028729
423.102141	2534.172915
423.480777	2536.002854
423.859352	2536.849768
424.237866	2535.458409
424.616319	2536.365817
424.994712	2538.717515
425.373044	2537.527803
425.751314	2536.506969
426.129524	2534.878677
426.507673	2538.079809
426.885762	2538.205838
427.263789	2536.660724
427.641756	2539.239275
428.019662	2538.231044
428.397508	2537.391692
428.775292	2538.304141
429.153016	2536.504449
429.530679	2539.950077
429.908282	2539.609799
430.285824	2539.493853
430.663305	2538.614172
431.040726	2540.257588
431.418086	2538.651980
431.795385	2539.226672
432.172624	2539.352701
432.549802	2540.549975
432.926920	2538.528472
433.303977	2542.427804
433.680974	2541.454862
434.057910	2541.936292
434.434786	2539.549306
434.811601	2541.918648
435.188355	2544.149358
435.565050	2540.421425
435.941683	2541.527958
436.318257	2539.239275
436.694770	2535.534027
437.071222	2539.892104
437.447614	2541.222969
437.823946	2537.739531
438.200218	2541.744728
438.576429	2544.446787
438.952580	2541.285983
439.328670	2542.155582
439.704700	2541.149872
440.080670	2545.195398
440.456580	2539.544264
440.832429	2543.980480
441.208218	2543.622558
441.583947	2543.710778
441.959616	2540.633154
442.335224	2542.400078
442.710773	2543.554502
443.086261	2545.097095
443.461689	2545.056766
443.837057	2542.369831
444.212365	2544.998793
444.587612	2541.608617
444.962800	2541.318751
445.337927	2545.074410
445.712995	2545.316386
446.088002	2546.576674
446.462949	2545.296221
446.837837	2546.985007
447.212664	2547.045501
447.587431	2546.798485
447.962139	2545.540717
448.336786	2547.862168
448.711374	2546.493495
449.085901	2547.151366
449.460369	2546.483413
449.834776	2545.104657
450.209124	2547.446273
450.583412	2547.388300
450.957640	2545.455017
451.331808	2545.906201
451.705917	2543.801519
452.079965	2546.821170
452.453954	2548.502395
452.827883	2547.239586
453.201752	2546.985007
453.575562	2548.772097
453.949311	2544.303114
454.323001	2549.291335
454.696632	2551.549772
455.070202	2549.810574
455.443713	2548.575492
455.817164	2546.901828
456.190556	2545.820501
456.563888	2545.898639
456.937160	2546.344781
457.310373	2551.532128
457.683526	2550.453321
458.056619	2552.247972
458.429653	2548.547765
458.802628	2552.958775
459.175542	2552.550441
459.548398	2550.871737
459.921194	2550.281922
460.293930	2553.803168
460.666607	2551.630431
461.039224	2552.154711
461.411782	2557.450443
461.784280	2555.338199
462.156719	2553.967006
462.529099	2556.643858
462.901419	2554.992880
463.273680	2556.205278
463.645882	2554.760987
464.018024	2557.261400
464.390106	2557.218550
464.762130	2559.812223
465.134094	2557.818447
465.505999	2564.722307
465.877845	2564.094684
466.249631	2569.274469
466.621358	2569.022412
466.993026	2571.971487
467.364634	2571.931157
467.736184	2570.282700
468.107674	2572.546178
468.479105	2572.896538
468.850477	2574.671024
469.221790	2576.475757
469.593043	2575.301169
469.964238	2581.421129
470.335373	2581.043043
470.706449	2586.409351
471.077467	2588.503951
471.448425	2602.994747
471.819324	2615.862292
472.190164	2617.387242
472.560945	2613.561006
472.931667	2611.085799
473.302330	2614.027313
473.672934	2619.194495
474.043479	2629.629684
474.413965	2633.400467
474.784393	2636.926754
475.154761	2646.285656
475.525070	2653.018117
475.895321	2659.909374
476.265513	2668.963287
476.635645	2685.783096
477.005719	2694.539581
477.375734	2708.916951
477.745691	2725.590568
478.115588	2738.264028
478.485427	2759.578027
478.855207	2788.552059
479.224928	2837.307578
479.594591	2874.181098
479.964194	2882.453631
480.333739	2890.176679
480.703226	2906.935995
481.072653	2932.189655
481.442022	2974.711788
481.811333	3002.125583
482.180584	3018.040505
482.549777	3023.784900
482.918912	3043.039587
483.287988	3072.774833
483.657005	3098.961107
484.025964	3107.911675
484.394864	3136.547950
484.763706	3165.801766
485.132489	3174.659073
485.501213	3202.511448
485.869879	3234.941191
486.238487	3262.309615
486.607036	3295.772794
486.975527	3319.486382
487.343959	3365.731407
487.712333	3409.314702
488.080648	3435.309412
488.448905	3483.984273
488.817104	3514.271525
489.185244	3583.479006
489.553326	3653.041888
489.921350	3779.784057
490.289315	3977.611537
490.657222	4073.905137
491.025070	4119.484730
491.392861	4151.831293
491.760593	4159.251872
492.128267	4147.354749
492.495883	4146.265859
492.863440	4145.607989
493.230939	4145.610509
493.598380	4187.983928
493.965763	4225.429619
494.333088	4252.127570
494.700354	4302.871824
495.067563	4361.939024
495.434713	4397.713572
495.801805	4479.755830
496.168839	4528.541597
496.535815	4581.705605
496.902733	4632.054129
497.269593	4692.956309
497.636395	4765.793420
498.003139	4842.023228
498.369825	4862.742370
498.736453	4980.102953
499.103023	5015.194424
499.469535	5097.163586
499.835989	5154.529396
500.202385	5213.710022
500.568723	5236.957303
500.935003	5365.030337
501.301226	5397.175254
501.667390	5536.001069
502.033497	5648.643132
502.399546	5662.090409
502.765537	5705.759405
503.131470	5808.664478
503.497345	5949.410973
503.863163	5863.371080
504.228923	6066.874899
504.594625	6158.606255
504.960269	6127.920751
505.325856	6296.912831
505.691385	6285.355986
506.056856	6422.016625
506.422270	6509.813361
506.787625	6519.462129
507.152924	6659.417163
507.518164	6717.718107
507.883347	6756.499704
508.248472	6787.868283
508.613540	6974.161603
508.978550	6992.667679
509.343503	7049.642800
509.708398	7187.231012
510.073236	7323.009449
510.438016	7397.568115
510.802738	7443.654343
511.167403	7540.532717
511.532010	7557.889410
511.896561	7758.043382
512.261053	7882.259934
512.625488	7881.110551
512.989866	7939.081299
513.354186	8003.749221
513.718449	8015.278340
514.082655	8200.243315
514.446803	8206.723719
514.810894	8354.457253
515.174927	8335.368924
515.538904	8410.628309
515.902822	8586.927542
516.266684	8562.966938
516.630488	8590.660516
516.994235	8688.625259
517.357925	8804.241602
517.721558	8929.108462
518.085133	9008.829269
518.448651	9066.434534
518.812112	9045.932161
519.175516	9118.497050
519.538863	9262.648844
519.902152	9260.304708
520.265385	9447.674314
520.628560	9422.322351
520.991678	9468.214495
521.354739	9563.328466
521.717743	9561.271675
522.080690	9601.860525
522.443580	9765.307336
522.806413	9787.188464
523.169189	9854.374442
523.531908	9946.730901
523.894569	9845.612916
524.257174	9904.496114
524.619722	10048.468947
524.982213	10039.112566
525.344647	10134.770980
525.707025	10128.262851
526.069345	10246.477908
526.431608	10232.516433
526.793815	10353.436070
527.155964	10209.841323
527.518057	10295.278798
527.880093	10282.615420
528.242072	10381.732066
528.603995	10337.909316
528.965860	10298.726947
529.327669	10381.127128
529.689421	10355.306338
530.051117	10360.105516
530.412755	10490.066462
530.774337	10414.975955
531.135862	10434.767525
531.497331	10473.533998
531.858743	10364.624911
532.220098	10540.001612
532.581396	10451.680596
532.942638	10454.314599
533.303824	10443.743300
533.664953	10485.794084
534.026025	10424.186143
534.387040	10539.134533
534.747999	10561.297966
535.108902	10628.559561
535.469748	10420.246482
535.830537	10528.059118
536.191270	10531.189675
536.551947	10568.055633
536.912567	10576.809597
537.273131	10521.281287
537.633638	10523.887563
537.994089	10523.406133
538.354483	10493.544858
538.714821	10636.373350
539.075103	10663.288070
539.435328	10636.338062
539.795497	10473.425613
540.155609	10641.764864
540.515665	10734.481765
540.875665	10493.996042
541.235609	10565.247710
541.595496	10565.708976
541.955328	10730.511857
542.315102	10629.527463
542.674821	10578.032076
543.034483	10593.137894
543.394090	10604.674574
543.753640	10535.797289
544.113134	10765.726837
544.472571	10625.670980
544.831953	10771.168763
545.191278	10585.140103
545.550548	10616.107911
545.909761	10756.569581
546.268918	10737.501417
546.628019	10823.621968
546.987064	10694.137411
547.346053	10619.404826
547.704986	10718.806298
548.063863	10713.417304
548.422684	10700.632938
548.781449	10633.590633
549.140158	10732.402289
549.498811	10610.257652
549.857408	10471.998967
550.215949	10702.828360
550.574434	10550.779599
550.932864	10657.294138
551.291237	10715.789167
551.649555	10668.009111
552.007817	10675.172590
552.366022	10638.846036
552.724173	10641.971551
553.082267	10621.265012
553.440305	10757.913048
553.798288	10575.705584
554.156215	10719.975845
554.514086	10702.939266
554.871902	10549.947808
555.229661	10593.236196
555.587365	10565.194778
555.945014	10462.398089
556.302606	10589.488098
556.660143	10486.406585
557.017625	10639.667744
557.375050	10540.888855
557.732421	10670.491879
558.089735	10588.431977
558.446994	10587.343088
558.804197	10623.679724
559.161345	10628.002514
559.518437	10482.154371
559.875474	10561.915507
560.232455	10590.022461
560.589381	10549.300020
560.946251	10547.689371
561.303065	10647.451285
561.659825	10582.420401
562.016528	10525.011741
562.373177	10398.831660
562.729770	10513.999340
563.086307	10424.995248
563.442789	10521.094764
563.799216	10403.509851
564.155587	10447.874525
564.511904	10405.838864
564.868164	10395.930476
565.224370	10415.263301
565.580520	10334.801444
565.936615	10341.939718
566.292654	10213.150840
566.648638	10347.931130
567.004567	10295.293922
567.360441	10289.826790
567.716260	10202.004849
568.072023	10293.058170
568.427732	10242.286189
568.783385	10152.803188
569.138982	10223.959074
569.494525	10236.687988
569.850013	10120.305389
570.205445	10199.892606
570.560823	10090.492006
570.916145	10014.529379
571.271412	10093.373025
571.626625	10024.281491
571.981782	9997.724693
572.336884	9979.145520
572.691931	9985.953598
573.046923	9940.253018
573.401860	9882.569615
573.756743	9828.283950
574.111570	9869.381957
574.466342	9848.098205
574.821059	9879.572649
575.175722	9773.350497
575.530330	9782.948853
575.884882	9778.116907
576.239380	9706.507317
576.593823	9676.267956
576.948211	9697.960041
577.302544	9580.675076
577.656823	9593.706459
578.011047	9593.678732
578.365216	9566.731244
578.719330	9496.810441
579.073389	9506.255042
579.427394	9454.900808
579.781344	9431.487169
580.135239	9385.847083
580.489080	9389.078462
580.842866	9285.354201
581.196597	9294.685377
581.550273	9335.881686
581.903895	9304.777767
582.257463	9372.054486
582.610975	9253.335313
582.964434	9271.249053
583.317837	9200.531747
583.671186	9181.309827
584.024481	9175.542747
584.377721	9092.673740
584.730906	9071.508455
585.084037	9102.277138
585.437113	9035.595275
585.790135	9058.398935
586.143103	8958.518553
586.496016	8932.995192
586.848874	8990.862597
587.201679	8975.746697
587.554428	8868.352476
587.907124	8911.106502
588.259765	8882.860917
588.612352	8879.069969
588.964884	8759.062781
589.317362	8784.838201
589.669786	8777.899052
590.022155	8819.506216
590.374470	8834.624636
590.726731	8780.671687
591.078937	8629.152246
591.431090	8747.125329
591.783188	8613.713713
592.135232	8611.483002
592.487222	8611.248588
592.839157	8664.163060
593.191038	8593.193696
593.542866	8538.809728
593.894639	8436.134027
594.246358	8492.410948
594.598022	8505.969132
594.949633	8409.766272
595.301190	8382.763332
595.652692	8411.250892
596.004141	8520.832974
596.355535	8299.150754
596.706876	8279.346581
597.058162	8211.447280
597.409395	8293.020711
597.760573	8350.021037
598.111698	8264.291175
598.462768	8248.754339
598.813785	8213.360398
599.164748	8179.745984
599.515657	8173.016043
599.866511	8083.434740
600.217312	8210.670942
600.568060	8065.011843
600.918753	8170.908841
601.269392	8142.242320
601.619978	8054.102786
601.970510	8116.444215
602.320988	8114.042105
602.671412	8173.048811
603.021783	8108.355684
603.372100	8077.445849
603.722363	8080.157990
604.072572	8057.850884
604.422728	8073.763286
604.772830	7999.358376
605.122878	8007.192329
605.472872	8000.308633
605.822813	8027.949280
606.172701	7976.017833
606.522534	8051.741005
606.872314	8048.116416
607.222041	8019.381839
607.571714	8077.057680
607.921333	8033.076133
608.270899	8042.669449
608.620411	8129.374775
608.969870	8031.662090
609.319276	8023.762602
609.668627	8042.359418
610.017926	8076.064573
610.367171	8128.663972
610.716362	8098.873273
611.065500	8089.279957
611.414585	8120.822457
611.763616	8110.886343
612.112594	8086.189730
612.461518	8101.048531
612.810389	8166.059251
613.159207	8103.896783
613.507971	8054.264103
613.856682	8171.634767
614.205340	8126.226574
614.553945	8202.902524
614.902496	8103.639684
615.250994	8159.687233
615.599439	8139.187381
615.947830	8151.850759
616.296169	8125.054506
616.644454	8137.372565
616.992686	8142.978328
617.340864	8193.226029
617.688990	8095.195752
618.037063	8189.939197
618.385082	8136.550857
618.733048	8223.954383
619.080961	8157.517016
619.428821	8172.330447
619.776628	8183.027775
620.124382	8130.703119
620.472083	8117.807847
620.819731	8145.277094
621.167326	8042.573667
621.514868	8049.437198
621.862357	7936.059127
622.209793	7955.601160
622.557176	7890.040955
622.904506	7855.083073
623.251783	7793.346583
623.599007	7748.714727
623.946179	7751.444512
624.293297	7706.048922
624.640363	7631.071840
624.987376	7610.695497
625.334336	7560.498207
625.681243	7505.000144
626.028097	7499.127200
626.374899	7475.484189
626.721647	7469.359187
627.068343	7401.172540
627.414987	7372.115329
627.761577	7323.541291
628.108115	7366.136521
628.454600	7254.187617
628.801032	7311.891185
629.147412	7270.808301
629.493739	7259.185921
629.840014	7194.586055
630.186236	7249.960610
630.532405	7139.594628
630.878521	7185.948038
631.224585	7141.290977
631.570597	7067.775830
631.916556	7103.288238
632.262462	7097.261539
632.608316	7057.615385
632.954117	7035.124277
633.299866	7020.484766
633.645562	7016.386308
633.991206	6935.831190
634.336797	6880.691049
634.682336	6841.692683
635.027823	6801.791950
635.373257	6795.316588
635.718639	6729.486681
636.063968	6736.947588
636.409245	6636.734491
636.754470	6629.848275
637.099642	6587.641214
637.444762	6537.325458
637.789829	6546.843156
638.134845	6488.968190
638.479808	6473.791796
638.824719	6479.901674
639.169577	6405.554737
639.514383	6432.235044
639.859137	6358.155288
640.203839	6362.896494
640.548489	6351.009453
640.893086	6321.435524
641.237632	6302.921886
641.582125	6321.170863
641.926566	6288.942767
642.270955	6304.716537
642.615292	6298.755373
642.959576	6308.260468
643.303809	6302.601773
643.647990	6310.622249
643.992118	6302.246372
644.336195	6250.783753
644.680219	6273.894922
645.024192	6261.846565
645.368112	6356.998344
645.711981	6381.205964
646.055797	6452.787828
646.399562	6410.548000
646.743274	6543.954575
647.086935	6590.066009
647.430544	6586.839671
647.774101	6605.867506
648.117606	6613.688856
648.461059	6605.005469
648.804460	6565.165230
649.147810	6475.220963
649.491108	6442.980264
649.834354	6419.743065
650.177548	6340.216342
650.520690	6248.676550
650.863781	6234.528552
651.206820	6252.533033
651.549807	6172.308111
651.892742	6116.482373
652.235626	6120.593434
652.578458	6107.156238
652.921238	6016.468401
653.263967	6056.795112
653.606644	5993.863868
653.949269	5998.547099
654.291843	5939.442091
654.634365	5986.942363
654.976836	5947.268483
655.319255	5937.448315
655.661622	5919.640439
656.003938	5912.383698
656.346203	5878.605447
656.688416	5910.442854
657.030577	5862.219176
657.372687	5830.986707
657.714746	5817.433565
658.056753	5862.859403
658.398708	5803.162059
658.740612	5793.568743
659.082465	5844.360888
659.424266	5833.726574
659.766016	5831.942006
660.107715	5810.297812
660.449362	5825.675852
660.790958	5818.910623
661.132503	5802.108458
661.473996	5846.931877
661.815438	5829.358415
662.156829	5820.561601
662.498168	5817.239481
662.839456	5793.336850
663.180693	5828.030071
663.521879	5826.263146
663.863013	5816.722763
664.204097	5836.831925
664.545129	5876.649479
664.886110	5874.234766
665.227040	5908.227267
665.567918	5870.564806
665.908746	5899.291821
666.249522	5901.779631
666.590248	5892.047683
666.930922	5916.116672
667.271545	5925.982210
667.612118	5931.149393
667.952639	5907.486217
668.293109	5929.127890
668.633528	5880.513523
668.973896	5890.237909
669.314213	5879.001177
669.654480	5860.248085
669.994695	5856.343711
670.334859	5846.233677
670.674973	5834.124826
671.015035	5845.006156
671.355047	5842.994736
671.695008	5828.834135
672.034918	5799.469413
672.374777	5813.985416
672.714585	5798.388086
673.054342	5799.822294
673.394049	5791.990862
673.733705	5827.099978
674.073310	5810.582637
674.412864	5769.976143
674.752368	5763.525987
675.091820	5765.202170
675.431223	5703.334610
675.770574	5704.110947
676.109875	5657.805429
676.449125	5663.471686
676.788324	5626.146982
677.127473	5572.672943
677.466571	5564.594494
677.805619	5556.228699
678.144616	5541.911822
678.483562	5517.961300
678.822458	5490.267722
679.161303	5483.245394
679.500098	5469.762828
679.838842	5453.028718
680.177535	5466.599504
680.516179	5478.776412
680.854771	5487.048945
681.193314	5566.676491
681.531805	5675.489796
681.870247	5825.476726
682.208638	5928.119660
682.546978	5937.869251
682.885268	5917.757568
683.223508	5830.391851
683.561697	5781.159943
683.899836	5745.047637
684.237925	5704.441143
684.575963	5665.467982
684.913951	5630.318537
685.251889	5692.791036
685.589776	5658.518752
685.927614	5627.276201
686.265401	5702.091965
686.603137	5684.805849
686.940824	5760.975163
687.278460	5778.805724
687.616046	5791.479185
687.953582	5858.471078
688.291068	5844.600343
688.628504	5903.816257
688.965889	5868.697059
689.303224	5810.413758
689.640510	5764.052787
689.977745	5691.777764
690.314930	5587.783802
690.652065	5534.304721
690.989150	5442.656544
691.326185	5366.676273
691.663170	5313.146781
692.000105	5241.290174
692.336990	5165.239328
692.673825	5134.400069
693.010610	5067.824071
693.347345	4999.965099
693.684030	4988.428418
694.020665	4943.655410
694.357251	4859.805898
694.693786	4863.869068
695.030272	4836.278833
695.366707	4800.221980
695.703093	4768.132516
696.039429	4790.563130
696.375716	4775.830357
696.711952	4744.464298
697.048139	4734.578596
697.384276	4715.132345
697.720363	4725.766659
698.056400	4736.080859
698.392388	4683.879711
698.728326	4665.484541
699.064214	4643.172394
699.400053	4637.395232
699.735842	4600.776290
700.071581	4583.263322
700.407270	4553.462541
700.742910	4532.622411
701.078501	4481.162312
701.414042	4482.881346
701.749533	4451.671562
702.084974	4384.273856
702.420366	4444.659317
702.755709	4382.953074
703.091002	4331.172862
703.426246	4377.916961
703.761440	4333.398531
704.096584	4298.299498
704.431679	4319.192560
704.766725	4300.938542
705.101721	4292.713899
705.436668	4320.793126
705.771565	4264.859004
706.106413	4296.615752
706.441212	4330.371318
706.775961	4332.957430
707.110661	4316.790450
707.445311	4342.137372
707.779913	4366.191237
708.114465	4381.203793
708.448967	4406.979213
708.783421	4464.037513
709.117825	4503.882793
709.452180	4506.889841
709.786485	4554.012027
710.120742	4640.288854
710.454949	4621.455103
710.789107	4689.293911
711.123216	4764.616311
711.457275	4752.058797
711.791286	4825.316844
712.125247	4841.357796
712.459159	4745.167539
712.793023	4822.667718
713.126837	4784.060041
713.460602	4773.831540
713.794318	4690.657543
714.127985	4701.438050
714.461602	4618.090133
714.795171	4585.690637
715.128691	4522.164537
715.462162	4466.384170
715.795584	4417.595883
716.128957	4400.244231
716.462281	4348.895038
716.795556	4320.263805
717.128782	4283.357518
717.461960	4213.958473
717.795088	4223.821491
718.128167	4187.507539
718.461198	4125.032519
718.794180	4121.917086
719.127113	4103.375723
719.459997	4081.413936
719.792833	4041.951783
720.125619	4029.195144
720.458357	3993.229032
720.791046	3999.873272
721.123686	3973.560970
721.456278	3936.034621
721.788821	3947.762865
722.121315	3923.393927
722.453761	3895.501223
722.786158	3910.894386
723.118506	3929.904577
723.450805	3882.792474
723.783056	3905.069333
724.115259	3921.642126
724.447412	3929.360133
724.779518	3918.060387
725.111574	3922.894853
725.443582	3955.811067
725.775542	3940.337245
726.107453	3990.206860
726.439315	3989.347343
726.771129	4005.244622
727.102895	4039.237122
727.434612	4089.636058
727.766281	4096.602932
728.097901	4098.584106
728.429473	4103.721042
728.760996	4109.329325
729.092471	4106.508800
729.423897	4091.110595
729.755276	4098.823561
730.086606	4095.929938
730.417887	4135.755054
730.749120	4197.360474
731.080305	4263.669291
731.411442	4286.941778
731.742530	4260.412706
732.073570	4262.789610
732.404562	4318.048218
732.735506	4307.287875
733.066401	4268.037451
733.397249	4206.558059
733.728048	4128.243734
734.058798	4044.797515
734.389501	3972.368737
734.720156	3915.227258
735.050762	3870.141699
735.381320	3865.755895
735.711831	3813.607679
736.042293	3784.673976
736.372707	3808.717760
736.703073	3779.461423
737.033391	3769.195113
737.363661	3788.248154
737.693883	3811.006443
738.024056	3820.249399
738.354182	3813.895025
738.684260	3877.269890
739.014290	3900.111358
739.344272	3896.380904
739.674207	3938.807255
740.004093	3942.225157
740.333931	3935.401956
740.663722	3941.169036
740.993464	3938.419086
741.323159	3914.186260
741.652806	3881.564953
741.982405	3854.902291
742.311956	3823.700069
742.641460	3817.532217
742.970915	3791.421561
743.300323	3751.349429
743.629683	3717.419943
743.958996	3706.445351
744.288260	3681.910055
744.617477	3652.293276
744.946647	3634.629073
745.275768	3612.185856
745.604842	3608.198304
745.933869	3560.559400
746.262847	3553.257288
746.591778	3589.480499
746.920662	3559.488155
747.249498	3529.352137
747.578286	3577.311154
747.907027	3593.674739
748.235720	3591.217177
748.564365	3617.443780
748.892963	3615.593676
749.221514	3600.966768
749.550017	3575.445927
749.878473	3572.524578
750.206881	3544.664642
750.535242	3541.345042
750.863555	3542.907800
751.191821	3535.751882
751.520039	3518.269160
751.848210	3495.278978
752.176334	3531.449257
752.504411	3537.468395
752.832440	3498.636387
753.160421	3478.229796
753.488356	3488.748163
753.816243	3501.746778
754.144082	3454.624593
754.471875	3441.913323
754.799620	3461.992239
755.127318	3453.787761
755.454969	3454.354891
755.782572	3457.077114
756.110129	3437.023404
756.437638	3428.569389
756.765100	3440.925257
757.092515	3445.444652
757.419882	3457.568627
757.747203	3428.481169
758.074477	3433.610543
758.401703	3448.335753
758.728882	3468.442396
759.056014	3476.248622
759.383099	3479.926144
759.710138	3476.125114
760.037129	3491.477948
760.364073	3521.195550
760.690970	3505.782222
761.017820	3485.151300
761.344623	3502.974299
761.671379	3549.725960
761.998088	3598.163887
762.324751	3724.606108
762.651366	3968.567707
762.977935	4436.991722
763.304456	4877.026480
763.630931	4962.723575
763.957359	4605.134368
764.283740	4269.184314
764.610074	4081.744131
764.936362	3886.722054
765.262602	3729.150708
765.588796	3617.589973
765.914943	3531.106458
766.241044	3447.151082
766.567097	3418.403903
766.893104	3370.712067
767.219064	3340.535720
767.544978	3313.300886
767.870845	3255.869541
768.196665	3239.999988
768.522438	3248.814446
768.848165	3243.306985
769.173846	3208.523024
769.499479	3189.812781
769.825066	3174.301151
770.150607	3159.124757
770.476101	3173.736542
770.801548	3169.474246
771.126949	3126.957155
771.452303	3106.666510
771.777611	3112.778909
772.102872	3117.578088
772.428087	3093.141095
772.753256	3084.379569
773.078378	3078.413364
773.403453	3045.383724
773.728482	3033.176570
774.053465	3055.125753
774.378401	3040.909700
774.703291	3007.103722
775.028135	3011.343332
775.352932	3008.333763
775.677683	2993.432113
776.002388	2992.882627
776.327046	2993.517812
776.651658	2980.798981
776.976224	2969.952939
777.300743	2968.407825
777.625216	2961.682926
777.949643	2956.019189
778.274024	2957.891978
778.598359	2947.292952
778.922647	2952.480299
779.246889	2950.121039
779.571086	2938.276848
779.895236	2929.951383
780.219339	2941.427570
780.543397	2954.532049
780.867409	2955.179837
781.191374	2947.182047
781.515294	2944.449741
781.839167	2947.834876
782.162995	2937.838268
782.486776	2948.762448
782.810511	2943.862447
783.134201	2931.647731
783.457844	2938.448248
783.781441	2929.076743
784.104993	2909.423804
784.428498	2910.122004
784.751958	2923.536515
785.075372	2917.356060
785.398739	2901.708318
785.722061	2920.196750
786.045337	2930.800817
786.368568	2915.543765
786.691752	2905.148906
787.014891	2955.794858
787.337983	2981.724033
787.661030	3009.173116
787.984031	3077.208528
788.306987	3123.093110
788.629897	3116.486678
788.952760	3098.076384
789.275579	3083.943509
789.598351	3021.649971
789.921078	2979.926862
790.243759	2973.388485
790.566395	2957.080352
790.888984	2932.126641
791.211529	2917.388828
791.534027	2905.837023
791.856480	2895.321177
792.178888	2880.401882
792.501249	2873.170347
792.823566	2870.662372
793.145836	2867.292361
793.468062	2865.424614
793.790241	2862.170549
794.112375	2868.063658
794.434464	2881.841131
794.756507	2882.279712
795.078505	2891.129457
795.400457	2904.430542
795.722364	2943.638116
796.044226	2964.321970
796.366042	2966.834985
796.687812	2954.532049
797.009538	2974.240440
797.331218	2961.841722
797.652852	2949.062397
797.974442	2931.330138
798.295986	2927.360230
798.617484	2923.254210
798.938938	2907.924061
799.260346	2889.922101
799.581709	2887.320865
799.903026	2879.791902
800.224299	2873.838299
800.545526	2868.489635
800.866708	2851.052284
801.187845	2841.395954
801.508936	2838.590552
801.829983	2846.104392
802.150984	2836.942094
802.471940	2823.646051
802.792851	2822.771411
803.113717	2821.231338
803.434538	2828.490600
803.755314	2822.930207
804.076045	2814.287149
804.396731	2812.951243
804.717372	2814.375369
805.037967	2810.392858
805.358518	2815.010555
805.679024	2830.484376
805.999485	2822.471462
806.319901	2827.202585
806.640272	2816.669094
806.960598	2824.510609
807.280879	2835.454954
807.601115	2842.421829
807.921306	2830.512103
808.241453	2822.388283
808.561554	2832.911692
808.881611	2833.625015
809.201623	2825.115547
809.521590	2825.095383
809.841513	2823.220074
810.161390	2825.649910
810.481223	2817.168168
810.801011	2812.190029
811.120755	2805.480253
811.440453	2810.188691
811.760107	2810.004689
812.079716	2808.056283
812.399281	2798.004222
812.718801	2788.511729
813.038276	2787.011986
813.357707	2792.252266
813.677093	2800.297947
813.996434	2793.915846
814.315731	2792.103552
814.634983	2786.006276
814.954191	2787.977367
815.273354	2800.592855
815.592473	2809.578711
815.911547	2808.943526
816.230577	2817.818477
816.549562	2826.224601
816.868502	2825.818788
817.187399	2835.699450
817.506250	2851.178313
817.825058	2844.012313
818.143821	2856.156452
818.462539	2872.865357
818.781213	2899.754871
819.099843	2936.572938
819.418429	2990.614108
819.736970	3050.858417
820.055466	3122.856176
820.373919	3230.018504
820.692327	3366.301057
821.010691	3528.815254
821.329011	3965.842963
821.647286	4848.455740
821.965517	6210.630962
822.283704	6926.989006
822.601847	6899.464306
822.919945	6279.740140
823.237999	5785.334018
823.556010	5213.415114
823.873976	4672.940407
824.191897	4274.732103
824.509775	3983.449193
824.827609	3719.196950
825.145398	3597.105245
825.463144	3588.232814
825.780845	3677.075589
826.098502	3782.256743
826.416116	4060.969536
826.733685	4370.130899
827.051210	4426.301956
827.368692	4317.218948
827.686129	4052.646591
828.003522	3734.890062
828.320872	3480.460506
828.638177	3294.419244
828.955439	3156.788182
829.272656	3073.689803
829.589830	3007.411232
829.906960	2961.118317
830.224046	2917.663570
830.541088	2882.698127
830.858086	2870.294368
831.175041	2848.982890
831.491952	2855.324662
831.808819	2867.582228
832.125642	2889.715413
832.442421	2934.062444
832.759157	3012.333919
833.075849	3190.521063
833.392497	3465.039617
833.709101	3666.776511
834.025662	3612.090074
834.342179	3457.740026
834.658653	3284.551186
834.975083	3133.901344
835.291469	3045.812222
835.607811	2960.253759
835.924110	2902.043555
836.240366	2855.390197
836.556578	2810.599545
836.872746	2789.036009
837.188871	2767.021291
837.504952	2750.957654
837.820990	2742.445666
838.136984	2726.356823
838.452935	2720.735937
838.768842	2720.388097
839.084706	2738.324522
839.400526	2815.161789
839.716303	2945.641974
840.032037	3020.593850
840.347727	3005.180522
840.663373	2950.083231
840.978977	2874.039946
841.294537	2804.353555
841.610054	2760.389653
841.925527	2737.664131
842.240957	2716.198898
842.556344	2691.587985
842.871687	2677.528207
843.186987	2670.407577
843.502244	2665.880621
843.817458	2659.889210
844.132629	2648.211377
844.447756	2641.055459
844.762840	2635.600930
845.077881	2635.477422
845.392879	2634.824593
845.707833	2630.854684
846.022745	2624.404528
846.337613	2626.703294
846.652438	2623.446708
846.967221	2626.864611
847.281960	2622.788838
847.596656	2619.862448
847.911309	2622.677932
848.225919	2619.542335
848.540485	2617.604011
848.855009	2614.223917
849.169490	2615.123763
849.483928	2615.340533
849.798323	2614.140738
850.112675	2612.651077
850.426984	2613.140069
850.741251	2613.394648
851.055474	2608.842486
851.369654	2617.147787
851.683792	2617.432612
851.997887	2613.152672
852.311938	2611.937754
852.625947	2613.886160
852.939914	2616.043774
853.253837	2617.251130
853.567718	2608.325767
853.881555	2611.892384
854.195350	2615.579988
854.509103	2614.896912
854.822812	2609.797784
855.136479	2609.956581
855.450103	2613.359360
855.763685	2617.165431
856.077224	2612.504884
856.390720	2607.879625
856.704173	2612.898094
857.017584	2613.971860
857.330953	2618.448404
857.644278	2618.395472
857.957561	2620.560648
858.270802	2616.071500
858.584000	2613.848352
858.897155	2621.193313
859.210268	2617.702314
859.523339	2616.779782
859.836367	2610.685027
860.149352	2611.070676
860.462295	2613.636623
860.775195	2609.359204
861.088054	2606.500870
861.400869	2610.221241
861.713642	2605.220417
862.026373	2607.463730
862.339062	2609.931375
862.651708	2616.472272
862.964312	2617.848507
863.276873	2616.661315
863.589392	2613.135028
863.901869	2620.255658
864.214303	2627.189765
864.526696	2630.295116
864.839045	2629.511217
865.151353	2631.464664
865.463619	2633.564304
865.775842	2631.817544
866.088023	2633.425672
866.400162	2634.227216
866.712258	2635.114459
867.024313	2630.148922
867.336325	2626.746144
867.648296	2630.101032
867.960224	2633.768471
868.272110	2632.306536
868.583954	2626.138685
868.895755	2627.640948
869.207515	2633.511372
869.519233	2639.840541
869.830909	2636.503297
870.142542	2632.293933
870.454134	2632.435086
870.765684	2636.309212
871.077191	2639.772485
871.388657	2644.372538
871.700081	2643.349184
872.011463	2639.578401
872.322803	2643.830614
872.634101	2647.606438
872.945357	2654.107006
873.256571	2659.004487
873.567744	2654.535504
873.878874	2652.987870
874.189963	2656.925011
874.501010	2658.828047
874.812015	2665.051351
875.122979	2664.002791
875.433900	2656.551966
875.744780	2653.035761
876.055618	2661.961124
876.366415	2666.553615
876.677169	2666.276352
876.987882	2660.688232
877.298554	2657.751760
877.609183	2666.929181
877.919771	2674.369924
878.230317	2682.841583
878.540822	2693.052440
878.851285	2706.063658
879.161707	2729.862946
879.472087	2767.948863
879.782425	2812.066521
880.092722	2921.953592
880.402977	3106.926130
880.713191	3356.107844
881.023363	3641.353973
881.333494	3828.768949
881.643583	3997.025020
881.953631	3994.791789
882.263637	3817.043225
882.573602	3601.281841
882.883526	3473.738128
883.193408	3366.986654
883.503248	3270.516613
883.813048	3156.505878
884.122806	3047.538817
884.432522	2965.219295
884.742197	2901.395767
885.051831	2866.475694
885.361424	2833.415807
885.670975	2797.437092
885.980485	2765.156064
886.289954	2749.122674
886.599382	2735.317474
886.908768	2728.053171
887.218113	2705.889738
887.527417	2694.098480
887.836680	2686.962726
888.145901	2682.866789
888.455082	2671.287258
888.764221	2660.562204
889.073319	2656.375525
889.382376	2656.287305
889.691392	2656.239414
890.000366	2656.040289
890.309300	2653.885195
890.618193	2657.305618
890.927044	2658.497851
891.235855	2656.340237
891.544625	2656.458704
891.853353	2658.699497
892.162041	2663.294509
892.470687	2687.176975
892.779293	2696.268696
893.087858	2707.165150
893.396381	2726.757595
893.704864	2764.558687
894.013306	2836.561487
894.321707	2925.449633
894.630068	2974.724391
894.938387	2990.805672
895.246665	2983.743015
895.554903	2940.610903
895.863100	2900.110273
896.171256	2847.543641
896.479371	2785.920576
896.787446	2749.231059
897.095480	2730.735065
897.403473	2724.478993
897.711425	2709.471478
898.019336	2689.949610
898.327207	2678.430573
898.635038	2680.063907
898.942827	2673.885973
899.250576	2665.477329
899.558284	2655.102634
899.865952	2651.896460
900.173579	2651.256234
900.481165	2644.687610
900.788711	2637.355252
901.096216	2632.379633
901.403681	2631.139509
901.711105	2628.860908
902.018489	2625.793366
902.325832	2631.421814
902.633135	2633.256794
902.940397	2646.714154
903.247619	2684.406861
903.554800	2751.943199
903.861941	2874.596993
904.169041	2995.367916
904.476101	3053.840259
904.783121	3045.469423
905.090100	2991.750888
905.397039	2917.782038
905.703938	2845.648167
906.010796	2789.530042
906.317614	2740.091447
906.624391	2704.694985
906.931129	2678.521314
907.237826	2655.367295
907.544483	2636.934316
907.851099	2624.311266
908.157675	2618.534104
908.464211	2609.729729
908.770707	2599.019797
909.077163	2596.148860
909.383578	2591.263982
909.689954	2591.485793
909.996289	2585.721234
910.302584	2588.816502
910.608839	2584.748291
910.915054	2585.847263
911.221229	2588.009917
911.527363	2593.136771
911.833458	2589.759198
912.139513	2592.970413
912.445527	2590.558221
912.751502	2595.795980
913.057436	2604.023143
913.363331	2609.182764
913.669186	2618.503857
913.975000	2631.021042
914.280775	2646.517549
914.586510	2663.990188
914.892205	2697.191227
915.197859	2763.784870
915.503475	2846.038857
915.809050	2907.820718
916.114585	2919.987542
916.420081	2932.098914
916.725536	2940.421859
917.030952	2918.911256
917.336328	2873.112373
917.641665	2826.716114
917.946961	2776.153341
918.252218	2746.516397
918.557435	2721.295505
918.862612	2700.470498
919.167750	2684.658919
919.472848	2665.835251
919.777906	2653.081131
920.082925	2641.325161
920.387904	2633.894500
920.692843	2628.082049
920.997743	2622.559465
921.302603	2614.261726
921.607423	2610.218721
921.912204	2603.100612
922.216946	2600.239757
922.521647	2596.249683
922.826310	2597.235229
923.130932	2591.316914
923.435516	2586.747108
923.740059	2581.179154
924.044564	2582.502457
924.349028	2582.686459
924.653454	2571.364027
924.957840	2570.900241
925.262186	2567.505024
925.566493	2569.980231
925.870761	2564.538305
926.174989	2567.119376
926.479178	2564.039231
926.783328	2564.707184
927.087438	2564.787842
927.391509	2562.816751
927.695541	2559.532439
927.999533	2558.932542
928.303486	2557.662171
928.607400	2556.676626
928.911275	2555.998591
929.215110	2555.078580
929.518906	2559.451781
929.822663	2560.613767
930.126381	2555.829712
930.430060	2558.370453
930.733699	2557.531101
931.037299	2558.645196
931.340861	2558.546894
931.644383	2560.389436
931.947866	2561.271637
932.251309	2557.904147
932.554714	2556.172510
932.858080	2559.734086
933.161407	2557.294167
933.464694	2557.989846
933.767943	2556.512788
934.071153	2553.891388
934.374323	2556.336348
934.677455	2553.236038
934.980548	2553.281409
935.283602	2554.229146
935.586617	2554.594629
935.889593	2554.375339
936.192530	2553.820812
936.495428	2554.637479
936.798287	2554.937428
937.101108	2555.973385
937.403890	2557.788200
937.706632	2561.478325
938.009336	2565.705332
938.312002	2570.892680
938.614628	2572.057186
938.917216	2573.405695
939.219765	2575.971642
939.522275	2575.147413
939.824747	2576.100192
940.127179	2572.306723
940.429573	2570.212124
940.731929	2569.783626
941.034246	2565.165929
941.336524	2568.094839
941.638763	2567.434448
941.940964	2567.908317
942.243126	2569.322360
942.545250	2566.723645
942.847335	2560.396997
943.149381	2561.337173
943.451389	2563.076371
943.753359	2559.020762
944.055290	2556.621173
944.357182	2560.092007
944.659036	2558.499003
944.960851	2558.499003
945.262628	2555.544887
945.564367	2559.608057
945.866067	2558.927501
946.167729	2558.325083
946.469352	2559.144271
946.770937	2558.582182
947.072484	2556.217881
947.373992	2556.122099
947.675462	2556.285936
947.976893	2557.407593
948.278286	2554.297201
948.579641	2554.145967
948.880958	2555.192006
949.182236	2552.376522
949.483476	2553.243600
949.784678	2555.446584
950.085841	2552.757129
950.386967	2556.117058
950.688054	2552.691594
950.989103	2551.564896
951.290114	2556.371636
951.591087	2555.378529
951.892021	2556.389280
952.192917	2561.838767
952.493776	2559.161915
952.794596	2561.301884
953.095378	2562.821792
953.396122	2563.242729
953.696828	2562.519323
953.997496	2560.046637
954.298126	2556.593447
954.598718	2556.348951
954.899272	2555.411296
955.199788	2556.900957
955.500266	2553.407437
955.800706	2548.923331
956.101108	2545.959133
956.401472	2547.907539
956.701798	2545.512991
957.002087	2541.729605
957.302337	2548.174720
957.602550	2547.297559
957.902724	2546.566592
958.202861	2544.789585
958.502960	2541.810263
958.803022	2544.494677
959.103045	2545.623896
959.403031	2543.390665
959.702979	2542.460572
960.002889	2542.069883
960.302762	2542.543751
960.602596	2544.141797
960.902393	2541.059131
961.202153	2541.850592
961.501875	2539.650129
961.801559	2544.411498
962.101205	2542.301776
962.400814	2543.524255
962.700385	2540.456713
962.999918	2542.233720
963.299414	2537.547967
963.598873	2541.870757
963.898293	2539.451003
964.197677	2542.117773
964.497022	2540.940664
964.796331	2541.812784
965.095601	2540.295396
965.394835	2539.914789
965.694030	2539.342618
965.993189	2539.917310
966.292309	2537.492515
966.591393	2541.724563
966.890439	2537.847916
967.189447	2539.917310
967.488419	2543.199101
967.787353	2540.492001
968.086249	2541.089378
968.385108	2540.544933
968.683930	2538.793133
968.982714	2540.910417
969.281462	2542.049718
969.580172	2539.302289
969.878844	2541.419574
970.177480	2542.815973
970.476078	2540.353370
970.774639	2543.446117
971.073162	2542.674821
971.371649	2537.810107
971.670098	2538.223482
971.968510	2539.176260
972.266885	2536.179294
972.565223	2540.766744
972.863524	2538.273894
973.161788	2542.750438
973.460014	2543.274718
973.758204	2540.242464
974.056356	2538.505787
974.354471	2540.134079
974.652550	2540.441590
974.950591	2543.693134
975.248595	2539.990407
975.546563	2540.779347
975.844493	2541.172557
976.142386	2540.746580
976.440243	2538.624254
976.738062	2541.215407
977.035845	2538.031918
977.333590	2536.632998
977.631299	2542.763041
977.928971	2540.633154
978.226606	2539.244316
978.524204	2540.600386
978.821765	2538.904038
979.119290	2539.292207
979.416777	2539.924872
979.714228	2539.423277
980.011642	2537.754655
980.309020	2539.962680
980.606360	2536.970755
980.903664	2541.477547
981.200931	2539.589635
981.498162	2537.696682
981.795356	2544.333361
982.092513	2545.913762
982.389633	2547.960471
982.686717	2551.746377
982.983764	2553.926676
983.280775	2556.658982
983.577749	2553.437684
983.874686	2554.140925
984.171587	2547.335368
984.468451	2547.289997
984.765279	2547.506767
985.062070	2543.287321
985.358824	2542.410160
985.655543	2540.794471
985.952224	2542.929399
986.248869	2541.578370
986.545478	2536.653163
986.842050	2538.137782
987.138586	2533.394057
987.435086	2533.918337
987.731549	2534.324150
988.027975	2538.301620
988.324366	2534.735004
988.620719	2538.888914
988.917037	2534.354397
989.213318	2536.131403
989.509563	2535.712988
989.805772	2537.507638
990.101944	2533.404139
990.398080	2535.299613
990.694180	2539.357742
990.990244	2534.578728
991.286271	2539.214069
991.582262	2537.101825
991.878217	2537.767258
992.174136	2537.114428
992.470019	2532.852133
992.765865	2534.767771
993.061676	2537.069058
993.357450	2539.312371
993.653188	2535.198790
993.948890	2540.315561
994.244556	2536.902700
994.540186	2537.522762
994.835780	2536.648122
995.131337	2537.905889
995.426859	2538.694830
995.722345	2540.333205
996.017795	2538.709953
996.313208	2539.519059
996.608586	2539.667773
996.903928	2538.614172
997.199234	2540.192053
997.494504	2539.088040
997.789738	2539.186343
998.084936	2540.023174
998.380099	2536.882535
998.675225	2537.689120
998.970316	2540.882691
999.265371	2537.242978
999.560390	2536.663245
999.855373	2535.324819
1000.150320	2539.680376
1000.445232	2537.328677
1000.740108	2540.716333
1001.034948	2537.585776
1001.329752	2535.884387
1001.624521	2537.248019
1001.919254	2531.700229
1002.213951	2531.138140
1002.508613	2532.985723
1002.803239	2535.249201
1003.097829	2531.496062
1003.392384	2535.523944
1003.686903	2534.402287
1003.981386	2537.711805
1004.275834	2536.242309
1004.570246	2537.779861
1004.864623	2534.170394
1005.158964	2535.191228
1005.453270	2534.805580
1005.747540	2535.017308
1006.041775	2534.518234
1006.335974	2534.094777
1006.630138	2535.264325
1006.924266	2535.655014
1007.218359	2535.415559
1007.512416	2533.807431
1007.806438	2535.476053
1008.100425	2536.527134
1008.394376	2534.074612
1008.688292	2534.044366
1008.982172	2533.822555
1009.276017	2536.224665
1009.569827	2533.542771
1009.863602	2536.660724
1010.157341	2535.710467
1010.451045	2534.651825
1010.744714	2534.992102
1011.038347	2536.708615
1011.331945	2534.160312
1011.625508	2536.897659
1011.919036	2535.297092
1012.212528	2534.727442
1012.505986	2535.597041
1012.799408	2535.896990
1013.092795	2534.001516
1013.386147	2532.199303
1013.679464	2534.964376
1013.972745	2534.792977
1014.265992	2533.182328
1014.559204	2537.351363
1014.852380	2533.935981
1015.145521	2534.954294
1015.438628	2537.124511
1015.731699	2535.385313
1016.024736	2534.049407
1016.317737	2535.634850
1016.610703	2535.574356
1016.903635	2530.855836
1017.196531	2528.945238
1017.489393	2532.731145
1017.782219	2527.410207
1018.075011	2532.000178
1018.367768	2535.907072
1018.660490	2531.624612
1018.953177	2531.624612
1019.245829	2531.624612
