Dividing Wavelength (nm)	Counts (n)	Blue Motor Position (mm): 11.100000	Red Motor Position (mm): 0.000000	
326.493990	2140.708337
326.888308	2140.708337
327.282561	2140.708337
327.676750	2104.749786
328.070874	2102.312388
328.464933	2105.810949
328.858929	2114.544748
329.252859	2124.238887
329.646726	2136.745990
330.040528	2147.579429
330.434265	2164.215237
330.827938	2182.179389
331.221547	2199.311750
331.615091	2220.618187
332.008571	2238.998234
332.401986	2258.688981
332.795338	2278.861158
333.188625	2295.920423
333.581847	2316.979843
333.975006	2333.850064
334.368100	2356.237828
334.761129	2370.932792
335.154095	2386.857797
335.546996	2405.603327
335.939833	2424.979002
336.332606	2438.159099
336.725315	2451.603856
337.117960	2458.696760
337.510540	2469.328553
337.903056	2481.112250
338.295508	2487.025524
338.687896	2497.891731
339.080220	2502.716115
339.472480	2508.127794
339.864676	2514.260357
340.256807	2518.804957
340.648875	2518.852848
341.040879	2522.369053
341.432818	2526.376771
341.824694	2527.127902
342.216506	2527.881555
342.608253	2528.678057
342.999937	2527.770650
343.391557	2528.887265
343.783113	2526.248221
344.174605	2526.260824
344.566033	2523.122706
344.957397	2520.967613
345.348697	2520.491223
345.739934	2519.072139
346.131106	2515.525687
346.522215	2516.541479
346.913260	2513.098371
347.304241	2512.037208
347.695159	2510.718947
348.086012	2510.151817
348.476802	2508.145438
348.867528	2505.632423
349.258191	2504.765344
349.648789	2502.975734
350.039324	2499.882987
350.429796	2500.354334
350.820203	2497.990033
351.210548	2500.097236
351.600828	2495.424086
351.991045	2496.533140
352.381198	2494.872080
352.771288	2495.237563
353.161314	2495.419045
353.551276	2492.938797
353.941175	2495.373674
354.331010	2494.970382
354.720782	2493.548777
355.110490	2494.441061
355.500135	2492.406955
355.889717	2494.408293
356.279235	2494.065495
356.668689	2492.500217
357.058080	2493.541215
357.447408	2494.115907
357.836672	2491.819661
358.225873	2494.728407
358.615010	2491.325628
359.004084	2499.701505
359.393095	2496.661689
359.782043	2498.635301
360.170927	2495.895434
360.559748	2498.753768
360.948505	2500.208141
361.337199	2499.958604
361.725830	2500.739983
362.114398	2499.280569
362.502903	2499.212513
362.891344	2502.827020
363.279722	2503.023625
363.668037	2504.591424
364.056289	2502.451454
364.444478	2503.621002
364.832603	2504.649398
365.220665	2507.850530
365.608665	2506.088647
365.996601	2504.505725
366.384474	2505.776095
366.772284	2504.488081
367.160031	2505.289624
367.547715	2507.270798
367.935336	2506.252484
368.322893	2507.187618
368.710388	2507.288442
369.097820	2508.276508
369.485189	2507.359018
369.872495	2509.884636
370.259738	2507.727022
370.646918	2506.713750
371.034035	2508.301713
371.421090	2508.715088
371.808081	2509.458658
372.195010	2510.343381
372.581875	2511.308762
372.968678	2511.444873
373.355418	2512.735408
373.742096	2512.218690
374.128710	2511.838083
374.515262	2508.667197
374.901751	2511.737260
375.288177	2510.875223
375.674540	2513.179030
376.060841	2514.272960
376.447079	2511.336488
376.833254	2511.223062
377.219367	2507.991683
377.605417	2512.876561
377.991404	2509.985459
378.377329	2509.279697
378.763191	2509.546878
379.148991	2513.882271
379.534727	2513.736077
379.920402	2515.545852
380.306013	2513.567199
380.691563	2513.075686
381.077049	2512.674914
381.462474	2514.698938
381.847835	2515.830677
382.233134	2514.494771
382.618371	2514.961078
383.003545	2513.630213
383.388657	2513.239524
383.773706	2515.666839
384.158693	2514.199863
384.543618	2514.552744
384.928480	2516.022241
385.313280	2515.424864
385.698017	2515.828156
386.082692	2516.249093
386.467305	2515.240862
386.851856	2516.319669
387.236344	2518.179854
387.620770	2517.743795
388.005133	2521.484331
388.389435	2519.876203
388.773674	2519.863600
389.157851	2518.731861
389.541965	2520.765966
389.926018	2520.140863
390.310008	2516.778414
390.693936	2516.549041
391.077802	2519.462828
391.461606	2522.172448
391.845348	2520.279495
392.229027	2521.282685
392.612645	2522.351409
392.996200	2519.677077
393.379694	2521.330576
393.763125	2520.602129
394.146494	2520.224042
394.529801	2522.522808
394.913047	2520.604649
395.296230	2521.355781
395.679351	2521.101203
396.062410	2525.418951
396.445408	2522.762263
396.828343	2523.432737
397.211217	2516.859072
397.594028	2519.745133
397.976778	2518.235307
398.359466	2521.156656
398.742092	2518.366377
399.124656	2523.331914
399.507158	2523.649506
399.889598	2523.747809
400.271977	2525.769312
400.654294	2525.865093
401.036549	2522.762263
401.418742	2526.860721
401.800874	2523.079856
402.182944	2525.471883
402.564952	2523.755371
402.946898	2525.459281
403.328783	2526.013807
403.710606	2524.365350
404.092367	2525.870135
404.474067	2527.271575
404.855705	2525.754188
405.237282	2527.037162
405.618797	2527.730320
406.000250	2528.640249
406.381642	2526.712007
406.762972	2529.683767
407.144240	2527.400125
407.525447	2529.272913
407.906593	2525.882738
408.287677	2526.255783
408.668700	2526.457429
409.049661	2526.059178
409.430560	2529.991278
409.811399	2528.927594
410.192176	2528.035310
410.572891	2528.730989
410.953545	2527.942049
411.334138	2528.627646
411.714669	2527.193437
412.095139	2530.911288
412.475547	2529.860208
412.855894	2528.967924
413.236180	2527.601771
413.616405	2529.638397
413.996568	2530.901206
414.376670	2530.344159
414.756711	2527.016997
415.136691	2529.860208
415.516609	2533.058820
415.896466	2531.364992
416.276262	2532.932791
416.655997	2530.820548
417.035670	2524.602284
417.415283	2530.341638
417.794834	2528.940197
418.174324	2528.904909
418.553753	2532.927750
418.933121	2532.358100
419.312428	2532.844571
419.691674	2533.489839
420.070859	2531.692667
420.449983	2530.427338
420.829045	2533.590662
421.208047	2528.355423
421.586988	2536.005374
421.965867	2532.988244
422.344686	2533.883049
422.723444	2531.450692
423.102141	2533.094108
423.480777	2533.257946
423.859352	2534.316588
424.237866	2534.603934
424.616319	2532.900024
424.994712	2533.255425
425.373044	2532.743748
425.751314	2535.206352
426.129524	2533.941022
426.507673	2534.840868
426.885762	2531.995137
427.263789	2534.828265
427.641756	2535.415559
428.019662	2534.508152
428.397508	2533.961187
428.775292	2534.583769
429.153016	2535.352545
429.530679	2539.652649
429.908282	2535.254243
430.285824	2535.229037
430.663305	2534.397246
431.040726	2537.270704
431.418086	2535.438245
431.795385	2535.856660
432.172624	2535.481094
432.549802	2536.887576
432.926920	2534.757689
433.303977	2537.578214
433.680974	2535.438245
434.057910	2536.706095
434.434786	2532.307688
434.811601	2534.858512
435.188355	2535.483615
435.565050	2535.483615
435.941683	2536.219623
436.318257	2534.301464
436.694770	2530.129910
437.071222	2535.876825
437.447614	2532.612678
437.823946	2532.292565
438.200218	2535.715508
438.576429	2539.231713
438.952580	2536.690971
439.328670	2538.452855
439.704700	2540.003009
440.080670	2539.554347
440.456580	2536.204500
440.832429	2537.411856
441.208218	2536.028060
441.583947	2538.069727
441.959616	2538.596527
442.335224	2539.826569
442.710773	2539.075437
443.086261	2542.032074
443.461689	2535.990251
443.837057	2539.703061
444.212365	2535.574356
444.587612	2537.865560
444.962800	2535.861702
445.337927	2539.793802
445.712995	2538.120138
446.088002	2541.366642
446.462949	2540.045859
446.837837	2539.788760
447.212664	2539.755993
447.587431	2539.864378
447.962139	2539.017464
448.336786	2541.618699
448.711374	2538.437731
449.085901	2541.361600
449.460369	2540.184491
449.834776	2538.437731
450.209124	2538.276414
450.583412	2540.829759
450.957640	2539.267001
451.331808	2539.846734
451.705917	2539.839172
452.079965	2542.594162
452.453954	2542.188350
452.827883	2544.734132
453.201752	2541.901004
453.575562	2543.030222
453.949311	2541.772454
454.323001	2540.519728
454.696632	2538.357073
455.070202	2544.199770
455.443713	2543.284801
455.817164	2542.193391
456.190556	2536.910262
456.563888	2540.340767
456.937160	2536.431352
457.310373	2540.323123
457.683526	2539.705581
458.056619	2542.359749
458.429653	2541.507794
458.802628	2540.721374
459.175542	2542.800850
459.548398	2541.369162
459.921194	2541.177598
460.293930	2542.006868
460.666607	2543.113401
461.039224	2544.850079
461.411782	2542.241282
461.784280	2544.592980
462.156719	2542.921837
462.529099	2544.713968
462.901419	2543.660367
463.273680	2541.298586
463.645882	2541.737166
464.018024	2543.463762
464.390106	2542.581560
464.762130	2545.515511
465.134094	2544.149358
465.505999	2543.367980
465.877845	2543.741025
466.249631	2547.542055
466.621358	2544.910573
466.993026	2546.007024
467.364634	2546.813608
467.736184	2544.131714
468.107674	2544.106509
468.479105	2542.301776
468.850477	2542.470654
469.221790	2544.771941
469.593043	2541.974101
469.964238	2546.334699
470.335373	2542.039636
470.706449	2543.360418
471.077467	2545.031560
471.448425	2546.674977
471.819324	2544.802188
472.190164	2546.730429
472.560945	2545.195398
472.931667	2543.098278
473.302330	2543.609955
473.672934	2546.105326
474.043479	2545.641540
474.413965	2546.468289
474.784393	2544.910573
475.154761	2540.118956
475.525070	2541.323792
475.895321	2542.155582
476.265513	2540.665921
476.635645	2546.135573
477.005719	2544.121632
477.375734	2547.990718
477.745691	2542.752959
478.115588	2546.904349
478.485427	2546.261602
478.855207	2548.187323
479.224928	2546.082641
479.594591	2547.473999
479.964194	2546.483413
480.333739	2547.658002
480.703226	2550.256716
481.072653	2545.747404
481.442022	2545.767569
481.811333	2545.830583
482.180584	2547.237065
482.549777	2546.024668
482.918912	2551.539690
483.287988	2547.005172
483.657005	2547.771427
484.025964	2545.341591
484.394864	2546.470810
484.763706	2549.414844
485.132489	2547.022816
485.501213	2547.153886
485.869879	2548.333516
486.238487	2548.146993
486.607036	2548.429298
486.975527	2546.705223
487.343959	2548.252858
487.712333	2548.663712
488.080648	2547.320244
488.448905	2548.058773
488.817104	2548.842673
489.185244	2549.664381
489.553326	2546.992569
489.921350	2550.057591
490.289315	2548.436860
490.657222	2547.799154
491.025070	2549.787889
491.392861	2548.797302
491.760593	2548.618341
492.128267	2546.828732
492.495883	2550.349978
492.863440	2548.610780
493.230939	2548.900646
493.598380	2547.816798
493.965763	2543.733463
494.333088	2545.142466
494.700354	2546.911911
495.067563	2548.252858
495.434713	2544.356046
495.801805	2550.957437
496.168839	2550.768393
496.535815	2548.739329
496.902733	2549.031716
497.269593	2552.573127
497.636395	2549.389638
498.003139	2546.382590
498.369825	2548.537683
498.736453	2549.145142
499.103023	2550.055070
499.469535	2548.552806
499.835989	2552.686552
500.202385	2548.913249
500.568723	2550.032385
500.935003	2548.033567
501.301226	2550.213867
501.667390	2550.654967
502.033497	2552.560524
502.399546	2550.750749
502.765537	2550.085317
503.131470	2548.285625
503.497345	2548.464586
503.863163	2551.859803
504.228923	2550.234031
504.594625	2548.522559
504.960269	2552.184958
505.325856	2551.655637
505.691385	2551.333003
506.056856	2551.063301
506.422270	2550.176058
506.787625	2550.544062
507.152924	2548.638506
507.518164	2551.539690
507.883347	2549.888712
508.248472	2551.910215
508.613540	2550.891902
508.978550	2549.130018
509.343503	2551.781665
509.708398	2549.510626
510.073236	2548.308310
510.438016	2552.439536
510.802738	2551.005328
511.167403	2554.433312
511.532010	2550.211346
511.896561	2551.872406
512.261053	2552.318548
512.625488	2548.300749
512.989866	2547.141283
513.354186	2551.010369
513.718449	2545.144986
514.082655	2548.275543
514.446803	2552.076573
514.810894	2550.564227
515.174927	2551.373332
515.538904	2551.552293
515.902822	2551.776624
516.266684	2550.244113
516.630488	2552.111861
516.994235	2554.198899
517.357925	2551.138918
517.721558	2553.656975
518.085133	2551.358208
518.448651	2555.141594
518.812112	2553.094886
519.175516	2552.270657
519.538863	2554.014897
519.902152	2553.445246
520.265385	2553.725030
520.628560	2552.986501
520.991678	2555.035730
521.354739	2554.990360
521.717743	2553.208312
522.080690	2556.459856
522.443580	2552.857952
522.806413	2554.468600
523.169189	2552.147149
523.531908	2554.030020
523.894569	2554.254351
524.257174	2554.569423
524.619722	2554.816440
524.982213	2556.361554
525.344647	2555.126471
525.707025	2558.403221
526.069345	2555.832233
526.431608	2556.918601
526.793815	2557.768036
527.155964	2558.471277
527.518057	2557.934394
527.880093	2556.795093
528.242072	2558.685526
528.603995	2560.185269
528.965860	2556.689229
529.327669	2559.545042
529.689421	2558.642676
530.051117	2562.315156
530.412755	2559.590413
530.774337	2556.606050
531.135862	2559.305588
531.497331	2558.372974
531.858743	2556.527912
532.220098	2559.507234
532.581396	2557.437840
532.942638	2557.069836
533.303824	2563.212482
533.664953	2560.313818
534.026025	2560.628890
534.387040	2563.399004
534.747999	2562.806669
535.108902	2561.367419
535.469748	2561.100238
535.830537	2563.235167
536.191270	2562.652914
536.551947	2562.894889
536.912567	2561.783315
537.273131	2566.050651
537.633638	2559.449260
537.994089	2561.979920
538.354483	2565.372616
538.714821	2565.740620
539.075103	2566.113666
539.435328	2566.554767
539.795497	2565.072667
540.155609	2565.181052
540.515665	2565.758264
540.875665	2566.877401
541.235609	2565.801114
541.595496	2566.721125
541.955328	2564.571073
542.315102	2565.065106
542.674821	2565.682647
543.034483	2571.812690
543.394090	2566.340518
543.753640	2569.304716
544.113134	2569.506362
544.472571	2568.251115
544.831953	2568.326732
545.191278	2568.165415
545.550548	2566.464026
545.909761	2565.791032
546.268918	2568.803121
546.628019	2570.519634
546.987064	2568.624160
547.346053	2568.132648
547.704986	2569.957546
548.063863	2570.479305
548.422684	2569.617268
548.781449	2568.477967
549.140158	2570.146589
549.498811	2570.252453
549.857408	2571.842937
550.215949	2569.022412
550.574434	2566.365723
550.932864	2568.253636
551.291237	2566.819427
551.649555	2572.185736
552.007817	2569.957546
552.366022	2571.744635
552.724173	2568.588872
553.082267	2571.502659
553.440305	2570.325550
553.798288	2568.805642
554.156215	2570.769171
554.514086	2568.586352
554.871902	2569.506362
555.229661	2571.023750
555.587365	2567.946125
555.945014	2567.706670
556.302606	2569.594582
556.660143	2570.759089
557.017625	2569.279510
557.375050	2569.823955
557.732421	2569.579459
558.089735	2571.759758
558.446994	2569.118193
558.804197	2572.773030
559.161345	2567.842782
559.518437	2568.520817
559.875474	2570.015519
560.232455	2567.555436
560.589381	2568.546023
560.946251	2572.750345
561.303065	2569.473595
561.659825	2570.262535
562.016528	2569.912175
562.373177	2570.328070
562.729770	2569.682803
563.086307	2570.189439
563.442789	2569.294634
563.799216	2569.269428
564.155587	2568.576269
564.511904	2570.106260
564.868164	2569.773543
565.224370	2566.988306
565.580520	2570.005437
565.936615	2566.673234
566.292654	2571.432083
566.648638	2570.542319
567.004567	2567.348748
567.360441	2568.525858
567.716260	2567.520148
568.072023	2568.210786
568.427732	2563.235167
568.783385	2565.667524
569.138982	2563.615774
569.494525	2563.565362
569.850013	2561.813562
570.205445	2568.097360
570.560823	2569.405539
570.916145	2570.000395
571.271412	2564.414797
571.626625	2568.412432
571.981782	2567.762123
572.336884	2567.076526
572.691931	2566.224571
573.046923	2567.615930
573.401860	2566.461505
573.756743	2569.375292
574.111570	2567.860426
574.466342	2566.615261
574.821059	2566.774057
575.175722	2570.738924
575.530330	2566.700960
575.884882	2566.133830
576.239380	2567.683985
576.593823	2567.174829
576.948211	2570.426373
577.302544	2567.391598
577.656823	2567.749520
578.011047	2567.570559
578.365216	2569.166084
578.719330	2566.804304
579.073389	2568.535940
579.427394	2568.054510
579.781344	2567.041238
580.135239	2566.562328
580.489080	2565.544015
580.842866	2564.666855
581.196597	2573.055335
581.550273	2569.022412
581.903895	2569.700447
582.257463	2569.478636
582.610975	2567.036197
582.964434	2569.763461
583.317837	2569.087947
583.671186	2570.983420
584.024481	2570.993503
584.377721	2571.043914
584.730906	2568.243553
585.084037	2569.718091
585.437113	2570.857392
585.790135	2570.391085
586.143103	2569.259346
586.496016	2568.409911
586.848874	2565.289437
587.201679	2568.893862
587.554428	2567.651218
587.907124	2569.967628
588.259765	2568.185580
588.612352	2570.096177
588.964884	2572.873853
589.317362	2571.910993
589.669786	2575.386868
590.022155	2571.041394
590.374470	2572.551219
590.726731	2572.261353
591.078937	2575.875860
591.431090	2572.031980
591.783188	2574.270253
592.135232	2575.364183
592.487222	2574.141703
592.839157	2577.950295
593.191038	2573.806467
593.542866	2573.408215
593.894639	2574.406364
594.246358	2577.816704
594.598022	2577.995665
594.949633	2576.894173
595.301190	2574.857547
595.652692	2577.849472
596.004141	2576.778227
596.355535	2578.817373
596.706876	2578.406519
597.058162	2579.124884
597.409395	2577.368042
597.760573	2583.407344
598.111698	2581.625296
598.462768	2583.898857
598.813785	2581.358115
599.164748	2581.499267
599.515657	2584.153435
599.866511	2584.465986
600.217312	2581.310224
600.568060	2586.232911
600.918753	2591.087542
601.269392	2585.857345
601.619978	2585.920359
601.970510	2589.350864
602.320988	2590.109558
602.671412	2591.422779
603.021783	2590.538056
603.372100	2594.001329
603.722363	2594.455033
604.072572	2593.121647
604.422728	2594.432347
604.772830	2591.115268
605.122878	2593.847574
605.472872	2594.933942
605.822813	2595.337235
606.172701	2596.670620
606.522534	2600.199428
606.872314	2601.996599
607.222041	2602.145313
607.571714	2606.329471
607.921333	2607.131014
608.270899	2606.737804
608.620411	2609.903649
608.969870	2612.109153
609.319276	2614.165944
609.668627	2618.156017
610.017926	2621.281533
610.367171	2627.961062
610.716362	2628.485342
611.065500	2629.400311
611.414585	2629.075157
611.763616	2628.213119
612.112594	2631.212606
612.461518	2632.523306
612.810389	2635.863070
613.159207	2638.960859
613.507971	2637.297279
613.856682	2642.477064
614.205340	2645.771458
614.553945	2647.750111
614.902496	2651.490647
615.250994	2655.573982
615.599439	2655.183292
615.947830	2659.122954
616.296169	2664.038079
616.644454	2665.966321
616.992686	2668.275169
617.340864	2675.375634
617.688990	2678.906962
618.037063	2682.773527
618.385082	2688.714527
618.733048	2695.336083
619.080961	2698.892617
619.428821	2700.420087
619.776628	2707.076930
620.124382	2710.144472
620.472083	2712.914586
620.819731	2716.415668
621.167326	2718.744681
621.514868	2721.492110
621.862357	2720.710731
622.209793	2721.696276
622.557176	2723.548900
622.904506	2725.154508
623.251783	2726.379508
623.599007	2730.077195
623.946179	2734.286558
624.293297	2737.013822
624.640363	2741.306365
624.987376	2743.088413
625.334336	2747.322982
625.681243	2750.846748
626.028097	2753.568972
626.374899	2757.869076
626.721647	2762.509458
627.068343	2765.733276
627.414987	2770.965993
627.761577	2772.856426
628.108115	2778.031171
628.454600	2782.003600
628.801032	2791.977523
629.147412	2791.813685
629.493739	2802.967238
629.840014	2805.298772
630.186236	2814.753456
630.532405	2811.872436
630.878521	2823.479693
631.224585	2827.008501
631.570597	2829.955055
631.916556	2840.329750
632.262462	2845.552385
632.608316	2850.399455
632.954117	2856.297605
633.299866	2858.936649
633.645562	2870.029708
633.991206	2870.811087
634.336797	2870.112887
634.682336	2872.893083
635.027823	2877.500698
635.373257	2877.961963
635.718639	2878.692931
636.063968	2885.594270
636.409245	2884.991852
636.754470	2893.087945
637.099642	2893.982750
637.444762	2897.118348
637.789829	2904.065058
638.134845	2905.390881
638.479808	2909.862385
638.824719	2918.006369
639.169577	2918.480237
639.514383	2924.703542
639.859137	2926.160435
640.203839	2931.751075
640.548489	2939.514452
640.893086	2937.772733
641.237632	2943.343208
641.582125	2951.923252
641.926566	2956.198150
642.270955	2965.398256
642.615292	2974.578197
642.959576	2986.520691
643.303809	2990.399859
643.647990	3000.209944
643.992118	3003.587517
644.336195	3004.328567
644.680219	3017.564116
645.024192	3017.743077
645.368112	3044.521686
645.711981	3056.769170
646.055797	3072.714339
646.399562	3083.857810
646.743274	3112.547016
647.086935	3129.356744
647.430544	3138.650111
647.774101	3153.556803
648.117606	3158.978564
648.461059	3164.309584
648.804460	3169.441479
649.147810	3158.290446
649.491108	3161.302536
649.834354	3165.834533
650.177548	3160.702638
650.520690	3153.458500
650.863781	3155.921104
651.206820	3172.360307
651.549807	3162.968637
651.892742	3162.386384
652.235626	3165.549708
652.578458	3173.633198
652.921238	3164.296981
653.263967	3181.603262
653.606644	3171.936850
653.949269	3186.069725
654.291843	3181.227696
654.634365	3196.373843
654.976836	3206.803990
655.319255	3207.509752
655.661622	3217.854200
656.003938	3226.126733
656.346203	3218.691031
656.688416	3237.139134
657.030577	3230.938514
657.372687	3231.916498
657.714746	3239.412694
658.056753	3253.994232
658.398708	3253.290991
658.740612	3252.338213
659.082465	3278.174126
659.424266	3281.899539
659.766016	3285.919859
660.107715	3297.683391
660.449362	3309.739311
660.790958	3316.451607
661.132503	3321.528049
661.473996	3342.930268
661.815438	3344.465299
662.156829	3353.176413
662.498168	3358.598174
662.839456	3351.326309
663.180693	3375.470916
663.521879	3385.744787
663.863013	3386.954664
664.204097	3411.467275
664.545129	3423.087134
664.886110	3440.121193
665.227040	3458.796148
665.567918	3452.361115
665.908746	3474.716112
666.249522	3476.808190
666.590248	3479.568222
666.930922	3500.743589
667.271545	3515.748583
667.612118	3524.537835
667.952639	3520.325951
668.293109	3543.308571
668.633528	3536.394629
668.973896	3538.915206
669.314213	3546.955846
669.654480	3558.237948
669.994695	3560.143505
670.334859	3560.768608
670.674973	3577.376689
671.015035	3578.447934
671.355047	3592.963937
671.695008	3597.763115
672.034918	3591.693566
672.374777	3605.899538
672.714585	3608.410032
673.054342	3619.659367
673.394049	3624.042650
673.733705	3647.894870
674.073310	3661.208557
674.412864	3642.490753
674.752368	3656.527846
675.091820	3666.403466
675.431223	3642.200886
675.770574	3655.174296
676.109875	3641.845485
676.449125	3658.151097
676.788324	3651.043070
677.127473	3638.382212
677.466571	3640.948160
677.805619	3654.614728
678.144616	3656.789986
678.483562	3658.572033
678.822458	3651.058194
679.161303	3661.415244
679.500098	3665.712828
679.838842	3664.162673
680.177535	3677.804035
680.516179	3688.670243
680.854771	3700.176676
681.193314	3740.145464
681.531805	3789.667239
681.870247	3865.675236
682.208638	3909.916402
682.546978	3924.011469
682.885268	3924.747477
683.223508	3899.093045
683.561697	3886.187691
683.899836	3884.365314
684.237925	3875.268552
684.575963	3859.230121
684.913951	3850.672763
685.251889	3896.335534
685.589776	3877.073285
685.927614	3871.137327
686.265401	3916.958894
686.603137	3911.771547
686.940824	3956.370635
687.278460	3970.848829
687.616046	3985.369873
687.953582	4015.011857
688.291068	4017.597969
688.628504	4061.624886
688.965889	4044.827762
689.303224	4024.174154
689.640510	4015.344573
689.977745	3991.129391
690.314930	3956.080769
690.652065	3933.950103
690.989150	3894.109865
691.326185	3876.085219
691.663170	3866.539794
692.000105	3833.810103
692.336990	3798.970689
692.673825	3803.943787
693.010610	3775.206689
693.347345	3737.826534
693.684030	3748.884305
694.020665	3733.075246
694.357251	3692.945141
694.693786	3707.047769
695.030272	3689.476827
695.366707	3684.798636
695.703093	3667.567972
696.039429	3684.375179
696.375716	3691.468083
696.711952	3674.449148
697.048139	3672.422604
697.384276	3668.508148
697.720363	3680.039787
698.056400	3695.775749
698.392388	3665.233918
698.728326	3657.258813
699.064214	3652.759583
699.400053	3654.486178
699.735842	3650.561640
700.071581	3642.168119
700.407270	3628.713279
700.742910	3628.254534
701.078501	3600.946604
701.414042	3609.781226
701.749533	3602.267386
702.084974	3564.045358
702.420366	3607.860546
702.755709	3575.443407
703.091002	3549.539437
703.426246	3586.599480
703.761440	3560.783731
704.096584	3539.368910
704.431679	3565.093918
704.766725	3555.825756
705.101721	3552.496074
705.436668	3577.054055
705.771565	3546.439128
706.106413	3562.533012
706.441212	3593.546190
706.775961	3604.556070
707.110661	3584.913214
707.445311	3604.122531
707.779913	3628.982981
708.114465	3637.379023
708.448967	3647.486536
708.783421	3689.295346
709.117825	3716.681414
709.452180	3720.643761
709.786485	3750.482350
710.120742	3800.218374
710.454949	3787.945685
710.789107	3832.927901
711.123216	3880.967577
711.457275	3870.807131
711.791286	3922.552055
712.125247	3940.758182
712.459159	3866.927963
712.793023	3918.098195
713.126837	3918.277156
713.460602	3912.217689
713.794318	3862.826984
714.127985	3882.457237
714.461602	3835.932429
714.795171	3822.333916
715.128691	3794.695790
715.462162	3764.373250
715.795584	3741.509097
716.128957	3739.180083
716.462281	3705.318653
716.795556	3694.238197
717.128782	3677.075589
717.461960	3638.225937
717.795088	3652.978873
718.128167	3628.020121
718.461198	3589.220880
718.794180	3588.459666
719.127113	3588.159717
719.459997	3578.586566
719.792833	3551.031619
720.125619	3547.951474
720.458357	3524.253010
720.791046	3540.961914
721.123686	3521.034233
721.456278	3493.169255
721.788821	3510.157944
722.121315	3490.734378
722.453761	3474.564877
722.786158	3487.031650
723.118506	3508.149044
723.450805	3469.526244
723.783056	3489.640448
724.115259	3511.859333
724.447412	3514.800846
724.779518	3506.490504
725.111574	3510.253726
725.443582	3536.102242
725.775542	3528.469935
726.107453	3565.131726
726.439315	3564.156263
726.771129	3573.253025
727.102895	3596.931325
727.434612	3634.621512
727.766281	3645.157523
728.097901	3643.229282
728.429473	3648.598111
728.760996	3662.680574
729.092471	3657.636899
729.423897	3653.346877
729.755276	3664.054288
730.086606	3666.287519
730.417887	3691.049667
730.749120	3742.313161
731.080305	3796.984474
731.411442	3815.659428
731.742530	3794.708393
732.073570	3799.479845
732.404562	3844.598172
732.735506	3839.879652
733.066401	3812.029798
733.397249	3775.299951
733.728048	3727.797158
734.058798	3673.309847
734.389501	3624.680356
734.720156	3581.608738
735.050762	3549.766289
735.381320	3551.150086
735.711831	3511.156092
736.042293	3493.348216
736.372707	3514.168182
736.703073	3492.143380
737.033391	3484.569047
737.363661	3501.600585
737.693883	3521.896270
738.024056	3527.532280
738.354182	3521.729912
738.684260	3571.806214
739.014290	3581.132349
739.344272	3579.632605
739.674207	3609.907255
740.004093	3617.368162
740.333931	3613.869602
740.663722	3621.022999
740.993464	3617.907566
741.323159	3600.308898
741.652806	3583.610076
741.982405	3564.635173
742.311956	3545.267060
742.641460	3544.359652
742.970915	3531.542518
743.300323	3498.926253
743.629683	3475.986482
743.958996	3470.973055
744.288260	3455.264819
744.617477	3433.398815
744.946647	3423.084614
745.275768	3404.601223
745.604842	3405.833785
745.933869	3363.450284
746.262847	3361.948021
746.591778	3402.057961
746.920662	3376.080895
747.249498	3345.415557
747.578286	3392.371384
747.907027	3403.217427
748.235720	3395.897671
748.564365	3420.261568
748.892963	3425.285078
749.221514	3408.472829
749.550017	3388.207391
749.878473	3390.357443
750.206881	3369.802138
750.535242	3366.716952
750.863555	3373.605689
751.191821	3369.436655
751.520039	3352.563913
751.848210	3335.550018
752.176334	3364.952548
752.504411	3370.596120
752.832440	3333.422652
753.160421	3319.420847
753.488356	3330.740758
753.816243	3344.074610
754.144082	3305.991213
754.471875	3297.098617
754.799620	3312.731236
755.127318	3307.178405
755.454969	3311.286945
755.782572	3316.073521
756.110129	3296.211374
756.437638	3286.572688
756.765100	3297.224646
757.092515	3307.866522
757.419882	3315.244251
757.747203	3290.098975
758.074477	3294.515026
758.401703	3306.207983
758.728882	3326.281857
759.056014	3334.693022
759.383099	3336.434741
759.710138	3332.273268
760.037129	3348.263808
760.364073	3378.228427
760.690970	3363.785521
761.017820	3343.560412
761.344623	3361.955582
761.671379	3402.952766
761.998088	3446.402471
762.324751	3559.127712
762.651366	3762.744957
762.977935	4149.262825
763.304456	4516.190770
763.630931	4607.904482
763.957359	4309.505983
764.283740	4028.562479
764.610074	3876.977503
764.936362	3709.459961
765.262602	3571.065164
765.588796	3479.321206
765.914943	3405.937129
766.241044	3332.726972
766.567097	3308.549598
766.893104	3268.979061
767.219064	3239.057293
767.544978	3219.353943
767.870845	3169.882580
768.196665	3155.117040
768.522438	3165.607681
768.848165	3164.354954
769.173846	3131.491672
769.499479	3116.665639
769.825066	3106.142230
770.150607	3087.174889
770.476101	3106.585852
770.801548	3100.758278
771.126949	3061.936352
771.452303	3045.534958
771.777611	3053.956206
772.102872	3058.092473
772.428087	3037.786705
772.753256	3027.404448
773.078378	3024.283974
773.403453	2988.595126
773.728482	2980.357880
774.053465	3003.479132
774.378401	2992.343223
774.703291	2962.285344
775.028135	2965.088225
775.352932	2959.449695
775.677683	2949.838735
776.002388	2946.869495
776.327046	2952.197995
776.651658	2939.242229
776.976224	2928.741506
777.300743	2931.037752
777.625216	2923.942328
777.949643	2919.584250
778.274024	2924.824529
778.598359	2909.353228
778.922647	2915.616862
779.246889	2914.908580
779.571086	2903.392064
779.895236	2894.020559
780.219339	2908.077816
780.543397	2918.505443
780.867409	2919.148190
781.191374	2912.355235
781.515294	2908.314751
781.839167	2909.965728
782.162995	2903.107239
782.486776	2912.249371
782.810511	2911.810791
783.134201	2901.547002
783.457844	2907.230903
783.781441	2896.465518
784.104993	2878.831562
784.428498	2880.956409
784.751958	2893.420662
785.075372	2890.106103
785.398739	2873.445089
785.722061	2889.367574
786.045337	2900.624470
786.368568	2885.813560
786.691752	2877.846017
787.014891	2925.663882
787.337983	2945.828497
787.661030	2970.656180
787.984031	3030.240097
788.306987	3072.374061
788.629897	3066.249059
788.952760	3054.568706
789.275579	3044.234341
789.598351	2990.838439
789.921078	2950.476441
790.243759	2943.910338
790.566395	2925.726896
790.888984	2904.995151
791.211529	2887.678787
791.534027	2878.639998
791.856480	2873.331663
792.178888	2859.158459
792.501249	2851.382480
792.823566	2846.986593
793.145836	2849.061028
793.468062	2843.218331
793.790241	2842.184894
794.112375	2847.949454
794.434464	2858.969416
794.756507	2859.007225
795.078505	2862.455374
795.400457	2876.787374
795.722364	2913.587798
796.044226	2932.383740
796.366042	2936.794749
796.687812	2924.534663
797.009538	2948.074331
797.331218	2936.139399
797.652852	2921.373860
797.974442	2903.472722
798.295986	2904.816190
798.617484	2900.788308
798.938938	2883.403889
799.260346	2872.204966
799.581709	2868.038452
799.903026	2858.661906
800.224299	2853.963550
800.545526	2845.814525
800.866708	2829.592092
801.187845	2822.726041
801.508936	2824.646720
801.829983	2831.172494
802.150984	2820.265957
802.471940	2809.472847
802.792851	2805.593679
803.113717	2804.340952
803.434538	2812.003506
803.755314	2805.691982
804.076045	2799.254428
804.396731	2799.650159
804.717372	2799.105714
805.037967	2795.276958
805.358518	2798.785601
805.679024	2813.863692
805.999485	2806.309523
806.319901	2810.654998
806.640272	2802.763071
806.960598	2806.874132
807.280879	2818.350319
807.601115	2823.759477
807.921306	2811.867395
808.241453	2809.382106
808.561554	2813.619196
808.881611	2818.672953
809.201623	2811.320430
809.521590	2811.824545
809.841513	2807.020326
810.161390	2810.695327
810.481223	2804.277938
810.801011	2793.774694
811.120755	2792.824437
811.440453	2794.414921
811.760107	2795.564304
812.079716	2796.811989
812.399281	2784.514094
812.718801	2776.523866
813.038276	2772.979934
813.357707	2781.726336
813.677093	2789.245217
813.996434	2784.002417
814.315731	2778.071500
814.634983	2770.819800
814.954191	2777.345574
815.273354	2788.095834
815.592473	2798.034469
815.911547	2797.260652
816.230577	2806.191056
816.549562	2814.082982
816.868502	2811.559885
817.187399	2821.463232
817.506250	2837.136179
817.825058	2829.471104
818.143821	2843.271263
818.462539	2858.498068
818.781213	2883.933210
819.099843	2917.915628
819.418429	2970.399081
819.736970	3026.799510
820.055466	3094.101434
820.373919	3192.003163
820.692327	3324.945951
821.010691	3479.190136
821.329011	3889.345974
821.647286	4697.931928
821.965517	5931.983704
822.283704	6583.220123
822.601847	6567.148924
822.919945	6013.000088
823.237999	5576.385753
823.556010	5048.193818
823.873976	4545.515162
824.191897	4174.229140
824.509775	3905.240732
824.827609	3653.843431
825.145398	3542.237326
825.463144	3536.603837
825.780845	3621.885036
826.098502	3720.351374
826.416116	3983.320644
826.733685	4267.906381
827.051210	4321.813960
827.368692	4217.630954
827.686129	3973.959221
828.003522	3675.328829
828.320872	3432.410748
828.638177	3254.329468
828.955439	3127.617546
829.272656	3049.346071
829.589830	2988.060763
829.906960	2941.604010
830.224046	2900.185890
830.541088	2868.219933
830.858086	2855.485979
831.175041	2835.719615
831.491952	2840.692713
831.808819	2852.448684
832.125642	2875.839638
832.442421	2917.383786
832.759157	2993.384222
833.075849	3160.299346
833.392497	3425.141405
833.709101	3611.343984
834.025662	3560.897157
834.342179	3412.571288
834.658653	3248.708582
834.975083	3108.256994
835.291469	3022.363295
835.607811	2939.592590
835.924110	2885.299363
836.240366	2839.261025
836.556578	2800.179480
836.872746	2779.077210
837.188871	2757.972419
837.504952	2741.598752
837.820990	2732.693553
838.136984	2722.102089
838.452935	2716.569423
838.768842	2711.150182
839.084706	2729.953686
839.400526	2805.402115
839.716303	2924.736309
840.032037	2999.070643
840.347727	2984.088334
840.663373	2929.948862
840.978977	2861.230374
841.294537	2794.913995
841.610054	2746.486150
841.925527	2725.313304
842.240957	2704.853781
842.556344	2688.742254
842.871687	2673.447393
843.186987	2664.771567
843.502244	2660.297543
843.817458	2656.284785
844.132629	2644.508649
844.447756	2636.384830
844.762840	2627.020887
845.077881	2632.709829
845.392879	2631.346197
845.707833	2628.566000
846.022745	2620.459825
846.337613	2621.513426
846.652438	2622.607356
846.967221	2622.630042
847.281960	2620.752212
847.596656	2615.224587
847.911309	2618.057715
848.225919	2614.518825
848.540485	2610.087651
848.855009	2615.070831
849.169490	2613.802981
849.483928	2613.699638
849.798323	2609.369286
850.112675	2610.233844
850.426984	2610.816097
850.741251	2609.707044
851.055474	2610.357352
851.369654	2616.074021
851.683792	2613.087137
851.997887	2611.355501
852.311938	2609.465068
852.625947	2611.930192
852.939914	2611.872219
853.253837	2615.554782
853.567718	2609.462548
853.881555	2611.738629
854.195350	2613.787858
854.509103	2611.990686
854.822812	2610.798453
855.136479	2608.592949
855.450103	2611.897425
855.763685	2611.274842
856.077224	2608.081272
856.390720	2606.722681
856.704173	2611.615120
857.017584	2614.281891
857.330953	2614.004627
857.644278	2617.644340
857.957561	2616.129474
858.270802	2610.692589
858.584000	2611.476489
858.897155	2615.587550
859.210268	2618.274485
859.523339	2612.177209
859.836367	2608.981117
860.149352	2607.985490
860.462295	2611.103443
860.775195	2608.098916
861.088054	2605.805191
861.400869	2604.358379
861.713642	2600.779160
862.026373	2601.363934
862.339062	2606.667228
862.651708	2612.162086
862.964312	2614.959926
863.276873	2611.733587
863.589392	2612.152003
863.901869	2620.225411
864.214303	2622.703138
864.526696	2624.848149
864.839045	2624.996863
865.151353	2627.772018
865.463619	2628.651700
865.775842	2629.044910
866.088023	2628.225722
866.400162	2629.617081
866.712258	2629.932153
867.024313	2626.184055
867.336325	2620.553086
867.648296	2627.923253
867.960224	2633.647483
868.272110	2630.000208
868.583954	2623.083745
868.895755	2622.811523
869.207515	2630.373254
869.519233	2636.916672
869.830909	2630.025414
870.142542	2628.865949
870.454134	2629.037348
870.765684	2633.334932
871.077191	2636.246198
871.388657	2637.453554
871.700081	2634.348204
872.011463	2637.206538
872.322803	2638.613020
872.634101	2641.751138
872.945357	2646.368835
873.256571	2655.470638
873.567744	2651.888898
873.878874	2649.126346
874.189963	2649.660708
874.501010	2656.902326
874.812015	2659.241421
875.122979	2662.394663
875.433900	2651.273878
875.744780	2650.469814
876.055618	2657.277892
876.366415	2659.077584
876.677169	2658.573468
876.987882	2650.432005
877.298554	2651.460400
877.609183	2663.783501
877.919771	2670.198369
878.230317	2673.538134
878.540822	2682.418126
878.851285	2698.068388
879.161707	2721.108982
879.472087	2754.630134
879.782425	2801.452371
880.092722	2906.104205
880.402977	3082.156420
880.713191	3319.493943
881.023363	3586.153338
881.333494	3758.369236
881.643583	3917.911672
881.953631	3917.455448
882.263637	3751.578801
882.573602	3545.226730
882.883526	3427.243566
883.193408	3329.949297
883.503248	3236.876994
883.813048	3131.161477
884.122806	3018.920187
884.432522	2943.854885
884.742197	2882.425905
885.051831	2852.519260
885.361424	2819.272850
885.670975	2783.914197
885.980485	2756.702049
886.289954	2738.029615
886.599382	2724.915053
886.908768	2718.442212
887.218113	2700.362113
887.527417	2686.468693
887.836680	2681.266222
888.145901	2676.335974
888.455082	2668.270128
888.764221	2658.334014
889.073319	2653.118940
889.382376	2650.187509
889.691392	2651.117602
890.000366	2651.084834
890.309300	2648.856644
890.618193	2652.226656
890.927044	2654.283447
891.235855	2654.969043
891.544625	2653.239928
891.853353	2651.180616
892.162041	2658.538180
892.470687	2679.713547
892.779293	2686.718230
893.087858	2696.770291
893.396381	2717.224773
893.704864	2757.332193
894.013306	2822.930207
894.321707	2906.066396
894.630068	2951.799744
894.938387	2969.486632
895.246665	2964.354737
895.554903	2921.852769
895.863100	2884.061759
896.171256	2830.698625
896.479371	2773.720984
896.787446	2736.648339
897.095480	2720.267109
897.403473	2715.281408
897.711425	2700.155426
898.019336	2684.936182
898.327207	2672.739111
898.635038	2668.985972
898.942827	2668.116373
899.250576	2659.160763
899.558284	2650.127015
899.865952	2644.750625
900.173579	2641.746097
900.481165	2643.392034
900.788711	2634.915333
901.096216	2629.128089
901.403681	2624.459980
901.711105	2626.405866
902.018489	2623.207254
902.325832	2628.334107
902.633135	2628.863428
902.940397	2643.167702
903.247619	2676.683814
903.554800	2738.788308
903.861941	2857.336082
904.169041	2968.067547
904.476101	3024.989736
904.783121	3019.875485
905.090100	2967.510500
905.397039	2895.981568
905.703938	2829.612257
906.010796	2774.945984
906.317614	2727.929663
906.624391	2694.360620
906.931129	2670.321877
907.237826	2648.970070
907.544483	2633.831485
907.851099	2621.919239
908.157675	2610.432970
908.464211	2604.547423
908.770707	2596.640373
909.077163	2589.739033
909.383578	2588.176276
909.689954	2589.794486
909.996289	2587.926738
910.302584	2586.689135
910.608839	2583.193095
910.915054	2582.930955
911.221229	2583.969433
911.527363	2588.841708
911.833458	2585.746439
912.139513	2592.055443
912.445527	2590.432192
912.751502	2591.962182
913.057436	2598.578697
913.363331	2605.643874
913.669186	2613.737446
913.975000	2626.103397
914.280775	2641.932620
914.586510	2655.848725
914.892205	2690.662933
915.197859	2752.948910
915.503475	2828.241063
915.809050	2888.757594
916.114585	2899.008781
916.420081	2907.520769
916.725536	2920.811771
917.030952	2897.357803
917.336328	2855.276771
917.641665	2810.876808
917.946961	2765.070364
918.252218	2733.931157
918.557435	2711.528269
918.862612	2691.774508
919.167750	2676.719102
919.472848	2663.181083
919.777906	2645.441263
920.082925	2634.907772
920.387904	2626.957872
920.692843	2621.460494
920.997743	2616.431943
921.302603	2614.647374
921.607423	2603.541712
921.912204	2601.124479
922.216946	2598.598861
922.521647	2596.262286
922.826310	2593.671133
923.130932	2587.379773
923.435516	2580.473392
923.740059	2580.649833
924.044564	2582.515060
924.349028	2576.092630
924.653454	2572.478122
924.957840	2570.222206
925.262186	2567.724314
925.566493	2569.191290
925.870761	2564.969324
926.174989	2564.376988
926.479178	2562.337842
926.783328	2563.910682
927.087438	2560.374312
927.391509	2565.135682
927.695541	2560.603685
927.999533	2557.584033
928.303486	2557.274002
928.607400	2555.771739
928.911275	2556.921122
929.215110	2556.424568
929.518906	2554.017417
929.822663	2556.785011
930.126381	2554.377860
930.430060	2558.713252
930.733699	2554.287119
931.037299	2556.459856
931.340861	2557.629404
931.644383	2560.389436
931.947866	2558.355330
932.251309	2555.154197
932.554714	2556.026317
932.858080	2559.958417
933.161407	2555.963302
933.464694	2555.446584
933.767943	2555.224773
934.071153	2557.468087
934.374323	2552.154711
934.677455	2554.602191
934.980548	2555.403734
935.283602	2553.624207
935.586617	2553.735113
935.889593	2553.467931
936.192530	2549.200595
936.495428	2554.685370
936.798287	2550.319731
937.101108	2556.759805
937.403890	2558.710731
937.706632	2562.131154
938.009336	2564.923953
938.312002	2564.689540
938.614628	2569.219017
938.917216	2573.650191
939.219765	2573.788822
939.522275	2574.829821
939.824747	2572.967114
940.127179	2569.566856
940.429573	2565.634756
940.731929	2566.242215
941.034246	2561.758109
941.336524	2564.250959
941.638763	2564.956721
941.940964	2565.329766
942.243126	2562.569735
942.545250	2561.934549
942.847335	2564.382029
943.149381	2558.226781
943.451389	2560.081925
943.753359	2561.357337
944.055290	2558.599826
944.357182	2555.658313
944.659036	2555.544887
944.960851	2554.962633
945.262628	2557.367264
945.564367	2555.456667
945.866067	2554.801317
946.167729	2557.326935
946.469352	2556.820299
946.770937	2558.443550
947.072484	2555.078580
947.373992	2555.759136
947.675462	2558.592264
947.976893	2556.074208
948.278286	2555.885165
948.579641	2553.961964
948.880958	2553.588919
949.182236	2554.224104
949.483476	2554.251831
949.784678	2552.494989
950.085841	2553.437684
950.386967	2554.226625
950.688054	2555.149156
950.989103	2554.844166
951.290114	2555.043292
951.591087	2556.951369
951.892021	2557.210988
952.192917	2558.398180
952.493776	2561.259035
952.794596	2561.369940
953.095378	2560.712069
953.396122	2560.308777
953.696828	2559.923129
953.997496	2558.635114
954.298126	2557.813406
954.598718	2558.196534
954.899272	2554.246790
955.199788	2554.592109
955.500266	2555.134033
955.800706	2549.964329
956.101108	2547.408464
956.401472	2547.239586
956.701798	2547.224462
957.002087	2544.648433
957.302337	2547.131201
957.602550	2547.597508
957.902724	2546.216232
958.202861	2545.316386
958.502960	2544.434184
958.803022	2545.805378
959.103045	2545.094575
959.403031	2545.046684
959.702979	2544.880326
960.002889	2543.884698
960.302762	2544.008206
960.602596	2542.233720
960.902393	2544.991231
961.202153	2543.461241
961.501875	2543.395706
961.801559	2541.502753
962.101205	2543.914945
962.400814	2544.111550
962.700385	2543.786395
962.999918	2542.717671
963.299414	2541.974101
963.598873	2541.938813
963.898293	2540.648277
964.197677	2542.309337
964.497022	2540.877650
964.796331	2543.352856
965.095601	2540.885211
965.394835	2541.167516
965.694030	2539.229192
965.993189	2541.182639
966.292309	2542.800850
966.591393	2543.403268
966.890439	2542.218597
967.189447	2539.960160
967.488419	2541.883360
967.787353	2540.391178
968.086249	2542.589121
968.385108	2540.741538
968.683930	2542.954605
968.982714	2538.588966
969.281462	2539.597197
969.580172	2540.451672
969.878844	2540.776827
970.177480	2541.873277
970.476078	2542.483257
970.774639	2543.703216
971.073162	2543.441076
971.371649	2541.011240
971.670098	2539.140972
971.968510	2541.061652
972.266885	2538.588966
972.565223	2543.080634
972.863524	2543.977959
973.161788	2544.814791
973.460014	2544.887887
973.758204	2542.367311
974.056356	2540.804553
974.354471	2542.100129
974.652550	2541.046528
974.950591	2543.859492
975.248595	2542.947043
975.546563	2542.659698
975.844493	2540.262629
976.142386	2542.573998
976.440243	2543.705737
976.738062	2544.247661
977.035845	2541.270860
977.333590	2541.888401
977.631299	2538.588966
977.928971	2544.557692
978.226606	2542.349667
978.524204	2541.971580
978.821765	2542.347146
979.119290	2541.071734
979.416777	2541.071734
979.714228	2541.064172
980.011642	2542.654656
980.309020	2544.550130
980.606360	2542.049718
980.903664	2541.558205
981.200931	2540.580222
981.498162	2541.215407
981.795356	2546.256561
982.092513	2546.896787
982.389633	2548.734288
982.686717	2551.615307
982.983764	2553.896429
983.280775	2556.890875
983.577749	2555.741492
983.874686	2553.609084
984.171587	2553.059598
984.468451	2549.971891
984.765279	2547.327806
985.062070	2547.456355
985.358824	2541.701878
985.655543	2545.422250
985.952224	2543.320089
986.248869	2544.852599
986.545478	2537.631147
986.842050	2538.029398
987.138586	2538.016795
987.435086	2537.421939
987.731549	2533.363810
988.027975	2540.360931
988.324366	2539.173740
988.620719	2539.955118
988.917037	2540.159285
989.213318	2538.972093
989.509563	2539.554347
989.805772	2538.493184
990.101944	2536.948070
990.398080	2540.499563
990.694180	2536.360776
990.990244	2540.003009
991.286271	2541.457382
991.582262	2539.826569
991.878217	2537.300951
992.174136	2540.610468
992.470019	2538.929244
992.765865	2542.052238
993.061676	2537.759696
993.357450	2540.628113
993.653188	2539.093081
993.948890	2541.137269
994.244556	2538.848585
994.540186	2543.075593
994.835780	2540.345808
995.131337	2539.660211
995.426859	2542.712630
995.722345	2542.561395
996.017795	2543.194060
996.313208	2544.252702
996.608586	2542.826056
996.903928	2543.032743
997.199234	2543.937630
997.494504	2544.179605
997.789738	2543.927548
998.084936	2543.264636
998.380099	2540.620551
998.675225	2540.509645
998.970316	2539.824048
999.265371	2542.236241
999.560390	2538.752803
999.855373	2539.103163
1000.150320	2541.311189
1000.445232	2539.657690
1000.740108	2538.049562
1001.034948	2538.105015
1001.329752	2537.973945
1001.624521	2537.464788
1001.919254	2536.552340
1002.213951	2537.028729
1002.508613	2535.614685
1002.803239	2537.966383
1003.097829	2534.316588
1003.392384	2538.498225
1003.686903	2539.176260
1003.981386	2542.024512
1004.275834	2537.295910
1004.570246	2539.161137
1004.864623	2537.096784
1005.158964	2537.903369
1005.453270	2539.065355
1005.747540	2539.675334
1006.041775	2538.863709
1006.335974	2542.798329
1006.630138	2536.373379
1006.924266	2537.089222
1007.218359	2539.824048
1007.512416	2541.275901
1007.806438	2539.849254
1008.100425	2538.518390
1008.394376	2536.602751
1008.688292	2539.619882
1008.982172	2536.713657
1009.276017	2538.873791
1009.569827	2536.189377
1009.863602	2538.281455
1010.157341	2535.196269
1010.451045	2539.082999
1010.744714	2537.064017
1011.038347	2537.540406
1011.331945	2535.702905
1011.625508	2540.134079
1011.919036	2540.010571
1012.212528	2537.003523
1012.505986	2537.311033
1012.799408	2535.430683
1013.092795	2537.913451
1013.386147	2540.091230
1013.679464	2537.026208
1013.972745	2538.036959
1014.265992	2540.144162
1014.559204	2538.321785
1014.852380	2538.014274
1015.145521	2539.433359
1015.438628	2537.772299
1015.731699	2535.869263
1016.024736	2538.107536
1016.317737	2539.193904
1016.610703	2540.169367
1016.903635	2535.997813
1017.196531	2534.558563
1017.489393	2534.475384
1017.782219	2532.915147
1018.075011	2536.854809
1018.367768	2537.721887
1018.660490	2538.528472
1018.953177	2538.528472
1019.245829	2538.528472
