Dividing Wavelength (nm)	Counts (n)	Blue Motor Position (mm): 44.200000	Red Motor Position (mm): 0.000000	
326.493990	2128.039917
326.888308	2128.039917
327.282561	2128.039917
327.676750	2097.994640
328.070874	2096.835175
328.464933	2098.481112
328.858929	2103.522265
329.252859	2115.182454
329.646726	2126.477159
330.040528	2137.204735
330.434265	2156.212405
330.827938	2173.012051
331.221547	2191.525688
331.615091	2212.096116
332.008571	2228.338714
332.401986	2248.934348
332.795338	2267.203490
333.188625	2289.679474
333.581847	2306.463996
333.975006	2323.866059
334.368100	2342.127639
334.761129	2360.187572
335.154095	2376.747763
335.546996	2398.575959
335.939833	2423.421286
336.332606	2440.523400
336.725315	2454.492437
337.117960	2461.265228
337.510540	2468.786629
337.903056	2483.773979
338.295508	2485.755153
338.687896	2497.647235
339.080220	2507.343894
339.472480	2511.462517
339.864676	2513.809174
340.256807	2519.127591
340.648875	2524.332583
341.040879	2526.727131
341.432818	2529.275434
341.824694	2527.090094
342.216506	2528.990609
342.608253	2531.037317
342.999937	2528.945238
343.391557	2533.386495
343.783113	2528.451205
344.174605	2522.938704
344.566033	2524.375433
344.957397	2525.981040
345.348697	2518.686490
345.739934	2520.758405
346.131106	2519.278826
346.522215	2518.678929
346.913260	2510.797085
347.304241	2517.587519
347.695159	2510.229955
348.086012	2512.856396
348.476802	2505.488750
348.867528	2509.423370
349.258191	2502.080930
349.648789	2505.491270
350.039324	2501.768378
350.429796	2505.261898
350.820203	2499.328460
351.210548	2499.628408
351.600828	2500.881135
351.991045	2501.652432
352.381198	2498.279900
352.771288	2496.306288
353.161314	2498.594972
353.551276	2497.901813
353.941175	2496.457523
354.331010	2494.441061
354.720782	2494.446102
355.110490	2496.341576
355.500135	2497.150681
355.889717	2494.632625
356.279235	2496.228150
356.668689	2499.739314
357.058080	2495.350989
357.447408	2494.226812
357.836672	2492.248159
358.225873	2495.902996
358.615010	2493.936946
359.004084	2500.790394
359.393095	2498.383243
359.782043	2501.639829
360.170927	2500.563542
360.559748	2504.273832
360.948505	2505.103101
361.337199	2504.422546
361.725830	2504.861126
362.114398	2505.766013
362.502903	2505.024963
362.891344	2509.662825
363.279722	2506.484378
363.668037	2508.392454
364.056289	2507.482526
364.444478	2507.308606
364.832603	2510.517301
365.220665	2509.816580
365.608665	2510.325737
365.996601	2511.719616
366.384474	2514.945954
366.772284	2510.703823
367.160031	2513.259688
367.547715	2514.136849
367.935336	2512.717764
368.322893	2513.317662
368.710388	2510.650891
369.097820	2516.002076
369.485189	2514.799761
369.872495	2516.203722
370.259738	2516.143228
370.646918	2516.460821
371.034035	2515.175327
371.421090	2514.464524
371.808081	2517.852179
372.195010	2516.619617
372.581875	2516.092817
372.968678	2519.460307
373.355418	2518.326048
373.742096	2520.017355
374.128710	2520.377797
374.515262	2522.167407
374.901751	2522.343848
375.288177	2523.178158
375.674540	2523.710000
376.060841	2525.237470
376.447079	2524.345186
376.833254	2531.372554
377.219367	2527.203520
377.605417	2534.830786
377.991404	2537.646270
378.377329	2544.156920
378.763191	2556.021276
379.148991	2565.717935
379.534727	2577.310068
379.920402	2585.990935
380.306013	2595.740527
380.691563	2612.761983
381.077049	2628.397122
381.462474	2640.263998
381.847835	2660.058088
382.233134	2678.659946
382.618371	2686.874506
383.003545	2720.478838
383.388657	2735.433421
383.773706	2763.174890
384.158693	2781.391100
384.543618	2806.899338
384.928480	2835.732217
385.313280	2872.202445
385.698017	2893.602143
386.082692	2934.329625
386.467305	2957.430713
386.851856	2992.333141
387.236344	3026.585261
387.620770	3065.346693
388.005133	3104.990327
388.389435	3141.707571
388.773674	3170.671520
389.157851	3217.791185
389.541965	3251.640013
389.926018	3251.599683
390.310008	3326.682629
390.693936	3356.170858
391.077802	3405.617016
391.461606	3423.752567
391.845348	3491.024244
392.229027	3515.783871
392.612645	3544.520969
392.996200	3628.504071
393.379694	3679.724715
393.763125	3754.641302
394.146494	3745.456320
394.529801	3817.688493
394.913047	3881.786764
395.296230	3865.617263
395.679351	3934.577727
396.062410	3966.097542
396.445408	3961.573106
396.828343	4010.008512
397.211217	4041.392215
397.594028	3980.726970
397.976778	4052.265984
398.359466	4088.373249
398.742092	4120.813074
399.124656	4051.729101
399.507158	4137.869818
399.889598	4168.951052
400.271977	4235.690888
400.654294	4206.094273
401.036549	4222.926686
401.418742	4197.529353
401.800874	4302.314777
402.182944	4323.832942
402.564952	4390.434146
402.946898	4381.486098
403.328783	4380.437538
403.710606	4293.167603
404.092367	4486.722705
404.474067	4452.198363
404.855705	4460.299497
405.237282	4390.542531
405.618797	4498.967668
406.000250	4535.846229
406.381642	4615.652735
406.762972	4579.648814
407.144240	4588.919496
407.525447	4589.025361
407.906593	4647.785050
408.287677	4689.029250
408.668700	4622.531390
409.049661	4668.640303
409.430560	4712.768043
409.811399	4638.960510
410.192176	4801.991425
410.572891	4738.984564
410.953545	4839.144729
411.334138	4724.453438
411.714669	4791.614210
412.095139	4685.084547
412.475547	4830.829346
412.855894	4810.042148
413.236180	4817.344259
413.616405	4775.938742
413.996568	4857.371021
414.376670	4804.547290
414.756711	4753.316564
415.136691	4791.221000
415.516609	4867.511302
415.896466	4905.829112
416.276262	4935.153504
416.655997	4919.104991
417.035670	5097.702989
417.415283	5188.955436
417.794834	5133.074245
418.174324	5087.814766
418.553753	4996.799254
418.933121	5176.844064
419.312428	5247.992388
419.691674	5182.507800
420.070859	5313.229960
420.449983	5221.881732
420.829045	5338.231563
421.208047	5246.769909
421.586988	5314.560825
421.965867	5326.470551
422.344686	5460.948371
422.723444	5317.885466
423.102141	5134.226149
423.480777	5432.019710
423.859352	5202.480852
424.237866	5461.644050
424.616319	5454.006702
424.994712	5562.688938
425.373044	5440.083035
425.751314	5582.730045
426.129524	5385.205034
426.507673	5580.035548
426.885762	5666.037633
427.263789	5590.621971
427.641756	5472.505216
428.019662	5596.479792
428.397508	5603.043374
428.775292	5551.986568
429.153016	5654.997506
429.530679	5581.482359
429.908282	5661.919010
430.285824	5534.289598
430.663305	5805.417975
431.040726	5538.849321
431.418086	5542.466349
431.795385	5652.744110
432.172624	5660.946067
432.549802	5653.477598
432.926920	5672.223129
433.303977	5673.473335
433.680974	5712.045723
434.057910	5732.036419
434.434786	5735.718982
434.811601	5702.986770
435.188355	5941.002328
435.565050	5808.215815
435.941683	5796.195184
436.318257	6013.536970
436.694770	5993.105174
437.071222	6026.878384
437.447614	5958.043949
437.823946	5870.927769
438.200218	6028.761255
438.576429	5887.364451
438.952580	5992.044011
439.328670	6037.820208
439.704700	5945.783863
440.080670	5933.450680
440.456580	6200.553696
440.832429	6083.891313
441.208218	5930.317603
441.583947	6088.120842
441.959616	6085.872487
442.335224	6014.792218
442.710773	6148.203834
443.086261	6176.966137
443.461689	5971.559282
443.837057	6120.469926
444.212365	6277.085973
444.587612	6170.057236
444.962800	6323.678837
445.337927	6301.245703
445.712995	5914.392598
446.088002	6492.854919
446.462949	6321.604402
446.837837	6257.309526
447.212664	6430.417708
447.587431	6572.938689
447.962139	7112.500947
448.336786	8037.398923
448.711374	7778.137422
449.085901	6846.149063
449.460369	6774.683146
449.834776	6703.817125
450.209124	7102.113650
450.583412	7245.136225
450.957640	7392.511837
451.331808	7159.960890
451.705917	6707.340892
452.079965	6635.270036
452.453954	6850.189548
452.827883	6724.563994
453.201752	6819.884652
453.575562	6612.277333
453.949311	6820.517316
454.323001	6712.518157
454.696632	6785.198993
455.070202	6923.281237
455.443713	7074.757828
455.817164	7176.291708
456.190556	7259.584172
456.563888	7333.858013
456.937160	7384.050261
457.310373	7037.725512
457.683526	7056.554222
458.056619	6948.534898
458.429653	6940.826973
458.802628	6874.145111
459.175542	6982.716441
459.548398	7336.376069
459.921194	7500.989907
460.293930	7504.634661
460.666607	8030.953807
461.039224	8339.578287
461.411782	8465.067730
461.784280	8481.201943
462.156719	8372.872588
462.529099	8247.625120
462.901419	7842.225610
463.273680	7735.741318
463.645882	7744.974191
464.018024	7613.402596
464.390106	7781.023482
464.762130	8169.688882
465.134094	8635.604923
465.505999	9664.317901
465.877845	10880.917202
466.249631	11533.267716
466.621358	11143.563838
466.993026	10515.025215
467.364634	10257.006358
467.736184	9897.635103
468.107674	9560.470131
468.479105	9596.413558
468.850477	9360.548052
469.221790	9131.704873
469.593043	8800.899317
469.964238	8670.071292
470.335373	8679.941871
470.706449	8736.115449
471.077467	8719.305721
471.448425	10024.157983
471.819324	11105.276275
472.190164	11125.493822
472.560945	9875.688440
472.931667	9084.101258
473.302330	8948.524466
473.672934	8599.154860
474.043479	8958.236249
474.413965	8894.689984
474.784393	8776.376624
475.154761	8934.552908
475.525070	9027.630252
475.895321	8851.089044
476.265513	9030.907002
476.635645	9192.423051
477.005719	9193.796765
477.375734	9312.291607
477.745691	9555.028206
478.115588	9680.583183
478.485427	9923.062683
478.855207	10456.830135
479.224928	11278.762543
479.594591	11903.059036
479.964194	11719.745038
480.333739	11650.363637
480.703226	11569.470762
481.072653	11661.060966
481.442022	11901.924776
481.811333	12090.307654
482.180584	11891.701316
482.549777	11597.234917
482.918912	11424.338463
483.287988	11447.391660
483.657005	11456.148144
484.025964	11142.565690
484.394864	11267.430029
484.763706	11241.498334
485.132489	11000.871458
485.501213	10963.014913
485.869879	11034.374967
486.238487	10880.294620
486.607036	10998.224852
486.975527	10765.978895
487.343959	10962.188164
487.712333	11009.217088
488.080648	10945.166708
488.448905	10984.938891
488.817104	10928.510736
489.185244	11192.435304
489.553326	11345.547749
489.921350	11879.978113
490.289315	12955.097432
490.657222	13290.984471
491.025070	13200.026932
491.392861	13069.970204
491.760593	12688.609437
492.128267	12337.954337
492.495883	12008.192299
492.863440	11670.545897
493.230939	11336.907212
493.598380	11273.270206
493.965763	11136.864145
494.333088	11038.576768
494.700354	10957.252874
495.067563	11019.150682
495.434713	10846.753303
495.801805	10979.544857
496.168839	10896.005376
496.535815	10834.805768
496.902733	10834.808289
497.269593	10773.147415
497.636395	10868.647034
498.003139	10854.345280
498.369825	10719.693541
498.736453	10889.043542
499.103023	10808.841305
499.469535	10837.986736
499.835989	10830.745119
500.202385	10793.246496
500.568723	10639.208999
500.935003	10862.695952
501.301226	10672.823413
501.667390	10929.430746
502.033497	11028.985973
502.399546	10889.038501
502.765537	10790.587287
503.131470	10868.246262
503.497345	11040.144567
503.863163	10651.262398
504.228923	10965.043978
504.594625	11024.706033
504.960269	10775.426017
505.325856	10998.355922
505.691385	10785.604107
506.056856	10940.123034
506.422270	10960.731271
506.787625	10858.433656
507.152924	10970.576644
507.518164	10951.132914
507.883347	10878.106759
508.248472	10800.805706
508.613540	11024.146465
508.978550	10911.990875
509.343503	10879.757737
509.708398	11009.887562
510.073236	11123.429470
510.438016	11123.734460
510.802738	11076.735782
511.167403	11127.623710
511.532010	11026.619151
511.896561	11257.312434
512.261053	11323.527989
512.625488	11199.792868
512.989866	11179.776967
513.354186	11162.127887
513.718449	11070.338558
514.082655	11259.061714
514.446803	11151.700261
514.810894	11277.595516
515.174927	11142.411935
515.538904	11165.908753
515.902822	11320.876343
516.266684	11204.241687
516.630488	11145.620629
516.994235	11201.920235
517.357925	11262.827456
517.721558	11347.649911
518.085133	11362.143228
518.448651	11381.110569
518.812112	11257.458627
519.175516	11273.219795
519.538863	11400.259392
519.902152	11307.991153
520.265385	11472.158849
520.628560	11383.167360
520.991678	11358.921931
521.354739	11424.209914
521.717743	11357.601148
522.080690	11344.479025
522.443580	11473.971144
522.806413	11430.816346
523.169189	11462.744494
523.531908	11514.491938
523.894569	11333.922849
524.257174	11343.236380
524.619722	11464.423198
524.982213	11410.495455
525.344647	11464.065276
525.707025	11414.301526
526.069345	11511.590754
526.431608	11421.780078
526.793815	11526.124401
527.155964	11320.820890
527.518057	11373.722758
527.880093	11321.267032
528.242072	11384.558718
528.603995	11292.862651
528.965860	11218.190559
529.327669	11272.501430
529.689421	11221.893287
530.051117	11189.501353
530.412755	11290.697475
530.774337	11184.901300
531.135862	11160.025726
531.497331	11185.090343
531.858743	11041.873683
532.220098	11200.291942
532.581396	11075.914074
532.942638	11058.817001
533.303824	11022.198059
533.664953	11031.947651
534.026025	10952.718357
534.387040	11048.394415
534.747999	11053.279293
535.108902	11109.621749
535.469748	10871.268434
535.830537	10972.056223
536.191270	10951.909251
536.551947	10974.929680
536.912567	10971.708383
537.273131	10893.038657
537.633638	10882.711853
537.994089	10864.568740
538.354483	10813.141409
538.714821	10960.411157
539.075103	10967.146139
539.435328	10934.681108
539.795497	10759.536300
540.155609	10914.287120
540.515665	11007.903868
540.875665	10745.945349
541.235609	10805.420882
541.595496	10808.266614
541.955328	10956.476537
542.315102	10840.187200
542.674821	10790.814139
543.034483	10790.269694
543.394090	10798.827053
543.753640	10725.558923
544.113134	10942.696543
544.472571	10799.810078
544.831953	10937.494072
545.191278	10749.701009
545.550548	10780.326018
545.909761	10916.694271
546.268918	10889.225024
546.628019	10975.726183
546.987064	10842.332211
547.346053	10761.464541
547.704986	10859.431805
548.063863	10842.949752
548.422684	10839.766263
548.781449	10753.360887
549.140158	10856.681855
549.498811	10731.822557
549.857408	10595.615621
550.215949	10819.911679
550.574434	10670.580099
550.932864	10769.331262
551.291237	10831.894502
551.649555	10782.576894
552.007817	10795.260437
552.366022	10749.544733
552.724173	10749.302758
553.082267	10729.803575
553.440305	10866.958247
553.798288	10670.489358
554.156215	10820.347739
554.514086	10801.922322
554.871902	10648.202417
555.229661	10688.176247
555.587365	10663.598101
555.945014	10554.010978
556.302606	10676.168218
556.660143	10574.772970
557.017625	10730.176620
557.375050	10630.989397
557.732421	10756.584704
558.089735	10667.177320
558.446994	10672.543629
558.804197	10709.026459
559.161345	10712.572911
559.518437	10561.915507
559.875474	10651.905145
560.232455	10680.422952
560.589381	10626.321289
560.946251	10629.154417
561.303065	10734.365819
561.659825	10668.326703
562.016528	10603.315983
562.373177	10473.360078
562.729770	10596.792730
563.086307	10508.227219
563.442789	10604.949317
563.799216	10481.912396
564.155587	10527.880157
564.511904	10485.791564
564.868164	10475.167332
565.224370	10492.884467
565.580520	10414.582745
565.936615	10415.734649
566.292654	10281.493763
566.648638	10419.132387
567.004567	10376.101097
567.360441	10365.161793
567.716260	10272.147464
568.072023	10362.195074
568.427732	10319.599845
568.783385	10228.848993
569.138982	10296.105548
569.494525	10312.000306
569.850013	10190.251399
570.205445	10270.241908
570.560823	10163.374487
570.916145	10088.833466
571.271412	10151.623558
571.626625	10098.089024
571.981782	10069.787987
572.336884	10045.396364
572.691931	10053.532786
573.046923	10002.486062
573.401860	9952.848341
573.756743	9893.584536
574.111570	9937.697153
574.466342	9914.701930
574.821059	9945.914234
575.175722	9832.815947
575.530330	9849.265232
575.884882	9843.702319
576.239380	9764.180638
576.593823	9740.008305
576.948211	9761.302139
577.302544	9640.831165
577.656823	9655.536211
578.011047	9648.085385
578.365216	9628.959247
578.719330	9551.504439
579.073389	9566.839629
579.427394	9515.699644
579.781344	9487.224687
580.135239	9438.880021
580.489080	9456.319893
580.842866	9350.410292
581.196597	9359.176858
581.550273	9393.018124
581.903895	9364.477632
582.257463	9432.220657
582.610975	9315.525507
582.964434	9330.621242
583.317837	9256.659954
583.671186	9237.483404
584.024481	9238.090863
584.377721	9155.909973
584.730906	9132.899627
585.084037	9159.945417
585.437113	9092.252803
585.790135	9115.099313
586.143103	9013.366307
586.496016	8991.475097
586.848874	9051.197646
587.201679	9039.081233
587.554428	8926.608050
587.907124	8968.913413
588.259765	8945.043549
588.612352	8939.863764
588.964884	8813.819794
589.317362	8833.346703
589.669786	8833.162701
590.022155	8881.451914
590.374470	8898.468329
590.726731	8836.941046
591.078937	8687.589302
591.431090	8799.817989
591.783188	8676.420625
592.135232	8664.026949
592.487222	8659.260538
592.839157	8717.599291
593.191038	8651.600504
593.542866	8598.081095
593.894639	8495.052513
594.246358	8547.634268
594.598022	8564.461640
594.949633	8457.992470
595.301190	8437.684182
595.652692	8460.480280
596.004141	8571.131086
596.355535	8348.228907
596.706876	8327.852563
597.058162	8263.323273
597.409395	8338.552412
597.760573	8404.843585
598.111698	8316.593146
598.462768	8296.068088
598.813785	8264.502903
599.164748	8235.339828
599.515657	8222.172335
599.866511	8138.126218
600.217312	8257.793128
600.568060	8115.821632
600.918753	8221.693425
601.269392	8192.116975
601.619978	8104.925178
601.970510	8169.061258
602.320988	8160.660175
602.671412	8223.697284
603.021783	8156.150863
603.372100	8133.017008
603.722363	8132.817883
604.072572	8106.669418
604.422728	8118.405224
604.772830	8048.872589
605.122878	8053.210502
605.472872	8051.007517
605.822813	8077.128256
606.172701	8025.519444
606.522534	8098.986699
606.872314	8094.323632
607.222041	8064.870691
607.571714	8124.772201
607.921333	8087.291222
608.270899	8086.734175
608.620411	8176.086106
608.969870	8079.900891
609.319276	8075.930982
609.668627	8091.210719
610.017926	8129.994837
610.367171	8172.796753
610.716362	8150.608115
611.065500	8136.959191
611.414585	8167.412801
611.763616	8156.155904
612.112594	8136.999520
612.461518	8152.604412
612.810389	8212.349646
613.159207	8153.741192
613.507971	8101.401412
613.856682	8220.659988
614.205340	8174.994696
614.553945	8254.123168
614.902496	8152.841346
615.250994	8211.535500
615.599439	8193.462963
615.947830	8206.595169
616.296169	8173.963780
616.644454	8185.578599
616.992686	8187.292591
617.340864	8249.815502
617.688990	8152.886716
618.037063	8247.161334
618.385082	8190.954989
618.733048	8278.988659
619.080961	8210.517187
619.428821	8233.225064
619.776628	8233.061227
620.124382	8184.436778
620.472083	8171.433121
620.819731	8196.694343
621.167326	8091.293898
621.514868	8098.238088
621.862357	7985.681725
622.209793	8001.833582
622.557176	7937.115249
622.904506	7907.748007
623.251783	7848.763987
623.599007	7794.122920
623.946179	7803.111298
624.293297	7753.435768
624.640363	7677.268974
624.987376	7659.839185
625.334336	7604.464630
625.681243	7552.681898
626.028097	7533.066768
626.374899	7514.936259
626.721647	7511.117585
627.068343	7444.256761
627.414987	7416.356495
627.761577	7369.685493
628.108115	7409.606390
628.454600	7298.562374
628.801032	7358.917588
629.147412	7312.226421
629.493739	7295.043648
629.840014	7241.365442
630.186236	7296.583721
630.532405	7177.688107
630.878521	7227.703915
631.224585	7188.251845
631.570597	7107.288394
631.916556	7139.458517
632.262462	7136.080944
632.608316	7099.968639
632.954117	7080.744198
633.299866	7066.770120
633.645562	7060.476239
633.991206	6974.973229
634.336797	6917.491472
634.682336	6878.780452
635.027823	6843.542787
635.373257	6835.469379
635.718639	6763.764006
636.063968	6785.929960
636.409245	6673.686149
636.754470	6673.736560
637.099642	6631.884901
637.444762	6568.656229
637.789829	6581.105358
638.134845	6524.188211
638.479808	6506.516446
638.824719	6516.681933
639.169577	6442.977743
639.514383	6465.204190
639.859137	6396.881432
640.203839	6397.093161
640.548489	6383.850050
640.893086	6362.984714
641.237632	6329.224107
641.582125	6357.199990
641.926566	6322.594989
642.270955	6341.017886
642.615292	6329.720660
642.959576	6350.888465
643.303809	6334.252657
643.647990	6343.992167
643.992118	6336.248954
644.336195	6280.922291
644.680219	6305.659233
645.024192	6293.394106
645.368112	6395.737090
645.711981	6414.260810
646.055797	6493.023798
646.399562	6444.003618
646.743274	6576.838022
647.086935	6627.121011
647.430544	6617.812520
647.774101	6646.761346
648.117606	6653.713097
648.461059	6638.196426
648.804460	6608.070490
649.147810	6516.908785
649.491108	6481.789587
649.834354	6454.731193
650.177548	6373.661878
650.520690	6291.332274
650.863781	6269.980467
651.206820	6285.194669
651.549807	6209.405962
651.892742	6149.905223
652.235626	6159.589280
652.578458	6140.306866
652.921238	6050.334873
653.263967	6090.626295
653.606644	6027.697572
653.949269	6031.188571
654.291843	5973.626155
654.634365	6020.047621
654.976836	5974.820909
655.319255	5978.957176
655.661622	5952.871725
656.003938	5949.289985
656.346203	5909.719448
656.688416	5947.349141
657.030577	5896.340226
657.372687	5863.902921
657.714746	5851.607547
658.056753	5893.635647
658.398708	5830.651471
658.740612	5824.781047
659.082465	5872.316607
659.424266	5866.562130
659.766016	5867.126739
660.107715	5835.715310
660.449362	5856.341191
660.790958	5850.188462
661.132503	5833.950906
661.473996	5869.324682
661.815438	5858.990317
662.156829	5852.898083
662.498168	5848.033369
662.839456	5823.881201
663.180693	5863.045925
663.521879	5861.352098
663.863013	5848.058575
664.204097	5867.633375
664.545129	5909.585858
664.886110	5902.578654
665.227040	5938.025527
665.567918	5903.864148
665.908746	5930.035298
666.249522	5935.441936
666.590248	5920.930974
666.930922	5950.595644
667.271545	5963.518642
667.612118	5970.689683
667.952639	5937.362615
668.293109	5964.642819
668.633528	5916.000726
668.973896	5926.166213
669.314213	5912.643317
669.654480	5896.322582
669.994695	5887.273711
670.334859	5883.124841
670.674973	5873.251741
671.015035	5875.283326
671.355047	5874.234766
671.695008	5860.805132
672.034918	5835.110371
672.374777	5843.372822
672.714585	5828.317416
673.054342	5830.946378
673.394049	5826.719371
673.733705	5863.812181
674.073310	5842.856104
674.412864	5808.193130
674.752368	5794.294669
675.091820	5801.906811
675.431223	5736.424743
675.770574	5737.241410
676.109875	5691.066962
676.449125	5692.516293
676.788324	5659.965563
677.127473	5600.200164
677.466571	5594.531386
677.805619	5583.816414
678.144616	5573.542542
678.483562	5547.595723
678.822458	5519.229151
679.161303	5515.032390
679.500098	5500.937324
679.838842	5485.143389
680.177535	5490.756714
680.516179	5510.056771
680.854771	5516.562380
681.193314	5595.605152
681.531805	5701.577767
681.870247	5859.186922
682.208638	5959.959587
682.546978	5971.650023
682.885268	5948.402742
683.223508	5862.012489
683.561697	5813.871990
683.899836	5784.270335
684.237925	5733.858796
684.575963	5696.917221
684.913951	5662.808774
685.251889	5721.011416
685.589776	5689.350449
685.927614	5662.009751
686.265401	5731.146655
686.603137	5718.717691
686.940824	5792.202590
687.278460	5813.642618
687.616046	5828.554351
687.953582	5893.507097
688.291068	5877.342638
688.628504	5942.388646
688.965889	5896.161265
689.303224	5842.891392
689.640510	5797.190812
689.977745	5719.579728
690.314930	5624.891735
690.652065	5565.184309
690.989150	5475.781966
691.326185	5401.009052
691.663170	5346.912430
692.000105	5266.014513
692.336990	5190.855951
692.673825	5164.266385
693.010610	5098.295325
693.347345	5028.175396
693.684030	5009.336604
694.020665	4972.611798
694.357251	4881.419845
694.693786	4893.611876
695.030272	4860.221793
695.366707	4822.793747
695.703093	4786.953663
696.039429	4811.791428
696.375716	4797.018327
696.711952	4769.450777
697.048139	4757.934261
697.384276	4735.715376
697.720363	4749.301285
698.056400	4754.516359
698.392388	4705.319739
698.728326	4683.443652
699.064214	4669.908153
699.400053	4656.468437
699.735842	4627.575064
700.071581	4599.503399
700.407270	4571.913164
700.742910	4554.211152
701.078501	4498.503882
701.414042	4499.353316
701.749533	4473.688802
702.084974	4405.363523
702.420366	4464.024910
702.755709	4405.280344
703.091002	4346.843289
703.426246	4397.746340
703.761440	4354.997355
704.096584	4311.693843
704.431679	4339.876414
704.766725	4321.516532
705.101721	4311.668638
705.436668	4343.594265
705.771565	4286.420019
706.106413	4310.126045
706.441212	4344.534440
706.775961	4353.220348
707.110661	4334.437009
707.445311	4366.042523
707.779913	4384.972056
708.114465	4398.769694
708.448967	4426.087707
708.783421	4483.604751
709.117825	4523.356770
709.452180	4526.270557
709.786485	4574.695881
710.120742	4658.878109
710.454949	4645.254391
710.789107	4716.717787
711.123216	4787.440135
711.457275	4778.935708
711.791286	4849.174105
712.125247	4869.863000
712.459159	4769.420530
712.793023	4847.379454
713.126837	4805.777332
713.460602	4798.316424
713.794318	4717.322726
714.127985	4729.358481
714.461602	4640.571159
714.795171	4611.372796
715.128691	4545.061458
715.462162	4490.153210
715.795584	4439.678657
716.128957	4421.800205
716.462281	4369.077298
716.795556	4340.015046
717.128782	4298.307059
717.461960	4235.108634
717.795088	4246.342846
718.128167	4204.949931
718.461198	4143.664624
718.794180	4143.838544
719.127113	4121.047487
719.459997	4095.524125
719.792833	4050.942681
720.125619	4047.038308
720.458357	4012.241743
720.791046	4011.896424
721.123686	3985.269050
721.456278	3948.403092
721.788821	3964.975885
722.121315	3938.935805
722.453761	3912.699119
722.786158	3925.959875
723.118506	3948.294707
723.450805	3902.241246
723.783056	3923.502312
724.115259	3940.407822
724.447412	3946.941157
724.779518	3937.645269
725.111574	3942.562915
725.443582	3970.407728
725.775542	3956.365594
726.107453	4009.832072
726.439315	4009.529602
726.771129	4022.228269
727.102895	4058.670770
727.434612	4105.737503
727.766281	4117.001961
728.097901	4121.574288
728.429473	4127.187613
728.760996	4132.382522
729.092471	4124.684680
729.423897	4110.995427
729.755276	4119.517497
730.086606	4116.306282
730.417887	4151.609483
730.749120	4218.621541
731.080305	4283.748207
731.411442	4312.659224
731.742530	4280.111015
732.073570	4285.184936
732.404562	4337.769212
732.735506	4330.588088
733.066401	4291.874547
733.397249	4226.836101
733.728048	4147.551354
734.058798	4063.618663
734.389501	3993.576871
734.720156	3932.067232
735.050762	3887.606776
735.381320	3884.324985
735.711831	3828.297601
736.042293	3801.902120
736.372707	3825.459432
736.703073	3796.296357
737.033391	3784.621044
737.363661	3803.031338
737.693883	3829.323476
738.024056	3839.771267
738.354182	3833.711800
738.684260	3899.317377
739.014290	3919.590377
739.344272	3913.669542
739.674207	3956.111016
740.004093	3961.162252
740.333931	3953.439204
740.663722	3960.075883
740.993464	3952.181436
741.323159	3931.099331
741.652806	3899.317377
741.982405	3873.345352
742.311956	3842.135568
742.641460	3827.722910
742.970915	3806.507214
743.300323	3765.671347
743.629683	3734.421234
743.958996	3719.348184
744.288260	3699.128116
744.617477	3660.039009
744.946647	3652.429387
745.275768	3625.900315
745.604842	3623.818319
745.933869	3577.573294
746.262847	3564.844381
746.591778	3604.752675
746.920662	3574.788057
747.249498	3542.587686
747.578286	3589.488061
747.907027	3609.357769
748.235720	3603.378961
748.564365	3627.616828
748.892963	3632.017756
749.221514	3612.130404
749.550017	3588.749532
749.878473	3591.005448
750.206881	3559.198288
750.535242	3551.084551
750.863555	3556.891960
751.191821	3552.160838
751.520039	3531.706356
751.848210	3507.614682
752.176334	3543.449724
752.504411	3551.432391
752.832440	3511.718181
753.160421	3492.213957
753.488356	3500.862056
753.816243	3511.587111
754.144082	3470.453816
754.471875	3457.046867
754.799620	3474.181749
755.127318	3465.538691
755.454969	3464.598516
755.782572	3471.981286
756.110129	3449.162503
756.437638	3441.499949
756.765100	3452.061166
757.092515	3459.413689
757.419882	3470.219402
757.747203	3442.848458
758.074477	3448.476906
758.401703	3458.735654
758.728882	3481.511587
759.056014	3487.198008
759.383099	3490.580623
759.710138	3489.965602
760.037129	3505.890607
760.364073	3536.618960
760.690970	3519.927700
761.017820	3497.164370
761.344623	3518.737988
761.671379	3563.352199
761.998088	3614.567802
762.324751	3744.110332
762.651366	3990.632837
762.977935	4467.604129
763.304456	4914.532664
763.630931	5007.282333
763.957359	4642.330521
764.283740	4300.671361
764.610074	4107.557360
764.936362	3910.233995
765.262602	3751.039398
765.588796	3641.482522
765.914943	3547.250754
766.241044	3458.922177
766.567097	3429.713731
766.893104	3384.187071
767.219064	3350.360928
767.544978	3324.366219
767.870845	3270.748506
768.196665	3252.002976
768.522438	3261.540839
768.848165	3253.021289
769.173846	3219.205229
769.499479	3198.886858
769.825066	3182.760207
770.150607	3170.590862
770.476101	3184.983356
770.801548	3178.941533
771.126949	3133.520737
771.452303	3112.312603
771.777611	3121.966412
772.102872	3124.461783
772.428087	3100.586879
772.753256	3092.878955
773.078378	3085.397882
773.403453	3052.038047
773.728482	3038.222765
774.053465	3061.338976
774.378401	3048.405895
774.703291	3016.749970
775.028135	3016.941534
775.352932	3012.114629
775.677683	3000.371261
776.002388	2996.444202
776.327046	2998.705160
776.651658	2986.205619
776.976224	2976.385451
777.300743	2974.883187
777.625216	2967.480253
777.949643	2964.054789
778.274024	2965.531847
778.598359	2953.740588
778.922647	2954.862245
779.246889	2957.040023
779.571086	2943.106274
779.895236	2935.700819
780.219339	2947.088785
780.543397	2957.899540
780.867409	2962.766774
781.191374	2953.604477
781.515294	2951.209929
781.839167	2952.485341
782.162995	2945.384875
782.486776	2957.110599
782.810511	2953.128088
783.134201	2937.591252
783.457844	2944.563167
783.781441	2936.285593
784.104993	2914.810277
784.428498	2913.315575
784.751958	2928.776794
785.075372	2922.392173
785.398739	2905.337949
785.722061	2923.045002
786.045337	2937.941612
786.368568	2921.825043
786.691752	2914.459917
787.014891	2961.365333
787.337983	2991.713079
787.661030	3019.210053
787.984031	3086.511977
788.306987	3132.847743
788.629897	3126.382463
788.952760	3107.752879
789.275579	3094.182093
789.598351	3033.738658
789.921078	2988.948006
790.243759	2978.530462
790.566395	2960.543625
790.888984	2940.368927
791.211529	2922.503078
791.534027	2914.636358
791.856480	2901.297464
792.178888	2884.901112
792.501249	2876.928527
792.823566	2875.574977
793.145836	2870.929554
793.468062	2869.271014
793.790241	2866.707587
794.112375	2871.191694
794.434464	2884.081924
794.756507	2891.812533
795.078505	2893.662637
795.400457	2911.778023
795.722364	2946.698096
796.044226	2974.434524
796.366042	2975.087354
796.687812	2963.278451
797.009538	2982.538179
797.331218	2970.774647
797.652852	2954.597584
797.974442	2938.047476
798.295986	2935.660490
798.617484	2930.475663
798.938938	2914.661563
799.260346	2898.955848
799.581709	2894.731362
799.903026	2885.932028
800.224299	2882.393138
800.545526	2868.194728
800.866708	2854.215608
801.187845	2845.312930
801.508936	2845.222190
801.829983	2853.837522
802.150984	2841.469051
802.471940	2826.196875
802.792851	2825.982626
803.113717	2828.745178
803.434538	2831.669047
803.755314	2824.356854
804.076045	2819.000628
804.396731	2819.272850
804.717372	2819.895433
805.037967	2817.296718
805.358518	2821.632110
805.679024	2833.511589
805.999485	2831.112000
806.319901	2831.802638
806.640272	2824.046823
806.960598	2827.316011
807.280879	2839.664317
807.601115	2844.672704
807.921306	2831.154850
808.241453	2829.884479
808.561554	2837.776405
808.881611	2836.294306
809.201623	2830.559994
809.521590	2830.249963
809.841513	2828.840960
810.161390	2832.856239
810.481223	2823.633448
810.801011	2816.676656
811.120755	2813.588949
811.440453	2812.096768
811.760107	2814.682880
812.079716	2813.246151
812.399281	2802.190900
812.718801	2797.220323
813.038276	2794.072122
813.357707	2798.079839
813.677093	2807.189204
813.996434	2798.339459
814.315731	2794.183027
814.634983	2787.639610
814.954191	2790.578602
815.273354	2803.098308
815.592473	2811.970739
815.911547	2815.335709
816.230577	2822.864672
816.549562	2835.714573
816.868502	2832.026969
817.187399	2843.026767
817.506250	2857.424302
817.825058	2852.325175
818.143821	2862.402442
818.462539	2879.801984
818.781213	2905.138824
819.099843	2942.597117
819.418429	3001.452588
819.736970	3063.534398
820.055466	3139.476860
820.373919	3243.803539
820.692327	3382.556258
821.010691	3556.798699
821.329011	4002.595495
821.647286	4911.923867
821.965517	6308.900695
822.283704	7060.960190
822.601847	7046.703807
822.919945	6404.528863
823.237999	5891.268825
823.556010	5301.705883
823.873976	4740.398608
824.191897	4326.275381
824.509775	4028.388559
824.827609	3756.524173
825.145398	3632.421048
825.463144	3617.874798
825.780845	3711.305023
826.098502	3817.509532
826.416116	4101.732306
826.733685	4425.676853
827.051210	4489.991893
827.368692	4369.654510
827.686129	4102.901854
828.003522	3777.200466
828.320872	3514.518542
828.638177	3315.791216
828.955439	3174.565812
829.272656	3092.069849
829.589830	3021.453366
829.906960	2975.019298
830.224046	2928.040786
830.541088	2896.573903
830.858086	2878.831562
831.175041	2858.982019
831.491952	2861.033769
831.808819	2873.707229
832.125642	2898.003070
832.442421	2944.303548
832.759157	3028.810930
833.075849	3204.482539
833.392497	3493.380984
833.709101	3699.007128
834.025662	3649.702123
834.342179	3487.470231
834.658653	3307.238898
834.975083	3158.078718
835.291469	3059.456105
835.607811	2973.867395
835.924110	2913.807088
836.240366	2863.077957
836.556578	2818.559527
836.872746	2795.095476
837.188871	2772.594286
837.504952	2756.397059
837.820990	2745.989597
838.136984	2732.411249
838.452935	2725.872872
838.768842	2720.562017
839.084706	2740.993813
839.400526	2823.293170
839.716303	2958.963223
840.032037	3040.554298
840.347727	3023.432019
840.663373	2962.519757
840.978977	2884.265926
841.294537	2809.598876
841.610054	2763.323604
841.925527	2740.835017
842.240957	2721.320710
842.556344	2696.780373
842.871687	2678.730522
843.186987	2671.125942
843.502244	2665.051351
843.817458	2661.061278
844.132629	2651.646923
844.447756	2639.180150
844.762840	2633.695374
845.077881	2638.484470
845.392879	2636.553708
845.707833	2628.140023
846.022745	2623.166924
846.337613	2627.620784
846.652438	2626.668006
846.967221	2625.377470
847.281960	2620.719444
847.596656	2623.343365
847.911309	2619.083590
848.225919	2617.631737
848.540485	2614.438167
848.855009	2619.086110
849.169490	2616.734412
849.483928	2614.649895
849.798323	2613.240892
850.112675	2610.611931
850.426984	2611.831890
850.741251	2613.157713
851.055474	2610.894235
851.369654	2617.069649
851.683792	2617.026799
851.997887	2612.472117
852.311938	2610.622013
852.625947	2611.317692
852.939914	2615.373301
853.253837	2618.022427
853.567718	2611.746190
853.881555	2611.355501
854.195350	2615.108640
854.509103	2615.211984
854.822812	2612.504884
855.136479	2609.444904
855.450103	2611.920110
855.763685	2614.455811
856.077224	2612.638475
856.390720	2608.474482
856.704173	2611.612600
857.017584	2616.159721
857.330953	2617.346912
857.644278	2620.641306
857.957561	2619.403703
858.270802	2615.043105
858.584000	2613.543362
858.897155	2619.605349
859.210268	2619.877572
859.523339	2614.465893
859.836367	2609.424739
860.149352	2610.929523
860.462295	2614.745677
860.775195	2608.333329
861.088054	2608.580346
861.400869	2608.572784
861.713642	2603.201435
862.026373	2606.752927
862.339062	2609.613782
862.651708	2616.782303
862.964312	2616.845317
863.276873	2613.034205
863.589392	2617.563682
863.901869	2621.084928
864.214303	2627.459467
864.526696	2629.637245
864.839045	2630.557256
865.151353	2633.009777
865.463619	2633.851650
865.775842	2633.045065
866.088023	2631.169756
866.400162	2632.147740
866.712258	2631.404170
867.024313	2630.726135
867.336325	2625.385032
867.648296	2630.955507
867.960224	2636.518420
868.272110	2633.183697
868.583954	2626.909981
868.895755	2628.576082
869.207515	2632.387195
869.519233	2640.218627
869.830909	2635.832823
870.142542	2634.459109
870.454134	2633.826444
870.765684	2639.921199
871.077191	2641.874646
871.388657	2647.619041
871.700081	2643.223155
872.011463	2644.639719
872.322803	2645.975625
872.634101	2647.440080
872.945357	2653.280257
873.256571	2660.559683
873.567744	2659.140598
873.878874	2657.983653
874.189963	2659.049857
874.501010	2664.350631
874.812015	2666.553615
875.122979	2668.055879
875.433900	2661.772081
875.744780	2660.884837
876.055618	2664.663182
876.366415	2666.472957
876.677169	2667.574449
876.987882	2665.237874
877.298554	2661.431803
877.609183	2673.389420
877.919771	2680.321006
878.230317	2686.945082
878.540822	2697.239118
878.851285	2713.453990
879.161707	2734.009295
879.472087	2777.743825
879.782425	2827.411793
880.092722	2940.510080
880.402977	3134.695326
880.713191	3399.885224
881.023363	3703.657593
881.333494	3897.464752
881.643583	4071.311463
881.953631	4068.763160
882.263637	3895.115575
882.573602	3666.589989
882.883526	3534.226933
883.193408	3414.542379
883.503248	3307.430462
883.813048	3191.110878
884.122806	3077.261460
884.432522	2988.872389
884.742197	2921.106678
885.051831	2884.240720
885.361424	2846.154803
885.670975	2811.126346
885.980485	2777.317847
886.289954	2760.906371
886.599382	2744.134452
886.908768	2732.920405
887.218113	2716.317365
887.527417	2699.245498
887.836680	2694.216947
888.145901	2684.890812
888.455082	2679.358146
888.764221	2666.735097
889.073319	2660.731082
889.382376	2660.269817
889.691392	2658.323931
890.000366	2659.934580
890.309300	2658.883499
890.618193	2659.894251
890.927044	2662.563542
891.235855	2663.425579
891.544625	2661.078922
891.853353	2660.398366
892.162041	2671.113339
892.470687	2692.235773
892.779293	2702.033256
893.087858	2711.855944
893.396381	2736.267732
893.704864	2777.111160
894.013306	2850.858200
894.321707	2945.155503
894.630068	2999.559635
894.938387	3021.183665
895.246665	3012.291069
895.554903	2965.763740
895.863100	2923.140784
896.171256	2861.931094
896.479371	2801.139820
896.787446	2761.493665
897.095480	2738.773185
897.403473	2733.497617
897.711425	2720.415823
898.019336	2698.121320
898.327207	2687.146728
898.635038	2686.372911
898.942827	2682.508867
899.250576	2671.985458
899.558284	2661.467091
899.865952	2653.451656
900.173579	2652.062818
900.481165	2650.270688
900.788711	2643.134935
901.096216	2636.389871
901.403681	2630.456433
901.711105	2632.873666
902.018489	2631.847791
902.325832	2632.203193
902.633135	2636.989768
902.940397	2654.311173
903.247619	2690.378108
903.554800	2761.965013
903.861941	2895.137174
904.169041	3024.601567
904.476101	3088.853593
904.783121	3085.181113
905.090100	3026.605426
905.397039	2946.009978
905.703938	2868.093905
906.010796	2804.880356
906.317614	2751.766759
906.624391	2712.670090
906.931129	2687.277798
907.237826	2662.929025
907.544483	2644.632157
907.851099	2631.189921
908.157675	2621.654578
908.464211	2612.630913
908.770707	2601.164808
909.077163	2600.108687
909.383578	2594.754981
909.689954	2593.986205
909.996289	2589.726430
910.302584	2589.378591
910.608839	2588.929928
910.915054	2586.782397
911.221229	2588.330031
911.527363	2588.604774
911.833458	2589.668457
912.139513	2588.836667
912.445527	2593.845053
912.751502	2597.968717
913.057436	2606.238730
913.363331	2609.739811
913.669186	2619.703652
913.975000	2637.846764
914.280775	2653.267654
914.586510	2673.641477
914.892205	2713.045656
915.197859	2781.401182
915.503475	2866.732793
915.809050	2934.990016
916.114585	2954.232100
916.420081	2965.332721
916.725536	2975.629278
917.030952	2948.200360
917.336328	2900.579100
917.641665	2846.134638
917.946961	2801.414563
918.252218	2764.082298
918.557435	2734.934346
918.862612	2711.366952
919.167750	2695.809951
919.472848	2677.611386
919.777906	2661.809889
920.082925	2647.704741
920.387904	2634.055817
920.692843	2630.035497
920.997743	2626.504168
921.302603	2619.552417
921.607423	2613.117384
921.912204	2607.352825
922.216946	2602.041969
922.521647	2600.441403
922.826310	2598.780343
923.130932	2592.025197
923.435516	2585.433888
923.740059	2582.837694
924.044564	2583.777869
924.349028	2584.002200
924.653454	2573.577094
924.957840	2572.563822
925.262186	2569.907134
925.566493	2567.845302
925.870761	2562.660475
926.174989	2566.567370
926.479178	2560.530588
926.783328	2560.732234
927.087438	2560.502862
927.391509	2560.482697
927.695541	2559.804662
927.999533	2559.192162
928.303486	2557.387428
928.607400	2554.287119
928.911275	2553.402396
929.215110	2555.343241
929.518906	2555.519681
929.822663	2558.597305
930.126381	2555.623025
930.430060	2557.536142
930.733699	2554.619835
931.037299	2558.289795
931.340861	2552.936090
931.644383	2555.917932
931.947866	2558.007490
932.251309	2555.623025
932.554714	2554.168652
932.858080	2556.931204
933.161407	2555.280226
933.464694	2555.282747
933.767943	2554.080432
934.071153	2555.827191
934.374323	2552.835267
934.677455	2552.951213
934.980548	2550.425595
935.283602	2553.760318
935.586617	2552.469783
935.889593	2552.358878
936.192530	2553.977088
936.495428	2552.661347
936.798287	2552.389124
937.101108	2557.105124
937.403890	2554.367777
937.706632	2557.064795
938.009336	2563.454457
938.312002	2566.811866
938.614628	2572.566343
938.917216	2576.629513
939.219765	2577.259657
939.522275	2577.070614
939.824747	2576.322002
940.127179	2571.467371
940.429573	2568.379664
940.731929	2570.340673
941.034246	2564.593758
941.336524	2570.897721
941.638763	2566.791701
941.940964	2564.049313
942.243126	2564.674416
942.545250	2564.240877
942.847335	2561.621998
943.149381	2563.099056
943.451389	2560.205433
943.753359	2558.766184
944.055290	2557.662171
944.357182	2556.568241
944.659036	2556.225442
944.960851	2557.768036
945.262628	2557.931873
945.564367	2557.037068
945.866067	2554.813919
946.167729	2559.386246
946.469352	2553.979608
946.770937	2556.485062
947.072484	2553.571275
947.373992	2555.847356
947.675462	2556.235525
947.976893	2555.403734
948.278286	2555.653272
948.579641	2554.342572
948.880958	2553.599001
949.182236	2554.836605
949.483476	2553.911553
949.784678	2554.592109
950.085841	2554.667726
950.386967	2553.457849
950.688054	2553.936759
950.989103	2554.027499
951.290114	2552.875596
951.591087	2559.413972
951.892021	2557.974723
952.192917	2559.807182
952.493776	2558.965310
952.794596	2558.085628
953.095378	2560.848181
953.396122	2561.916905
953.696828	2557.894064
953.997496	2560.339024
954.298126	2556.537994
954.598718	2556.316183
954.899272	2555.121430
955.199788	2552.772252
955.500266	2552.038764
955.800706	2546.049873
956.101108	2547.413506
956.401472	2545.283618
956.701798	2542.805891
957.002087	2542.228679
957.302337	2544.219935
957.602550	2545.596170
957.902724	2541.863195
958.202861	2543.037784
958.502960	2539.788760
958.803022	2540.565098
959.103045	2541.079296
959.403031	2539.990407
959.702979	2540.275232
960.002889	2539.508976
960.302762	2540.444110
960.602596	2537.706764
960.902393	2537.978986
961.202153	2540.025695
961.501875	2538.588966
961.801559	2537.469830
962.101205	2538.273894
962.400814	2538.682227
962.700385	2537.076620
962.999918	2540.101312
963.299414	2536.958153
963.598873	2536.287679
963.898293	2536.960673
964.197677	2537.149716
964.497022	2535.390354
964.796331	2535.571835
965.095601	2535.866743
965.394835	2539.241795
965.694030	2536.680889
965.993189	2538.533513
966.292309	2536.786753
966.591393	2536.943029
966.890439	2537.852957
967.189447	2534.840868
967.488419	2536.948070
967.787353	2536.123842
968.086249	2534.762730
968.385108	2534.112421
968.683930	2536.811959
968.982714	2536.796836
969.281462	2535.786084
969.580172	2537.462268
969.878844	2539.007382
970.177480	2533.968748
970.476078	2537.893287
970.774639	2539.708102
971.073162	2534.344314
971.371649	2535.203831
971.670098	2533.217616
971.968510	2536.829603
972.266885	2532.131248
972.565223	2537.202648
972.863524	2537.318595
973.161788	2538.190715
973.460014	2537.227854
973.758204	2537.086702
974.056356	2537.550488
974.354471	2536.834644
974.652550	2538.011754
974.950591	2535.602082
975.248595	2535.934798
975.546563	2538.253729
975.844493	2537.096784
976.142386	2539.602238
976.440243	2538.677186
976.738062	2534.593851
977.035845	2536.872453
977.333590	2535.463450
977.631299	2535.667617
977.928971	2536.902700
978.226606	2538.258770
978.524204	2537.444624
978.821765	2536.827083
979.119290	2533.827596
979.416777	2534.490508
979.714228	2536.567463
980.011642	2537.641229
980.309020	2537.852957
980.606360	2537.711805
980.903664	2538.059645
981.200931	2536.600231
981.498162	2537.185004
981.795356	2540.527289
982.092513	2542.253885
982.389633	2543.546941
982.686717	2549.782848
982.983764	2550.838970
983.280775	2554.839125
983.577749	2551.169165
983.874686	2552.610935
984.171587	2548.696479
984.468451	2543.549461
984.765279	2544.928217
985.062070	2539.030067
985.358824	2538.846065
985.655543	2538.851106
985.952224	2536.517052
986.248869	2537.195087
986.545478	2531.392719
986.842050	2533.830117
987.138586	2533.613347
987.435086	2530.654190
987.731549	2529.537574
988.027975	2532.446320
988.324366	2533.701567
988.620719	2534.160312
988.917037	2530.714683
989.213318	2533.573018
989.509563	2534.218285
989.805772	2533.174767
990.101944	2531.208717
990.398080	2529.129241
990.694180	2532.708460
990.990244	2532.572349
991.286271	2532.484128
991.582262	2530.157636
991.878217	2532.242153
992.174136	2532.340456
992.470019	2532.738707
992.765865	2530.238294
993.061676	2530.535723
993.357450	2532.342976
993.653188	2534.750127
993.948890	2530.112266
994.244556	2534.689633
994.540186	2534.382123
994.835780	2534.125024
995.131337	2535.629808
995.426859	2535.193749
995.722345	2534.614016
996.017795	2536.131403
996.313208	2533.583100
996.608586	2536.254912
996.903928	2537.598379
997.199234	2533.837678
997.494504	2536.025539
997.789738	2537.482432
998.084936	2536.799356
998.380099	2532.779036
998.675225	2533.666279
998.970316	2532.388347
999.265371	2529.285516
999.560390	2534.293903
999.855373	2533.646114
1000.150320	2531.591844
1000.445232	2532.146371
1000.740108	2532.940353
1001.034948	2532.640404
1001.329752	2534.092257
1001.624521	2531.609488
1001.919254	2529.030938
1002.213951	2529.091432
1002.508613	2527.057326
1002.803239	2532.370702
1003.097829	2527.304343
1003.392384	2530.301309
1003.686903	2530.833151
1003.981386	2533.353727
1004.275834	2529.898017
1004.570246	2530.323994
1004.864623	2531.778367
1005.158964	2531.773326
1005.453270	2529.439272
1005.747540	2530.820548
1006.041775	2531.453213
1006.335974	2531.811134
1006.630138	2529.013294
1006.924266	2529.867770
1007.218359	2532.645445
1007.512416	2530.139992
1007.806438	2531.606968
1008.100425	2528.965403
1008.394376	2530.008922
1008.688292	2530.240815
1008.982172	2532.574869
1009.276017	2532.587472
1009.569827	2527.838705
1009.863602	2532.602596
1010.157341	2531.536392
1010.451045	2531.042358
1010.744714	2529.247708
1011.038347	2531.909437
1011.331945	2529.678726
1011.625508	2530.336597
1011.919036	2527.505989
1012.212528	2531.299457
1012.505986	2529.053623
1012.799408	2530.076977
1013.092795	2530.066895
1013.386147	2528.015146
1013.679464	2530.182842
1013.972745	2528.993129
1014.265992	2529.877852
1014.559204	2531.697708
1014.852380	2529.091432
1015.145521	2528.143695
1015.438628	2530.850795
1015.731699	2530.455064
1016.024736	2528.549508
1016.317737	2527.964734
1016.610703	2529.966072
1016.903635	2528.307532
1017.196531	2527.032121
1017.489393	2527.926925
1017.782219	2525.434075
1018.075011	2530.452543
1018.367768	2529.441792
1018.660490	2531.407842
1018.953177	2531.407842
1019.245829	2531.407842
