Dividing Wavelength (nm)	Counts (n)	Blue Motor Position (mm): 17.900000	Red Motor Position (mm): 0.000000	
326.493990	2135.546195
326.888308	2135.546195
327.282561	2135.546195
327.676750	2103.683582
328.070874	2100.333736
328.464933	2105.077461
328.858929	2111.754470
329.252859	2119.661519
329.646726	2133.796915
330.040528	2148.118833
330.434265	2160.570483
330.827938	2178.660663
331.221547	2196.604651
331.615091	2216.693649
332.008571	2233.208469
332.401986	2257.579927
332.795338	2276.290169
333.188625	2295.552418
333.581847	2314.933134
333.975006	2330.018787
334.368100	2351.617611
334.761129	2367.509848
335.154095	2382.865203
335.546996	2402.649211
335.939833	2424.038827
336.332606	2437.894438
336.725315	2452.896912
337.117960	2460.559466
337.510540	2468.582462
337.903056	2480.489668
338.295508	2486.700369
338.687896	2493.846205
339.080220	2505.589573
339.472480	2510.734070
339.864676	2515.646675
340.256807	2519.724968
340.648875	2520.690349
341.040879	2524.304856
341.432818	2526.303674
341.824694	2530.215609
342.216506	2527.987419
342.608253	2527.664785
342.999937	2528.650331
343.391557	2527.314425
343.783113	2525.764270
344.174605	2524.957686
344.566033	2525.464322
344.957397	2521.817047
345.348697	2522.485000
345.739934	2521.617921
346.131106	2518.885616
346.522215	2516.702796
346.913260	2515.200533
347.304241	2513.763804
347.695159	2509.027640
348.086012	2509.095695
348.476802	2506.081085
348.867528	2507.409429
349.258191	2505.186280
349.648789	2501.750734
350.039324	2502.070847
350.429796	2501.665034
350.820203	2498.771412
351.210548	2496.933912
351.600828	2497.425424
351.991045	2495.832419
352.381198	2494.841833
352.771288	2495.020794
353.161314	2495.436689
353.551276	2495.547594
353.941175	2494.456184
354.331010	2495.013232
354.720782	2497.712770
355.110490	2495.391318
355.500135	2496.097080
355.889717	2493.924343
356.279235	2494.677995
356.668689	2496.817965
357.058080	2495.582882
357.447408	2494.791421
357.836672	2493.538694
358.225873	2491.297902
358.615010	2491.691112
359.004084	2495.605568
359.393095	2496.570948
359.782043	2497.407780
360.170927	2498.491628
360.559748	2502.237205
360.948505	2501.440703
361.337199	2503.426918
361.725830	2500.450116
362.114398	2501.758296
362.502903	2504.354490
362.891344	2502.650580
363.279722	2504.326764
363.668037	2506.721312
364.056289	2505.055210
364.444478	2504.432628
364.832603	2507.916065
365.220665	2504.606548
365.608665	2508.034532
365.996601	2504.321723
366.384474	2506.161744
366.772284	2506.517145
367.160031	2507.283400
367.547715	2506.335663
367.935336	2503.512617
368.322893	2508.029491
368.710388	2507.956394
369.097820	2509.819101
369.485189	2506.875067
369.872495	2509.788854
370.259738	2507.830366
370.646918	2508.442866
371.034035	2510.393792
371.421090	2510.108967
371.808081	2509.987979
372.195010	2510.144255
372.581875	2511.245747
372.968678	2510.358504
373.355418	2510.363545
373.742096	2511.326406
374.128710	2512.861437
374.515262	2513.962929
374.901751	2511.187774
375.288177	2511.679287
375.674540	2510.653412
376.060841	2512.498474
376.447079	2512.823628
376.833254	2514.769514
377.219367	2505.944974
377.605417	2511.568381
377.991404	2509.451097
378.377329	2509.927486
378.763191	2508.808349
379.148991	2512.132990
379.534727	2512.405213
379.920402	2513.887312
380.306013	2514.509894
380.691563	2514.076355
381.077049	2516.163393
381.462474	2515.316479
381.847835	2516.667508
382.233134	2517.053157
382.618371	2516.223887
383.003545	2517.390914
383.388657	2516.218846
383.773706	2517.922756
384.158693	2515.235821
384.543618	2517.673218
384.928480	2515.818074
385.313280	2520.750843
385.698017	2516.488547
386.082692	2518.197498
386.467305	2518.227745
386.851856	2519.195647
387.236344	2519.278826
387.620770	2516.755728
388.005133	2520.307221
388.389435	2519.319155
388.773674	2521.113806
389.157851	2516.682632
389.541965	2517.590039
389.926018	2520.113137
390.310008	2519.835873
390.693936	2519.208250
391.077802	2520.254289
391.461606	2519.203209
391.845348	2519.707324
392.229027	2520.460977
392.612645	2520.453415
392.996200	2520.584485
393.379694	2522.172448
393.763125	2521.827129
394.146494	2523.520957
394.529801	2523.682274
394.913047	2522.394259
395.296230	2526.197810
395.679351	2522.772346
396.062410	2522.784948
396.445408	2521.839732
396.828343	2525.910464
397.211217	2517.020389
397.594028	2523.495751
397.976778	2520.178672
398.359466	2524.103210
398.742092	2521.012983
399.124656	2525.839888
399.507158	2525.330731
399.889598	2525.373581
400.271977	2527.160670
400.654294	2525.567665
401.036549	2524.297295
401.418742	2523.974661
401.800874	2525.983561
402.182944	2528.539426
402.564952	2526.361647
402.946898	2527.163191
403.328783	2525.035824
403.710606	2526.026410
404.092367	2527.238808
404.474067	2527.082532
404.855705	2528.196627
405.237282	2527.692512
405.618797	2524.410721
406.000250	2526.376771
406.381642	2525.572707
406.762972	2529.978675
407.144240	2526.023890
407.525447	2533.154602
407.906593	2528.564631
408.287677	2529.071267
408.668700	2527.740403
409.049661	2529.545136
409.430560	2528.131092
409.811399	2530.341638
410.192176	2527.964734
410.572891	2528.907430
410.953545	2529.648479
411.334138	2531.491021
411.714669	2530.175280
412.095139	2531.186031
412.475547	2531.329704
412.855894	2528.370547
413.236180	2529.351051
413.616405	2533.895652
413.996568	2530.901206
414.376670	2530.608819
414.756711	2533.424304
415.136691	2530.576052
415.516609	2532.403470
415.896466	2533.759540
416.276262	2531.160826
416.655997	2530.021525
417.035670	2527.861390
417.415283	2529.850126
417.794834	2526.991791
418.174324	2532.116124
418.553753	2530.782739
418.933121	2532.932791
419.312428	2533.303316
419.691674	2533.283151
420.070859	2534.432534
420.449983	2532.151412
420.829045	2532.831968
421.208047	2534.893800
421.586988	2534.520755
421.965867	2533.961187
422.344686	2534.742565
422.723444	2535.365148
423.102141	2533.262987
423.480777	2534.402287
423.859352	2534.329191
424.237866	2535.471012
424.616319	2533.124355
424.994712	2537.739531
425.373044	2534.898841
425.751314	2535.392874
426.129524	2534.520755
426.507673	2536.562422
426.885762	2536.940508
427.263789	2536.580066
427.641756	2535.223996
428.019662	2534.924047
428.397508	2532.219468
428.775292	2538.868750
429.153016	2538.591486
429.530679	2535.944881
429.908282	2537.973945
430.285824	2537.263142
430.663305	2536.234747
431.040726	2538.299099
431.418086	2535.123173
431.795385	2538.611651
432.172624	2539.120807
432.549802	2537.646270
432.926920	2538.858668
433.303977	2536.212062
433.680974	2537.971424
434.057910	2538.044521
434.434786	2539.609799
434.811601	2538.956970
435.188355	2541.079296
435.565050	2537.215251
435.941683	2541.333874
436.318257	2537.152237
436.694770	2535.503780
437.071222	2535.362627
437.447614	2536.343132
437.823946	2536.990920
438.200218	2536.716177
438.576429	2538.828421
438.952580	2537.633667
439.328670	2537.850437
439.704700	2539.115766
440.080670	2537.956301
440.456580	2538.367155
440.832429	2539.191384
441.208218	2538.977135
441.583947	2541.301107
441.959616	2541.767413
442.335224	2539.539223
442.710773	2542.057280
443.086261	2540.108874
443.461689	2539.239275
443.837057	2539.314892
444.212365	2541.974101
444.587612	2540.615510
444.962800	2542.821014
445.337927	2544.887888
445.712995	2541.197763
446.088002	2541.205325
446.462949	2541.414533
446.837837	2541.926210
447.212664	2539.524100
447.587431	2542.556354
447.962139	2539.919830
448.336786	2543.947712
448.711374	2542.014430
449.085901	2544.587939
449.460369	2541.469985
449.834776	2541.911086
450.209124	2541.754810
450.583412	2540.330684
450.957640	2543.408309
451.331808	2542.596683
451.705917	2542.155582
452.079965	2544.446787
452.453954	2543.841848
452.827883	2544.235058
453.201752	2539.761034
453.575562	2544.063659
453.949311	2543.844369
454.323001	2541.580891
454.696632	2543.710778
455.070202	2541.212886
455.443713	2544.963505
455.817164	2543.068031
456.190556	2539.188863
456.563888	2542.957126
456.937160	2539.645088
457.310373	2546.937117
457.683526	2545.150027
458.056619	2543.178936
458.429653	2546.291849
458.802628	2543.640202
459.175542	2548.146993
459.548398	2544.739173
459.921194	2544.955943
460.293930	2548.394010
460.666607	2544.688762
461.039224	2546.773279
461.411782	2545.089534
461.784280	2545.999462
462.156719	2546.682538
462.529099	2546.211190
462.901419	2545.455017
463.273680	2546.876623
463.645882	2544.996272
464.018024	2548.300749
464.390106	2549.278732
464.762130	2545.006355
465.134094	2547.209339
465.505999	2548.908208
465.877845	2546.957281
466.249631	2551.151521
466.621358	2548.424257
466.993026	2550.942313
467.364634	2550.644885
467.736184	2547.284956
468.107674	2548.600697
468.479105	2550.591953
468.850477	2548.726726
469.221790	2547.141283
469.593043	2548.215049
469.964238	2548.308310
470.335373	2548.388969
470.706449	2548.295707
471.077467	2550.380225
471.448425	2550.478527
471.819324	2550.899463
472.190164	2549.561037
472.560945	2547.907539
472.931667	2551.201933
473.302330	2546.344781
473.672934	2552.222766
474.043479	2549.175389
474.413965	2550.405430
474.784393	2545.399565
475.154761	2549.505584
475.525070	2545.573484
475.895321	2546.044832
476.265513	2546.309493
476.635645	2551.401058
477.005719	2548.842673
477.375734	2551.552293
477.745691	2553.417520
478.115588	2552.618497
478.485427	2550.337375
478.855207	2554.836605
479.224928	2554.498847
479.594591	2553.029351
479.964194	2551.350647
480.333739	2552.893240
480.703226	2553.233518
481.072653	2553.036913
481.442022	2551.559855
481.811333	2553.999773
482.180584	2555.466749
482.549777	2555.655792
482.918912	2552.288301
483.287988	2554.904660
483.657005	2554.592109
484.025964	2554.317366
484.394864	2554.367777
484.763706	2556.480021
485.132489	2556.636297
485.501213	2557.503375
485.869879	2555.436502
486.238487	2551.872406
486.607036	2553.445246
486.975527	2553.745195
487.343959	2553.535987
487.712333	2554.277037
488.080648	2553.941800
488.448905	2551.698486
488.817104	2555.529763
489.185244	2556.306101
489.553326	2554.783672
489.921350	2558.461194
490.289315	2557.624363
490.657222	2558.514126
491.025070	2557.813406
491.392861	2562.496638
491.760593	2557.090000
492.128267	2558.302398
492.495883	2556.593447
492.863440	2559.688715
493.230939	2557.987326
493.598380	2559.126627
493.965763	2556.439692
494.333088	2556.197716
494.700354	2556.878272
495.067563	2558.972871
495.434713	2556.918601
495.801805	2563.668706
496.168839	2559.545042
496.535815	2560.127296
496.902733	2561.110321
497.269593	2562.473953
497.636395	2558.899775
498.003139	2560.596123
498.369825	2563.111659
498.736453	2562.322718
499.103023	2562.138716
499.469535	2564.906309
499.835989	2563.308264
500.202385	2561.420352
500.568723	2561.677450
500.935003	2564.971844
501.301226	2567.467216
501.667390	2568.888821
502.033497	2568.253636
502.399546	2565.796073
502.765537	2568.104922
503.131470	2569.403019
503.497345	2568.356979
503.863163	2571.381672
504.228923	2569.594583
504.594625	2574.907959
504.960269	2571.994172
505.325856	2578.257805
505.691385	2575.240675
506.056856	2578.686303
506.422270	2577.413412
506.787625	2581.181675
507.152924	2584.665112
507.518164	2584.685277
507.883347	2585.418764
508.248472	2587.369691
508.613540	2592.395721
508.978550	2593.542584
509.343503	2597.431834
509.708398	2599.841506
510.073236	2604.169336
510.438016	2606.763010
510.802738	2612.862806
511.167403	2616.610904
511.532010	2616.111830
511.896561	2624.606174
512.261053	2629.375105
512.625488	2629.251597
512.989866	2631.399129
513.354186	2636.783081
513.718449	2641.504122
514.082655	2652.153559
514.446803	2656.781338
514.810894	2663.057575
515.174927	2666.709891
515.538904	2674.082578
515.902822	2681.251099
516.266684	2688.797706
516.630488	2698.002853
516.994235	2702.665921
517.357925	2714.076572
517.721558	2721.597974
518.085133	2732.159191
518.448651	2738.581621
518.812112	2747.585122
519.175516	2757.153232
519.538863	2769.501538
519.902152	2778.807508
520.265385	2793.847791
520.628560	2797.827782
520.991678	2810.854123
521.354739	2821.869044
521.717743	2830.469253
522.080690	2841.249760
522.443580	2864.963348
522.806413	2876.797457
523.169189	2889.758263
523.531908	2906.512538
523.894569	2917.673653
524.257174	2932.426589
524.619722	2953.576750
524.982213	2962.721403
525.344647	2988.262409
525.707025	3001.601303
526.069345	3020.707276
526.431608	3042.049000
526.793815	3062.682443
527.155964	3077.246337
527.518057	3090.628079
527.880093	3107.520986
528.242072	3135.219606
528.603995	3154.764159
528.965860	3169.917868
529.327669	3192.212371
529.689421	3212.732387
530.051117	3232.743248
530.412755	3268.076695
530.774337	3279.638581
531.135862	3312.746359
531.497331	3328.946107
531.858743	3345.992769
532.220098	3385.013820
532.581396	3403.262797
532.942638	3423.780293
533.303824	3449.197791
533.664953	3489.398472
534.026025	3503.947242
534.387040	3548.344684
534.747999	3575.677820
535.108902	3612.987400
535.469748	3617.282463
535.830537	3657.949451
536.191270	3690.084286
536.551947	3729.906881
536.912567	3761.071294
537.273131	3785.188174
537.633638	3815.669511
537.994089	3854.473793
538.354483	3880.493708
538.714821	3932.644445
539.075103	3970.422852
539.435328	4006.267976
539.795497	4011.394829
540.155609	4081.759255
540.515665	4130.096358
540.875665	4126.973364
541.235609	4179.857588
541.595496	4215.889235
541.955328	4287.110657
542.315102	4304.069098
542.674821	4333.486752
543.034483	4371.376064
543.394090	4414.714863
543.753640	4444.986992
544.113134	4538.699522
544.472571	4545.094225
544.831953	4621.911328
545.191278	4621.999548
545.550548	4666.644006
545.909761	4743.191407
546.268918	4783.865957
546.628019	4846.101522
546.987064	4861.459397
547.346053	4880.283065
547.704986	4959.167041
548.063863	4996.214480
548.422684	5032.258730
548.781449	5059.987597
549.140158	5138.138084
549.498811	5141.409793
549.857408	5137.555831
550.215949	5266.889154
550.574434	5259.856744
550.932864	5346.816648
551.291237	5405.399897
551.649555	5448.695847
552.007817	5491.089430
552.366022	5523.118401
552.724173	5576.045475
553.082267	5610.542091
553.440305	5726.682714
553.798288	5682.635632
554.156215	5806.612728
554.514086	5842.210836
554.871902	5830.061656
555.229661	5890.754627
555.587365	5926.322488
555.945014	5925.220996
556.302606	6036.822060
556.660143	6028.557088
557.017625	6160.693292
557.375050	6157.124155
557.732421	6267.001145
558.089735	6287.347242
558.446994	6320.578528
558.804197	6392.281379
559.161345	6439.479182
559.518437	6402.277987
559.875474	6512.873341
560.232455	6576.308701
560.589381	6585.959990
560.946251	6652.949363
561.303065	6727.684468
561.659825	6761.810559
562.016528	6768.822804
562.373177	6743.087714
562.729770	6862.152206
563.086307	6855.606268
563.442789	6950.722758
563.799216	6947.433406
564.155587	7012.003025
564.511904	7032.691920
564.868164	7073.666418
565.224370	7122.953780
565.580520	7137.011037
565.936615	7160.122207
566.292654	7144.277860
566.648638	7254.258193
567.004567	7279.854652
567.360441	7306.348436
567.716260	7308.052346
568.072023	7398.732621
568.427732	7416.986639
568.783385	7388.428503
569.138982	7489.491035
569.494525	7540.850310
569.850013	7498.940678
570.205445	7599.274763
570.560823	7559.273207
570.916145	7553.997639
571.271412	7641.708675
571.626625	7642.117008
571.981782	7663.814135
572.336884	7690.209616
572.691931	7716.844553
573.046923	7739.617965
573.401860	7733.213179
573.756743	7732.530103
574.111570	7802.738252
574.466342	7814.010272
574.821059	7879.434367
575.175722	7834.384096
575.530330	7888.694967
575.884882	7909.119201
576.239380	7891.356696
576.593823	7907.342195
576.948211	7949.513967
577.302544	7884.296560
577.656823	7941.949716
578.011047	7966.845454
578.365216	7978.989594
578.719330	7944.881147
579.073389	7985.603587
579.427394	7974.739901
579.781344	7985.036458
580.135239	7975.775858
580.489080	8004.986824
580.842866	7958.444371
581.196597	7989.384453
581.550273	8042.261116
581.903895	8050.793268
582.257463	8123.227087
582.610975	8051.846870
582.964434	8092.440761
583.317837	8061.591420
583.671186	8056.895585
584.024481	8082.272754
584.377721	8037.035960
584.730906	8034.212913
585.084037	8086.436747
585.437113	8050.843680
585.790135	8098.638860
586.143103	8026.076491
586.496016	8023.432406
586.848874	8098.185156
587.201679	8098.311185
587.554428	8028.947428
587.907124	8089.078311
588.259765	8078.126405
588.612352	8102.001309
588.964884	8007.134356
589.317362	8041.159623
589.669786	8048.192033
590.022155	8108.292669
590.374470	8144.525962
590.726731	8104.146320
591.078937	7992.454516
591.431090	8112.176878
591.783188	8011.799943
592.135232	8023.172787
592.487222	8024.647324
592.839157	8097.439065
593.191038	8045.000983
593.542866	8011.915890
593.894639	7935.877646
594.246358	7991.789083
594.598022	8020.692539
594.949633	7936.631298
595.301190	7933.369672
595.652692	7970.701937
596.004141	8090.351203
596.355535	7890.471973
596.706876	7882.917804
597.058162	7837.209662
597.409395	7915.967609
597.760573	7985.643917
598.111698	7906.044097
598.462768	7905.711381
598.813785	7884.049543
599.164748	7862.818724
599.515657	7861.893672
599.866511	7787.390459
600.217312	7910.462669
600.568060	7785.210160
600.918753	7893.811738
601.269392	7876.386989
601.619978	7793.752396
601.970510	7864.641101
602.320988	7873.793316
602.671412	7930.292047
603.021783	7876.921352
603.372100	7856.721448
603.722363	7872.759879
604.072572	7844.486568
604.422728	7867.333077
604.772830	7801.583828
605.122878	7815.560427
605.472872	7814.476579
605.822813	7848.050664
606.172701	7805.704971
606.522534	7884.288998
606.872314	7883.893268
607.222041	7862.803600
607.571714	7921.805265
607.921333	7884.152887
608.270899	7896.410453
608.620411	7984.318093
608.969870	7893.980616
609.319276	7894.373826
609.668627	7912.794203
610.017926	7950.648227
610.367171	8001.591607
610.716362	7979.612176
611.065500	7979.513874
611.414585	8010.169130
611.763616	7999.055907
612.112594	7984.970923
612.461518	7999.217223
612.810389	8065.911689
613.159207	8010.489243
613.507971	7960.019732
613.856682	8078.902742
614.205340	8036.201649
614.553945	8114.563865
614.902496	8020.831171
615.250994	8076.977022
615.599439	8059.320380
615.947830	8077.050118
616.296169	8054.122951
616.644454	8063.857419
616.992686	8063.179383
617.340864	8126.133313
617.688990	8030.603447
618.037063	8126.765977
618.385082	8070.037873
618.733048	8159.122623
619.080961	8102.674303
619.428821	8124.444526
619.776628	8127.824620
620.124382	8075.406702
620.472083	8062.634939
620.819731	8092.690298
621.167326	7989.434864
621.514868	8004.086978
621.862357	7894.474649
622.209793	7905.161896
622.557176	7843.795930
622.904506	7817.763411
623.251783	7756.528516
623.599007	7711.301804
623.946179	7715.720375
624.293297	7674.718150
624.640363	7598.442972
624.987376	7579.861279
625.334336	7528.063423
625.681243	7482.672874
626.028097	7470.538817
626.374899	7442.109230
626.721647	7437.007582
627.068343	7373.647840
627.414987	7347.383428
627.761577	7301.652601
628.108115	7343.302614
628.454600	7237.183805
628.801032	7289.599202
629.147412	7244.662357
629.493739	7233.871767
629.840014	7174.832294
630.186236	7227.877835
630.532405	7112.871472
630.878521	7170.275091
631.224585	7124.105683
631.570597	7050.956020
631.916556	7082.692604
632.262462	7076.658343
632.608316	7038.569905
632.954117	7015.912439
633.299866	7009.482448
633.645562	6996.309913
633.991206	6919.984323
634.336797	6865.796960
634.682336	6824.583007
635.027823	6792.352390
635.373257	6781.808817
635.718639	6713.085287
636.063968	6722.015691
636.409245	6623.582121
636.754470	6622.397450
637.099642	6579.673671
637.444762	6524.467995
637.789829	6534.315889
638.134845	6480.189020
638.479808	6465.577236
638.824719	6463.212935
639.169577	6403.364356
639.514383	6418.409680
639.859137	6348.975347
640.203839	6356.002716
640.548489	6343.092321
640.893086	6316.719524
641.237632	6296.461648
641.582125	6309.987063
641.926566	6283.347086
642.270955	6296.098685
642.615292	6290.538292
642.959576	6307.060674
643.303809	6294.619106
643.647990	6304.827442
643.992118	6290.543333
644.336195	6241.601291
644.680219	6265.745897
645.024192	6258.335401
645.368112	6349.824782
645.711981	6372.262957
646.055797	6449.551408
646.399562	6408.115644
646.743274	6534.013420
647.086935	6579.983702
647.430544	6585.748261
647.774101	6601.557320
648.117606	6606.903463
648.461059	6599.689572
648.804460	6559.982924
649.147810	6464.805939
649.491108	6441.515808
649.834354	6411.470532
650.177548	6325.448282
650.520690	6247.113793
650.863781	6227.128138
651.206820	6245.992136
651.549807	6164.411143
651.892742	6111.940293
652.235626	6114.453309
652.578458	6101.389158
652.921238	6010.411455
653.263967	6051.937960
653.606644	5990.438403
653.949269	5993.135421
654.291843	5935.141987
654.634365	5984.658721
654.976836	5943.175066
655.319255	5937.927224
655.661622	5917.886117
656.003938	5919.965593
656.346203	5874.900198
656.688416	5907.282050
657.030577	5862.481316
657.372687	5832.398230
657.714746	5813.947607
658.056753	5855.895048
658.398708	5798.851872
658.740612	5791.058248
659.082465	5841.444581
659.424266	5826.709288
659.766016	5826.066541
660.107715	5806.988294
660.449362	5815.656558
660.790958	5812.067257
661.132503	5797.931862
661.473996	5837.545248
661.815438	5827.042004
662.156829	5824.400440
662.498168	5815.008770
662.839456	5786.778309
663.180693	5827.238609
663.521879	5829.176933
663.863013	5815.810314
664.204097	5833.298076
664.545129	5872.702255
664.886110	5870.519436
665.227040	5905.583181
665.567918	5869.140680
665.908746	5898.036574
666.249522	5897.789558
666.590248	5890.253033
666.930922	5920.638587
667.271545	5925.465492
667.612118	5931.915648
667.952639	5902.503036
668.293109	5928.119660
668.633528	5882.353544
668.973896	5888.965018
669.314213	5877.065374
669.654480	5859.628023
669.994695	5853.170305
670.334859	5847.637638
670.674973	5838.271175
671.015035	5841.540363
671.355047	5837.646072
671.695008	5824.241643
672.034918	5796.480009
672.374777	5809.302184
672.714585	5794.801305
673.054342	5796.669053
673.394049	5789.238392
673.733705	5826.162323
674.073310	5809.642462
674.412864	5772.118633
674.752368	5760.405512
675.091820	5763.931799
675.431223	5702.011307
675.770574	5705.308221
676.109875	5654.528679
676.449125	5660.290717
676.788324	5628.773424
677.127473	5570.727058
677.466571	5560.848917
677.805619	5550.867432
678.144616	5539.781935
678.483562	5515.995250
678.822458	5485.022401
679.161303	5484.745138
679.500098	5471.302901
679.838842	5456.295386
680.177535	5459.433504
680.516179	5475.744157
680.854771	5488.485674
681.193314	5565.020472
681.531805	5674.400907
681.870247	5822.966232
682.208638	5924.656387
682.546978	5935.557882
682.885268	5913.984264
683.223508	5830.081820
683.561697	5777.535353
683.899836	5742.554787
684.237925	5706.752512
684.575963	5666.062839
684.913951	5625.811746
685.251889	5684.354665
685.589776	5656.046066
685.927614	5626.988855
686.265401	5698.427046
686.603137	5680.994736
686.940824	5755.442496
687.278460	5780.744048
687.616046	5791.156551
687.953582	5851.509245
688.291068	5836.196740
688.628504	5903.402882
688.965889	5866.431060
689.303224	5810.610363
689.640510	5763.001707
689.977745	5686.300551
690.314930	5588.310602
690.652065	5533.314134
690.989150	5440.924908
691.326185	5364.876582
691.663170	5315.369930
692.000105	5232.039657
692.336990	5161.304707
692.673825	5133.669102
693.010610	5065.507660
693.347345	4993.285570
693.684030	4984.740814
694.020665	4946.400318
694.357251	4855.261298
694.693786	4862.737329
695.030272	4833.632227
695.366707	4797.567813
695.703093	4766.118575
696.039429	4787.387203
696.375716	4768.089666
696.711952	4744.106376
697.048139	4728.501485
697.384276	4712.425245
697.720363	4722.643664
698.056400	4729.965940
698.392388	4678.319319
698.728326	4662.754756
699.064214	4642.297754
699.400053	4632.734685
699.735842	4601.993729
700.071581	4581.720729
700.407270	4549.643867
700.742910	4534.374212
701.078501	4478.286334
701.414042	4479.009740
701.749533	4451.432107
702.084974	4382.917786
702.420366	4436.303605
702.755709	4383.855440
703.091002	4327.356708
703.426246	4376.112228
703.761440	4330.827543
704.096584	4294.027120
704.431679	4319.542920
704.766725	4300.764622
705.101721	4289.409423
705.436668	4316.399761
705.771565	4266.431844
706.106413	4289.175009
706.441212	4325.216739
706.775961	4334.522709
707.110661	4313.846416
707.445311	4339.412628
707.779913	4364.245352
708.114465	4377.811097
708.448967	4401.895209
708.783421	4461.373263
709.117825	4500.928677
709.452180	4507.310777
709.786485	4549.502714
710.120742	4636.450015
710.454949	4621.137511
710.789107	4685.812994
711.123216	4760.583388
711.457275	4751.955453
711.791286	4825.233665
712.125247	4842.393753
712.459159	4741.376592
712.793023	4818.816276
713.126837	4781.431079
713.460602	4768.117392
713.794318	4686.100340
714.127985	4697.654664
714.461602	4612.554946
714.795171	4582.171912
715.128691	4517.151110
715.462162	4463.939210
715.795584	4419.778702
716.128957	4397.126278
716.462281	4344.176518
716.795556	4318.685924
717.128782	4283.846510
717.461960	4214.576015
717.795088	4225.270823
718.128167	4183.761962
718.461198	4126.007983
718.794180	4120.210656
719.127113	4103.012759
719.459997	4081.638267
719.792833	4036.771998
720.125619	4026.656923
720.458357	3995.941172
720.791046	4001.756143
721.123686	3973.364365
721.456278	3931.593364
721.788821	3945.965694
722.121315	3919.915531
722.453761	3893.368815
722.786158	3907.063109
723.118506	3929.400462
723.450805	3880.846589
723.783056	3907.297523
724.115259	3919.620624
724.447412	3924.749998
724.779518	3918.894697
725.111574	3924.208074
725.443582	3952.892239
725.775542	3938.734158
726.107453	3988.180316
726.439315	3986.141169
726.771129	4001.367974
727.102895	4037.044220
727.434612	4089.648661
727.766281	4093.273250
728.097901	4096.270216
728.429473	4104.953604
728.760996	4108.522741
729.092471	4104.774643
729.423897	4089.336109
729.755276	4094.236111
730.086606	4094.147890
730.417887	4133.819251
730.749120	4195.752346
731.080305	4259.127212
731.411442	4284.007827
731.742530	4252.198146
732.073570	4256.999845
732.404562	4310.806600
732.735506	4302.566834
733.066401	4266.411679
733.397249	4205.078481
733.728048	4127.462356
734.058798	4043.789284
734.389501	3974.400322
734.720156	3911.247267
735.050762	3871.550701
735.381320	3861.763301
735.711831	3811.813028
736.042293	3787.166827
736.372707	3805.632573
736.703073	3777.961680
737.033391	3768.474228
737.363661	3787.464255
737.693883	3811.722287
738.024056	3819.659584
738.354182	3814.593224
738.684260	3880.425652
739.014290	3897.346285
739.344272	3894.286305
739.674207	3935.845577
740.004093	3941.917647
740.333931	3935.275927
740.663722	3935.628808
740.993464	3934.918005
741.323159	3911.068306
741.652806	3879.984552
741.982405	3852.757280
742.311956	3820.274605
742.641460	3813.136331
742.970915	3790.269657
743.300323	3747.820621
743.629683	3714.657391
743.958996	3705.827810
744.288260	3679.558357
744.617477	3648.474602
744.946647	3632.993219
745.275768	3610.996144
745.604842	3605.980196
745.933869	3556.405489
746.262847	3553.345509
746.591778	3589.722475
746.920662	3559.127712
747.249498	3528.593443
747.578286	3575.463571
747.907027	3589.588884
748.235720	3588.739450
748.564365	3613.378089
748.892963	3614.366155
749.221514	3596.278495
749.550017	3576.963314
749.878473	3569.089032
750.206881	3541.135834
750.535242	3540.873694
750.863555	3540.528375
751.191821	3535.903116
751.520039	3516.865199
751.848210	3494.505161
752.176334	3528.117054
752.504411	3531.401366
752.832440	3493.819564
753.160421	3476.276349
753.488356	3488.695231
753.816243	3500.965400
754.144082	3453.845735
754.471875	3443.486163
754.799620	3462.650110
755.127318	3450.843727
755.454969	3453.744912
755.782572	3456.799851
756.110129	3434.422169
756.437638	3423.424892
756.765100	3438.623971
757.092515	3446.800722
757.419882	3457.130046
757.747203	3425.942948
758.074477	3432.045265
758.401703	3444.600258
758.728882	3469.127992
759.056014	3473.574290
759.383099	3476.316678
759.710138	3473.221409
760.037129	3491.296467
760.364073	3521.349305
760.690970	3506.382119
761.017820	3482.058552
761.344623	3504.405987
761.671379	3546.083727
761.998088	3597.536263
762.324751	3725.390007
762.651366	3968.335814
762.977935	4435.880148
763.304456	4869.494996
763.630931	4961.133091
763.957359	4601.789562
764.283740	4265.831946
764.610074	4080.970314
764.936362	3881.605282
765.262602	3727.131726
765.588796	3614.207359
765.914943	3532.162580
766.241044	3445.522790
766.567097	3415.474992
766.893104	3367.692415
767.219064	3341.586800
767.544978	3312.491781
767.870845	3258.057402
768.196665	3237.456726
768.522438	3246.755135
768.848165	3241.913106
769.173846	3204.565718
769.499479	3188.388655
769.825066	3173.955832
770.150607	3158.650889
770.476101	3174.636388
770.801548	3167.863597
771.126949	3125.177627
771.452303	3103.687188
771.777611	3116.171606
772.102872	3117.631020
772.428087	3093.370467
772.753256	3082.400916
773.078378	3076.611151
773.403453	3042.664021
773.728482	3031.830582
774.053465	3050.646688
774.378401	3038.673948
774.703291	3007.297806
775.028135	3008.757220
775.352932	3003.262363
775.677683	2995.009994
776.002388	2990.314159
776.327046	2990.248624
776.651658	2980.995586
776.976224	2971.450161
777.300743	2967.293730
777.625216	2960.029427
777.949643	2954.738736
778.274024	2960.553707
778.598359	2948.545679
778.922647	2952.044240
779.246889	2947.910493
779.571086	2933.318874
779.895236	2928.285282
780.219339	2940.313475
780.543397	2950.821760
780.867409	2957.229066
781.191374	2950.524332
781.515294	2945.357149
781.839167	2947.000565
782.162995	2938.385233
782.486776	2946.985442
782.810511	2945.468054
783.134201	2928.807041
783.457844	2939.227106
783.781441	2930.533636
784.104993	2908.786098
784.428498	2912.272056
784.751958	2923.390321
785.075372	2916.362953
785.398739	2899.606157
785.722061	2917.542583
786.045337	2931.302412
786.368568	2914.296080
786.691752	2907.709812
787.014891	2952.487861
787.337983	2982.119763
787.661030	3010.763600
787.984031	3075.978486
788.306987	3120.239817
788.629897	3112.463837
788.952760	3098.288113
789.275579	3083.174733
789.598351	3024.757843
789.921078	2981.469455
790.243759	2974.583238
790.566395	2957.226546
790.888984	2929.961465
791.211529	2913.204670
791.534027	2907.233423
791.856480	2899.066754
792.178888	2882.400699
792.501249	2874.286962
792.823566	2870.730428
793.145836	2869.371837
793.468062	2864.802031
793.790241	2862.737679
794.112375	2870.717825
794.434464	2883.434136
794.756507	2887.237686
795.078505	2887.887995
795.400457	2903.303844
795.722364	2941.689710
796.044226	2964.422793
796.366042	2967.099646
796.687812	2956.404838
797.009538	2975.178095
797.331218	2963.044037
797.652852	2948.273457
797.974442	2931.231836
798.295986	2927.445929
798.617484	2924.333017
798.938938	2905.970614
799.260346	2891.058881
799.581709	2886.995711
799.903026	2881.261398
800.224299	2875.839638
800.545526	2865.293544
800.866708	2848.067921
801.187845	2840.508711
801.508936	2842.913341
801.829983	2846.437108
802.150984	2836.364882
802.471940	2824.061946
802.792851	2820.462562
803.113717	2822.894919
803.434538	2829.196362
803.755314	2820.661688
804.076045	2815.219762
804.396731	2816.671615
804.717372	2814.022488
805.037967	2807.647949
805.358518	2817.352171
805.679024	2828.233501
805.999485	2825.400373
806.319901	2829.433296
806.640272	2819.817295
806.960598	2824.132522
807.280879	2835.139882
807.601115	2841.733711
807.921306	2826.280054
808.241453	2824.571103
808.561554	2830.237360
808.881611	2834.885304
809.201623	2827.704180
809.521590	2826.401042
809.841513	2819.570278
810.161390	2824.850887
810.481223	2817.195895
810.801011	2810.793629
811.120755	2807.698361
811.440453	2811.887560
811.760107	2807.272383
812.079716	2808.068886
812.399281	2800.325673
812.718801	2791.216308
813.038276	2786.228087
813.357707	2792.998356
813.677093	2801.154943
813.996434	2794.389715
814.315731	2789.774538
814.634983	2784.473765
814.954191	2788.015176
815.273354	2799.743420
815.592473	2808.973773
815.911547	2810.256747
816.230577	2819.328303
816.549562	2828.505723
816.868502	2823.933397
817.187399	2834.640808
817.506250	2852.052953
817.825058	2847.233610
818.143821	2858.624097
818.462539	2874.874257
818.781213	2898.953328
819.099843	2934.937084
819.418429	2990.964468
819.736970	3051.854045
820.055466	3121.651340
820.373919	3225.156311
820.692327	3362.820140
821.010691	3526.695449
821.329011	3963.609732
821.647286	4849.998333
821.965517	6193.851482
822.283704	6914.771770
822.601847	6885.807820
822.919945	6267.969046
823.237999	5772.937821
823.556010	5206.017221
823.873976	4662.674098
824.191897	4265.433695
824.509775	3979.285200
824.827609	3714.594376
825.145398	3597.687498
825.463144	3585.157710
825.780845	3674.494518
826.098502	3779.529479
826.416116	4059.149680
826.733685	4363.766442
827.051210	4420.315585
827.368692	4309.742917
827.686129	4047.378586
828.003522	3730.224474
828.320872	3478.738952
828.638177	3290.540076
828.955439	3153.849190
829.272656	3073.974628
829.589830	3005.712363
829.906960	2958.317956
830.224046	2913.996131
830.541088	2882.433467
830.858086	2869.696992
831.175041	2850.815350
831.491952	2851.737881
831.808819	2866.132896
832.125642	2886.690721
832.442421	2932.116558
832.759157	3011.849968
833.075849	3186.697348
833.392497	3459.585088
833.709101	3662.831808
834.025662	3612.006895
834.342179	3453.555868
834.658653	3281.196298
834.975083	3134.854122
835.291469	3037.406098
835.607811	2957.534056
835.924110	2901.375602
836.240366	2850.671677
836.556578	2809.119966
836.872746	2788.005093
837.188871	2764.097421
837.504952	2751.237438
837.820990	2740.812332
838.136984	2726.341700
838.452935	2722.102089
838.768842	2720.267109
839.084706	2738.594224
839.400526	2816.510298
839.716303	2945.034515
840.032037	3020.354395
840.347727	3008.885770
840.663373	2949.616924
840.978977	2873.918958
841.294537	2802.367341
841.610054	2755.555186
841.925527	2734.878894
842.240957	2711.810574
842.556344	2693.206195
842.871687	2680.288239
843.186987	2669.452278
843.502244	2665.376506
843.817458	2663.034890
844.132629	2647.520739
844.447756	2640.440438
844.762840	2634.711167
845.077881	2638.638226
845.392879	2633.224026
845.707833	2633.818882
846.022745	2623.308077
846.337613	2627.260341
846.652438	2628.974334
846.967221	2625.377470
847.281960	2622.216667
847.596656	2622.998046
847.911309	2622.987963
848.225919	2621.019393
848.540485	2614.415481
848.855009	2613.813063
849.169490	2616.638630
849.483928	2614.377673
849.798323	2613.198043
850.112675	2611.950357
850.426984	2614.803650
850.741251	2614.077724
851.055474	2612.015892
851.369654	2618.201388
851.683792	2616.089144
851.997887	2612.961108
852.311938	2612.857765
852.625947	2615.643002
852.939914	2616.268105
853.253837	2617.765328
853.567718	2612.996397
853.881555	2612.383896
854.195350	2616.981429
854.509103	2615.121243
854.822812	2611.731067
855.136479	2611.531941
855.450103	2614.027312
855.763685	2615.486727
856.077224	2610.082610
856.390720	2608.441714
856.704173	2611.867178
857.017584	2618.193826
857.330953	2618.624845
857.644278	2621.447891
857.957561	2619.852366
858.270802	2615.668208
858.584000	2615.627879
858.897155	2620.963940
859.210268	2621.042078
859.523339	2617.112499
859.836367	2608.580346
860.149352	2612.404061
860.462295	2614.559154
860.775195	2610.937085
861.088054	2608.693772
861.400869	2608.809718
861.713642	2605.366610
862.026373	2608.398864
862.339062	2609.820470
862.651708	2615.632920
862.964312	2616.769700
863.276873	2615.990842
863.589392	2619.489403
863.901869	2620.694238
864.214303	2628.351751
864.526696	2627.149436
864.839045	2629.123048
865.151353	2632.946763
865.463619	2630.844602
865.775842	2633.234109
866.088023	2631.447020
866.400162	2632.790487
866.712258	2631.973820
867.024313	2631.711680
867.336325	2627.895527
867.648296	2626.242028
867.960224	2637.572022
868.272110	2633.153450
868.583954	2624.863273
868.895755	2627.512399
869.207515	2633.869294
869.519233	2638.290386
869.830909	2635.497587
870.142542	2631.073974
870.454134	2635.106897
870.765684	2640.775675
871.077191	2639.467495
871.388657	2642.081334
871.700081	2644.125522
872.011463	2643.250881
872.322803	2642.300624
872.634101	2646.235244
872.945357	2653.494506
873.256571	2659.032213
873.567744	2657.761843
873.878874	2655.626914
874.189963	2653.421409
874.501010	2658.260917
874.812015	2667.760971
875.122979	2663.639828
875.433900	2653.812099
875.744780	2657.270330
876.055618	2658.759991
876.366415	2666.304078
876.677169	2665.852895
876.987882	2659.896771
877.298554	2657.668581
877.609183	2669.396826
877.919771	2674.669873
878.230317	2683.691017
878.540822	2694.408511
878.851285	2703.129707
879.161707	2728.073336
879.472087	2765.579521
879.782425	2810.251705
880.092722	2920.779003
880.402977	3104.284565
880.713191	3352.221114
881.023363	3636.244763
881.333494	3819.440294
881.643583	3988.389524
881.953631	3985.369873
882.263637	3808.972338
882.573602	3597.004422
882.883526	3470.042962
883.193408	3361.441385
883.503248	3264.598299
883.813048	3152.689724
884.122806	3044.357849
884.432522	2962.923050
884.742197	2897.592216
885.051831	2863.229191
885.361424	2829.950014
885.670975	2792.640434
885.980485	2763.681526
886.289954	2747.902715
886.599382	2736.295458
886.908768	2723.964796
887.218113	2704.200952
887.527417	2692.157635
887.836680	2685.432736
888.145901	2680.852848
888.455082	2673.056703
888.764221	2665.101763
889.073319	2655.737819
889.382376	2656.587254
889.691392	2657.146822
890.000366	2656.846873
890.309300	2652.798827
890.618193	2656.977943
890.927044	2660.710918
891.235855	2660.199241
891.544625	2655.810916
891.853353	2658.296205
892.162041	2667.070333
892.470687	2687.766790
892.779293	2696.735003
893.087858	2703.467464
893.396381	2723.296843
893.704864	2766.330652
894.013306	2833.602330
894.321707	2924.723706
894.630068	2971.465285
894.938387	2986.689569
895.246665	2982.800319
895.554903	2942.334977
895.863100	2896.546177
896.171256	2844.435770
896.479371	2785.560134
896.787446	2747.146542
897.095480	2731.758419
897.403473	2724.055536
897.711425	2711.619010
898.019336	2690.831812
898.327207	2677.530727
898.635038	2676.489729
898.942827	2674.921930
899.250576	2665.752072
899.558284	2658.956596
899.865952	2648.985194
900.173579	2648.501243
900.481165	2647.787920
900.788711	2641.113432
901.096216	2631.504993
901.403681	2628.936525
901.711105	2628.828140
902.018489	2625.914353
902.325832	2630.290075
902.633135	2632.387195
902.940397	2648.319762
903.247619	2680.981397
903.554800	2747.035636
903.861941	2871.347969
904.169041	2989.593274
904.476101	3050.772717
904.783121	3038.936088
905.090100	2986.555979
905.397039	2916.955288
905.703938	2848.161182
906.010796	2788.970474
906.317614	2738.465675
906.624391	2703.021322
906.931129	2677.482837
907.237826	2657.043478
907.544483	2638.814666
907.851099	2622.204064
908.157675	2618.987808
908.464211	2609.477671
908.770707	2596.088367
909.077163	2594.991916
909.383578	2592.383118
909.689954	2593.015783
909.996289	2590.510330
910.302584	2589.360947
910.608839	2586.079156
910.915054	2586.396748
911.221229	2589.587799
911.527363	2593.255238
911.833458	2590.076791
912.139513	2592.206678
912.445527	2592.693149
912.751502	2598.913933
913.057436	2603.602206
913.363331	2607.178905
913.669186	2618.629886
913.975000	2629.654889
914.280775	2645.852117
914.586510	2663.218892
914.892205	2697.229036
915.197859	2762.408635
915.503475	2843.757734
915.809050	2907.278793
916.114585	2918.742377
916.420081	2928.933070
916.725536	2940.484874
917.030952	2916.425967
917.336328	2872.741848
917.641665	2824.286278
917.946961	2776.470933
918.252218	2744.426839
918.557435	2719.450442
918.862612	2698.627956
919.167750	2684.255627
919.472848	2666.941784
919.777906	2652.728251
920.082925	2640.332053
920.387904	2630.998357
920.692843	2625.609363
920.997743	2624.447377
921.302603	2616.525204
921.607423	2610.604369
921.912204	2603.478698
922.216946	2602.636825
922.521647	2599.854108
922.826310	2594.215578
923.130932	2590.800196
923.435516	2585.769125
923.740059	2585.247365
924.044564	2585.111254
924.349028	2580.652353
924.653454	2573.128431
924.957840	2572.619275
925.262186	2571.336301
925.566493	2573.698082
925.870761	2565.977555
926.174989	2570.761610
926.479178	2564.581155
926.783328	2567.121897
927.087438	2563.693912
927.391509	2563.560321
927.695541	2559.751730
927.999533	2562.403377
928.303486	2558.725855
928.607400	2560.202913
928.911275	2558.365412
929.215110	2556.583364
929.518906	2557.783159
929.822663	2556.721996
930.126381	2560.734755
930.430060	2556.974054
930.733699	2555.716286
931.037299	2558.229301
931.340861	2560.235680
931.644383	2560.921277
931.947866	2559.035886
932.251309	2556.631255
932.554714	2557.808365
932.858080	2561.012018
933.161407	2558.231822
933.464694	2556.797613
933.767943	2558.753581
934.071153	2556.946327
934.374323	2554.387942
934.677455	2555.194527
934.980548	2554.503888
935.283602	2558.751061
935.586617	2555.507078
935.889593	2554.201419
936.192530	2553.747715
936.495428	2556.510268
936.798287	2556.386759
937.101108	2559.900444
937.403890	2561.952193
937.706632	2564.802966
938.009336	2568.220868
938.312002	2568.470405
938.614628	2573.267063
938.917216	2575.565829
939.219765	2574.076168
939.522275	2577.965418
939.824747	2576.001889
940.127179	2574.353432
940.429573	2568.291444
940.731929	2570.655745
941.034246	2566.527040
941.336524	2569.108111
941.638763	2569.851681
941.940964	2567.038717
942.243126	2565.307081
942.545250	2564.606361
942.847335	2563.353634
943.149381	2562.670558
943.451389	2564.457647
943.753359	2559.628221
944.055290	2560.389436
944.357182	2559.603016
944.659036	2560.712069
944.960851	2560.719631
945.262628	2558.254507
945.564367	2560.089487
945.866067	2557.659651
946.167729	2559.086297
946.469352	2559.159394
946.770937	2561.193500
947.072484	2558.733417
947.373992	2557.440361
947.675462	2558.226781
947.976893	2557.972202
948.278286	2557.188303
948.579641	2554.299722
948.880958	2556.157387
949.182236	2555.368446
949.483476	2553.616645
949.784678	2555.381049
950.085841	2555.575134
950.386967	2554.544218
950.688054	2557.188303
950.989103	2559.091338
951.290114	2555.950700
951.591087	2557.601677
951.892021	2560.485217
952.192917	2564.397153
952.493776	2558.899775
952.794596	2563.088973
953.095378	2560.192831
953.396122	2564.520661
953.696828	2560.971689
953.997496	2559.161915
954.298126	2558.952707
954.598718	2557.614280
954.899272	2557.321893
955.199788	2556.560679
955.500266	2554.705535
955.800706	2549.281253
956.101108	2546.092723
956.401472	2548.736808
956.701798	2548.237734
957.002087	2546.241437
957.302337	2546.828732
957.602550	2546.909390
957.902724	2548.499874
958.202861	2547.738660
958.502960	2542.160623
958.803022	2544.408978
959.103045	2543.042825
959.403031	2544.776982
959.702979	2543.579708
960.002889	2544.361087
960.302762	2542.868905
960.602596	2544.434184
960.902393	2543.884698
961.202153	2542.228679
961.501875	2541.396888
961.801559	2542.609286
962.101205	2544.124153
962.400814	2541.472506
962.700385	2543.516694
962.999918	2543.746066
963.299414	2542.430325
963.598873	2542.387475
963.898293	2542.468134
964.197677	2543.496529
964.497022	2542.218597
964.796331	2542.432846
965.095601	2543.433515
965.394835	2543.572146
965.694030	2542.901673
965.993189	2543.393185
966.292309	2541.253216
966.591393	2541.379244
966.890439	2541.580891
967.189447	2542.942002
967.488419	2543.042825
967.787353	2540.625592
968.086249	2542.831097
968.385108	2542.551313
968.683930	2542.500901
968.982714	2542.934440
969.281462	2541.109543
969.580172	2539.546785
969.878844	2543.589790
970.177480	2541.679193
970.476078	2544.071221
970.774639	2544.348484
971.073162	2542.558874
971.371649	2541.376724
971.670098	2538.641898
971.968510	2540.255067
972.266885	2536.305323
972.565223	2543.282280
972.863524	2541.951415
973.161788	2542.843700
973.460014	2543.970397
973.758204	2544.214893
974.056356	2545.954092
974.354471	2541.611138
974.652550	2542.299255
974.950591	2543.143648
975.248595	2541.432177
975.546563	2544.015768
975.844493	2541.175078
976.142386	2542.279090
976.440243	2542.616848
976.738062	2541.875798
977.035845	2538.223482
977.333590	2544.439225
977.631299	2541.036446
977.928971	2542.311858
978.226606	2539.748431
978.524204	2541.023843
978.821765	2540.066024
979.119290	2541.873277
979.416777	2540.663401
979.714228	2541.069213
980.011642	2542.780685
980.309020	2543.040305
980.606360	2542.929399
980.903664	2541.679193
981.200931	2542.006868
981.498162	2542.195911
981.795356	2544.272867
982.092513	2547.801674
982.389633	2550.241593
982.686717	2550.339895
982.983764	2552.923487
983.280775	2557.084959
983.577749	2555.207129
983.874686	2552.787376
984.171587	2549.213197
984.468451	2550.329813
984.765279	2550.352498
985.062070	2547.247147
985.358824	2544.419060
985.655543	2542.427804
985.952224	2542.498381
986.248869	2541.568288
986.545478	2537.434542
986.842050	2538.420087
987.138586	2537.545447
987.435086	2540.144162
987.731549	2537.358924
988.027975	2536.953111
988.324366	2540.345808
988.620719	2539.352701
988.917037	2541.104502
989.213318	2538.344470
989.509563	2539.244316
989.805772	2538.067206
990.101944	2539.821528
990.398080	2539.748431
990.694180	2540.391178
990.990244	2536.378420
991.286271	2540.837320
991.582262	2540.262629
991.878217	2540.013092
992.174136	2537.404295
992.470019	2539.077958
992.765865	2536.277597
993.061676	2540.723894
993.357450	2538.533513
993.653188	2536.053265
993.948890	2539.382947
994.244556	2536.106197
994.540186	2540.129038
994.835780	2537.757175
995.131337	2542.992414
995.426859	2540.149203
995.722345	2542.979811
996.017795	2540.925541
996.313208	2539.604758
996.608586	2542.571477
996.903928	2543.357897
997.199234	2541.412012
997.494504	2541.981662
997.789738	2544.865202
998.084936	2539.514018
998.380099	2540.343287
998.675225	2538.871270
998.970316	2538.891435
999.265371	2538.780530
999.560390	2538.687268
999.855373	2537.999151
1000.150320	2536.882535
1000.445232	2539.335057
1000.740108	2537.321116
1001.034948	2537.880684
1001.329752	2535.476053
1001.624521	2539.203987
1001.919254	2533.063861
1002.213951	2536.174253
1002.508613	2532.726104
1002.803239	2537.006043
1003.097829	2534.001516
1003.392384	2538.263811
1003.686903	2537.220292
1003.981386	2539.713143
1004.275834	2536.970755
1004.570246	2537.976466
1004.864623	2534.591331
1005.158964	2537.747093
1005.453270	2534.790456
1005.747540	2538.094933
1006.041775	2532.753830
1006.335974	2535.433203
1006.630138	2534.195600
1006.924266	2538.500746
1007.218359	2538.057124
1007.512416	2538.422608
1007.806438	2536.706095
1008.100425	2537.603420
1008.394376	2536.065868
1008.688292	2537.210210
1008.982172	2533.804911
1009.276017	2534.283820
1009.569827	2535.770961
1009.863602	2535.450848
1010.157341	2536.121321
1010.451045	2538.160468
1010.744714	2535.516383
1011.038347	2536.426311
1011.331945	2537.192566
1011.625508	2537.379089
1011.919036	2536.093595
1012.212528	2536.915303
1012.505986	2534.200641
1012.799408	2535.420601
1013.092795	2538.223482
1013.386147	2533.971269
1013.679464	2535.924716
1013.972745	2534.487987
1014.265992	2536.496887
1014.559204	2536.794315
1014.852380	2535.244160
1015.145521	2536.411187
1015.438628	2536.448996
1015.731699	2535.249201
1016.024736	2539.992927
1016.317737	2533.923378
1016.610703	2537.270704
1016.903635	2532.892462
1017.196531	2533.280631
1017.489393	2534.240971
1017.782219	2530.013963
1018.075011	2536.166691
1018.367768	2532.368182
1018.660490	2538.271373
1018.953177	2538.271373
1019.245829	2538.271373
