Dividing Wavelength (nm)	Counts (n)	Blue Motor Position (mm): 7.400000	Red Motor Position (mm): 0.000000	
326.493990	2141.635909
326.888308	2141.635909
327.282561	2141.635909
327.676750	2108.578543
328.070874	2107.043511
328.464933	2109.065014
328.858929	2118.648248
329.252859	2126.343569
329.646726	2139.995013
330.040528	2150.473052
330.434265	2167.643222
330.827938	2185.796417
331.221547	2203.148068
331.615091	2220.461911
332.008571	2240.535786
332.401986	2260.103024
332.795338	2278.495674
333.188625	2298.115845
333.581847	2317.231900
333.975006	2336.375682
334.368100	2355.627849
334.761129	2373.710468
335.154095	2388.685215
335.546996	2407.589542
335.939833	2422.798703
336.332606	2440.036929
336.725315	2450.257868
337.117960	2457.620473
337.510540	2468.958028
337.903056	2480.345995
338.295508	2484.837663
338.687896	2492.724548
339.080220	2499.840137
339.472480	2509.710716
339.864676	2514.104082
340.256807	2519.127591
340.648875	2520.438291
341.040879	2522.810154
341.432818	2524.665299
341.824694	2528.063037
342.216506	2526.870804
342.608253	2527.082532
342.999937	2527.299302
343.391557	2527.309384
343.783113	2526.754857
344.174605	2524.052799
344.566033	2524.395597
344.957397	2519.878723
345.348697	2518.656243
345.739934	2516.455780
346.131106	2517.224556
346.522215	2513.259688
346.913260	2513.458814
347.304241	2511.182733
347.695159	2508.473113
348.086012	2505.660149
348.476802	2505.529079
348.867528	2502.801815
349.258191	2501.274345
349.648789	2498.960455
350.039324	2499.850219
350.429796	2499.643532
350.820203	2496.588592
351.210548	2497.606906
351.600828	2497.228819
351.991045	2493.823520
352.381198	2494.680516
352.771288	2492.235556
353.161314	2493.687408
353.551276	2492.936277
353.941175	2493.321925
354.331010	2491.237408
354.720782	2496.089518
355.110490	2491.537356
355.500135	2493.069867
355.889717	2491.703714
356.279235	2492.021307
356.668689	2493.405104
357.058080	2492.918633
357.447408	2494.262100
357.836672	2487.713641
358.225873	2494.262100
358.615010	2490.130874
359.004084	2495.782008
359.393095	2494.521719
359.782043	2495.955928
360.170927	2496.263438
360.559748	2498.726042
360.948505	2498.035404
361.337199	2498.978099
361.725830	2500.679489
362.114398	2501.057575
362.502903	2500.752586
362.891344	2501.838954
363.279722	2503.817607
363.668037	2502.020436
364.056289	2503.888183
364.444478	2505.584532
364.832603	2503.089160
365.220665	2500.314005
365.608665	2505.861795
365.996601	2505.854233
366.384474	2504.107473
366.772284	2503.303409
367.160031	2507.028822
367.547715	2505.551764
367.935336	2508.914214
368.322893	2507.759789
368.710388	2505.128307
369.097820	2508.755417
369.485189	2505.702999
369.872495	2508.344563
370.259738	2506.151661
370.646918	2507.653925
371.034035	2507.575787
371.421090	2511.941427
371.808081	2510.476971
372.195010	2509.962774
372.581875	2509.141066
372.968678	2507.321209
373.355418	2508.493277
373.742096	2513.005110
374.128710	2509.143586
374.515262	2512.513597
374.901751	2508.183246
375.288177	2510.476971
375.674540	2512.374966
376.060841	2511.228103
376.447079	2511.270953
376.833254	2512.405213
377.219367	2508.291631
377.605417	2509.872033
377.991404	2506.809532
378.377329	2510.368587
378.763191	2507.759789
379.148991	2514.598115
379.534727	2512.533762
379.920402	2513.501664
380.306013	2512.092661
380.691563	2515.860924
381.077049	2512.039729
381.462474	2515.273629
381.847835	2513.123577
382.233134	2517.700945
382.618371	2512.659791
383.003545	2513.652898
383.388657	2514.610718
383.773706	2516.833866
384.158693	2515.684483
384.543618	2517.032992
384.928480	2513.758763
385.313280	2516.241531
385.698017	2516.002076
386.082692	2514.646006
386.467305	2513.983094
386.851856	2514.663650
387.236344	2518.101717
387.620770	2516.554082
388.005133	2515.795389
388.389435	2520.219001
388.773674	2519.009124
389.157851	2516.387724
389.541965	2516.523835
389.926018	2518.636079
390.310008	2518.510050
390.693936	2518.867972
391.077802	2518.835204
391.461606	2518.686490
391.845348	2518.368898
392.229027	2519.800585
392.612645	2521.398631
392.996200	2517.443846
393.379694	2522.180010
393.763125	2518.467200
394.146494	2523.644465
394.529801	2520.970133
394.913047	2521.590195
395.296230	2519.858559
395.679351	2522.621111
396.062410	2522.416944
396.445408	2521.703621
396.828343	2519.059536
397.211217	2515.631551
397.594028	2520.367715
397.976778	2517.637930
398.359466	2520.234125
398.742092	2515.974350
399.124656	2522.648837
399.507158	2523.226049
399.889598	2524.977850
400.271977	2520.990298
400.654294	2523.866276
401.036549	2525.149250
401.418742	2526.432223
401.800874	2524.317459
402.182944	2525.176976
402.564952	2524.065402
402.946898	2526.560773
403.328783	2522.938704
403.710606	2526.117151
404.092367	2522.500123
404.474067	2524.932480
404.855705	2525.537418
405.237282	2524.753519
405.618797	2524.539270
406.000250	2525.310567
406.381642	2526.293592
406.762972	2527.271575
407.144240	2522.878210
407.525447	2528.123530
407.906593	2526.361647
408.287677	2529.661082
408.668700	2527.337110
409.049661	2524.574558
409.430560	2525.320649
409.811399	2530.545805
410.192176	2526.548170
410.572891	2527.833664
410.953545	2526.659075
411.334138	2527.533715
411.714669	2529.610671
412.095139	2529.489683
412.475547	2527.107738
412.855894	2531.065044
413.236180	2528.289888
413.616405	2527.881555
413.996568	2531.158305
414.376670	2530.366844
414.756711	2529.093952
415.136691	2530.931453
415.516609	2532.516896
415.896466	2528.965403
416.276262	2530.197965
416.655997	2525.797038
417.035670	2525.234949
417.415283	2527.385001
417.794834	2524.750998
418.174324	2527.077491
418.553753	2532.254756
418.933121	2530.384488
419.312428	2529.595547
419.691674	2534.422452
420.070859	2529.840043
420.449983	2530.591175
420.829045	2530.258459
421.208047	2531.992616
421.586988	2532.393388
421.965867	2533.913296
422.344686	2530.298788
422.723444	2529.847605
423.102141	2532.375744
423.480777	2533.013450
423.859352	2530.384488
424.237866	2533.651156
424.616319	2532.869777
424.994712	2532.474046
425.373044	2535.423121
425.751314	2532.176618
426.129524	2530.918850
426.507673	2533.046217
426.885762	2532.151412
427.263789	2535.778522
427.641756	2532.768954
428.019662	2533.336083
428.397508	2532.161495
428.775292	2534.881197
429.153016	2535.085364
429.530679	2533.951104
429.908282	2533.893131
430.285824	2534.344314
430.663305	2534.772812
431.040726	2532.101001
431.418086	2534.354397
431.795385	2536.897659
432.172624	2536.847247
432.549802	2534.813142
432.926920	2534.916485
433.303977	2537.169881
433.680974	2536.217103
434.057910	2536.433872
434.434786	2539.135931
434.811601	2536.317926
435.188355	2535.957483
435.565050	2536.476722
435.941683	2534.344314
436.318257	2532.090918
436.694770	2532.779036
437.071222	2532.121165
437.447614	2530.381967
437.823946	2536.184335
438.200218	2538.357073
438.576429	2535.776002
438.952580	2535.705426
439.328670	2537.522762
439.704700	2535.579397
440.080670	2537.996630
440.456580	2536.988399
440.832429	2535.241640
441.208218	2536.985879
441.583947	2538.760365
441.959616	2537.341280
442.335224	2538.341949
442.710773	2536.723739
443.086261	2538.795653
443.461689	2538.001671
443.837057	2536.756506
444.212365	2539.609799
444.587612	2539.324974
444.962800	2537.553009
445.337927	2541.296065
445.712995	2539.778678
446.088002	2538.072247
446.462949	2538.467978
446.837837	2538.200797
447.212664	2536.073430
447.587431	2538.062165
447.962139	2539.950077
448.336786	2541.802701
448.711374	2537.938657
449.085901	2541.462423
449.460369	2540.118956
449.834776	2538.788091
450.209124	2539.685417
450.583412	2539.551826
450.957640	2538.725077
451.331808	2542.614327
451.705917	2539.483771
452.079965	2540.325643
452.453954	2538.853626
452.827883	2539.987886
453.201752	2541.774975
453.575562	2540.759183
453.949311	2541.517876
454.323001	2540.086188
454.696632	2539.819007
455.070202	2542.324461
455.443713	2540.305479
455.817164	2539.932433
456.190556	2536.809438
456.563888	2540.224820
456.937160	2533.252904
457.310373	2542.107691
457.683526	2540.862526
458.056619	2541.152392
458.429653	2541.263298
458.802628	2543.930068
459.175542	2539.130890
459.548398	2542.047197
459.921194	2540.224820
460.293930	2540.537372
460.666607	2542.289173
461.039224	2540.882691
461.411782	2540.643236
461.784280	2541.724563
462.156719	2541.590973
462.529099	2541.008720
462.901419	2542.558874
463.273680	2542.631971
463.645882	2543.471323
464.018024	2542.669780
464.390106	2542.289173
464.762130	2541.457382
465.134094	2542.006868
465.505999	2539.032587
465.877845	2540.895294
466.249631	2543.589790
466.621358	2541.797660
466.993026	2545.422250
467.364634	2546.438042
467.736184	2543.678011
468.107674	2543.826725
468.479105	2542.072403
468.850477	2544.552651
469.221790	2543.733463
469.593043	2543.342774
469.964238	2543.751107
470.335373	2542.422763
470.706449	2544.887888
471.077467	2541.086858
471.448425	2544.882846
471.819324	2542.538710
472.190164	2545.087013
472.560945	2542.621889
472.931667	2545.366797
473.302330	2541.641384
473.672934	2543.322609
474.043479	2544.287990
474.413965	2543.690613
474.784393	2541.258257
475.154761	2541.245654
475.525070	2538.452855
475.895321	2541.472506
476.265513	2537.583256
476.635645	2544.124153
477.005719	2542.851261
477.375734	2546.092723
477.745691	2542.747918
478.115588	2544.340922
478.485427	2545.041643
478.855207	2546.818649
479.224928	2544.620706
479.594591	2548.741850
479.964194	2544.971067
480.333739	2547.433670
480.703226	2546.324616
481.072653	2547.683207
481.442022	2546.662374
481.811333	2547.037940
482.180584	2542.586601
482.549777	2543.345294
482.918912	2545.911242
483.287988	2546.233876
483.657005	2545.616334
484.025964	2545.316386
484.394864	2544.746735
484.763706	2546.417878
485.132489	2544.862682
485.501213	2547.627755
485.869879	2545.702034
486.238487	2545.543238
486.607036	2545.477702
486.975527	2545.195398
487.343959	2547.897456
487.712333	2544.663556
488.080648	2546.213711
488.448905	2544.416540
488.817104	2543.330171
489.185244	2545.641540
489.553326	2545.696993
489.921350	2546.727909
490.289315	2547.990718
490.657222	2543.292362
491.025070	2547.131201
491.392861	2547.050543
491.760593	2546.969884
492.128267	2546.851417
492.495883	2545.379400
492.863440	2546.634647
493.230939	2545.328988
493.598380	2547.373176
493.965763	2541.038967
494.333088	2544.305634
494.700354	2544.489636
495.067563	2547.080789
495.434713	2542.087527
495.801805	2548.043650
496.168839	2547.466438
496.535815	2549.278732
496.902733	2547.383259
497.269593	2547.509288
497.636395	2546.029709
498.003139	2548.187323
498.369825	2548.726726
498.736453	2545.228165
499.103023	2550.299566
499.469535	2547.932744
499.835989	2545.775131
500.202385	2546.319575
500.568723	2544.262784
500.935003	2547.776469
501.301226	2551.287632
501.667390	2549.172868
502.033497	2548.328475
502.399546	2547.572302
502.765537	2548.005841
503.131470	2547.156407
503.497345	2550.183620
503.863163	2548.000800
504.228923	2548.572971
504.594625	2547.715975
504.960269	2547.380738
505.325856	2549.041798
505.691385	2547.766386
506.056856	2547.196736
506.422270	2547.433670
506.787625	2548.273022
507.152924	2545.883515
507.518164	2547.625234
507.883347	2548.386448
508.248472	2549.455173
508.613540	2549.387117
508.978550	2549.477858
509.343503	2549.571119
509.708398	2548.479710
510.073236	2548.855276
510.438016	2549.639175
510.802738	2550.896943
511.167403	2547.403423
511.532010	2549.361912
511.896561	2548.242775
512.261053	2548.126829
512.625488	2545.240768
512.989866	2544.053577
513.354186	2546.453166
513.718449	2542.183308
514.082655	2548.194884
514.446803	2548.192364
514.810894	2551.048177
515.174927	2550.155893
515.538904	2550.949875
515.902822	2547.862168
516.266684	2549.379556
516.630488	2548.628424
516.994235	2549.561037
517.357925	2546.387631
517.721558	2547.688248
518.085133	2547.695810
518.448651	2549.576161
518.812112	2551.128836
519.175516	2546.932075
519.538863	2548.041129
519.902152	2550.186140
520.265385	2549.727395
520.628560	2550.297046
520.991678	2550.017262
521.354739	2549.805533
521.717743	2551.033054
522.080690	2550.856614
522.443580	2549.901315
522.806413	2550.629762
523.169189	2551.963147
523.531908	2550.460883
523.894569	2550.647406
524.257174	2549.608928
524.619722	2550.614638
524.982213	2549.175389
525.344647	2549.147662
525.707025	2548.714123
526.069345	2548.535162
526.431608	2549.813095
526.793815	2552.011038
527.155964	2547.554658
527.518057	2548.583053
527.880093	2550.269319
528.242072	2549.228321
528.603995	2551.446429
528.965860	2550.211346
529.327669	2551.431305
529.689421	2550.138249
530.051117	2551.885009
530.412755	2546.564071
530.774337	2550.662529
531.135862	2550.881819
531.497331	2548.394010
531.858743	2544.807229
532.220098	2549.003990
532.581396	2544.393854
532.942638	2545.611293
533.303824	2549.762683
533.664953	2550.017262
534.026025	2546.942158
534.387040	2550.516336
534.747999	2549.684545
535.108902	2550.675132
535.469748	2549.266130
535.830537	2551.577499
536.191270	2551.756460
536.551947	2550.596994
536.912567	2548.588094
537.273131	2550.959957
537.633638	2550.423074
537.994089	2549.513146
538.354483	2550.821326
538.714821	2550.556665
539.075103	2550.082797
539.435328	2551.106151
539.795497	2549.762683
540.155609	2551.557334
540.515665	2551.340564
540.875665	2550.715461
541.235609	2550.508774
541.595496	2552.747046
541.955328	2550.677653
542.315102	2551.577499
542.674821	2553.788045
543.034483	2551.985832
543.394090	2551.080945
543.753640	2553.326779
544.113134	2549.949206
544.472571	2550.632282
544.831953	2552.018600
545.191278	2551.559855
545.550548	2551.456511
545.909761	2552.716799
546.268918	2551.083466
546.628019	2555.948179
546.987064	2555.255020
547.346053	2553.271326
547.704986	2554.501368
548.063863	2552.192519
548.422684	2553.286450
548.781449	2553.263765
549.140158	2551.418702
549.498811	2555.658313
549.857408	2550.604556
550.215949	2553.404917
550.574434	2550.947354
550.932864	2553.397355
551.291237	2548.719164
551.649555	2550.675132
552.007817	2553.581357
552.366022	2553.435164
552.724173	2553.351985
553.082267	2554.214022
553.440305	2553.825853
553.798288	2554.324928
554.156215	2551.456511
554.514086	2552.598332
554.871902	2554.829043
555.229661	2555.083621
555.587365	2553.843497
555.945014	2554.632438
556.302606	2554.256872
556.660143	2555.731409
557.017625	2554.178734
557.375050	2555.726368
557.732421	2551.436346
558.089735	2555.285267
558.446994	2553.064639
558.804197	2556.333827
559.161345	2556.492624
559.518437	2555.779300
559.875474	2553.165462
560.232455	2557.011863
560.589381	2554.418189
560.946251	2557.500854
561.303065	2554.289639
561.659825	2556.540515
562.016528	2554.866852
562.373177	2553.256203
562.729770	2556.701832
563.086307	2555.363405
563.442789	2555.693601
563.799216	2555.310473
564.155587	2551.050698
564.511904	2553.225956
564.868164	2554.236707
565.224370	2555.701163
565.580520	2553.828374
565.936615	2554.662685
566.292654	2554.302242
566.648638	2553.805689
567.004567	2558.322562
567.360441	2554.360216
567.716260	2553.170503
568.072023	2555.507078
568.427732	2551.035575
568.783385	2551.176727
569.138982	2549.714792
569.494525	2552.981460
569.850013	2548.290666
570.205445	2552.285781
570.560823	2550.476007
570.916145	2555.207129
571.271412	2554.965154
571.626625	2553.697304
571.981782	2554.410627
572.336884	2551.184289
572.691931	2554.030020
573.046923	2553.886347
573.401860	2552.182437
573.756743	2554.582026
574.111570	2554.990360
574.466342	2553.664536
574.821059	2552.860472
575.175722	2554.975236
575.530330	2553.546069
575.884882	2554.687891
576.239380	2551.421223
576.593823	2555.433981
576.948211	2555.365926
577.302544	2551.287632
577.656823	2553.654454
578.011047	2551.701007
578.365216	2553.178065
578.719330	2553.984650
579.073389	2552.217725
579.427394	2553.747715
579.781344	2553.944320
580.135239	2553.283929
580.489080	2553.979608
580.842866	2551.655637
581.196597	2558.622511
581.550273	2554.395504
581.903895	2552.144628
582.257463	2551.867365
582.610975	2551.612787
582.964434	2553.823333
583.317837	2552.857952
583.671186	2555.444064
584.024481	2552.053888
584.377721	2554.869372
584.730906	2556.558159
585.084037	2551.980791
585.437113	2552.220246
585.790135	2552.966337
586.143103	2554.519012
586.496016	2551.910215
586.848874	2549.001469
587.201679	2551.968188
587.554428	2550.995245
587.907124	2549.525749
588.259765	2548.076417
588.612352	2551.327962
588.964884	2551.091027
589.317362	2552.268137
589.669786	2552.003476
590.022155	2555.189485
590.374470	2552.482386
590.726731	2553.167983
591.078937	2552.207643
591.431090	2551.963147
591.783188	2552.295863
592.135232	2554.226625
592.487222	2553.102448
592.839157	2553.029351
593.191038	2549.319062
593.542866	2552.747046
593.894639	2553.619166
594.246358	2552.066491
594.598022	2554.017417
594.949633	2551.922818
595.301190	2553.271326
595.652692	2553.954403
596.004141	2551.544731
596.355535	2554.468600
596.706876	2553.407438
597.058162	2552.348795
597.409395	2550.677653
597.760573	2551.675801
598.111698	2550.387786
598.462768	2551.443908
598.813785	2551.970709
599.164748	2551.176727
599.515657	2551.383414
599.866511	2552.610935
600.217312	2552.109340
600.568060	2550.584391
600.918753	2554.214022
601.269392	2552.212684
601.619978	2551.292673
601.970510	2553.853580
602.320988	2552.915925
602.671412	2555.076059
603.021783	2554.554300
603.372100	2551.718651
603.722363	2550.546583
604.072572	2554.178734
604.422728	2554.380380
604.772830	2548.875440
605.122878	2550.506253
605.472872	2550.957437
605.822813	2547.925183
606.172701	2548.903167
606.522534	2553.891388
606.872314	2550.962478
607.222041	2550.904505
607.571714	2551.040616
607.921333	2551.569937
608.270899	2552.777293
608.620411	2550.183620
608.969870	2553.750236
609.319276	2552.258054
609.668627	2557.793241
610.017926	2558.483879
610.367171	2558.156204
610.716362	2560.845660
611.065500	2557.863818
611.414585	2556.648899
611.763616	2555.998591
612.112594	2554.806358
612.461518	2555.202088
612.810389	2551.587581
613.159207	2553.465411
613.507971	2555.378529
613.856682	2555.139074
614.205340	2553.722510
614.553945	2554.380380
614.902496	2553.793086
615.250994	2553.785524
615.599439	2552.621018
615.947830	2551.794268
616.296169	2552.280740
616.644454	2555.202088
616.992686	2551.973229
617.340864	2551.673281
617.688990	2552.215205
618.037063	2550.178578
618.385082	2553.926676
618.733048	2550.919628
619.080961	2555.491955
619.428821	2555.212171
619.776628	2554.355174
620.124382	2554.297201
620.472083	2552.966337
620.819731	2556.540515
621.167326	2555.174362
621.514868	2554.768549
621.862357	2553.112530
622.209793	2554.680329
622.557176	2555.083621
622.904506	2553.432643
623.251783	2546.180943
623.599007	2549.692107
623.946179	2549.409802
624.293297	2549.487940
624.640363	2550.055070
624.987376	2556.074208
625.334336	2552.016079
625.681243	2551.655637
626.028097	2550.985163
626.374899	2552.532797
626.721647	2556.192675
627.068343	2553.788045
627.414987	2553.488096
627.761577	2552.149670
628.108115	2551.970709
628.454600	2555.731409
628.801032	2554.035061
629.147412	2552.353836
629.493739	2551.459032
629.840014	2552.149670
630.186236	2551.834598
630.532405	2553.906512
630.878521	2551.756460
631.224585	2556.790052
631.570597	2552.774773
631.916556	2552.205122
632.262462	2553.510781
632.608316	2552.326110
632.954117	2554.118240
633.299866	2553.528425
633.645562	2553.775442
633.991206	2553.165462
634.336797	2553.228477
634.682336	2552.865513
635.027823	2551.809392
635.373257	2551.519525
635.718639	2551.955585
636.063968	2551.796789
636.409245	2555.502037
636.754470	2552.678991
637.099642	2550.428116
637.444762	2553.651933
637.789829	2553.611604
638.134845	2550.458363
638.479808	2553.737633
638.824719	2557.387428
639.169577	2555.484393
639.514383	2553.742674
639.859137	2554.849207
640.203839	2553.470452
640.548489	2554.455998
640.893086	2550.271840
641.237632	2547.847045
641.582125	2548.656150
641.926566	2549.384597
642.270955	2552.585729
642.615292	2554.256872
642.959576	2552.351316
643.303809	2551.169165
643.647990	2556.215360
643.992118	2552.139587
644.336195	2551.950544
644.680219	2555.479352
645.024192	2552.189999
645.368112	2553.788045
645.711981	2554.478683
646.055797	2553.304094
646.399562	2551.615307
646.743274	2552.134546
647.086935	2552.275698
647.430544	2553.528425
647.774101	2551.995914
648.117606	2552.187478
648.461059	2553.006666
648.804460	2556.729558
649.147810	2554.289639
649.491108	2552.603373
649.834354	2554.529094
650.177548	2554.846687
650.520690	2553.725030
650.863781	2553.762839
651.206820	2555.393652
651.549807	2553.868703
651.892742	2552.310987
652.235626	2553.813250
652.578458	2550.788558
652.921238	2553.518343
653.263967	2555.701162
653.606644	2553.813250
653.949269	2552.709238
654.291843	2555.507078
654.634365	2552.547921
654.976836	2553.578837
655.319255	2554.335010
655.661622	2555.086142
656.003938	2554.582026
656.346203	2554.196378
656.688416	2554.100596
657.030577	2554.292160
657.372687	2553.024310
657.714746	2554.143446
658.056753	2554.027499
658.398708	2549.225800
658.740612	2553.069680
659.082465	2551.900132
659.424266	2551.267468
659.766016	2549.510626
660.107715	2554.554300
660.449362	2555.121430
660.790958	2552.852911
661.132503	2555.260062
661.473996	2555.796944
661.815438	2555.262582
662.156829	2554.972716
662.498168	2554.657644
662.839456	2557.647048
663.180693	2555.872562
663.521879	2554.776111
663.863013	2555.625545
664.204097	2558.372974
664.545129	2554.672767
664.886110	2557.354661
665.227040	2557.274003
665.567918	2558.070505
665.908746	2556.477500
666.249522	2553.036913
666.590248	2554.730740
666.930922	2556.585885
667.271545	2555.728889
667.612118	2556.699311
667.952639	2555.953220
668.293109	2558.461194
668.633528	2555.940617
668.973896	2556.076728
669.314213	2556.570762
669.654480	2558.012532
669.994695	2557.372305
670.334859	2557.715103
670.674973	2559.507234
671.015035	2558.549414
671.355047	2561.440516
671.695008	2558.249466
672.034918	2557.631924
672.374777	2560.407080
672.714585	2559.343396
673.054342	2560.830537
673.394049	2558.803993
673.733705	2561.669889
674.073310	2562.436144
674.412864	2561.654765
674.752368	2559.671071
675.091820	2563.036041
675.431223	2561.659806
675.770574	2560.185269
676.109875	2556.603529
676.449125	2560.011349
676.788324	2557.190823
677.127473	2562.050496
677.466571	2558.103272
677.805619	2562.468912
678.144616	2563.293140
678.483562	2559.255176
678.822458	2560.291133
679.161303	2565.546536
679.500098	2564.409756
679.838842	2563.719118
680.177535	2565.589386
680.516179	2562.819272
680.854771	2567.157185
681.193314	2566.781619
681.531805	2566.030487
681.870247	2569.902093
682.208638	2567.416804
682.546978	2569.350087
682.885268	2568.730025
683.223508	2569.592062
683.561697	2569.531568
683.899836	2570.161712
684.237925	2567.293296
684.575963	2570.733883
684.913951	2571.162381
685.251889	2573.917372
685.589776	2572.084912
685.927614	2573.430901
686.265401	2575.979204
686.603137	2573.877043
686.940824	2578.351067
687.278460	2580.027250
687.616046	2580.669998
687.953582	2582.767117
688.291068	2584.549165
688.628504	2589.950762
688.965889	2585.738878
689.303224	2588.156111
689.640510	2586.006059
689.977745	2584.662591
690.314930	2585.680904
690.652065	2586.149732
690.989150	2583.556058
691.326185	2581.529514
691.663170	2581.479103
692.000105	2581.668146
692.336990	2581.219483
692.673825	2582.073959
693.010610	2581.055646
693.347345	2572.006775
693.684030	2576.180850
694.020665	2580.443146
694.357251	2574.416446
694.693786	2577.733525
695.030272	2577.509194
695.366707	2580.944740
695.703093	2582.265523
696.039429	2581.297621
696.375716	2583.503126
696.711952	2578.507342
697.048139	2580.856520
697.384276	2583.402303
697.720363	2583.077148
698.056400	2585.786769
698.392388	2583.825760
698.728326	2581.900039
699.064214	2584.324834
699.400053	2586.406831
699.735842	2587.863724
700.071581	2586.202664
700.407270	2584.375246
700.742910	2586.472366
701.078501	2583.319124
701.414042	2585.121336
701.749533	2583.762745
702.084974	2582.094123
702.420366	2585.754001
702.755709	2583.490523
703.091002	2582.482292
703.426246	2584.702921
703.761440	2584.864237
704.096584	2582.545307
704.431679	2585.237283
704.766725	2587.886409
705.101721	2585.751481
705.436668	2589.711307
705.771565	2585.239803
706.106413	2588.927407
706.441212	2588.587130
706.775961	2591.899168
707.110661	2587.276430
707.445311	2591.407655
707.779913	2596.733634
708.114465	2595.987543
708.448967	2597.031062
708.783421	2599.632298
709.117825	2600.234716
709.452180	2601.648759
709.786485	2602.750251
710.120742	2607.088164
710.454949	2607.209152
710.789107	2607.771241
711.123216	2611.940275
711.457275	2610.664863
711.791286	2615.406068
712.125247	2617.414968
712.459159	2616.031171
712.793023	2619.416306
713.126837	2623.320680
713.460602	2623.300515
713.794318	2616.520163
714.127985	2619.796913
714.461602	2618.347581
714.795171	2617.425050
715.128691	2614.856582
715.462162	2615.159052
715.795584	2611.804164
716.128957	2616.444546
716.462281	2612.696448
716.795556	2610.929523
717.128782	2611.118567
717.461960	2607.473812
717.795088	2609.916252
718.128167	2609.235696
718.461198	2605.658997
718.794180	2605.558174
719.127113	2605.185129
719.459997	2606.548761
719.792833	2603.985334
720.125619	2605.250664
720.458357	2606.117742
720.791046	2604.249995
721.123686	2605.406939
721.456278	2603.614809
721.788821	2605.699326
722.121315	2604.983482
722.453761	2599.773450
722.786158	2602.483070
723.118506	2606.649584
723.450805	2605.958946
723.783056	2604.343256
724.115259	2607.443566
724.447412	2609.646550
724.779518	2607.778802
725.111574	2610.858947
725.443582	2611.915069
725.775542	2615.663167
726.107453	2615.827004
726.439315	2618.418157
726.771129	2623.182048
727.102895	2621.092490
727.434612	2625.044754
727.766281	2623.555093
728.097901	2623.066101
728.429473	2622.831688
728.760996	2624.875876
729.092471	2619.164248
729.423897	2628.109776
729.755276	2629.707822
730.086606	2631.668830
730.417887	2629.796042
730.749120	2636.921713
731.080305	2645.259781
731.411442	2648.045019
731.742530	2639.207876
732.073570	2642.156951
732.404562	2649.849752
732.735506	2649.822025
733.066401	2647.109885
733.397249	2641.960346
733.728048	2638.292907
734.058798	2639.434728
734.389501	2634.156640
734.720156	2627.104066
735.050762	2627.247738
735.381320	2629.654889
735.711831	2619.605349
736.042293	2620.916049
736.372707	2628.558438
736.703073	2628.790332
737.033391	2625.294291
737.363661	2624.896040
737.693883	2630.310239
738.024056	2634.784263
738.354182	2628.684467
738.684260	2633.982720
739.014290	2637.604789
739.344272	2636.001702
739.674207	2641.801550
740.004093	2640.392547
740.333931	2644.102836
740.663722	2646.883033
740.993464	2644.664925
741.323159	2643.029071
741.652806	2646.278094
741.982405	2643.906231
742.311956	2639.475057
742.641460	2641.257105
742.970915	2640.987403
743.300323	2634.174284
743.629683	2631.893162
743.958996	2633.145888
744.288260	2629.906947
744.617477	2628.742441
744.946647	2623.963427
745.275768	2629.392749
745.604842	2631.116824
745.933869	2621.735237
746.262847	2621.498302
746.591778	2633.798718
746.920662	2626.889817
747.249498	2620.916049
747.578286	2631.663789
747.907027	2634.577576
748.235720	2629.206227
748.564365	2637.778709
748.892963	2639.371713
749.221514	2637.897176
749.550017	2636.266363
749.878473	2637.834162
750.206881	2632.288892
750.535242	2632.044396
750.863555	2635.245529
751.191821	2636.561270
751.520039	2629.675054
751.848210	2625.226236
752.176334	2635.139665
752.504411	2637.118318
752.832440	2632.656897
753.160421	2625.619446
753.488356	2632.243522
753.816243	2638.156795
754.144082	2629.468367
754.471875	2625.868983
754.799620	2631.510034
755.127318	2629.879221
755.454969	2630.406021
755.782572	2635.006074
756.110129	2632.056999
756.437638	2628.623973
756.765100	2632.535909
757.092515	2639.739718
757.419882	2637.841723
757.747203	2631.237812
758.074477	2631.651186
758.401703	2639.273411
758.728882	2636.538585
759.056014	2640.987403
759.383099	2637.733338
759.710138	2637.090591
760.037129	2640.500932
760.364073	2646.855306
760.690970	2643.303813
761.017820	2636.891466
761.344623	2640.629481
761.671379	2648.407982
761.998088	2650.580719
762.324751	2665.013542
762.651366	2679.837055
762.977935	2720.909856
763.304456	2771.717125
763.630931	2797.540436
763.957359	2758.645413
764.283740	2724.809189
764.610074	2712.188660
764.936362	2698.280117
765.262602	2677.651715
765.588796	2670.808349
765.914943	2657.517347
766.241044	2647.240955
766.567097	2645.393372
766.893104	2641.153761
767.219064	2638.607979
767.544978	2633.899541
767.870845	2626.952831
768.196665	2626.703294
768.522438	2627.076339
768.848165	2630.768984
769.173846	2624.265896
769.499479	2620.568210
769.825066	2621.906636
770.150607	2620.270782
770.476101	2622.637603
770.801548	2625.884106
771.126949	2615.343054
771.452303	2611.126128
771.777611	2616.827673
772.102872	2619.063425
772.428087	2616.089144
772.753256	2617.188116
773.078378	2617.024278
773.403453	2614.682662
773.728482	2608.451796
774.053465	2615.133846
774.378401	2613.896242
774.703291	2604.824686
775.028135	2607.718308
775.352932	2607.967846
775.677683	2603.133379
776.002388	2606.478185
776.327046	2605.543051
776.651658	2603.498863
776.976224	2601.245467
777.300743	2605.543051
777.625216	2601.802514
777.949643	2603.932402
778.274024	2603.420725
778.598359	2600.885024
778.922647	2600.890066
779.246889	2603.125817
779.571086	2599.201279
779.895236	2597.825044
780.219339	2601.202617
780.543397	2609.321395
780.867409	2605.822835
781.191374	2604.194542
781.515294	2605.943822
781.839167	2605.684203
782.162995	2600.907710
782.486776	2604.053390
782.810511	2606.858792
783.134201	2605.348966
783.457844	2605.081785
783.781441	2604.706219
784.104993	2596.839498
784.428498	2599.939808
784.751958	2603.365272
785.075372	2599.965014
785.398739	2598.316557
785.722061	2605.409460
786.045337	2605.664038
786.368568	2603.410642
786.691752	2600.801845
787.014891	2609.306272
787.337983	2615.030502
787.661030	2611.274842
787.984031	2624.245731
788.306987	2633.576907
788.629897	2629.904427
788.952760	2629.024745
789.275579	2633.261835
789.598351	2620.381687
789.921078	2615.290122
790.243759	2615.300204
790.566395	2614.362549
790.888984	2611.317692
791.211529	2607.556992
791.534027	2609.139914
791.856480	2607.007506
792.178888	2598.069540
792.501249	2599.692792
792.823566	2603.440889
793.145836	2602.730087
793.468062	2599.977617
793.790241	2598.679520
794.112375	2601.076588
794.434464	2602.863677
794.756507	2602.180601
795.078505	2606.707557
795.400457	2602.485591
795.722364	2606.142948
796.044226	2613.455142
796.366042	2612.308279
796.687812	2609.200408
797.009538	2618.856738
797.331218	2618.239197
797.652852	2613.137549
797.974442	2610.732918
798.295986	2612.552775
798.617484	2612.164606
798.938938	2607.592280
799.260346	2604.965838
799.581709	2605.389295
799.903026	2607.599841
800.224299	2608.108998
800.545526	2601.852926
800.866708	2598.903851
801.187845	2596.874787
801.508936	2597.699015
801.829983	2602.180601
802.150984	2598.679520
802.471940	2593.834971
802.792851	2595.241453
803.113717	2596.635332
803.434538	2598.843357
803.755314	2598.293871
804.076045	2595.939652
804.396731	2594.240784
804.717372	2593.497213
805.037967	2593.897985
805.358518	2597.071392
805.679024	2597.933429
805.999485	2599.702874
806.319901	2596.572317
806.640272	2594.046699
806.960598	2593.398911
807.280879	2595.198603
807.601115	2602.357041
807.921306	2598.452668
808.241453	2596.342945
808.561554	2600.060796
808.881611	2598.926536
809.201623	2603.050200
809.521590	2600.980806
809.841513	2599.644901
810.161390	2599.876794
810.481223	2597.835126
810.801011	2597.174735
811.120755	2596.698346
811.440453	2601.789912
811.760107	2595.581731
812.079716	2596.335383
812.399281	2593.126689
812.718801	2594.036617
813.038276	2589.169383
813.357707	2595.715321
813.677093	2598.780343
813.996434	2599.171032
814.315731	2595.511154
814.634983	2599.145826
814.954191	2597.865373
815.273354	2600.454006
815.592473	2601.489963
815.911547	2600.559870
816.230577	2608.487084
816.549562	2607.544389
816.868502	2604.716301
817.187399	2607.811570
817.506250	2613.429936
817.825058	2614.518825
818.143821	2615.206942
818.462539	2615.968157
818.781213	2624.636421
819.099843	2629.788480
819.418429	2636.581435
819.736970	2650.242962
820.055466	2663.279386
820.373919	2688.913653
820.692327	2718.492623
821.010691	2742.024729
821.329011	2802.097639
821.647286	2917.484609
821.965517	3088.498192
822.283704	3177.300637
822.601847	3191.741023
822.919945	3160.906805
823.237999	3144.729742
823.556010	3056.486865
823.873976	2973.960656
824.191897	2905.469019
824.509775	2857.076463
824.827609	2800.524799
825.145398	2775.538320
825.463144	2776.458331
825.780845	2792.824437
826.098502	2801.170067
826.416116	2845.922910
826.733685	2896.951990
827.051210	2913.754156
827.368692	2899.177659
827.686129	2873.011550
828.003522	2809.523259
828.320872	2759.149529
828.638177	2718.752242
828.955439	2685.241172
829.272656	2668.378513
829.589830	2653.917963
829.906960	2647.550986
830.224046	2636.069758
830.541088	2629.289406
830.858086	2627.948459
831.175041	2621.684825
831.491952	2620.732047
831.808819	2625.937038
832.125642	2630.232102
832.442421	2639.648977
832.759157	2655.415186
833.075849	2691.328366
833.392497	2741.210583
833.709101	2785.955864
834.025662	2784.677932
834.342179	2761.382760
834.658653	2723.730382
834.975083	2691.981195
835.291469	2678.032322
835.607811	2655.694970
835.924110	2638.098822
836.240366	2626.965434
836.556578	2616.752056
836.872746	2610.669904
837.188871	2605.777464
837.504952	2601.137082
837.820990	2598.001484
838.136984	2594.039138
838.452935	2594.114755
838.768842	2590.109558
839.084706	2595.112903
839.400526	2613.966819
839.716303	2637.166209
840.032037	2653.862510
840.347727	2654.593477
840.663373	2650.215235
840.978977	2632.866104
841.294537	2611.844493
841.610054	2601.449634
841.925527	2602.586414
842.240957	2593.552666
842.556344	2588.763570
842.871687	2583.130081
843.186987	2580.702765
843.502244	2579.467682
843.817458	2579.482806
844.132629	2572.425190
844.447756	2573.783781
844.762840	2566.224571
845.077881	2568.924109
845.392879	2570.938050
845.707833	2566.857236
846.022745	2564.374468
846.337613	2569.153482
846.652438	2569.493759
846.967221	2570.282700
847.281960	2568.120045
847.596656	2569.967628
847.911309	2565.871690
848.225919	2565.090312
848.540485	2565.571742
848.855009	2563.761967
849.169490	2564.896227
849.483928	2564.860939
849.798323	2564.452606
850.112675	2567.212637
850.426984	2564.041752
850.741251	2567.547874
851.055474	2565.816238
851.369654	2568.667010
851.683792	2566.617781
851.997887	2564.402194
852.311938	2567.104252
852.625947	2568.389747
852.939914	2565.405384
853.253837	2567.116855
853.567718	2566.970662
853.881555	2567.283213
854.195350	2567.252967
854.509103	2566.290106
854.822812	2564.566032
855.136479	2565.332287
855.450103	2566.048131
855.763685	2567.462174
856.077224	2564.568552
856.390720	2564.782801
856.704173	2566.481670
857.017584	2568.616599
857.330953	2566.922771
857.644278	2566.274983
857.957561	2568.568708
858.270802	2567.084088
858.584000	2567.416804
858.897155	2569.680282
859.210268	2569.163564
859.523339	2569.634912
859.836367	2566.073337
860.149352	2565.864129
860.462295	2568.419994
860.775195	2562.289951
861.088054	2563.361196
861.400869	2564.308933
861.713642	2561.193500
862.026373	2563.245249
862.339062	2568.881259
862.651708	2569.902093
862.964312	2569.503842
863.276873	2564.908830
863.589392	2567.260528
863.901869	2568.382185
864.214303	2569.266908
864.526696	2574.214800
864.839045	2571.520303
865.151353	2574.587845
865.463619	2574.257650
865.775842	2573.889646
866.088023	2571.595921
866.400162	2574.416446
866.712258	2572.064748
867.024313	2573.254460
867.336325	2572.263873
867.648296	2573.869481
867.960224	2577.473906
868.272110	2575.144893
868.583954	2572.135324
868.895755	2572.556260
869.207515	2574.179512
869.519233	2579.974318
869.830909	2575.870819
870.142542	2575.248237
870.454134	2576.085068
870.765684	2575.482650
871.077191	2580.488516
871.388657	2578.184709
871.700081	2577.665470
872.011463	2576.067424
872.322803	2577.363001
872.634101	2579.583629
872.945357	2580.765779
873.256571	2583.971953
873.567744	2581.040522
873.878874	2581.897518
874.189963	2582.018506
874.501010	2586.999166
874.812015	2585.209557
875.122979	2586.810123
875.433900	2582.003383
875.744780	2581.491706
876.055618	2586.119485
876.366415	2590.553180
876.677169	2589.779362
876.987882	2584.942375
877.298554	2583.735019
877.609183	2589.983529
877.919771	2592.239446
878.230317	2593.540063
878.540822	2600.877463
878.851285	2607.375510
879.161707	2618.637448
879.472087	2630.038017
879.782425	2645.264822
880.092722	2678.969977
880.402977	2725.792214
880.713191	2774.013371
881.023363	2819.252686
881.333494	2838.220027
881.643583	2882.622510
881.953631	2902.552712
882.263637	2884.371790
882.573602	2843.188084
882.883526	2824.140084
883.193408	2799.186373
883.503248	2778.184926
883.813048	2749.478075
884.122806	2715.702344
884.432522	2693.420444
884.742197	2670.281548
885.051831	2662.641680
885.361424	2652.231697
885.670975	2639.812814
885.980485	2629.740589
886.289954	2621.795731
886.599382	2616.147118
886.908768	2615.466562
887.218113	2603.355190
887.527417	2602.674634
887.836680	2598.167842
888.145901	2599.314705
888.455082	2595.687595
888.764221	2592.680547
889.073319	2588.047726
889.382376	2585.958168
889.691392	2589.633169
890.000366	2589.474373
890.309300	2586.850452
890.618193	2588.534197
890.927044	2587.445308
891.235855	2589.149218
891.544625	2588.511512
891.853353	2589.693663
892.162041	2590.505289
892.470687	2601.875611
892.779293	2601.837802
893.087858	2601.540374
893.396381	2610.695110
893.704864	2624.346554
894.013306	2638.459265
894.321707	2670.725170
894.630068	2686.347706
894.938387	2696.026721
895.246665	2697.778522
895.554903	2687.310566
895.863100	2678.990142
896.171256	2661.759478
896.479371	2636.082361
896.787446	2625.755557
897.095480	2618.183744
897.403473	2617.573764
897.711425	2609.056735
898.019336	2603.357710
898.327207	2598.137596
898.635038	2597.716659
898.942827	2599.934767
899.250576	2597.273038
899.558284	2588.834146
899.865952	2585.396079
900.173579	2588.771132
900.481165	2587.503282
900.788711	2583.699731
901.096216	2579.407188
901.403681	2578.832497
901.711105	2581.285018
902.018489	2578.219997
902.325832	2580.874164
902.633135	2580.614545
902.940397	2587.578899
903.247619	2600.247318
903.554800	2621.979733
903.861941	2656.662871
904.169041	2689.881554
904.476101	2708.639688
904.783121	2709.721015
905.090100	2698.436392
905.397039	2682.345029
905.703938	2660.146308
906.010796	2641.335243
906.317614	2623.829836
906.624391	2608.721498
906.931129	2597.472163
907.237826	2589.797007
907.544483	2583.185533
907.851099	2576.758062
908.157675	2572.924265
908.464211	2573.045252
908.770707	2565.007133
909.077163	2563.764488
909.383578	2561.934549
909.689954	2561.165773
909.996289	2561.798438
910.302584	2562.789025
910.608839	2559.192162
910.915054	2563.686350
911.221229	2562.567214
911.527363	2564.828172
911.833458	2563.850188
912.139513	2561.722821
912.445527	2561.858932
912.751502	2566.673234
913.057436	2568.243553
913.363331	2570.680951
913.669186	2573.821590
913.975000	2581.670667
914.280775	2586.290884
914.586510	2592.267172
914.892205	2601.643718
915.197859	2626.529374
915.503475	2653.204640
915.809050	2670.410098
916.114585	2678.133145
916.420081	2680.820080
916.725536	2690.816688
917.030952	2685.767973
917.336328	2668.779284
917.641665	2657.114054
917.946961	2636.125210
918.252218	2625.115330
918.557435	2614.869185
918.862612	2606.279059
919.167750	2600.474170
919.472848	2593.472008
919.777906	2588.851790
920.082925	2583.344330
920.387904	2581.065728
920.692843	2578.613207
920.997743	2578.451890
921.302603	2574.613051
921.607423	2572.505849
921.912204	2570.509552
922.216946	2567.106773
922.521647	2566.471588
922.826310	2566.045610
923.130932	2564.319015
923.435516	2561.082594
923.740059	2561.377502
924.044564	2563.943449
924.349028	2559.729044
924.653454	2555.055895
924.957840	2552.903322
925.262186	2549.155224
925.566493	2556.694270
925.870761	2548.867878
926.174989	2554.743343
926.479178	2553.732592
926.783328	2552.880637
927.087438	2549.956768
927.391509	2552.033723
927.695541	2548.759494
927.999533	2550.506253
928.303486	2550.085317
928.607400	2549.021634
928.911275	2550.521377
929.215110	2548.217570
929.518906	2549.752601
929.822663	2549.316541
930.126381	2547.849565
930.430060	2548.560368
930.733699	2549.752601
931.037299	2548.593136
931.340861	2551.307797
931.644383	2549.366953
931.947866	2550.846531
932.251309	2547.224462
932.554714	2551.874927
932.858080	2552.368960
933.161407	2547.721016
933.464694	2548.767055
933.767943	2546.324616
934.071153	2548.807385
934.374323	2547.050542
934.677455	2549.487940
934.980548	2546.662374
935.283602	2548.333516
935.586617	2548.938455
935.889593	2550.881819
936.192530	2546.639688
936.495428	2549.724875
936.798287	2551.050698
937.101108	2551.269988
937.403890	2548.719164
937.706632	2553.170503
938.009336	2551.721172
938.312002	2554.708055
938.614628	2555.441543
938.917216	2559.308108
939.219765	2556.225442
939.522275	2557.891544
939.824747	2558.292316
940.127179	2553.483055
940.429573	2552.159752
940.731929	2549.823177
941.034246	2552.051367
941.336524	2553.236038
941.638763	2553.120092
941.940964	2555.000442
942.243126	2554.241748
942.545250	2553.611604
942.847335	2550.733105
943.149381	2550.334854
943.451389	2551.068342
943.753359	2549.571119
944.055290	2551.426264
944.357182	2550.508774
944.659036	2549.263609
944.960851	2550.990204
945.262628	2549.934083
945.564367	2549.366953
945.866067	2549.855945
946.167729	2549.790410
946.469352	2548.905687
946.770937	2550.465924
947.072484	2548.847714
947.373992	2549.593805
947.675462	2550.113043
947.976893	2549.878630
948.278286	2549.130018
948.579641	2548.696479
948.880958	2547.897456
949.182236	2549.379556
949.483476	2550.912066
949.784678	2548.489792
950.085841	2548.547765
950.386967	2549.132539
950.688054	2548.719164
950.989103	2547.678166
951.290114	2549.427447
951.591087	2549.445091
951.892021	2549.724875
952.192917	2551.174206
952.493776	2552.184958
952.794596	2548.472148
953.095378	2551.799309
953.396122	2552.285781
953.696828	2552.961295
953.997496	2549.883671
954.298126	2550.385266
954.598718	2551.557334
954.899272	2547.718495
955.199788	2550.486089
955.500266	2549.931562
955.800706	2542.110212
956.101108	2542.180788
956.401472	2544.424101
956.701798	2542.122815
957.002087	2540.428987
957.302337	2545.160110
957.602550	2544.857641
957.902724	2544.973587
958.202861	2543.539379
958.502960	2543.993083
958.803022	2545.487785
959.103045	2544.504760
959.403031	2544.555171
959.702979	2542.233720
960.002889	2545.349153
960.302762	2542.508463
960.602596	2544.779503
960.902393	2543.267157
961.202153	2543.864533
961.501875	2540.678524
961.801559	2544.184647
962.101205	2540.446631
962.400814	2544.419060
962.700385	2542.710109
962.999918	2545.870913
963.299414	2540.980993
963.598873	2541.958977
963.898293	2542.516025
964.197677	2542.856303
964.497022	2541.056611
964.796331	2543.163813
965.095601	2541.086858
965.394835	2544.683721
965.694030	2541.878319
965.993189	2542.750438
966.292309	2540.164326
966.591393	2544.454348
966.890439	2542.642053
967.189447	2542.016950
967.488419	2541.583411
967.787353	2543.836807
968.086249	2542.442928
968.385108	2540.146682
968.683930	2541.044008
968.982714	2541.764893
969.281462	2540.285314
969.580172	2542.929399
969.878844	2541.558205
970.177480	2541.341436
970.476078	2544.555171
970.774639	2544.865202
971.073162	2541.986703
971.371649	2542.241282
971.670098	2538.659542
971.968510	2539.710623
972.266885	2539.209028
972.565223	2545.187836
972.863524	2543.501570
973.161788	2541.376724
973.460014	2543.925027
973.758204	2541.253216
974.056356	2541.989224
974.354471	2545.127342
974.652550	2539.997968
974.950591	2541.291024
975.248595	2543.181457
975.546563	2543.940151
975.844493	2543.400747
976.142386	2544.960984
976.440243	2545.167672
976.738062	2545.442414
977.035845	2540.708771
977.333590	2544.713968
977.631299	2540.504604
977.928971	2542.989893
978.226606	2540.187012
978.524204	2541.147351
978.821765	2540.335726
979.119290	2540.176929
979.416777	2539.042670
979.714228	2542.117773
980.011642	2543.264636
980.309020	2545.636499
980.606360	2542.347146
980.903664	2541.389327
981.200931	2541.109543
981.498162	2543.683052
981.795356	2542.631971
982.092513	2545.661705
982.389633	2546.455686
982.686717	2544.915614
982.983764	2549.359391
983.280775	2549.326623
983.577749	2550.322251
983.874686	2546.861499
984.171587	2545.563402
984.468451	2545.114739
984.765279	2543.519214
985.062070	2544.353525
985.358824	2544.555171
985.655543	2540.585263
985.952224	2544.212373
986.248869	2544.449307
986.545478	2539.025026
986.842050	2541.719522
987.138586	2536.086033
987.435086	2540.514687
987.731549	2535.085364
988.027975	2541.926210
988.324366	2540.713812
988.620719	2539.022505
988.917037	2540.933102
989.213318	2537.868081
989.509563	2541.399409
989.805772	2541.500232
990.101944	2542.503422
990.398080	2539.453524
990.694180	2541.797660
990.990244	2542.274049
991.286271	2540.141641
991.582262	2542.566436
991.878217	2539.657690
992.174136	2541.734646
992.470019	2542.450490
992.765865	2541.291024
993.061676	2539.851775
993.357450	2544.212373
993.653188	2542.904193
993.948890	2539.594676
994.244556	2543.418391
994.540186	2541.520397
994.835780	2540.345808
995.131337	2541.613658
995.426859	2542.914276
995.722345	2543.103319
996.017795	2541.076775
996.313208	2546.864020
996.608586	2540.517207
996.903928	2545.147507
997.199234	2544.270346
997.494504	2541.933771
997.789738	2541.782537
998.084936	2541.606096
998.380099	2542.808412
998.675225	2542.692465
998.970316	2540.691127
999.265371	2540.928061
999.560390	2541.696837
999.855373	2540.189532
1000.150320	2541.235572
1000.445232	2542.455531
1000.740108	2540.466796
1001.034948	2541.938812
1001.329752	2542.344625
1001.624521	2540.575180
1001.919254	2533.026053
1002.213951	2538.387320
1002.508613	2536.801877
1002.803239	2539.196425
1003.097829	2537.731970
1003.392384	2542.594162
1003.686903	2541.535520
1003.981386	2539.340098
1004.275834	2539.781199
1004.570246	2539.640046
1004.864623	2541.117104
1005.158964	2541.101981
1005.453270	2540.633154
1005.747540	2538.467978
1006.041775	2538.662063
1006.335974	2543.183977
1006.630138	2541.613658
1006.924266	2539.488812
1007.218359	2539.254398
1007.512416	2540.199614
1007.806438	2539.072917
1008.100425	2540.577701
1008.394376	2538.725077
1008.688292	2539.788760
1008.982172	2539.075437
1009.276017	2542.460572
1009.569827	2540.171888
1009.863602	2541.684234
1010.157341	2539.723225
1010.451045	2540.605427
1010.744714	2541.159954
1011.038347	2543.453679
1011.331945	2539.156096
1011.625508	2543.216745
1011.919036	2540.993596
1012.212528	2542.886549
1012.505986	2538.145344
1012.799408	2541.795140
1013.092795	2540.368493
1013.386147	2539.834131
1013.679464	2541.742208
1013.972745	2539.105684
1014.265992	2538.541075
1014.559204	2538.919161
1014.852380	2539.801363
1015.145521	2538.478060
1015.438628	2539.380427
1015.731699	2540.247505
1016.024736	2538.246167
1016.317737	2540.860006
1016.610703	2539.819007
1016.903635	2534.863553
1017.196531	2535.357586
1017.489393	2537.293389
1017.782219	2537.361445
1018.075011	2538.140303
1018.367768	2540.560057
1018.660490	2538.558719
1018.953177	2538.558719
1019.245829	2538.558719
