Dividing Wavelength (nm)	Counts (n)	Blue Motor Position (mm): 24.000000	Red Motor Position (mm): 0.000000	
326.493990	2134.676596
326.888308	2134.676596
327.282561	2134.676596
327.676750	2099.653180
328.070874	2097.079671
328.464933	2101.573859
328.858929	2107.661053
329.252859	2118.469287
329.646726	2129.569907
330.040528	2144.390900
330.434265	2161.152736
330.827938	2176.734943
331.221547	2195.425021
331.615091	2211.851620
332.008571	2231.166801
332.401986	2255.296284
332.795338	2272.496701
333.188625	2292.941101
333.581847	2310.842238
333.975006	2329.565083
334.368100	2345.684173
334.761129	2361.339476
335.154095	2381.267157
335.546996	2401.451937
335.939833	2424.706780
336.332606	2439.754624
336.725315	2453.118723
337.117960	2461.093828
337.510540	2467.909468
337.903056	2482.238948
338.295508	2488.048878
338.687896	2498.214365
339.080220	2505.075375
339.472480	2514.638444
339.864676	2515.694566
340.256807	2520.793693
340.648875	2524.214116
341.040879	2524.098169
341.432818	2528.748633
341.824694	2528.012625
342.216506	2528.393232
342.608253	2530.656710
342.999937	2528.736031
343.391557	2530.623943
343.783113	2527.538757
344.174605	2526.613705
344.566033	2523.843591
344.957397	2525.613036
345.348697	2520.143384
345.739934	2521.055833
346.131106	2519.800585
346.522215	2518.537776
346.913260	2517.103568
347.304241	2513.380676
347.695159	2510.701303
348.086012	2509.625016
348.476802	2507.784995
348.867528	2504.596465
349.258191	2505.445900
349.648789	2504.757782
350.039324	2500.739983
350.429796	2502.138903
350.820203	2499.091525
351.210548	2499.058758
351.600828	2495.343428
351.991045	2499.346104
352.381198	2495.459374
352.771288	2495.134220
353.161314	2496.102121
353.551276	2498.879797
353.941175	2496.951556
354.331010	2497.251504
354.720782	2496.414673
355.110490	2494.612460
355.500135	2497.024652
355.889717	2494.804024
356.279235	2498.363079
356.668689	2496.603716
357.058080	2494.206647
357.447408	2495.310660
357.836672	2492.916112
358.225873	2495.459374
358.615010	2492.442243
359.004084	2500.624036
359.393095	2498.592451
359.782043	2498.877276
360.170927	2499.197390
360.559748	2499.966166
360.948505	2501.092863
361.337199	2501.463388
361.725830	2503.399191
362.114398	2503.016064
362.502903	2501.070178
362.891344	2503.174860
363.279722	2502.922802
363.668037	2503.941115
364.056289	2504.404902
364.444478	2504.422546
364.832603	2506.471775
365.220665	2505.173678
365.608665	2505.576970
365.996601	2508.672238
366.384474	2506.786847
366.772284	2508.954543
367.160031	2506.260046
367.547715	2509.390603
367.935336	2508.803308
368.322893	2508.586539
368.710388	2510.973525
369.097820	2513.718433
369.485189	2509.297341
369.872495	2509.776251
370.259738	2505.594614
370.646918	2511.344050
371.034035	2510.469410
371.421090	2510.935716
371.808081	2508.193329
372.195010	2512.236334
372.581875	2509.420850
372.968678	2512.397651
373.355418	2511.911180
373.742096	2512.029647
374.128710	2514.023423
374.515262	2511.777589
374.901751	2512.627023
375.288177	2513.907477
375.674540	2514.162055
376.060841	2513.274812
376.447079	2514.436798
376.833254	2515.901253
377.219367	2512.737929
377.605417	2513.226921
377.991404	2510.736591
378.377329	2511.303721
378.763191	2508.379851
379.148991	2515.152642
379.534727	2511.379338
379.920402	2512.548886
380.306013	2516.912004
380.691563	2514.560306
381.077049	2515.407220
381.462474	2518.268075
381.847835	2518.835204
382.233134	2517.186747
382.618371	2516.123064
383.003545	2518.260513
383.388657	2519.092303
383.773706	2517.032992
384.158693	2520.294618
384.543618	2518.477282
384.928480	2518.202540
385.313280	2519.730009
385.698017	2520.181192
386.082692	2519.422499
386.467305	2518.164731
386.851856	2519.339320
387.236344	2520.695390
387.620770	2520.859228
388.005133	2520.425688
388.389435	2520.874351
388.773674	2521.670853
389.157851	2523.157994
389.541965	2522.855525
389.926018	2517.708507
390.310008	2521.171779
390.693936	2522.714372
391.077802	2521.784279
391.461606	2520.219001
391.845348	2522.996677
392.229027	2525.464322
392.612645	2523.034486
392.996200	2523.818385
393.379694	2523.289064
393.763125	2525.643283
394.146494	2523.546163
394.529801	2522.512726
394.913047	2525.504651
395.296230	2525.068591
395.679351	2523.311749
396.062410	2524.612367
396.445408	2525.640762
396.828343	2523.815864
397.211217	2519.528363
397.594028	2521.262520
397.976778	2521.227232
398.359466	2524.312418
398.742092	2524.146060
399.124656	2525.098838
399.507158	2526.023890
399.889598	2525.693694
400.271977	2524.569517
400.654294	2530.538243
401.036549	2525.827285
401.418742	2526.137316
401.800874	2528.040351
402.182944	2528.201668
402.564952	2528.809127
402.946898	2527.795855
403.328783	2528.927594
403.710606	2528.920033
404.092367	2528.665454
404.474067	2529.988757
404.855705	2529.013294
405.237282	2531.974972
405.618797	2529.204858
406.000250	2531.357431
406.381642	2528.978006
406.762972	2531.501103
407.144240	2528.894827
407.525447	2532.897503
407.906593	2529.492204
408.287677	2530.407173
408.668700	2530.991947
409.049661	2530.197965
409.430560	2532.708460
409.811399	2530.195445
410.192176	2531.624612
410.572891	2533.966228
410.953545	2530.447502
411.334138	2531.957328
411.714669	2533.482277
412.095139	2533.048738
412.475547	2532.310209
412.855894	2531.327184
413.236180	2531.589324
413.616405	2533.343645
413.996568	2533.535209
414.376670	2535.675179
414.756711	2533.822555
415.136691	2536.005374
415.516609	2532.804242
415.896466	2532.532019
416.276262	2535.319778
416.655997	2534.273738
417.035670	2529.071267
417.415283	2535.014788
417.794834	2532.199303
418.174324	2535.322298
418.553753	2532.605116
418.933121	2534.901362
419.312428	2536.355735
419.691674	2535.665097
420.070859	2534.041845
420.449983	2536.164171
420.829045	2536.602751
421.208047	2537.663914
421.586988	2535.274407
421.965867	2539.274563
422.344686	2536.088553
422.723444	2538.253729
423.102141	2538.714995
423.480777	2539.214069
423.859352	2539.458565
424.237866	2539.738349
424.616319	2537.449665
424.994712	2536.993441
425.373044	2539.236754
425.751314	2539.745911
426.129524	2537.245498
426.507673	2537.096784
426.885762	2537.631147
427.263789	2540.872608
427.641756	2536.960673
428.019662	2541.482588
428.397508	2539.912269
428.775292	2540.035777
429.153016	2540.857485
429.530679	2540.456713
429.908282	2539.387989
430.285824	2541.724563
430.663305	2538.979655
431.040726	2544.144317
431.418086	2541.316230
431.795385	2540.101312
432.172624	2541.089378
432.549802	2542.354708
432.926920	2541.275901
433.303977	2540.625592
433.680974	2541.938813
434.057910	2543.511652
434.434786	2542.556354
434.811601	2540.063503
435.188355	2540.043339
435.565050	2542.780685
435.941683	2543.655325
436.318257	2542.803370
436.694770	2537.845396
437.071222	2540.791950
437.447614	2538.780530
437.823946	2541.240613
438.200218	2542.851261
438.576429	2542.621889
438.952580	2544.678680
439.328670	2545.376879
439.704700	2545.505429
440.080670	2544.096426
440.456580	2543.700696
440.832429	2546.770758
441.208218	2546.574153
441.583947	2546.896787
441.959616	2545.603731
442.335224	2547.519370
442.710773	2543.085675
443.086261	2547.905018
443.461689	2543.993083
443.837057	2545.941489
444.212365	2544.938299
444.587612	2551.184289
444.962800	2549.543393
445.337927	2546.115408
445.712995	2549.099772
446.088002	2549.359391
446.462949	2547.554658
446.837837	2549.170348
447.212664	2548.167158
447.587431	2547.668084
447.962139	2550.390307
448.336786	2552.696635
448.711374	2550.725544
449.085901	2549.689587
449.460369	2551.390976
449.834776	2551.932900
450.209124	2554.929866
450.583412	2554.395504
450.957640	2552.719320
451.331808	2553.321738
451.705917	2554.093034
452.079965	2554.904660
452.453954	2551.789227
452.827883	2554.561862
453.201752	2557.107644
453.575562	2554.249310
453.949311	2556.437171
454.323001	2560.913716
454.696632	2558.927501
455.070202	2562.443706
455.443713	2563.923284
455.817164	2561.286761
456.190556	2563.567883
456.563888	2564.699622
456.937160	2563.071329
457.310373	2571.311095
457.683526	2576.599266
458.056619	2579.162692
458.429653	2578.356108
458.802628	2581.075810
459.175542	2585.481779
459.548398	2592.977975
459.921194	2599.289499
460.293930	2603.703029
460.666607	2619.539814
461.039224	2629.969962
461.411782	2634.471712
461.784280	2642.351035
462.156719	2647.099802
462.529099	2650.245482
462.901419	2648.894453
463.273680	2654.694301
463.645882	2662.434992
464.018024	2670.067299
464.390106	2682.705472
464.762130	2702.300437
465.134094	2730.374623
465.505999	2786.825463
465.877845	2851.747963
466.249631	2882.572098
466.621358	2879.862478
466.993026	2870.755634
467.364634	2876.242930
467.736184	2877.170502
468.107674	2881.800802
468.479105	2907.004051
468.850477	2909.789288
469.221790	2916.322623
469.593043	2916.914959
469.964238	2929.449788
470.335373	2953.995166
470.706449	2978.802684
471.077467	3003.791684
471.448425	3135.993423
471.819324	3254.679828
472.190164	3279.779733
472.560945	3202.173691
472.931667	3164.044923
473.302330	3180.746266
473.672934	3178.986903
474.043479	3247.292017
474.413965	3270.428393
474.784393	3293.453863
475.154761	3346.335567
475.525070	3391.277454
475.895321	3407.396543
476.265513	3465.662199
476.635645	3527.441540
477.005719	3579.055393
477.375734	3639.899600
477.745691	3723.940675
478.115588	3797.879279
478.485427	3890.591139
478.855207	4048.875808
479.224928	4283.901962
479.594591	4471.042196
479.964194	4493.099765
480.333739	4527.737533
480.703226	4592.284467
481.072653	4677.459802
481.442022	4831.058718
481.811333	4941.321356
482.180584	4971.003670
482.549777	4975.880986
482.918912	5003.065408
483.287988	5093.193677
483.657005	5165.672867
484.025964	5155.918234
484.394864	5268.472076
484.763706	5344.336400
485.132489	5333.366849
485.501213	5405.170524
485.869879	5498.149566
486.238487	5540.936359
486.607036	5640.557121
486.975527	5660.704092
487.343959	5798.330113
487.712333	5911.078039
488.080648	5955.495646
488.448905	6063.404064
488.817104	6121.742817
489.185244	6314.140974
489.553326	6481.184648
489.921350	6804.335213
490.289315	7367.921089
490.657222	7617.632124
491.025070	7688.162908
491.392861	7724.718835
491.760593	7637.915207
492.128267	7577.922955
492.495883	7503.754979
492.863440	7411.146463
493.230939	7330.533372
493.598380	7379.540949
493.965763	7403.597335
494.333088	7416.585868
494.700354	7461.850388
495.067563	7556.384626
495.434713	7551.897999
495.801805	7705.219652
496.168839	7736.472285
496.535815	7783.733102
496.902733	7845.023451
497.269593	7890.613126
497.636395	8018.822271
498.003139	8102.026515
498.369825	8074.070796
498.736453	8255.615349
499.103023	8270.640508
499.469535	8367.120631
499.835989	8423.871421
500.202385	8476.473340
500.568723	8431.158408
500.935003	8651.741657
501.301226	8591.693953
501.667390	8828.159356
502.033497	8966.854101
502.399546	8922.746526
502.765537	8920.898943
503.131470	9036.782467
503.497345	9230.899658
503.863163	8981.044949
504.228923	9294.261920
504.594625	9388.163493
504.960269	9249.546886
505.325856	9481.742432
505.691385	9361.836067
506.056856	9540.489518
506.422270	9611.625240
506.787625	9555.013082
507.152924	9711.387154
507.518164	9733.003622
507.883347	9719.079955
508.248472	9685.354636
508.613540	9934.919477
508.978550	9875.716167
509.343503	9893.324917
509.708398	10037.839674
510.073236	10168.244242
510.438016	10220.944464
510.802738	10211.817455
511.167403	10290.958529
511.532010	10242.860881
511.896561	10465.727772
512.261053	10572.880017
512.625488	10487.571091
512.989866	10494.820270
513.354186	10517.359269
513.718449	10462.393048
514.082655	10661.387555
514.446803	10587.398540
514.810894	10726.143697
515.174927	10625.171906
515.538904	10667.855356
515.902822	10837.384318
516.266684	10747.785370
516.630488	10714.375123
516.994235	10791.575353
517.357925	10866.154183
517.721558	10976.810031
518.085133	11007.697180
518.448651	11027.821467
518.812112	10932.707496
519.175516	10959.022319
519.538863	11091.962588
519.902152	11023.866681
520.265385	11194.043432
520.628560	11118.206834
520.991678	11112.391863
521.354739	11179.497183
521.717743	11130.008176
522.080690	11120.475354
522.443580	11260.816036
522.806413	11220.093595
523.169189	11263.263516
523.531908	11324.770634
523.894569	11154.034315
524.257174	11165.296252
524.619722	11285.268152
524.982213	11238.783673
525.344647	11305.243724
525.707025	11253.844120
526.069345	11356.718946
526.431608	11282.926536
526.793815	11396.634802
527.155964	11191.167454
527.518057	11249.372616
527.880093	11195.878412
528.242072	11267.848445
528.603995	11173.152891
528.965860	11107.892634
529.327669	11156.403657
529.689421	11108.404311
530.051117	11082.943963
530.412755	11196.957219
530.774337	11082.805332
531.135862	11065.143649
531.497331	11088.958060
531.858743	10943.266193
532.220098	11112.258273
532.581396	10987.270425
532.942638	10967.229318
533.303824	10931.056518
533.664953	10951.213572
534.026025	10863.573113
534.387040	10967.045316
534.747999	10967.776283
535.108902	11024.131342
535.469748	10789.531165
535.830537	10893.996476
536.191270	10872.004442
536.551947	10896.174254
536.912567	10892.907587
537.273131	10825.918214
537.633638	10804.513475
537.994089	10795.913266
538.354483	10742.439227
538.714821	10892.058152
539.075103	10891.821218
539.435328	10858.622699
539.795497	10694.560868
540.155609	10850.866884
540.515665	10939.487848
540.875665	10672.054637
541.235609	10748.670093
541.595496	10738.250028
541.955328	10891.851465
542.315102	10782.468509
542.674821	10726.267205
543.034483	10732.049409
543.394090	10736.750285
543.753640	10665.869141
544.113134	10880.261852
544.472571	10734.257434
544.831953	10883.639425
545.191278	10689.323109
545.550548	10715.413601
545.909761	10859.207473
546.268918	10832.469193
546.628019	10910.624722
546.987064	10774.488362
547.346053	10699.284429
547.704986	10796.624069
548.063863	10787.343305
548.422684	10776.787128
548.781449	10694.160096
549.140158	10796.435026
549.498811	10670.191930
549.857408	10535.338544
550.215949	10760.093347
550.574434	10609.955183
550.932864	10717.077182
551.291237	10770.510892
551.649555	10719.050793
552.007817	10732.044367
552.366022	10692.738491
552.724173	10684.864209
553.082267	10668.024234
553.440305	10809.065637
553.798288	10608.505851
554.156215	10764.438822
554.514086	10738.013094
554.871902	10590.624879
555.229661	10630.102154
555.587365	10606.930491
555.945014	10499.745478
556.302606	10620.370207
556.660143	10516.136789
557.017625	10672.331900
557.375050	10572.842208
557.732421	10705.389267
558.089735	10614.794691
558.446994	10622.270722
558.804197	10649.941615
559.161345	10657.384879
559.518437	10504.988278
559.875474	10597.508574
560.232455	10623.669642
560.589381	10575.919833
560.946251	10572.880017
561.303065	10674.297950
561.659825	10614.940884
562.016528	10543.106962
562.373177	10422.552809
562.729770	10537.135716
563.086307	10450.281676
563.442789	10541.750892
563.799216	10424.276884
564.155587	10477.229164
564.511904	10427.160424
564.868164	10424.095403
565.224370	10433.590416
565.580520	10359.790444
565.936615	10364.186330
566.292654	10231.919056
566.648638	10362.570640
567.004567	10319.138579
567.360441	10306.311363
567.716260	10211.719153
568.072023	10310.228340
568.427732	10265.263768
568.783385	10172.980406
569.138982	10241.235108
569.494525	10258.478375
569.850013	10139.348348
570.205445	10212.046828
570.560823	10112.312640
570.916145	10033.501761
571.271412	10104.145971
571.626625	10050.803001
571.981782	10020.873671
572.336884	9994.415175
572.691931	10000.918263
573.046923	9948.638978
573.401860	9906.144571
573.756743	9845.156692
574.111570	9882.486436
574.466342	9868.131751
574.821059	9896.591585
575.175722	9787.017065
575.530330	9796.161718
575.884882	9782.709399
576.239380	9716.352691
576.593823	9694.983239
576.948211	9712.478564
577.302544	9591.692518
577.656823	9608.023336
578.011047	9606.150547
578.365216	9583.175488
578.719330	9508.939457
579.073389	9518.817598
579.427394	9467.123086
579.781344	9442.555022
580.135239	9395.158094
580.489080	9401.804855
580.842866	9303.328435
581.196597	9307.855392
581.550273	9346.954581
581.903895	9317.642792
582.257463	9382.623265
582.610975	9259.344368
582.964434	9283.632647
583.317837	9211.032470
583.671186	9190.061270
584.024481	9182.812091
584.377721	9106.403322
584.730906	9083.294673
585.084037	9115.754663
585.437113	9052.102533
585.790135	9065.945542
586.143103	8964.262948
586.496016	8943.662273
586.848874	9000.823917
587.201679	8988.704983
587.554428	8873.970842
587.907124	8922.474303
588.259765	8897.187876
588.612352	8896.598061
588.964884	8770.392774
589.317362	8787.227707
589.669786	8785.221328
590.022155	8835.632867
590.374470	8848.520577
590.726731	8790.766597
591.078937	8638.773288
591.431090	8752.050536
591.783188	8628.587637
592.135232	8625.721741
592.487222	8617.444167
592.839157	8673.118670
593.191038	8600.412628
593.542866	8548.524032
593.894639	8447.910163
594.246358	8502.168102
594.598022	8519.055967
594.949633	8422.832943
595.301190	8391.008139
595.652692	8420.365298
596.004141	8524.697018
596.355535	8307.703071
596.706876	8291.362171
597.058162	8223.530926
597.409395	8305.464799
597.760573	8363.140640
598.111698	8271.210159
598.462768	8259.335721
598.813785	8225.134013
599.164748	8190.203857
599.515657	8179.065428
599.866511	8097.716328
600.217312	8216.916932
600.568060	8079.258144
600.918753	8179.279677
601.269392	8150.711458
601.619978	8059.983292
601.970510	8123.146429
602.320988	8126.019887
602.671412	8178.674739
603.021783	8114.233669
603.372100	8089.620235
603.722363	8088.619566
604.072572	8066.345228
604.422728	8083.848114
604.772830	8003.141762
605.122878	8017.561982
605.472872	8007.729212
605.822813	8034.918675
606.172701	7975.586815
606.522534	8051.977940
606.872314	8060.245432
607.222041	8025.113631
607.571714	8084.369874
607.921333	8042.051908
608.270899	8047.735809
608.620411	8135.673696
608.969870	8042.344295
609.319276	8036.635188
609.668627	8046.820839
610.017926	8082.844925
610.367171	8126.060216
610.716362	8109.593287
611.065500	8107.105477
611.414585	8128.805124
611.763616	8110.876261
612.112594	8098.835465
612.461518	8109.825180
612.810389	8172.753903
613.159207	8114.571426
613.507971	8062.304743
613.856682	8183.569699
614.205340	8134.690671
614.553945	8209.871919
614.902496	8109.439532
615.250994	8167.170826
615.599439	8145.249368
615.947830	8157.557345
616.296169	8132.374261
616.644454	8146.247517
616.992686	8143.858010
617.340864	8203.230199
617.688990	8107.884336
618.037063	8196.830454
618.385082	8143.807598
618.733048	8227.710042
619.080961	8169.635950
619.428821	8189.518261
619.776628	8190.924742
620.124382	8139.694017
620.472083	8127.310422
620.819731	8151.155080
621.167326	8045.038791
621.514868	8056.109165
621.862357	7947.434491
622.209793	7961.123744
622.557176	7891.770070
622.904506	7869.190742
623.251783	7805.778068
623.599007	7758.108917
623.946179	7761.322653
624.293297	7714.563430
624.640363	7633.519321
624.987376	7616.923842
625.334336	7564.155564
625.681243	7509.196905
626.028097	7503.815473
626.374899	7480.752194
626.721647	7476.734395
627.068343	7406.798468
627.414987	7373.705813
627.761577	7331.367682
628.108115	7365.145934
628.454600	7267.498784
628.801032	7313.481669
629.147412	7274.682428
629.493739	7261.542661
629.840014	7201.958743
630.186236	7256.052844
630.532405	7140.779300
630.878521	7186.590785
631.224585	7148.971175
631.570597	7077.187664
631.916556	7107.815195
632.262462	7098.179029
632.608316	7060.831641
632.954117	7038.554782
633.299866	7029.851230
633.645562	7023.300250
633.991206	6940.940399
634.336797	6885.391925
634.682336	6847.560586
635.027823	6808.307642
635.373257	6800.506456
635.718639	6736.476241
636.063968	6742.200471
636.409245	6643.343444
636.754470	6637.616693
637.099642	6595.928871
637.444762	6541.968361
637.789829	6547.357354
638.134845	6491.536657
638.479808	6479.306818
638.824719	6482.860832
639.169577	6406.578092
639.514383	6430.130362
639.859137	6363.582091
640.203839	6371.290015
640.548489	6354.480287
640.893086	6330.318037
641.237632	6307.572351
641.582125	6323.046172
641.926566	6296.179343
642.270955	6305.283667
642.615292	6302.828625
642.959576	6319.376212
643.303809	6309.389687
643.647990	6312.429502
643.992118	6306.065046
644.336195	6251.854998
644.680219	6273.300066
645.024192	6269.262102
645.368112	6360.290217
645.711981	6387.676285
646.055797	6460.324353
646.399562	6417.751809
646.743274	6544.980450
647.086935	6594.600527
647.430544	6591.696823
647.774101	6609.865141
648.117606	6613.678774
648.461059	6608.783814
648.804460	6565.903759
649.147810	6480.919987
649.491108	6448.850687
649.834354	6425.031235
650.177548	6343.130129
650.520690	6256.724752
650.863781	6236.907977
651.206820	6256.311378
651.549807	6173.989336
651.892742	6119.345748
652.235626	6127.421677
652.578458	6108.948369
652.921238	6019.077198
653.263967	6058.773764
653.606644	5997.599363
653.949269	6001.949878
654.291843	5942.668430
654.634365	5994.501573
654.976836	5948.561538
655.319255	5944.881496
655.661622	5921.614051
656.003938	5921.740079
656.346203	5883.064347
656.688416	5917.502990
657.030577	5864.477613
657.372687	5835.919476
657.714746	5821.242157
658.056753	5862.582139
658.398708	5806.005269
658.740612	5798.188960
659.082465	5841.946176
659.424266	5836.746226
659.766016	5830.278425
660.107715	5813.614891
660.449362	5826.207693
660.790958	5821.718546
661.132503	5805.478469
661.473996	5847.751064
661.815438	5830.843034
662.156829	5827.349515
662.498168	5822.953629
662.839456	5800.215504
663.180693	5833.378735
663.521879	5828.337581
663.863013	5822.762065
664.204097	5842.397359
664.545129	5882.976127
664.886110	5879.210385
665.227040	5913.596095
665.567918	5876.694849
665.908746	5904.239714
666.249522	5912.557618
666.590248	5894.895935
666.930922	5922.776037
667.271545	5937.362615
667.612118	5934.083345
667.952639	5909.600981
668.293109	5934.133756
668.633528	5892.327467
668.973896	5893.146655
669.314213	5886.903186
669.654480	5872.432554
669.994695	5861.243713
670.334859	5852.822465
670.674973	5843.972720
671.015035	5844.663358
671.355047	5843.975240
671.695008	5833.028375
672.034918	5806.065763
672.374777	5818.255273
672.714585	5800.162572
673.054342	5807.051309
673.394049	5799.030833
673.733705	5828.904711
674.073310	5814.227391
674.412864	5778.931753
674.752368	5773.575527
675.091820	5769.129229
675.431223	5705.015834
675.770574	5708.232091
676.109875	5660.031098
676.449125	5665.868754
676.788324	5631.311645
677.127473	5579.833902
677.466571	5566.505091
677.805619	5558.393875
678.144616	5542.539446
678.483562	5526.833731
678.822458	5495.583618
679.161303	5484.316640
679.500098	5476.117203
679.838842	5459.640192
680.177535	5466.997756
680.516179	5481.294468
680.854771	5498.489844
681.193314	5567.624227
681.531805	5685.209141
681.870247	5829.560061
682.208638	5931.056132
682.546978	5941.332524
682.885268	5920.752013
683.223508	5837.454508
683.561697	5780.633142
683.899836	5750.018215
684.237925	5709.396597
684.575963	5674.456360
684.913951	5630.336181
685.251889	5698.079207
685.589776	5662.289535
685.927614	5634.081759
686.265401	5704.698242
686.603137	5689.045459
686.940824	5761.980873
687.278460	5788.812414
687.616046	5797.899094
687.953582	5867.081369
688.291068	5841.051371
688.628504	5909.159880
688.965889	5870.161514
689.303224	5816.581610
689.640510	5770.260968
689.977745	5694.021078
690.314930	5595.264874
690.652065	5538.657757
690.989150	5448.254746
691.326185	5372.912181
691.663170	5320.466537
692.000105	5247.422738
692.336990	5166.451725
692.673825	5142.531450
693.010610	5074.659875
693.347345	5008.945914
693.684030	4990.923789
694.020665	4951.388540
694.357251	4861.940827
694.693786	4871.738309
695.030272	4837.108103
695.366707	4801.147032
695.703093	4772.049492
696.039429	4791.750321
696.375716	4773.372795
696.711952	4749.381944
697.048139	4735.554059
697.384276	4717.937747
697.720363	4727.785641
698.056400	4732.799068
698.392388	4686.221327
698.728326	4666.407072
699.064214	4643.507631
699.400053	4642.254904
699.735842	4609.031180
700.071581	4581.453547
700.407270	4558.097882
700.742910	4538.097104
701.078501	4484.686079
701.414042	4484.978466
701.749533	4452.634423
702.084974	4390.398858
702.420366	4446.189308
702.755709	4386.169330
703.091002	4332.881813
703.426246	4378.748751
703.761440	4333.035568
704.096584	4296.598108
704.431679	4321.430832
704.766725	4305.757885
705.101721	4292.189619
705.436668	4324.858817
705.771565	4274.124644
706.106413	4299.350578
706.441212	4330.867872
706.775961	4338.505220
707.110661	4321.188857
707.445311	4344.554605
707.779913	4370.075446
708.114465	4386.746542
708.448967	4404.418307
708.783421	4467.528512
709.117825	4511.691540
709.452180	4510.524513
709.786485	4558.148293
710.120742	4643.837826
710.454949	4627.534735
710.789107	4690.723078
711.123216	4767.479686
711.457275	4759.300414
711.791286	4830.579809
712.125247	4844.422817
712.459159	4748.829937
712.793023	4825.457997
713.126837	4782.930823
713.460602	4775.679123
713.794318	4699.923183
714.127985	4705.332342
714.461602	4620.887973
714.795171	4591.346812
715.128691	4529.116288
715.462162	4466.757215
715.795584	4418.147889
716.128957	4401.872524
716.462281	4351.458465
716.795556	4326.837470
717.128782	4289.245585
717.461960	4220.975759
717.795088	4230.027151
718.128167	4192.629351
718.461198	4132.362357
718.794180	4129.027634
719.127113	4107.113738
719.459997	4087.538938
719.792833	4041.412380
720.125619	4033.003735
720.458357	3997.776152
720.791046	4000.362264
721.123686	3977.198162
721.456278	3935.462450
721.788821	3955.397692
722.121315	3929.181172
722.453761	3895.710431
722.786158	3911.408584
723.118506	3935.270886
723.450805	3887.047208
723.783056	3910.143254
724.115259	3925.576747
724.447412	3929.768466
724.779518	3928.553548
725.111574	3927.250410
725.443582	3957.338537
725.775542	3941.254735
726.107453	3991.061335
726.439315	3994.254906
726.771129	4008.062627
727.102895	4041.669479
727.434612	4089.872992
727.766281	4101.921350
728.097901	4106.539047
728.429473	4111.045838
728.760996	4114.448617
729.092471	4109.868729
729.423897	4094.944393
729.755276	4097.850618
730.086606	4100.731637
730.417887	4137.804283
730.749120	4203.992112
731.080305	4267.755147
731.411442	4291.287253
731.742530	4263.896143
732.073570	4263.349178
732.404562	4319.900842
732.735506	4312.581087
733.066401	4275.742855
733.397249	4209.302968
733.728048	4131.936380
734.058798	4054.194226
734.389501	3978.539109
734.720156	3916.797577
735.050762	3875.646639
735.381320	3870.214795
735.711831	3816.254285
736.042293	3787.444090
736.372707	3808.584169
736.703073	3784.973925
737.033391	3772.736524
737.363661	3793.465749
737.693883	3816.617248
738.024056	3824.405830
738.354182	3819.904080
738.684260	3886.759862
739.014290	3903.083118
739.344272	3900.486924
739.674207	3940.634673
740.004093	3947.225982
740.333931	3938.010753
740.663722	3942.782205
740.993464	3941.264818
741.323159	3916.714398
741.652806	3885.282804
741.982405	3859.424206
742.311956	3826.734843
742.641460	3821.396262
742.970915	3798.506903
743.300323	3753.176847
743.629683	3720.016137
743.958996	3711.317626
744.288260	3687.974563
744.617477	3653.682114
744.946647	3637.721821
745.275768	3615.341619
745.604842	3611.117132
745.933869	3561.151735
746.262847	3560.002352
746.591778	3593.042075
746.920662	3562.008732
747.249498	3533.947149
747.578286	3577.785023
747.907027	3598.350410
748.235720	3591.910336
748.564365	3617.529479
748.892963	3616.392699
749.221514	3599.325873
749.550017	3576.844847
749.878473	3576.507090
750.206881	3547.344015
750.535242	3544.019374
750.863555	3544.926782
751.191821	3539.905793
751.520039	3521.467772
751.848210	3498.764936
752.176334	3534.262221
752.504411	3539.913354
752.832440	3499.309381
753.160421	3482.212307
753.488356	3490.870489
753.816243	3503.044876
754.144082	3461.951910
754.471875	3445.172429
754.799620	3464.505254
755.127318	3458.644913
755.454969	3458.362608
755.782572	3464.966520
756.110129	3437.411573
756.437638	3428.937393
756.765100	3445.096812
757.092515	3455.060653
757.419882	3457.765232
757.747203	3432.115841
758.074477	3436.229422
758.401703	3452.945889
758.728882	3471.068837
759.056014	3475.794918
759.383099	3482.648367
759.710138	3479.732060
760.037129	3494.593381
760.364073	3525.273843
760.690970	3513.535517
761.017820	3488.755725
761.344623	3506.062006
761.671379	3552.123029
761.998088	3602.569855
762.324751	3727.686253
762.651366	3977.699757
762.977935	4447.026139
763.304456	4885.326740
763.630931	4977.065657
763.957359	4614.664669
764.283740	4280.257208
764.610074	4085.267898
764.936362	3889.527456
765.262602	3732.896285
765.588796	3624.564410
765.914943	3538.426214
766.241044	3450.379941
766.567097	3417.902308
766.893104	3374.893704
767.219064	3344.840865
767.544978	3314.510763
767.870845	3260.857762
768.196665	3242.520565
768.522438	3251.166144
768.848165	3248.597676
769.173846	3211.572922
769.499479	3194.291847
769.825066	3178.112263
770.150607	3159.399500
770.476101	3176.899866
770.801548	3171.921726
771.126949	3125.454891
771.452303	3108.708178
771.777611	3115.435597
772.102872	3119.876854
772.428087	3096.284254
772.753256	3086.428798
773.078378	3077.185843
773.403453	3043.742828
773.728482	3035.107332
774.053465	3054.946793
774.378401	3042.953888
774.703291	3011.451717
775.028135	3012.598580
775.352932	3007.905265
775.677683	2995.688029
776.002388	2993.381701
776.327046	2992.675940
776.651658	2982.896101
776.976224	2972.551653
777.300743	2972.528968
777.625216	2962.892803
777.949643	2956.636731
778.274024	2963.495221
778.598359	2951.005762
778.922647	2955.099179
779.246889	2952.989456
779.571086	2939.514452
779.895236	2932.635797
780.219339	2944.232972
780.543397	2955.222687
780.867409	2958.625466
781.191374	2950.751184
781.515294	2949.047274
781.839167	2951.275464
782.162995	2941.949329
782.486776	2950.176492
782.810511	2947.255143
783.134201	2935.000098
783.457844	2940.283228
783.781441	2932.693771
784.104993	2910.328692
784.428498	2911.450348
784.751958	2923.652461
785.075372	2918.833118
785.398739	2904.511200
785.722061	2921.338572
786.045337	2932.731579
786.368568	2919.372522
786.691752	2906.222672
787.014891	2956.253603
787.337983	2984.917604
787.661030	3016.369363
787.984031	3076.895976
788.306987	3122.677215
788.629897	3114.838221
788.952760	3101.922785
789.275579	3086.380907
789.598351	3025.120806
789.921078	2983.357367
790.243759	2975.180615
790.566395	2958.136474
790.888984	2933.202927
791.211529	2916.972932
791.534027	2905.955491
791.856480	2899.462484
792.178888	2882.642675
792.501249	2876.449617
792.823566	2875.045656
793.145836	2873.866026
793.468062	2864.474356
793.790241	2865.797659
794.112375	2869.702033
794.434464	2882.612428
794.756507	2886.728530
795.078505	2890.796741
795.400457	2906.628485
795.722364	2943.509566
796.044226	2969.252218
796.366042	2968.927064
796.687812	2956.384673
797.009538	2979.435349
797.331218	2966.706436
797.652852	2949.848817
797.974442	2933.487752
798.295986	2930.304264
798.617484	2922.573654
798.938938	2910.142169
799.260346	2895.356465
799.581709	2888.767677
799.903026	2882.100751
800.224299	2876.235368
800.545526	2868.212372
800.866708	2851.364836
801.187845	2840.120542
801.508936	2845.433918
801.829983	2850.081862
802.150984	2835.737259
802.471940	2823.691422
802.792851	2823.825012
803.113717	2828.203254
803.434538	2832.079902
803.755314	2821.831236
804.076045	2817.158086
804.396731	2816.374187
804.717372	2817.155566
805.037967	2810.223979
805.358518	2817.838642
805.679024	2832.102587
805.999485	2823.000783
806.319901	2829.849191
806.640272	2822.975578
806.960598	2827.242914
807.280879	2835.442351
807.601115	2843.535924
807.921306	2829.040086
808.241453	2826.257369
808.561554	2835.671724
808.881611	2833.846826
809.201623	2828.175528
809.521590	2829.448419
809.841513	2823.880465
810.161390	2826.728717
810.481223	2821.387614
810.801011	2810.521407
811.120755	2810.327323
811.440453	2813.299083
811.760107	2808.066365
812.079716	2810.123156
812.399281	2799.728297
812.718801	2795.541618
813.038276	2790.775207
813.357707	2795.120682
813.677093	2802.319450
813.996434	2793.905764
814.315731	2791.385187
814.634983	2784.519136
814.954191	2788.597429
815.273354	2801.570838
815.592473	2811.643064
815.911547	2812.779844
816.230577	2818.758652
816.549562	2829.294664
816.868502	2828.455312
817.187399	2836.768175
817.506250	2856.398428
817.825058	2845.640605
818.143821	2857.383973
818.462539	2877.977087
818.781213	2904.622105
819.099843	2938.324739
819.418429	2994.026969
819.736970	3052.849673
820.055466	3128.146867
820.373919	3232.408011
820.692327	3370.457488
821.010691	3536.097201
821.329011	3976.618430
821.647286	4867.909553
821.965517	6233.059056
822.283704	6963.005530
822.601847	6936.196674
822.919945	6310.108051
823.237999	5811.217823
823.556010	5237.847066
823.873976	4687.070762
824.191897	4285.875574
824.509775	3995.646265
824.827609	3729.102817
825.145398	3607.497583
825.463144	3597.995008
825.780845	3684.962474
826.098502	3791.219915
826.416116	4075.341866
826.733685	4382.706057
827.051210	4446.269966
827.368692	4334.968851
827.686129	4067.792738
828.003522	3745.663007
828.320872	3488.896877
828.638177	3298.353865
828.955439	3164.402845
829.272656	3077.863878
829.589830	3014.809126
829.906960	2965.010087
830.224046	2920.703386
830.541088	2889.286915
830.858086	2873.606406
831.175041	2852.647809
831.491952	2856.549662
831.808819	2869.351672
832.125642	2890.401010
832.442421	2935.821807
832.759157	3016.621420
833.075849	3193.704552
833.392497	3473.768375
833.709101	3674.328160
834.025662	3619.349336
834.342179	3462.977785
834.658653	3290.908081
834.975083	3142.602376
835.291469	3044.075544
835.607811	2964.679892
835.924110	2907.021695
836.240366	2853.134281
836.556578	2812.978970
836.872746	2791.347378
837.188871	2766.194541
837.504952	2752.250710
837.820990	2744.003382
838.136984	2728.912688
838.452935	2722.454970
838.768842	2721.028323
839.084706	2741.550861
839.400526	2816.885864
839.716303	2950.020216
840.032037	3027.149870
840.347727	3012.769979
840.663373	2951.976184
840.978977	2878.277035
841.294537	2805.676858
841.610054	2759.754467
841.925527	2740.381313
842.240957	2718.439691
842.556344	2694.794159
842.871687	2679.073321
843.186987	2669.898421
843.502244	2666.440189
843.817458	2661.835095
844.132629	2650.391676
844.447756	2641.703247
844.762840	2631.631022
845.077881	2636.571352
845.392879	2634.938019
845.707833	2630.073305
846.022745	2621.349588
846.337613	2628.608850
846.652438	2624.190279
846.967221	2624.931328
847.281960	2625.201030
847.596656	2620.497633
847.911309	2621.800772
848.225919	2618.478651
848.540485	2614.092847
848.855009	2615.154010
849.169490	2616.464710
849.483928	2616.424381
849.798323	2615.106119
850.112675	2613.974380
850.426984	2615.131325
850.741251	2611.602517
851.055474	2612.540172
851.369654	2616.293311
851.683792	2615.428753
851.997887	2613.205604
852.311938	2613.898763
852.625947	2615.138887
852.939914	2618.352622
853.253837	2616.865482
853.567718	2612.487240
853.881555	2612.343567
854.195350	2615.406068
854.509103	2615.595111
854.822812	2609.593618
855.136479	2612.005810
855.450103	2614.052518
855.763685	2617.591408
856.077224	2611.526900
856.390720	2609.999431
856.704173	2615.403548
857.017584	2616.379011
857.330953	2618.458487
857.644278	2619.197016
857.957561	2619.254989
858.270802	2616.396655
858.584000	2617.301542
858.897155	2619.721296
859.210268	2623.562655
859.523339	2614.420522
859.836367	2609.160078
860.149352	2610.150665
860.462295	2611.418515
860.775195	2610.122939
861.088054	2608.305603
861.400869	2610.619492
861.713642	2605.502721
862.026373	2606.974738
862.339062	2609.281066
862.651708	2617.873713
862.964312	2616.600822
863.276873	2614.695265
863.589392	2614.110492
863.901869	2622.435957
864.214303	2627.676237
864.526696	2628.616412
864.839045	2630.910137
865.151353	2631.961217
865.463619	2631.658748
865.775842	2631.731845
866.088023	2632.624129
866.400162	2633.506331
866.712258	2635.348873
867.024313	2632.417442
867.336325	2625.420320
867.648296	2630.015332
867.960224	2633.559263
868.272110	2634.736372
868.583954	2625.783283
868.895755	2630.373254
869.207515	2634.832154
869.519233	2639.149903
869.830909	2633.808800
870.142542	2629.486011
870.454134	2634.176804
870.765684	2639.238123
871.077191	2642.461941
871.388657	2646.149545
871.700081	2641.221817
872.011463	2641.035294
872.322803	2642.424132
872.634101	2647.765235
872.945357	2654.154897
873.256571	2659.377533
873.567744	2658.908705
873.878874	2656.441060
874.189963	2657.958448
874.501010	2664.174190
874.812015	2666.843481
875.122979	2665.878100
875.433900	2656.080618
875.744780	2657.892913
876.055618	2661.043634
876.366415	2666.324242
876.677169	2664.978254
876.987882	2663.627225
877.298554	2659.216216
877.609183	2669.290962
877.919771	2676.661128
878.230317	2682.372756
878.540822	2694.831967
878.851285	2704.301775
879.161707	2731.060220
879.472087	2768.858791
879.782425	2816.943837
880.092722	2925.739499
880.402977	3115.163375
880.713191	3368.088146
881.023363	3655.020541
881.333494	3840.262780
881.643583	4015.982279
881.953631	4012.894573
882.263637	3836.008046
882.573602	3619.399747
882.883526	3487.082062
883.193408	3377.321019
883.503248	3278.915176
883.813048	3165.343021
884.122806	3051.622152
884.432522	2972.246664
884.742197	2907.367014
885.051831	2869.129862
885.361424	2836.422856
885.670975	2799.438430
885.980485	2767.527927
886.289954	2753.949579
886.599382	2739.249574
886.908768	2728.499313
887.218113	2707.994420
887.527417	2697.652493
887.836680	2688.409537
888.145901	2683.723785
888.455082	2674.180881
888.764221	2664.343069
889.073319	2656.178920
889.382376	2657.040958
889.691392	2656.723365
890.000366	2657.315701
890.309300	2653.577685
890.618193	2656.388128
890.927044	2661.078922
891.235855	2660.484066
891.544625	2658.482728
891.853353	2660.335352
892.162041	2667.047648
892.470687	2685.994825
892.779293	2698.204499
893.087858	2707.553319
893.396381	2726.949159
893.704864	2770.446755
894.013306	2841.048114
894.321707	2932.038421
894.630068	2979.561378
894.938387	2996.862618
895.246665	2991.239211
895.554903	2947.361008
895.863100	2903.991961
896.171256	2849.219825
896.479371	2789.151956
896.787446	2749.684762
897.095480	2733.409397
897.403473	2727.508727
897.711425	2714.668908
898.019336	2694.587472
898.327207	2678.065090
898.635038	2680.615914
898.942827	2675.421005
899.250576	2670.266425
899.558284	2659.223777
899.865952	2652.100627
900.173579	2651.747746
900.481165	2647.697179
900.788711	2641.967908
901.096216	2631.729324
901.403681	2629.362502
901.711105	2632.528347
902.018489	2628.263531
902.325832	2628.787811
902.633135	2633.702936
902.940397	2649.383445
903.247619	2684.341326
903.554800	2753.263982
903.861941	2877.944319
904.169041	3002.969976
904.476101	3060.595405
904.783121	3055.650033
905.090100	2996.048472
905.397039	2925.971392
905.703938	2854.865917
906.010796	2794.064560
906.317614	2741.291241
906.624391	2703.883359
906.931129	2680.449556
907.237826	2657.582882
907.544483	2640.027063
907.851099	2627.212450
908.157675	2615.703496
908.464211	2611.980604
908.770707	2601.842844
909.077163	2597.852770
909.383578	2593.809765
909.689954	2591.770618
909.996289	2591.500917
910.302584	2591.500917
910.608839	2589.907912
910.915054	2589.970926
911.221229	2590.470001
911.527363	2592.337748
911.833458	2589.676019
912.139513	2591.032089
912.445527	2593.184662
912.751502	2597.172215
913.057436	2601.242946
913.363331	2609.397013
913.669186	2618.806326
913.975000	2632.747637
914.280775	2648.662560
914.586510	2666.369613
914.892205	2702.610468
915.197859	2768.594131
915.503475	2850.921214
915.809050	2915.989907
916.114585	2928.156732
916.420081	2940.419339
916.725536	2949.649692
917.030952	2927.730755
917.336328	2877.316696
917.641665	2833.246929
917.946961	2781.731377
918.252218	2751.844897
918.557435	2724.045454
918.862612	2703.049048
919.167750	2688.412058
919.472848	2669.916065
919.777906	2657.063643
920.082925	2643.444966
920.387904	2631.656227
920.692843	2627.426699
920.997743	2625.322018
921.302603	2616.615945
921.607423	2610.735439
921.912204	2606.153030
922.216946	2602.364603
922.521647	2602.911568
922.826310	2594.732296
923.130932	2592.577203
923.435516	2585.935483
923.740059	2585.610328
924.044564	2585.988415
924.349028	2585.050760
924.653454	2573.929975
924.957840	2570.053327
925.262186	2568.977041
925.566493	2572.888977
925.870761	2568.034345
926.174989	2568.394788
926.479178	2564.944118
926.783328	2561.667368
927.087438	2559.416493
927.391509	2564.066957
927.695541	2561.798438
927.999533	2561.301884
928.303486	2559.408931
928.607400	2557.173179
928.911275	2556.958930
929.215110	2556.046482
929.518906	2557.329455
929.822663	2559.018242
930.126381	2553.599001
930.430060	2555.444064
930.733699	2556.595967
931.037299	2557.274002
931.340861	2561.012018
931.644383	2560.417162
931.947866	2560.419682
932.251309	2556.714434
932.554714	2557.112686
932.858080	2558.499003
933.161407	2557.347099
933.464694	2556.974054
933.767943	2555.552448
934.071153	2557.619322
934.374323	2555.900288
934.677455	2554.261913
934.980548	2553.767880
935.283602	2555.116389
935.586617	2553.165462
935.889593	2557.553787
936.192530	2556.762325
936.495428	2554.667726
936.798287	2555.590257
937.101108	2557.372305
937.403890	2560.303736
937.706632	2561.506051
938.009336	2564.835733
938.312002	2570.050807
938.614628	2572.117680
938.917216	2575.311251
939.219765	2578.663618
939.522275	2578.403999
939.824747	2576.924420
940.127179	2569.735735
940.429573	2566.630384
940.731929	2568.659448
941.034246	2562.398335
941.336524	2569.808832
941.638763	2567.454613
941.940964	2567.230281
942.243126	2564.679457
942.545250	2563.880435
942.847335	2562.995712
943.149381	2558.919939
943.451389	2559.885320
943.753359	2558.728375
944.055290	2557.901626
944.357182	2559.305587
944.659036	2556.144784
944.960851	2557.082439
945.262628	2558.657799
945.564367	2558.627552
945.866067	2560.102090
946.167729	2560.180228
946.469352	2555.784342
946.770937	2559.484548
947.072484	2558.191492
947.373992	2557.122768
947.675462	2559.214847
947.976893	2558.680484
948.278286	2556.177552
948.579641	2555.902809
948.880958	2551.154042
949.182236	2553.757798
949.483476	2555.330638
949.784678	2554.219063
950.085841	2551.819474
950.386967	2556.381718
950.688054	2555.567572
950.989103	2557.286605
951.290114	2556.749722
951.591087	2559.280382
951.892021	2558.826678
952.192917	2562.768860
952.493776	2562.090825
952.794596	2564.187945
953.095378	2563.315825
953.396122	2563.459498
953.696828	2561.044786
953.997496	2560.263407
954.298126	2555.585216
954.598718	2553.636810
954.899272	2552.686553
955.199788	2555.471790
955.500266	2553.132695
955.800706	2549.377035
956.101108	2550.155893
956.401472	2547.537014
956.701798	2545.225645
957.002087	2544.650953
957.302337	2546.410316
957.602550	2548.164638
957.902724	2541.870757
958.202861	2546.798485
958.502960	2544.640871
958.803022	2545.147507
959.103045	2543.904862
959.403031	2545.679349
959.702979	2540.905376
960.002889	2545.442414
960.302762	2544.424101
960.602596	2541.112063
960.902393	2543.625078
961.202153	2540.391178
961.501875	2542.092568
961.801559	2539.892104
962.101205	2540.852444
962.400814	2542.004348
962.700385	2540.572660
962.999918	2540.454193
963.299414	2539.529141
963.598873	2541.764893
963.898293	2538.757844
964.197677	2540.978473
964.497022	2540.668442
964.796331	2540.232382
965.095601	2541.089378
965.394835	2541.664070
965.694030	2541.618699
965.993189	2540.081147
966.292309	2538.233564
966.591393	2540.953267
966.890439	2540.282793
967.189447	2539.965201
967.488419	2539.912269
967.787353	2539.027546
968.086249	2539.776158
968.385108	2541.162475
968.683930	2539.670293
968.982714	2538.238606
969.281462	2538.967052
969.580172	2542.142979
969.878844	2540.998637
970.177480	2541.026364
970.476078	2540.068544
970.774639	2540.330684
971.073162	2539.967721
971.371649	2539.423277
971.670098	2540.796991
971.968510	2538.798174
972.266885	2534.697195
972.565223	2540.257588
972.863524	2539.332536
973.161788	2539.869419
973.460014	2539.718184
973.758204	2540.537372
974.056356	2541.540561
974.354471	2542.037115
974.652550	2539.347659
974.950591	2540.025695
975.248595	2541.152393
975.546563	2540.600386
975.844493	2540.139121
976.142386	2541.510314
976.440243	2539.221631
976.738062	2539.176260
977.035845	2541.001158
977.333590	2537.810108
977.631299	2540.247505
977.928971	2542.692465
978.226606	2539.201466
978.524204	2540.958308
978.821765	2536.378420
979.119290	2538.720036
979.416777	2538.649460
979.714228	2538.155427
980.011642	2539.057793
980.309020	2540.151723
980.606360	2535.798687
980.903664	2543.388144
981.200931	2539.395550
981.498162	2541.228010
981.795356	2541.449821
982.092513	2543.980480
982.389633	2547.368135
982.686717	2553.178065
982.983764	2551.310318
983.280775	2553.500699
983.577749	2554.665205
983.874686	2551.116233
984.171587	2550.559186
984.468451	2547.398382
984.765279	2547.108516
985.062070	2542.752959
985.358824	2544.424101
985.655543	2542.347146
985.952224	2542.384955
986.248869	2538.969573
986.545478	2536.648122
986.842050	2536.627957
987.138586	2537.124511
987.435086	2535.886907
987.731549	2531.596885
988.027975	2539.763555
988.324366	2536.479243
988.620719	2537.442103
988.917037	2536.360776
989.213318	2538.062165
989.509563	2537.076620
989.805772	2536.670807
990.101944	2536.214582
990.398080	2538.203317
990.694180	2536.494366
990.990244	2539.519059
991.286271	2537.167360
991.582262	2536.731301
991.878217	2535.725590
992.174136	2537.966383
992.470019	2535.997813
992.765865	2538.069727
993.061676	2535.460930
993.357450	2538.790612
993.653188	2535.019829
993.948890	2536.476722
994.244556	2536.113759
994.540186	2539.045190
994.835780	2536.811959
995.131337	2538.193235
995.426859	2537.515200
995.722345	2537.293389
996.017795	2539.004861
996.313208	2539.403112
996.608586	2541.157434
996.903928	2540.572660
997.199234	2543.151210
997.494504	2538.591486
997.789738	2536.852288
998.084936	2540.227341
998.380099	2539.947557
998.675225	2535.602082
998.970316	2536.096115
999.265371	2535.634850
999.560390	2535.826413
999.855373	2541.018802
1000.150320	2539.037628
1000.445232	2535.042514
1000.740108	2534.576207
1001.034948	2536.020498
1001.329752	2536.892618
1001.624521	2535.561753
1001.919254	2533.802390
1002.213951	2532.300126
1002.508613	2532.957997
1002.803239	2534.170394
1003.097829	2530.626463
1003.392384	2533.351207
1003.686903	2535.707946
1003.981386	2535.478574
1004.275834	2535.629808
1004.570246	2535.876825
1004.864623	2536.280117
1005.158964	2534.283820
1005.453270	2536.227185
1005.747540	2536.065868
1006.041775	2532.804242
1006.335974	2534.432534
1006.630138	2533.225178
1006.924266	2536.317926
1007.218359	2534.848430
1007.512416	2535.642411
1007.806438	2537.414377
1008.100425	2535.350024
1008.394376	2533.084026
1008.688292	2536.839685
1008.982172	2533.510003
1009.276017	2533.532688
1009.569827	2534.117462
1009.863602	2535.337422
1010.157341	2532.726104
1010.451045	2531.291896
1010.744714	2535.186187
1011.038347	2537.139634
1011.331945	2535.902031
1011.625508	2533.694005
1011.919036	2537.316074
1012.212528	2535.163502
1012.505986	2535.249201
1012.799408	2533.507483
1013.092795	2535.869263
1013.386147	2534.808100
1013.679464	2531.468336
1013.972745	2534.039324
1014.265992	2535.828934
1014.559204	2533.812473
1014.852380	2534.366999
1015.145521	2534.742565
1015.438628	2532.695857
1015.731699	2533.446989
1016.024736	2532.191742
1016.317737	2533.762061
1016.610703	2533.749458
1016.903635	2533.237781
1017.196531	2529.524971
1017.489393	2532.708460
1017.782219	2530.031607
1018.075011	2534.399767
1018.367768	2532.978162
1018.660490	2534.054448
1018.953177	2534.054448
1019.245829	2534.054448
