Dividing Wavelength (nm)	Counts (n)	Blue Motor Position (mm): 20.700000	Red Motor Position (mm): 0.000000	
326.493990	2138.643984
326.888308	2138.643984
327.282561	2138.643984
327.676750	2104.086875
328.070874	2102.241812
328.464933	2103.514704
328.858929	2113.261775
329.252859	2120.442898
329.646726	2131.699795
330.040528	2145.326034
330.434265	2162.334887
330.827938	2180.311641
331.221547	2196.312264
331.615091	2213.240458
332.008571	2235.996227
332.401986	2256.856521
332.795338	2274.387134
333.188625	2292.560493
333.581847	2311.716878
333.975006	2329.955773
334.368100	2352.414113
334.761129	2365.309385
335.154095	2384.533825
335.546996	2402.591238
335.939833	2424.943714
336.332606	2439.474840
336.725315	2452.717951
337.117960	2460.509054
337.510540	2469.126907
337.903056	2480.209884
338.295508	2490.163642
338.687896	2498.635301
339.080220	2507.207783
339.472480	2510.918072
339.864676	2517.148938
340.256807	2520.783610
340.648875	2522.921060
341.040879	2525.184538
341.432818	2528.756195
341.824694	2528.947759
342.216506	2529.900537
342.608253	2530.472708
342.999937	2530.941535
343.391557	2530.321473
343.783113	2527.289219
344.174605	2523.483148
344.566033	2526.210412
344.957397	2523.528519
345.348697	2522.505164
345.739934	2522.512726
346.131106	2518.726820
346.522215	2518.936028
346.913260	2515.276150
347.304241	2512.347239
347.695159	2514.590553
348.086012	2512.627023
348.476802	2505.521517
348.867528	2506.023112
349.258191	2503.915910
349.648789	2504.293996
350.039324	2503.061434
350.429796	2502.849706
350.820203	2501.579335
351.210548	2499.567914
351.600828	2497.944663
351.991045	2496.245794
352.381198	2497.193531
352.771288	2497.506082
353.161314	2497.138078
353.551276	2498.738645
353.941175	2494.549446
354.331010	2498.428614
354.720782	2495.771926
355.110490	2497.004488
355.500135	2496.921309
355.889717	2494.587254
356.279235	2497.009529
356.668689	2498.600013
357.058080	2499.177225
357.447408	2495.146822
357.836672	2494.811586
358.225873	2497.299395
358.615010	2492.676657
359.004084	2499.779643
359.393095	2498.095897
359.782043	2500.382061
360.170927	2499.963645
360.559748	2500.981958
360.948505	2499.913233
361.337199	2500.931547
361.725830	2499.847698
362.114398	2505.007319
362.502903	2502.688389
362.891344	2504.999758
363.279722	2504.684686
363.668037	2505.942453
364.056289	2506.496980
364.444478	2505.030005
364.832603	2505.604696
365.220665	2505.539161
365.608665	2508.102588
365.996601	2506.600324
366.384474	2508.037053
366.772284	2507.169974
367.160031	2507.495129
367.547715	2510.260202
367.935336	2509.703154
368.322893	2509.272136
368.710388	2508.717609
369.097820	2513.778927
369.485189	2508.679800
369.872495	2512.768176
370.259738	2509.950171
370.646918	2510.088803
371.034035	2510.492095
371.421090	2510.660973
371.808081	2512.032167
372.195010	2511.026457
372.581875	2511.462517
372.968678	2511.878412
373.355418	2511.205418
373.742096	2511.971673
374.128710	2512.760614
374.515262	2512.483351
374.901751	2511.938906
375.288177	2512.858917
375.674540	2512.634585
376.060841	2513.368073
376.447079	2514.661129
376.833254	2512.478309
377.219367	2510.116529
377.605417	2512.972343
377.991404	2511.318844
378.377329	2510.134173
378.763191	2509.796416
379.148991	2518.321007
379.534727	2515.997035
379.920402	2515.767662
380.306013	2515.820594
380.691563	2519.150277
381.077049	2513.231962
381.462474	2517.559793
381.847835	2516.581809
382.233134	2514.703979
382.618371	2517.194309
383.003545	2517.998373
383.388657	2517.191788
383.773706	2517.519463
384.158693	2520.642458
384.543618	2520.942407
384.928480	2520.836543
385.313280	2519.382170
385.698017	2520.491223
386.082692	2519.190606
386.467305	2520.370236
386.851856	2521.043230
387.236344	2518.242869
387.620770	2522.724455
388.005133	2520.949968
388.389435	2521.325534
388.773674	2522.759743
389.157851	2518.063908
389.541965	2520.370236
389.926018	2523.329393
390.310008	2524.723272
390.693936	2521.302849
391.077802	2523.266379
391.461606	2522.815195
391.845348	2520.907119
392.229027	2521.784279
392.612645	2524.067922
392.996200	2523.324352
393.379694	2525.179497
393.763125	2524.725793
394.146494	2524.693025
394.529801	2525.565145
394.913047	2524.720752
395.296230	2523.599095
395.679351	2524.740916
396.062410	2526.102028
396.445408	2523.079856
396.828343	2524.753519
397.211217	2520.319824
397.594028	2524.007428
397.976778	2521.043230
398.359466	2522.023734
398.742092	2521.433919
399.124656	2527.362316
399.507158	2524.899712
399.889598	2529.204858
400.271977	2529.159488
400.654294	2526.565814
401.036549	2526.371729
401.418742	2527.536236
401.800874	2527.879034
402.182944	2529.734179
402.564952	2526.800227
402.946898	2527.531195
403.328783	2528.269724
403.710606	2527.402645
404.092367	2527.425331
404.474067	2528.103366
404.855705	2527.730320
405.237282	2528.655372
405.618797	2529.802235
406.000250	2527.664785
406.381642	2528.536905
406.762972	2529.615712
407.144240	2528.705784
407.525447	2531.619571
407.906593	2531.075126
408.287677	2532.189221
408.668700	2528.917512
409.049661	2529.789632
409.430560	2529.807276
409.811399	2535.559232
410.192176	2532.653007
410.572891	2530.029087
410.953545	2533.119314
411.334138	2531.375075
411.714669	2532.607637
412.095139	2533.096629
412.475547	2532.312729
412.855894	2530.104704
413.236180	2530.891124
413.616405	2533.809952
413.996568	2529.540095
414.376670	2534.051927
414.756711	2531.498583
415.136691	2533.845240
415.516609	2532.713501
415.896466	2530.525640
416.276262	2535.380271
416.655997	2530.679395
417.035670	2531.032276
417.415283	2531.425486
417.794834	2528.640249
418.174324	2534.689633
418.553753	2537.782381
418.933121	2533.794828
419.312428	2533.462112
419.691674	2536.943029
420.070859	2534.240971
420.449983	2535.269366
420.829045	2534.913965
421.208047	2536.988399
421.586988	2534.069571
421.965867	2533.023532
422.344686	2536.194418
422.723444	2537.777340
423.102141	2534.558563
423.480777	2537.873122
423.859352	2535.370189
424.237866	2536.456558
424.616319	2536.625436
424.994712	2538.707433
425.373044	2535.299613
425.751314	2534.014119
426.129524	2538.223482
426.507673	2536.322967
426.885762	2537.545447
427.263789	2536.751465
427.641756	2538.077289
428.019662	2539.503935
428.397508	2537.860519
428.775292	2537.921013
429.153016	2539.599717
429.530679	2539.687937
429.908282	2537.812628
430.285824	2540.428987
430.663305	2537.099305
431.040726	2541.797660
431.418086	2538.304141
431.795385	2538.513348
432.172624	2539.761034
432.549802	2538.263811
432.926920	2542.896632
433.303977	2539.405633
433.680974	2538.283976
434.057910	2539.672814
434.434786	2540.650798
434.811601	2539.506456
435.188355	2541.661549
435.565050	2541.790098
435.941683	2541.361600
436.318257	2539.836651
436.694770	2536.391023
437.071222	2542.168185
437.447614	2536.441434
437.823946	2538.994779
438.200218	2540.093750
438.576429	2540.744059
438.952580	2543.088196
439.328670	2544.570295
439.704700	2542.810932
440.080670	2543.073072
440.456580	2544.487116
440.832429	2542.238761
441.208218	2540.108874
441.583947	2543.350336
441.959616	2541.235572
442.335224	2542.689944
442.710773	2541.013761
443.086261	2543.173895
443.461689	2541.323792
443.837057	2542.843700
444.212365	2544.451828
444.587612	2544.960984
444.962800	2543.095757
445.337927	2544.139276
445.712995	2545.170192
446.088002	2544.363607
446.462949	2547.589946
446.837837	2544.751776
447.212664	2544.164482
447.587431	2544.517363
447.962139	2544.673638
448.336786	2547.259750
448.711374	2544.610624
449.085901	2546.687579
449.460369	2544.305634
449.834776	2546.178423
450.209124	2546.518701
450.583412	2546.170861
450.957640	2545.996941
451.331808	2546.092723
451.705917	2544.547610
452.079965	2549.971891
452.453954	2547.272353
452.827883	2546.087682
453.201752	2546.029709
453.575562	2548.585574
453.949311	2547.978115
454.323001	2548.129349
454.696632	2549.460214
455.070202	2548.192364
455.443713	2544.182126
455.817164	2544.303114
456.190556	2543.299924
456.563888	2543.584749
456.937160	2545.397044
457.310373	2546.007024
457.683526	2549.790410
458.056619	2547.965512
458.429653	2549.777807
458.802628	2549.992056
459.175542	2549.971891
459.548398	2550.483568
459.921194	2550.082797
460.293930	2550.962478
460.666607	2549.987015
461.039224	2550.418033
461.411782	2548.883002
461.784280	2552.116902
462.156719	2549.674463
462.529099	2549.374514
462.901419	2550.660009
463.273680	2548.260419
463.645882	2553.893909
464.018024	2553.712427
464.390106	2551.703528
464.762130	2552.338713
465.134094	2551.958106
465.505999	2555.108827
465.877845	2554.171172
466.249631	2553.351985
466.621358	2555.718807
466.993026	2557.669733
467.364634	2559.595454
467.736184	2554.519012
468.107674	2556.051523
468.479105	2553.543549
468.850477	2554.728220
469.221790	2555.565051
469.593043	2553.256203
469.964238	2555.746533
470.335373	2555.786862
470.706449	2554.420709
471.077467	2556.051523
471.448425	2560.137378
471.819324	2560.071843
472.190164	2558.720814
472.560945	2558.007490
472.931667	2557.006821
473.302330	2557.518498
473.672934	2556.598488
474.043479	2558.302398
474.413965	2561.458160
474.784393	2553.500699
475.154761	2558.098231
475.525070	2555.146636
475.895321	2557.180741
476.265513	2558.471277
476.635645	2560.868345
477.005719	2564.024107
477.375734	2562.078222
477.745691	2563.703994
478.115588	2567.212637
478.485427	2565.589386
478.855207	2569.324881
479.224928	2571.202711
479.594591	2572.354614
479.964194	2575.631364
480.333739	2577.347877
480.703226	2577.665470
481.072653	2581.539597
481.442022	2585.655699
481.811333	2591.574013
482.180584	2589.706266
482.549777	2594.397059
482.918912	2595.990064
483.287988	2601.762185
483.657005	2604.799480
484.025964	2603.201435
484.394864	2609.397013
484.763706	2619.252468
485.132489	2618.685339
485.501213	2623.388735
485.869879	2630.587503
486.238487	2632.543471
486.607036	2637.554377
486.975527	2646.429329
487.343959	2652.632469
487.712333	2661.603202
488.080648	2665.883142
488.448905	2677.951664
488.817104	2680.414267
489.185244	2696.185517
489.553326	2710.421736
489.921350	2732.738924
490.289315	2767.134717
490.657222	2786.709517
491.025070	2800.169398
491.392861	2808.126859
491.760593	2812.159782
492.128267	2818.425936
492.495883	2820.255875
492.863440	2827.462205
493.230939	2831.709377
493.598380	2844.045080
493.965763	2855.317100
494.333088	2866.374871
494.700354	2882.052860
495.067563	2900.037176
495.434713	2910.963877
495.801805	2938.415480
496.168839	2954.015331
496.535815	2979.586584
496.902733	2992.174345
497.269593	3012.139835
497.636395	3036.160933
498.003139	3062.805951
498.369825	3078.693148
498.736453	3113.582973
499.103023	3131.171559
499.469535	3161.138698
499.835989	3179.191070
500.202385	3207.144268
500.568723	3226.207392
500.935003	3268.298506
501.301226	3299.283958
501.667390	3339.824917
502.033497	3387.819222
502.399546	3397.704925
502.765537	3425.128802
503.131470	3466.574648
503.497345	3523.025489
503.863163	3517.533152
504.228923	3588.870520
504.594625	3633.847694
504.960269	3645.449910
505.325856	3708.348387
505.691385	3731.232704
506.056856	3788.558185
506.422270	3841.863346
506.787625	3861.745657
507.152924	3925.549021
507.518164	3965.147284
507.883347	4001.362933
508.248472	4035.718397
508.613540	4119.204946
508.978550	4157.177437
509.343503	4199.132440
509.708398	4268.506278
510.073236	4340.670396
510.438016	4395.828181
510.802738	4439.923153
511.167403	4510.206920
511.532010	4550.369793
511.896561	4639.414214
512.261053	4721.874888
512.625488	4746.324484
512.989866	4806.581396
513.354186	4858.328840
513.718449	4895.313265
514.082655	5003.410727
514.446803	5041.602509
514.810894	5132.965861
515.174927	5166.565151
515.538904	5222.481629
515.902822	5342.849260
516.266684	5361.312486
516.630488	5415.247791
516.994235	5485.942412
517.357925	5586.425211
517.721558	5675.515002
518.085133	5752.843782
518.448651	5813.972813
518.812112	5836.625238
519.175516	5918.402836
519.538863	6027.410226
519.902152	6047.617691
520.265385	6195.336102
520.628560	6211.861004
520.991678	6290.263549
521.354739	6370.682556
521.717743	6403.543317
522.080690	6467.273584
522.443580	6603.384738
522.806413	6654.683519
523.169189	6731.379634
523.531908	6825.397153
523.894569	6812.912736
524.257174	6890.549026
524.619722	7018.140629
524.982213	7041.544186
525.344647	7156.396794
525.707025	7187.195724
526.069345	7309.317676
526.431608	7343.726071
526.793815	7464.134031
527.155964	7420.752381
527.518057	7500.984865
527.880093	7546.819036
528.242072	7645.703789
528.603995	7669.243457
528.965860	7681.579161
529.327669	7783.425592
529.689421	7809.541289
530.051117	7853.895882
530.412755	7992.318404
530.774337	7967.644477
531.135862	8035.977317
531.497331	8093.678364
531.858743	8068.727173
532.220098	8229.623160
532.581396	8208.011733
532.942638	8254.808765
533.303824	8282.230121
533.664953	8356.735854
534.026025	8345.688166
534.387040	8472.843710
534.747999	8524.628963
535.108902	8623.256617
535.469748	8504.265222
535.830537	8628.449005
536.191270	8670.744286
536.551947	8738.840192
536.912567	8782.279815
537.273131	8778.914845
537.633638	8816.113519
537.994089	8857.655147
538.354483	8866.222588
538.714821	9014.412347
539.075103	9070.538033
539.435328	9093.387063
539.795497	8996.002053
540.155609	9175.237757
540.515665	9277.472357
540.875665	9112.513201
541.235609	9216.194612
541.595496	9251.999407
541.955328	9422.488709
542.315102	9358.818936
542.674821	9354.866672
543.034483	9392.302280
543.394090	9440.357079
543.753640	9410.914220
544.113134	9641.978027
544.472571	9550.012258
544.831953	9711.152740
545.191278	9577.357997
545.550548	9631.958734
545.909761	9786.023957
546.268918	9790.198033
546.628019	9892.331810
546.987064	9811.537237
547.346053	9767.003684
547.704986	9888.208146
548.063863	9911.982227
548.422684	9928.353374
548.781449	9878.569460
549.140158	9997.482717
549.498811	9912.607330
549.857408	9811.068410
550.215949	10043.243791
550.574434	9927.289691
550.932864	10050.508094
551.291237	10113.696437
551.649555	10099.492986
552.007817	10129.959199
552.366022	10105.491959
552.724173	10126.183375
553.082267	10132.066401
553.440305	10278.819431
553.798288	10108.693092
554.156215	10273.521178
554.514086	10267.738975
554.871902	10138.768615
555.229661	10194.175937
555.587365	10188.464310
555.945014	10099.140105
556.302606	10233.847298
556.660143	10148.004009
557.017625	10315.700513
557.375050	10229.668181
557.732421	10371.175890
558.089735	10299.105034
558.446994	10311.859153
558.804197	10364.546773
559.161345	10372.146312
559.518437	10241.782074
559.875474	10334.231794
560.232455	10375.246622
560.589381	10334.998049
560.946251	10342.990799
561.303065	10456.066400
561.659825	10403.603112
562.016528	10345.551705
562.373177	10230.961237
562.729770	10358.885557
563.086307	10284.425194
563.442789	10380.227282
563.799216	10261.737481
564.155587	10317.500204
564.511904	10283.243043
564.868164	10284.349577
565.224370	10298.149735
565.580520	10231.082225
565.936615	10240.695705
566.292654	10117.641140
566.648638	10250.541078
567.004567	10217.526562
567.360441	10201.662051
567.716260	10120.048291
568.072023	10218.696110
568.427732	10174.606178
568.783385	10090.522252
569.138982	10167.019242
569.494525	10171.778091
569.850013	10060.192150
570.205445	10142.254573
570.560823	10043.876456
570.916145	9963.515422
571.271412	10032.710300
571.626625	9991.365277
571.981782	9961.466193
572.336884	9942.156054
572.691931	9945.941960
573.046923	9899.023941
573.401860	9855.087765
573.756743	9794.611563
574.111570	9833.556997
574.466342	9817.198453
574.821059	9847.435293
575.175722	9745.417463
575.530330	9760.598898
575.884882	9753.478268
576.239380	9679.161578
576.593823	9660.927725
576.948211	9674.498511
577.302544	9560.447446
577.656823	9578.330939
578.011047	9582.384027
578.365216	9547.983193
578.719330	9481.334098
579.073389	9482.586825
579.427394	9443.127193
579.781344	9416.454448
580.135239	9365.788332
580.489080	9370.141368
580.842866	9280.378583
581.196597	9282.384962
581.550273	9325.358278
581.903895	9291.786714
582.257463	9365.838743
582.610975	9242.267459
582.964434	9265.560111
583.317837	9187.449953
583.671186	9170.872118
584.024481	9169.450513
584.377721	9091.552083
584.730906	9065.970748
585.084037	9098.839071
585.437113	9031.320377
585.790135	9056.001866
586.143103	8953.621073
586.496016	8926.008152
586.848874	8986.736412
587.201679	8979.716605
587.554428	8868.977579
587.907124	8911.464423
588.259765	8879.448055
588.612352	8887.660095
588.964884	8763.322556
589.317362	8782.236965
589.669786	8778.171275
590.022155	8823.347575
590.374470	8842.498918
590.726731	8778.259495
591.078937	8629.731979
591.431090	8741.554854
591.783188	8624.859704
592.135232	8611.026778
592.487222	8610.013506
592.839157	8666.852515
593.191038	8599.265766
593.542866	8537.821662
593.894639	8439.105788
594.246358	8492.269796
594.598022	8507.128597
594.949633	8411.939009
595.301190	8383.146459
595.652692	8418.542921
596.004141	8527.026031
596.355535	8297.008263
596.706876	8285.204402
597.058162	8220.168476
597.409395	8292.330073
597.760573	8354.563117
598.111698	8265.390147
598.462768	8248.328361
598.813785	8214.524904
599.164748	8189.651851
599.515657	8170.155189
599.866511	8088.725431
600.217312	8210.978453
600.568060	8070.136176
600.918753	8172.063265
601.269392	8143.563102
601.619978	8063.277686
601.970510	8122.188610
602.320988	8120.162066
602.671412	8173.686517
603.021783	8112.151672
603.372100	8086.023372
603.722363	8087.969257
604.072572	8062.423210
604.422728	8070.075682
604.772830	8006.489088
605.122878	8014.970829
605.472872	8006.610076
605.822813	8036.942698
606.172701	7972.935168
606.522534	8059.327942
606.872314	8064.122079
607.222041	8025.370730
607.571714	8079.973987
607.921333	8036.433542
608.270899	8040.587452
608.620411	8132.286041
608.969870	8036.027729
609.319276	8028.937346
609.668627	8046.183133
610.017926	8079.936179
610.367171	8127.678426
610.716362	8109.512628
611.065500	8096.410670
611.414585	8123.867314
611.763616	8114.127805
612.112594	8094.174918
612.461518	8111.836600
612.810389	8171.952360
613.159207	8113.205274
613.507971	8064.621153
613.856682	8174.813215
614.205340	8128.737069
614.553945	8212.697486
614.902496	8109.111857
615.250994	8162.351483
615.599439	8145.408164
615.947830	8156.544073
616.296169	8130.665310
616.644454	8144.621744
616.992686	8138.302658
617.340864	8198.529323
617.688990	8109.391641
618.037063	8194.138478
618.385082	8139.903224
618.733048	8221.955565
619.080961	8162.958942
619.428821	8187.753857
619.776628	8183.524329
620.124382	8138.164026
620.472083	8124.154660
620.819731	8154.061305
621.167326	8044.547279
621.514868	8054.415337
621.862357	7942.030374
622.209793	7959.077036
622.557176	7894.628405
622.904506	7861.916357
623.251783	7801.730022
623.599007	7756.440295
623.946179	7755.439626
624.293297	7715.400262
624.640363	7631.326419
624.987376	7617.581713
625.334336	7565.725884
625.681243	7513.471803
626.028097	7496.702405
626.374899	7479.302863
626.721647	7474.508725
627.068343	7408.520022
627.414987	7377.569858
627.761577	7330.742579
628.108115	7367.676593
628.454600	7263.549040
628.801032	7312.997718
629.147412	7269.898373
629.493739	7254.109479
629.840014	7198.003957
630.186236	7254.278358
630.532405	7134.175388
630.878521	7193.028339
631.224585	7149.429920
631.570597	7074.662046
631.916556	7108.284022
632.262462	7097.589214
632.608316	7063.127886
632.954117	7036.964298
633.299866	7024.391660
633.645562	7019.244642
633.991206	6937.144411
634.336797	6884.134157
634.682336	6839.759401
635.027823	6806.598691
635.373257	6802.278422
635.718639	6731.704788
636.063968	6742.916315
636.409245	6642.068032
636.754470	6640.006200
637.099642	6594.713953
637.444762	6541.905346
637.789829	6550.760133
638.134845	6486.911399
638.479808	6481.073743
638.824719	6481.081304
639.169577	6408.821405
639.514383	6426.979641
639.859137	6361.147213
640.203839	6368.892946
640.548489	6354.785277
640.893086	6330.549930
641.237632	6302.747967
641.582125	6323.734290
641.926566	6293.389064
642.270955	6306.196116
642.615292	6304.093955
642.959576	6317.485780
643.303809	6308.814995
643.647990	6317.677344
643.992118	6308.018493
644.336195	6248.263176
644.680219	6273.345437
645.024192	6264.057111
645.368112	6365.659046
645.711981	6382.677981
646.055797	6459.643798
646.399562	6418.094608
646.743274	6545.184617
647.086935	6598.293173
647.430544	6593.249498
647.774101	6610.185254
648.117606	6615.516275
648.461059	6615.906964
648.804460	6568.033647
649.147810	6479.437888
649.491108	6445.495799
649.834354	6422.707263
650.177548	6338.787175
650.520690	6257.049907
650.863781	6237.638944
651.206820	6254.360451
651.549807	6176.023441
651.892742	6121.500842
652.235626	6126.615092
652.578458	6110.390139
652.921238	6017.562332
653.263967	6058.826697
653.606644	5995.343446
653.949269	6005.584550
654.291843	5939.961330
654.634365	5988.585779
654.976836	5946.207320
655.319255	5940.127688
655.661622	5923.630512
656.003938	5922.390388
656.346203	5879.550663
656.688416	5914.682464
657.030577	5865.170772
657.372687	5833.658519
657.714746	5819.681920
658.056753	5863.676069
658.398708	5802.526873
658.740612	5796.860616
659.082465	5850.632084
659.424266	5837.091545
659.766016	5836.363098
660.107715	5809.801258
660.449362	5822.976314
660.790958	5822.265511
661.132503	5808.707328
661.473996	5846.084963
661.815438	5830.522921
662.156829	5829.295400
662.498168	5826.018650
662.839456	5795.844824
663.180693	5832.423436
663.521879	5838.636658
663.863013	5821.441283
664.204097	5839.939797
664.545129	5882.061158
664.886110	5875.966403
665.227040	5914.090128
665.567918	5876.858687
665.908746	5903.964971
666.249522	5903.644858
666.590248	5898.928858
666.930922	5924.003558
667.271545	5934.985711
667.612118	5933.601914
667.952639	5906.730044
668.293109	5931.323313
668.633528	5890.875615
668.973896	5895.573970
669.314213	5882.734152
669.654480	5865.190936
669.994695	5862.153641
670.334859	5848.988668
670.674973	5841.721844
671.015035	5845.908523
671.355047	5844.307956
671.695008	5829.025698
672.034918	5801.531245
672.374777	5812.531043
672.714585	5794.851717
673.054342	5803.159538
673.394049	5791.983300
673.733705	5829.897818
674.073310	5816.407690
674.412864	5775.191217
674.752368	5765.275267
675.091820	5775.191217
675.431223	5708.726124
675.770574	5704.098344
676.109875	5659.040511
676.449125	5663.010420
676.788324	5629.716119
677.127473	5573.318211
677.466571	5569.287808
677.805619	5556.238782
678.144616	5540.815371
678.483562	5521.376682
678.822458	5495.444987
679.161303	5487.837886
679.500098	5476.744827
679.838842	5460.832424
680.177535	5464.560358
680.516179	5480.364375
680.854771	5492.306868
681.193314	5570.863169
681.531805	5678.693450
681.870247	5829.560061
682.208638	5926.062869
682.546978	5940.808244
682.885268	5919.642959
683.223508	5835.662378
683.561697	5784.071209
683.899836	5750.093832
684.237925	5707.085228
684.575963	5673.977450
684.913951	5631.344412
685.251889	5692.675090
685.589776	5659.705944
685.927614	5634.729547
686.265401	5704.063056
686.603137	5685.856929
686.940824	5766.265854
687.278460	5791.358197
687.616046	5791.446417
687.953582	5860.134659
688.291068	5838.969374
688.628504	5908.010497
688.965889	5868.397110
689.303224	5809.526515
689.640510	5768.098313
689.977745	5690.469585
690.314930	5595.244709
690.652065	5534.871851
690.989150	5442.195279
691.326185	5374.006111
691.663170	5317.779602
692.000105	5243.495679
692.336990	5165.453577
692.673825	5140.971213
693.010610	5071.577210
693.347345	5004.723948
693.684030	4989.552595
694.020665	4950.244198
694.357251	4856.957646
694.693786	4870.609091
695.030272	4835.068956
695.366707	4798.177792
695.703093	4767.522536
696.039429	4792.451042
696.375716	4771.583185
696.711952	4746.168208
697.048139	4737.988936
697.384276	4713.791398
697.720363	4731.316969
698.056400	4735.102876
698.392388	4682.644629
698.728326	4665.550076
699.064214	4644.853619
699.400053	4636.230725
699.735842	4603.803503
700.071581	4582.766768
700.407270	4557.359353
700.742910	4538.760016
701.078501	4478.760203
701.414042	4485.187674
701.749533	4452.962098
702.084974	4383.442066
702.420366	4443.872897
702.755709	4382.012898
703.091002	4331.505578
703.426246	4378.448803
703.761440	4332.657482
704.096584	4300.573058
704.431679	4322.802026
704.766725	4305.417607
705.101721	4291.317500
705.436668	4318.925379
705.771565	4272.173718
706.106413	4297.790341
706.441212	4329.380732
706.775961	4336.576979
707.110661	4320.029391
707.445311	4341.723997
707.779913	4372.296074
708.114465	4380.820666
708.448967	4403.853697
708.783421	4466.575734
709.117825	4504.969161
709.452180	4509.705325
709.786485	4555.965474
710.120742	4641.632322
710.454949	4624.706648
710.789107	4690.455897
711.123216	4765.238893
711.457275	4756.016102
711.791286	4827.008151
712.125247	4845.564639
712.459159	4745.273403
712.793023	4818.420546
713.126837	4779.586017
713.460602	4772.994708
713.794318	4690.002193
714.127985	4701.745561
714.461602	4619.529383
714.795171	4587.628961
715.128691	4521.483981
715.462162	4466.497596
715.795584	4420.923044
716.128957	4407.218668
716.462281	4348.307744
716.795556	4323.532993
717.128782	4285.283238
717.461960	4217.351170
717.795088	4227.201584
718.128167	4186.126263
718.461198	4126.988487
718.794180	4122.940441
719.127113	4104.252883
719.459997	4080.259512
719.792833	4042.909603
720.125619	4034.367367
720.458357	3997.004856
720.791046	4000.281606
721.123686	3974.874190
721.456278	3934.373560
721.788821	3951.631951
722.121315	3923.890481
722.453761	3901.172521
722.786158	3911.443872
723.118506	3934.020680
723.450805	3885.930592
723.783056	3909.757606
724.115259	3920.807815
724.447412	3927.285698
724.779518	3921.571550
725.111574	3928.314093
725.443582	3954.303762
725.775542	3942.726752
726.107453	3992.407323
726.439315	3991.268023
726.771129	4006.262935
727.102895	4041.183007
727.434612	4088.925255
727.766281	4098.508488
728.097901	4102.002008
728.429473	4104.746916
728.760996	4114.257053
729.092471	4108.532823
729.423897	4087.596911
729.755276	4102.042337
730.086606	4095.811471
730.417887	4131.812871
730.749120	4200.327193
731.080305	4262.535032
731.411442	4289.578302
731.742530	4260.629476
732.073570	4262.091410
732.404562	4314.960511
732.735506	4307.875169
733.066401	4270.474849
733.397249	4207.407494
733.728048	4127.885813
734.058798	4048.472516
734.389501	3977.281341
734.720156	3919.527362
735.050762	3874.366186
735.381320	3862.595091
735.711831	3816.725632
736.042293	3787.726395
736.372707	3812.012154
736.703073	3781.177936
737.033391	3771.690485
737.363661	3791.282929
737.693883	3816.022392
738.024056	3823.954647
738.354182	3818.293431
738.684260	3879.835837
739.014290	3901.948859
739.344272	3892.789082
739.674207	3936.112758
740.004093	3945.988379
740.333931	3937.060495
740.663722	3938.905558
740.993464	3937.952780
741.323159	3913.825817
741.652806	3882.275756
741.982405	3855.204760
742.311956	3824.955316
742.641460	3815.921568
742.970915	3794.166469
743.300323	3752.662649
743.629683	3717.820715
743.958996	3706.021894
744.288260	3683.253523
744.617477	3648.519973
744.946647	3634.339207
745.275768	3611.051597
745.604842	3611.089405
745.933869	3559.616704
746.262847	3555.523287
746.591778	3595.449226
746.920662	3561.728947
747.249498	3531.005635
747.578286	3577.016247
747.907027	3597.074998
748.235720	3593.233638
748.564365	3617.980663
748.892963	3615.966722
749.221514	3597.072477
749.550017	3579.340218
749.878473	3574.170515
750.206881	3545.009961
750.535242	3540.651883
750.863555	3543.169940
751.191821	3540.220865
751.520039	3518.783358
751.848210	3498.591016
752.176334	3531.618136
752.504411	3536.200544
752.832440	3495.415089
753.160421	3478.559991
753.488356	3491.609018
753.816243	3500.095801
754.144082	3458.972588
754.471875	3445.157306
754.799620	3465.926860
755.127318	3455.587453
755.454969	3456.300777
755.782572	3461.306642
756.110129	3436.562139
756.437638	3423.929007
756.765100	3442.820731
757.092515	3450.856330
757.419882	3460.457208
757.747203	3431.137857
758.074477	3433.048454
758.401703	3447.473716
758.728882	3468.515492
759.056014	3479.636278
759.383099	3481.176350
759.710138	3475.951194
760.037129	3489.925273
760.364073	3524.734440
760.690970	3511.014940
761.017820	3485.350426
761.344623	3503.387674
761.671379	3548.874005
761.998088	3598.587344
762.324751	3728.560893
762.651366	3973.858398
762.977935	4438.869552
763.304456	4874.321901
763.630931	4964.606446
763.957359	4608.471612
764.283740	4270.505096
764.610074	4085.174637
764.936362	3886.964029
765.262602	3729.932087
765.588796	3621.305304
765.914943	3533.488404
766.241044	3446.372224
766.567097	3420.995056
766.893104	3371.231305
767.219064	3339.562777
767.544978	3317.389262
767.870845	3260.313318
768.196665	3242.946543
768.522438	3248.824528
768.848165	3243.397726
769.173846	3209.574104
769.499479	3193.253369
769.825066	3175.589166
770.150607	3159.838081
770.476101	3174.361645
770.801548	3169.086077
771.126949	3124.610497
771.452303	3109.340842
771.777611	3117.189919
772.102872	3120.748974
772.428087	3092.001794
772.753256	3084.498036
773.078378	3076.228023
773.403453	3044.130997
773.728482	3032.536343
774.053465	3054.346895
774.378401	3041.381048
774.703291	3012.341481
775.028135	3011.003054
775.352932	3004.878052
775.677683	2993.719458
776.002388	2991.730723
776.327046	2993.764829
776.651658	2984.174034
776.976224	2972.677682
777.300743	2969.632825
777.625216	2961.312401
777.949643	2955.391566
778.274024	2960.624283
778.598359	2948.258333
778.922647	2954.940383
779.246889	2952.744960
779.571086	2938.017229
779.895236	2933.649069
780.219339	2943.118877
780.543397	2957.292081
780.867409	2958.595219
781.191374	2952.409723
781.515294	2949.027109
781.839167	2950.224383
782.162995	2939.259873
782.486776	2947.915535
782.810511	2945.480657
783.134201	2931.854418
783.457844	2941.576284
783.781441	2931.887186
784.104993	2908.476068
784.428498	2913.993610
784.751958	2927.781166
785.075372	2920.617687
785.398739	2902.701426
785.722061	2918.205494
786.045337	2931.226795
786.368568	2915.606780
786.691752	2909.040677
787.014891	2959.074129
787.337983	2984.249651
787.661030	3008.346366
787.984031	3079.058631
788.306987	3122.662092
788.629897	3113.676235
788.952760	3103.377158
789.275579	3084.755135
789.598351	3023.963861
789.921078	2982.981801
790.243759	2976.085502
790.566395	2956.845939
790.888984	2933.076898
791.211529	2918.976791
791.534027	2909.252405
791.856480	2898.353431
792.178888	2881.440359
792.501249	2876.462220
792.823566	2873.268649
793.145836	2867.899820
793.468062	2865.714480
793.790241	2865.785056
794.112375	2868.608102
794.434464	2881.445401
794.756507	2886.010165
795.078505	2891.676422
795.400457	2903.979358
795.722364	2939.895059
796.044226	2965.675520
796.366042	2966.383802
796.687812	2957.196299
797.009538	2981.512304
797.331218	2966.489666
797.652852	2948.333950
797.974442	2932.567742
798.295986	2929.538008
798.617484	2923.445774
798.938938	2910.253074
799.260346	2893.970147
799.581709	2886.935217
799.903026	2881.271481
800.224299	2876.643702
800.545526	2870.009543
800.866708	2853.356091
801.187845	2838.494770
801.508936	2844.443331
801.829983	2847.934330
802.150984	2835.966631
802.471940	2821.559013
802.792851	2824.639158
803.113717	2824.351813
803.434538	2828.299036
803.755314	2823.283088
804.076045	2815.764207
804.396731	2815.857468
804.717372	2814.400575
805.037967	2811.864875
805.358518	2818.221770
805.679024	2829.453460
805.999485	2825.327276
806.319901	2829.445899
806.640272	2821.072542
806.960598	2826.726196
807.280879	2837.781447
807.601115	2843.591376
807.921306	2828.291474
808.241453	2827.434478
808.561554	2832.092504
808.881611	2832.223574
809.201623	2831.038903
809.521590	2826.249807
809.841513	2825.042451
810.161390	2825.662513
810.481223	2823.046154
810.801011	2811.693475
811.120755	2807.098464
811.440453	2809.671973
811.760107	2810.685245
812.079716	2809.382106
812.399281	2797.815179
812.718801	2792.602626
813.038276	2789.772018
813.357707	2792.635393
813.677093	2800.187042
813.996434	2793.915846
814.315731	2791.148253
814.634983	2785.247582
814.954191	2789.736730
815.273354	2802.430355
815.592473	2811.053249
815.911547	2810.876808
816.230577	2820.757470
816.549562	2829.831547
816.868502	2826.249807
817.187399	2836.947136
817.506250	2852.640247
817.825058	2847.233610
818.143821	2859.728110
818.462539	2872.182280
818.781213	2900.387536
819.099843	2933.800304
819.418429	2990.074704
819.736970	3052.690876
820.055466	3122.712503
820.373919	3228.478431
820.692327	3363.667054
821.010691	3529.498330
821.329011	3965.628714
821.647286	4850.565463
821.965517	6206.154418
822.283704	6916.689929
822.601847	6895.738893
822.919945	6278.265603
823.237999	5783.209172
823.556010	5211.393612
823.873976	4669.285571
824.191897	4269.703553
824.509775	3980.200169
824.827609	3718.473544
825.145398	3595.653392
825.463144	3586.425560
825.780845	3679.578522
826.098502	3783.746404
826.416116	4062.197057
826.733685	4371.179459
827.051210	4428.799847
827.368692	4312.563443
827.686129	4050.887229
828.003522	3733.014752
828.320872	3480.647029
828.638177	3294.736837
828.955439	3157.093172
829.272656	3077.841193
829.589830	3009.929289
829.906960	2960.984726
830.224046	2917.454363
830.541088	2887.204919
830.858086	2867.725900
831.175041	2853.030937
831.491952	2854.530680
831.808819	2866.964686
832.125642	2890.126268
832.442421	2934.909358
832.759157	3013.407685
833.075849	3187.821526
833.392497	3465.589103
833.709101	3665.095287
834.025662	3616.022174
834.342179	3456.504943
834.658653	3284.954478
834.975083	3138.163640
835.291469	3041.106305
835.607811	2964.447999
835.924110	2904.385171
836.240366	2849.857531
836.556578	2811.287662
836.872746	2788.965433
837.188871	2766.441558
837.504952	2751.928076
837.820990	2743.610172
838.136984	2729.817575
838.452935	2722.840618
838.768842	2719.863817
839.084706	2740.802249
839.400526	2814.917293
839.716303	2946.763631
840.032037	3023.270702
840.347727	3007.449041
840.663373	2950.751184
840.978977	2876.754607
841.294537	2804.106539
841.610054	2758.063160
841.925527	2738.982393
842.240957	2717.159238
842.556344	2694.789118
842.871687	2679.751356
843.186987	2671.874553
843.502244	2666.846002
843.817458	2661.207471
844.132629	2650.709268
844.447756	2641.443628
844.762840	2633.861732
845.077881	2633.634880
845.392879	2634.133955
845.707833	2630.038017
846.022745	2623.350927
846.337613	2630.438789
846.652438	2624.462501
846.967221	2628.490383
847.281960	2623.940742
847.596656	2622.317490
847.911309	2623.234980
848.225919	2618.912191
848.540485	2616.903291
848.855009	2615.837087
849.169490	2616.714247
849.483928	2617.273816
849.798323	2614.924638
850.112675	2614.861623
850.426984	2613.500512
850.741251	2612.252826
851.055474	2613.992024
851.369654	2619.479320
851.683792	2616.840276
851.997887	2614.644854
852.311938	2614.528907
852.625947	2616.815071
852.939914	2619.202057
853.253837	2617.190637
853.567718	2612.648557
853.881555	2612.656119
854.195350	2617.462859
854.509103	2617.672067
854.822812	2614.405399
855.136479	2612.595625
855.450103	2614.967488
855.763685	2615.700976
856.077224	2614.962447
856.390720	2612.772065
856.704173	2614.402878
857.017584	2617.142746
857.330953	2621.715072
857.644278	2620.689197
857.957561	2622.723303
858.270802	2615.930348
858.584000	2615.320368
858.897155	2621.140381
859.210268	2624.459980
859.523339	2619.111316
859.836367	2610.758124
860.149352	2610.415326
860.462295	2613.946654
860.775195	2611.622682
861.088054	2610.097733
861.400869	2609.248299
861.713642	2607.768720
862.026373	2608.759307
862.339062	2610.463217
862.651708	2615.315327
862.964312	2615.947992
863.276873	2616.053856
863.589392	2618.614762
863.901869	2622.083076
864.214303	2628.109776
864.526696	2629.702780
864.839045	2631.472225
865.151353	2633.460961
865.463619	2633.458440
865.775842	2634.779222
866.088023	2632.656897
866.400162	2632.238481
866.712258	2634.469191
867.024313	2632.062040
867.336325	2626.882255
867.648296	2633.410549
867.960224	2634.476753
868.272110	2633.201341
868.583954	2627.880403
868.895755	2630.441309
869.207515	2634.391053
869.519233	2640.400109
869.830909	2638.035808
870.142542	2633.408028
870.454134	2635.699233
870.765684	2638.706281
871.077191	2641.294914
871.388657	2646.129380
871.700081	2643.392034
872.011463	2641.667959
872.322803	2644.312044
872.634101	2647.619041
872.945357	2657.250166
873.256571	2659.243942
873.567744	2661.046154
873.878874	2655.407624
874.189963	2656.952737
874.501010	2662.248470
874.812015	2664.007832
875.122979	2664.610250
875.433900	2657.398880
875.744780	2655.636996
876.055618	2663.105466
876.366415	2668.058399
876.677169	2667.811383
876.987882	2659.233860
877.298554	2658.843170
877.609183	2667.944973
877.919771	2676.099040
878.230317	2685.589012
878.540822	2694.383305
878.851285	2706.771940
879.161707	2729.358830
879.472087	2764.904006
879.782425	2810.387817
880.092722	2920.849580
880.402977	3104.899586
880.713191	3356.846373
881.023363	3640.275166
881.333494	3821.701251
881.643583	3991.499916
881.953631	3988.883557
882.263637	3815.180519
882.573602	3602.552211
882.883526	3474.824496
883.193408	3366.510265
883.503248	3265.775408
883.813048	3156.906650
884.122806	3042.890873
884.432522	2962.577731
884.742197	2903.374420
885.051831	2866.649614
885.361424	2832.762978
885.670975	2796.012966
885.980485	2768.155550
886.289954	2750.579567
886.599382	2738.611868
886.908768	2728.214488
887.218113	2704.649615
887.527417	2695.068902
887.836680	2689.498427
888.145901	2683.249917
888.455082	2673.618792
888.764221	2665.522699
889.073319	2656.035247
889.382376	2658.036586
889.691392	2658.949034
890.000366	2656.831750
890.309300	2653.938127
890.618193	2657.275371
890.927044	2659.695125
891.235855	2661.338541
891.544625	2660.874755
891.853353	2659.826195
892.162041	2666.014212
892.470687	2686.859383
892.779293	2698.504448
893.087858	2704.672300
893.396381	2728.663151
893.704864	2768.228647
894.013306	2837.640294
894.321707	2927.259407
894.630068	2971.382106
894.938387	2993.573265
895.246665	2984.690752
895.554903	2940.358845
895.863100	2902.099008
896.171256	2845.549865
896.479371	2787.364867
896.787446	2749.062180
897.095480	2730.757750
897.403473	2725.494786
897.711425	2709.030377
898.019336	2695.202492
898.327207	2680.205060
898.635038	2678.622137
898.942827	2674.067455
899.250576	2667.645025
899.558284	2656.872079
899.865952	2650.580719
900.173579	2651.039464
900.481165	2650.028713
900.788711	2639.243164
901.096216	2632.485497
901.403681	2628.084570
901.711105	2630.111114
902.018489	2631.005919
902.325832	2630.398460
902.633135	2636.137813
902.940397	2649.433857
903.247619	2685.735205
903.554800	2750.874475
903.861941	2870.866539
904.169041	2992.953203
904.476101	3052.474107
904.783121	3042.921120
905.090100	2992.988491
905.397039	2918.671801
905.703938	2847.599094
906.010796	2788.814199
906.317614	2739.980541
906.624391	2703.212886
906.931129	2679.277487
907.237826	2658.389466
907.544483	2641.181488
907.851099	2629.614560
908.157675	2617.619135
908.464211	2612.590584
908.770707	2602.619181
909.077163	2597.953593
909.383578	2589.744074
909.689954	2596.680702
909.996289	2592.554518
910.302584	2591.112748
910.608839	2586.268199
910.915054	2588.647623
911.221229	2593.303129
911.527363	2593.300608
911.833458	2591.127871
912.139513	2592.287337
912.445527	2592.546956
912.751502	2598.601382
913.057436	2602.846033
913.363331	2608.492126
913.669186	2616.361367
913.975000	2634.355765
914.280775	2648.163486
914.586510	2666.636794
914.892205	2699.711804
915.197859	2765.609767
915.503475	2846.563137
915.809050	2908.160995
916.114585	2921.293201
916.420081	2930.952052
916.725536	2940.313475
917.030952	2922.868562
917.336328	2877.508259
917.641665	2829.433296
917.946961	2779.367076
918.252218	2748.003538
918.557435	2720.599825
918.862612	2701.072916
919.167750	2683.091120
919.472848	2669.212824
919.777906	2653.343271
920.082925	2643.273567
920.387904	2630.726135
920.692843	2630.204375
920.997743	2623.605505
921.302603	2615.637961
921.607423	2609.268463
921.912204	2603.854264
922.216946	2601.908379
922.521647	2601.187494
922.826310	2597.668768
923.130932	2593.729107
923.435516	2588.319948
923.740059	2585.978332
924.044564	2583.830801
924.349028	2583.435070
924.653454	2575.550706
924.957840	2571.621126
925.262186	2568.745148
925.566493	2570.484346
925.870761	2569.478636
926.174989	2569.740776
926.479178	2566.920250
926.783328	2564.850857
927.087438	2564.795404
927.391509	2563.643500
927.695541	2562.864642
927.999533	2560.225598
928.303486	2558.844322
928.607400	2560.391956
928.911275	2559.532439
929.215110	2558.188972
929.518906	2559.040927
929.822663	2559.562686
930.126381	2559.139229
930.430060	2561.576627
930.733699	2562.002605
931.037299	2561.027142
931.340861	2558.226781
931.644383	2563.300702
931.947866	2561.480845
932.251309	2561.480845
932.554714	2560.482697
932.858080	2560.182748
933.161407	2561.314487
933.464694	2557.679815
933.767943	2556.061605
934.071153	2556.837943
934.374323	2555.013045
934.677455	2555.292829
934.980548	2554.876934
935.283602	2555.181924
935.586617	2557.747871
935.889593	2555.779300
936.192530	2557.306770
936.495428	2555.350802
936.798287	2557.379867
937.101108	2558.955227
937.403890	2561.853891
937.706632	2561.226267
938.009336	2571.621126
938.312002	2568.697257
938.614628	2571.643812
938.917216	2576.531210
939.219765	2576.357290
939.522275	2577.710840
939.824747	2577.365521
940.127179	2571.739593
940.429573	2570.990982
940.731929	2571.593400
941.034246	2565.186093
941.336524	2567.724314
941.638763	2569.748338
941.940964	2567.804973
942.243126	2567.762123
942.545250	2564.787842
942.847335	2563.716597
943.149381	2565.964952
943.451389	2561.503531
943.753359	2562.206772
944.055290	2559.096380
944.357182	2558.688046
944.659036	2559.512275
944.960851	2560.510423
945.262628	2561.392625
945.564367	2557.609239
945.866067	2557.203426
946.167729	2560.384394
946.469352	2560.701987
946.770937	2559.741647
947.072484	2558.743499
947.373992	2557.876420
947.675462	2556.827860
947.976893	2557.790721
948.278286	2556.041440
948.579641	2557.248797
948.880958	2556.331307
949.182236	2555.834753
949.483476	2556.399362
949.784678	2556.049002
950.085841	2554.259392
950.386967	2556.754764
950.688054	2554.597150
950.989103	2554.970195
951.290114	2556.427089
951.591087	2560.621329
951.892021	2559.134188
952.192917	2564.578634
952.493776	2563.290620
952.794596	2566.043090
953.095378	2563.913202
953.396122	2567.321022
953.696828	2561.311967
953.997496	2563.177194
954.298126	2560.069322
954.598718	2557.725186
954.899272	2557.442881
955.199788	2557.868859
955.500266	2556.139743
955.800706	2555.900288
956.101108	2545.255892
956.401472	2549.286294
956.701798	2546.712785
957.002087	2546.259081
957.302337	2548.570450
957.602550	2550.733105
957.902724	2546.417878
958.202861	2547.284956
958.502960	2547.542055
958.803022	2548.620862
959.103045	2545.139945
959.403031	2544.282949
959.702979	2546.387631
960.002889	2544.645912
960.302762	2546.233876
960.602596	2543.065510
960.902393	2544.403937
961.202153	2542.488298
961.501875	2544.091385
961.801559	2542.926879
962.101205	2543.204142
962.400814	2542.027033
962.700385	2544.224976
962.999918	2547.524411
963.299414	2545.119781
963.598873	2543.095757
963.898293	2543.872095
964.197677	2543.935109
964.497022	2543.047866
964.796331	2543.499050
965.095601	2540.368493
965.394835	2543.277239
965.694030	2543.864533
965.993189	2542.301776
966.292309	2542.505942
966.591393	2539.869419
966.890439	2540.993596
967.189447	2541.200283
967.488419	2544.038453
967.787353	2542.833617
968.086249	2542.029553
968.385108	2540.665921
968.683930	2542.667259
968.982714	2542.190870
969.281462	2539.685417
969.580172	2545.172713
969.878844	2540.028215
970.177480	2544.986190
970.476078	2544.030891
970.774639	2543.393185
971.073162	2541.187681
971.371649	2538.755324
971.670098	2540.623071
971.968510	2540.789429
972.266885	2538.576363
972.565223	2540.597866
972.863524	2543.589790
973.161788	2542.180788
973.460014	2545.850748
973.758204	2541.659028
974.056356	2544.713968
974.354471	2542.934440
974.652550	2544.227496
974.950591	2543.337733
975.248595	2540.983514
975.546563	2544.230017
975.844493	2543.597352
976.142386	2539.995448
976.440243	2542.102650
976.738062	2543.768751
977.035845	2545.165151
977.333590	2540.527289
977.631299	2543.662887
977.928971	2543.829245
978.226606	2538.536034
978.524204	2539.945036
978.821765	2541.706919
979.119290	2541.361600
979.416777	2541.248174
979.714228	2542.016950
980.011642	2545.268495
980.309020	2543.922507
980.606360	2541.107022
980.903664	2543.904863
981.200931	2542.074924
981.498162	2544.991231
981.795356	2543.594832
982.092513	2549.006510
982.389633	2551.532128
982.686717	2553.581357
982.983764	2554.145967
983.280775	2559.040927
983.577749	2554.274516
983.874686	2556.427089
984.171587	2553.057077
984.468451	2549.709751
984.765279	2546.246478
985.062070	2545.472661
985.358824	2545.797816
985.655543	2543.506611
985.952224	2543.557023
986.248869	2544.666077
986.545478	2538.447813
986.842050	2540.073586
987.138586	2538.188194
987.435086	2540.043339
987.731549	2538.339429
988.027975	2539.166178
988.324366	2538.344470
988.620719	2537.525282
988.917037	2537.305992
989.213318	2540.565098
989.509563	2537.058976
989.805772	2541.172557
990.101944	2539.327495
990.398080	2538.788091
990.694180	2537.852957
990.990244	2537.971424
991.286271	2538.162988
991.582262	2537.885725
991.878217	2538.120138
992.174136	2537.210210
992.470019	2536.653163
992.765865	2539.564429
993.061676	2537.356404
993.357450	2539.128369
993.653188	2537.928575
993.948890	2539.120808
994.244556	2538.977135
994.540186	2537.641229
994.835780	2542.611807
995.131337	2538.883873
995.426859	2541.603576
995.722345	2540.764224
996.017795	2544.287990
996.313208	2544.189688
996.608586	2540.693648
996.903928	2542.858823
997.199234	2543.592311
997.494504	2541.069213
997.789738	2542.218597
998.084936	2541.495191
998.380099	2539.609799
998.675225	2541.573329
998.970316	2540.123997
999.265371	2540.839841
999.560390	2538.488143
999.855373	2538.442772
1000.150320	2539.483771
1000.445232	2537.565612
1000.740108	2536.275076
1001.034948	2539.022505
1001.329752	2538.410005
1001.624521	2538.440252
1001.919254	2534.863553
1002.213951	2536.605272
1002.508613	2534.001516
1002.803239	2536.839685
1003.097829	2535.100487
1003.392384	2535.642411
1003.686903	2538.253729
1003.981386	2539.272042
1004.275834	2538.110056
1004.570246	2537.857998
1004.864623	2535.592000
1005.158964	2536.471681
1005.453270	2537.852957
1005.747540	2537.283307
1006.041775	2539.622402
1006.335974	2537.825231
1006.630138	2536.017977
1006.924266	2539.798843
1007.218359	2535.801208
1007.512416	2538.934285
1007.806438	2537.996630
1008.100425	2536.524613
1008.394376	2534.586290
1008.688292	2537.701723
1008.982172	2534.790456
1009.276017	2537.500077
1009.569827	2537.482433
1009.863602	2535.919675
1010.157341	2536.600231
1010.451045	2539.337577
1010.744714	2533.464633
1011.038347	2533.005888
1011.331945	2537.474871
1011.625508	2534.692154
1011.919036	2537.737011
1012.212528	2537.890766
1012.505986	2536.446475
1012.799408	2535.259284
1013.092795	2536.149047
1013.386147	2534.218285
1013.679464	2536.106198
1013.972745	2535.939839
1014.265992	2534.765251
1014.559204	2537.351362
1014.852380	2536.272556
1015.145521	2535.007226
1015.438628	2536.416228
1015.731699	2537.777340
1016.024736	2535.849099
1016.317737	2535.932278
1016.610703	2536.600231
1016.903635	2533.421783
1017.196531	2531.445651
1017.489393	2534.147709
1017.782219	2533.560415
1018.075011	2533.762061
1018.367768	2535.208872
1018.660490	2535.395395
1018.953177	2535.395395
1019.245829	2535.395395
