Dividing Wavelength (nm)	Counts (n)	Blue Motor Position (mm): 25.200000	Red Motor Position (mm): 0.000000	
326.493990	2132.070320
326.888308	2132.070320
327.282561	2132.070320
327.676750	2097.024218
328.070874	2098.148395
328.464933	2101.467995
328.858929	2109.702720
329.252859	2117.080449
329.646726	2128.755761
330.040528	2139.190949
330.434265	2159.330359
330.827938	2176.913904
331.221547	2192.584330
331.615091	2213.127032
332.008571	2232.573283
332.401986	2252.717734
332.795338	2271.916968
333.188625	2292.631070
333.581847	2308.359470
333.975006	2327.631801
334.368100	2347.002434
334.761129	2365.863912
335.154095	2379.288504
335.546996	2402.228275
335.939833	2424.132088
336.332606	2439.565581
336.725315	2450.923300
337.117960	2462.482666
337.510540	2468.688327
337.903056	2479.317599
338.295508	2488.525267
338.687896	2495.908037
339.080220	2504.077227
339.472480	2507.868174
339.864676	2512.150634
340.256807	2519.369567
340.648875	2522.482479
341.040879	2523.105062
341.432818	2526.495238
341.824694	2529.053623
342.216506	2527.127902
342.608253	2529.681247
342.999937	2528.141174
343.391557	2525.088756
343.783113	2526.021369
344.174605	2525.718900
344.566033	2525.439116
344.957397	2523.364681
345.348697	2521.955679
345.739934	2520.891995
346.131106	2517.557272
346.522215	2517.373270
346.913260	2513.080727
347.304241	2516.173475
347.695159	2511.444873
348.086012	2510.227434
348.476802	2507.051507
348.867528	2507.119563
349.258191	2502.549757
349.648789	2503.578152
350.039324	2500.157729
350.429796	2501.841475
350.820203	2501.037411
351.210548	2497.775784
351.600828	2494.710763
351.991045	2495.872749
352.381198	2495.189672
352.771288	2495.716473
353.161314	2495.489621
353.551276	2494.952738
353.941175	2493.619353
354.331010	2496.238232
354.720782	2492.396873
355.110490	2494.488952
355.500135	2495.308139
355.889717	2493.715135
356.279235	2497.185969
356.668689	2498.345435
357.058080	2494.864518
357.447408	2491.101297
357.836672	2496.444920
358.225873	2493.808396
358.615010	2492.941318
359.004084	2494.940135
359.393095	2498.108500
359.782043	2501.024808
360.170927	2499.709067
360.559748	2497.884169
360.948505	2500.624036
361.337199	2499.704026
361.725830	2504.122597
362.114398	2502.847185
362.502903	2500.573625
362.891344	2501.846516
363.279722	2501.733090
363.668037	2504.331805
364.056289	2502.083450
364.444478	2503.963801
364.832603	2505.120745
365.220665	2503.222751
365.608665	2505.206445
365.996601	2507.187618
366.384474	2505.559326
366.772284	2510.250119
367.160031	2508.911693
367.547715	2507.154851
367.935336	2506.859943
368.322893	2504.709891
368.710388	2508.926817
369.097820	2510.648371
369.485189	2511.485202
369.872495	2508.841117
370.259738	2507.618637
370.646918	2509.748525
371.034035	2506.318019
371.421090	2508.611744
371.808081	2510.817249
372.195010	2512.241375
372.581875	2512.995028
372.968678	2509.544358
373.355418	2513.133659
373.742096	2512.143073
374.128710	2511.586025
374.515262	2511.649040
374.901751	2510.234996
375.288177	2511.253309
375.674540	2512.682476
376.060841	2509.882115
376.447079	2512.584174
376.833254	2511.752383
377.219367	2507.573267
377.605417	2511.182733
377.991404	2511.976715
378.377329	2513.337826
378.763191	2510.177023
379.148991	2515.523166
379.534727	2512.488392
379.920402	2513.201715
380.306013	2516.634741
380.691563	2517.501819
381.077049	2514.983763
381.462474	2515.553413
381.847835	2516.816222
382.233134	2515.893691
382.618371	2513.605007
383.003545	2515.220697
383.388657	2519.162879
383.773706	2517.743795
384.158693	2518.081552
384.543618	2518.474762
384.928480	2518.333610
385.313280	2518.038702
385.698017	2516.992663
386.082692	2518.066428
386.467305	2518.426871
386.851856	2520.287057
387.236344	2519.803106
387.620770	2521.310411
388.005133	2520.251769
388.389435	2522.411903
388.773674	2521.416275
389.157851	2517.610204
389.541965	2520.276974
389.926018	2522.868127
390.310008	2517.516943
390.693936	2521.875020
391.077802	2521.643127
391.461606	2520.125740
391.845348	2523.221008
392.229027	2521.973323
392.612645	2522.046419
392.996200	2521.547345
393.379694	2521.786800
393.763125	2521.814526
394.146494	2522.537932
394.529801	2525.643283
394.913047	2523.344517
395.296230	2525.212264
395.679351	2525.292923
396.062410	2523.546163
396.445408	2523.218488
396.828343	2524.113293
397.211217	2524.398118
397.594028	2523.309228
397.976778	2522.469876
398.359466	2522.699249
398.742092	2523.412572
399.124656	2525.910464
399.507158	2524.922398
399.889598	2527.737882
400.271977	2525.865093
400.654294	2527.057326
401.036549	2526.570855
401.418742	2531.420445
401.800874	2527.211082
402.182944	2527.841226
402.564952	2525.368540
402.946898	2528.768798
403.328783	2528.811648
403.710606	2526.225536
404.092367	2530.303829
404.474067	2525.623118
404.855705	2528.292409
405.237282	2526.510361
405.618797	2525.673530
406.000250	2531.279293
406.381642	2529.227543
406.762972	2529.892975
407.144240	2529.754344
407.525447	2529.829961
407.906593	2526.747295
408.287677	2531.349869
408.668700	2530.911288
409.049661	2531.160826
409.430560	2529.260311
409.811399	2533.784746
410.192176	2532.889941
410.572891	2528.632687
410.953545	2532.431196
411.334138	2533.930940
411.714669	2532.400949
412.095139	2531.853984
412.475547	2530.908768
412.855894	2531.740558
413.236180	2532.116124
413.616405	2530.560928
413.996568	2534.737524
414.376670	2533.131917
414.756711	2535.347504
415.136691	2533.320960
415.516609	2534.130065
415.896466	2533.434386
416.276262	2533.265507
416.655997	2530.500434
417.035670	2529.714014
417.415283	2533.646114
417.794834	2531.347348
418.174324	2536.113759
418.553753	2537.868081
418.933121	2533.787267
419.312428	2534.377082
419.691674	2535.647453
420.070859	2535.733152
420.449983	2535.773481
420.829045	2536.630477
421.208047	2532.862215
421.586988	2536.451517
421.965867	2537.026208
422.344686	2536.423790
422.723444	2537.053934
423.102141	2537.119469
423.480777	2538.599048
423.859352	2537.283307
424.237866	2539.614841
424.616319	2536.446475
424.994712	2538.341949
425.373044	2538.846065
425.751314	2537.694161
426.129524	2537.283307
426.507673	2539.826569
426.885762	2537.033770
427.263789	2541.240613
427.641756	2538.757844
428.019662	2541.792619
428.397508	2539.597197
428.775292	2541.038967
429.153016	2540.408822
429.530679	2537.764737
429.908282	2539.791281
430.285824	2538.949408
430.663305	2541.853113
431.040726	2541.071734
431.418086	2541.948895
431.795385	2542.110212
432.172624	2540.749100
432.549802	2541.820345
432.926920	2540.993596
433.303977	2544.356046
433.680974	2541.873278
434.057910	2543.128525
434.434786	2543.751107
434.811601	2544.177085
435.188355	2544.482075
435.565050	2543.771272
435.941683	2546.669935
436.318257	2541.659028
436.694770	2540.469316
437.071222	2543.199101
437.447614	2544.146838
437.823946	2542.241282
438.200218	2545.180274
438.576429	2546.385110
438.952580	2543.413350
439.328670	2545.671787
439.704700	2546.427960
440.080670	2548.252858
440.456580	2545.868392
440.832429	2549.429967
441.208218	2549.273691
441.583947	2548.497354
441.959616	2551.360729
442.335224	2546.556509
442.710773	2547.385779
443.086261	2550.193702
443.461689	2547.317724
443.837057	2549.966850
444.212365	2548.255378
444.587612	2552.966337
444.962800	2551.655637
445.337927	2550.352498
445.712995	2551.159083
446.088002	2552.752088
446.462949	2556.359033
446.837837	2554.766028
447.212664	2556.069167
447.587431	2559.910526
447.962139	2561.029662
448.336786	2566.511917
448.711374	2567.273131
449.085901	2566.826989
449.460369	2567.174829
449.834776	2567.472257
450.209124	2574.739080
450.583412	2582.013465
450.957640	2583.578743
451.331808	2585.827098
451.705917	2585.315421
452.079965	2588.829105
452.453954	2597.169694
452.827883	2600.602720
453.201752	2606.820983
453.575562	2608.741663
453.949311	2618.513939
454.323001	2623.131636
454.696632	2631.126906
455.070202	2642.529996
455.443713	2655.271513
455.817164	2664.413645
456.190556	2674.874039
456.563888	2684.542972
456.937160	2694.902544
457.310373	2696.699715
457.683526	2708.690099
458.056619	2716.821481
458.429653	2726.339179
458.802628	2738.458113
459.175542	2752.212901
459.548398	2786.868313
459.921194	2809.757672
460.293930	2830.514623
460.666607	2889.226422
461.039224	2932.255190
461.411782	2960.407514
461.784280	2980.171358
462.156719	2988.920280
462.529099	3001.777743
462.901419	2992.446567
463.273680	3002.385202
463.645882	3023.409334
464.018024	3046.525545
464.390106	3084.268664
464.762130	3151.106802
465.134094	3248.786720
465.505999	3437.081378
465.877845	3646.337153
466.249631	3765.378960
466.621358	3746.255343
466.993026	3699.541491
467.364634	3696.998229
467.736184	3687.397351
468.107674	3686.189995
468.479105	3752.753390
468.850477	3747.989500
469.221790	3759.286726
469.593043	3743.144951
469.964238	3776.774488
470.335373	3826.722241
470.706449	3885.406312
471.077467	3938.955969
471.448425	4303.814520
471.819324	4630.269561
472.190164	4688.406667
472.560945	4444.256025
472.931667	4309.198472
473.302330	4327.981812
473.672934	4294.092655
474.043479	4451.694248
474.413965	4493.916432
474.784393	4526.018499
475.154761	4633.228718
475.525070	4730.061722
475.895321	4736.040530
476.265513	4859.135425
476.635645	4984.390454
477.005719	5067.632507
477.375734	5173.685781
477.745691	5335.476572
478.115588	5462.916942
478.485427	5649.167412
478.855207	5941.176248
479.224928	6388.808024
479.594591	6747.496203
479.964194	6756.973572
480.333739	6821.328942
480.703226	6897.034470
481.072653	7027.988523
481.442022	7249.101093
481.811333	7429.518948
482.180584	7431.847961
482.549777	7386.717031
482.918912	7378.084055
483.287988	7490.779049
483.657005	7576.589570
484.025964	7496.964545
484.394864	7660.983527
484.763706	7746.355467
485.132489	7680.268461
485.501213	7749.702793
485.869879	7873.778192
486.238487	7875.323306
486.607036	8010.615272
486.975527	7970.432235
487.343959	8164.322574
487.712333	8282.169627
488.080648	8307.052763
488.448905	8421.161800
488.817104	8452.555586
489.185244	8716.787665
489.553326	8910.940143
489.921350	9361.233649
490.289315	10184.630513
490.657222	10496.466207
491.025070	10531.817298
491.392861	10522.123160
491.760593	10342.353093
492.128267	10172.761116
492.495883	9992.544907
492.863440	9795.294639
493.230939	9604.943191
493.598380	9614.549109
493.965763	9570.658303
494.333088	9539.730824
494.700354	9541.228047
495.067563	9632.737592
495.434713	9549.538389
495.801805	9709.718532
496.168839	9689.049801
496.535815	9689.221201
496.902733	9733.101924
497.269593	9723.372497
497.636395	9848.761117
498.003139	9891.933558
498.369825	9806.405342
498.736453	9990.571295
499.103023	9958.655750
499.469535	10028.642089
499.835989	10051.284432
500.202385	10062.858921
500.568723	9951.711561
500.935003	10180.446355
501.301226	10043.967197
501.667390	10304.330190
502.033497	10428.481206
502.399546	10326.783489
502.765537	10264.492472
503.131470	10361.348161
503.497345	10546.035873
503.863163	10206.809069
504.228923	10518.032263
504.594625	10599.593091
504.960269	10389.024095
505.325856	10612.125400
505.691385	10435.775756
506.056856	10603.129461
506.422270	10643.625050
506.787625	10555.251102
507.152924	10677.665441
507.518164	10677.272231
507.883347	10605.834040
508.248472	10543.868177
508.613540	10786.025043
508.978550	10678.703919
509.343503	10674.378609
509.708398	10795.247834
510.073236	10917.929354
510.438016	10929.188771
510.802738	10892.262319
511.167403	10950.676689
511.532010	10848.086688
511.896561	11090.989645
512.261053	11167.506798
512.625488	11040.263034
512.989866	11025.570591
513.354186	11021.146979
513.718449	10931.227918
514.082655	11134.005811
514.446803	11023.165961
514.810894	11159.541775
515.174927	11026.477999
515.538904	11056.528317
515.902822	11205.622963
516.266684	11095.327558
516.630488	11038.554083
516.994235	11095.146076
517.357925	11155.760910
517.721558	11246.892369
518.085133	11273.933118
518.448651	11287.350149
518.812112	11170.347489
519.175516	11180.366782
519.538863	11304.222891
519.902152	11226.861344
520.265385	11386.040818
520.628560	11296.895574
520.991678	11283.544078
521.354739	11340.423417
521.717743	11278.669282
522.080690	11256.765468
522.443580	11389.773792
522.806413	11355.390602
523.169189	11386.126517
523.531908	11441.891761
523.894569	11262.426684
524.257174	11263.341654
524.619722	11386.980993
524.982213	11330.573002
525.344647	11388.344625
525.707025	11338.535504
526.069345	11434.715679
526.431608	11352.789367
526.793815	11455.951539
527.155964	11249.745662
527.518057	11308.961575
527.880093	11256.349573
528.242072	11314.234622
528.603995	11227.761190
528.965860	11144.221709
529.327669	11199.447549
529.689421	11154.493060
530.051117	11120.200611
530.412755	11230.831253
530.774337	11116.631474
531.135862	11102.546490
531.497331	11120.293872
531.858743	10972.666202
532.220098	11141.900258
532.581396	11011.566266
532.942638	10997.957671
533.303824	10962.460386
533.664953	10972.913219
534.026025	10888.310054
534.387040	10988.928965
534.747999	10985.498459
535.108902	11050.970445
535.469748	10812.705350
535.830537	10910.264279
536.191270	10886.308716
536.551947	10913.369630
536.912567	10914.730742
537.273131	10840.885400
537.633638	10817.736421
537.994089	10808.243928
538.354483	10756.095713
538.714821	10900.681046
539.075103	10909.303940
539.435328	10875.079546
539.795497	10701.356343
540.155609	10856.263439
540.515665	10944.647469
540.875665	10681.237098
541.235609	10750.411812
541.595496	10746.094063
541.955328	10902.526108
542.315102	10781.261153
542.674821	10736.168031
543.034483	10737.977806
543.394090	10739.079298
543.753640	10670.519605
544.113134	10892.968081
544.472571	10754.815259
544.831953	10886.366690
545.191278	10698.031702
545.550548	10722.486340
545.909761	10857.785868
546.268918	10835.564462
546.628019	10920.013871
546.987064	10780.492377
547.346053	10707.030162
547.704986	10804.395007
548.063863	10790.723398
548.422684	10785.578901
548.781449	10699.173524
549.140158	10801.869389
549.498811	10673.173773
549.857408	10538.489266
550.215949	10766.661971
550.574434	10613.191604
550.932864	10713.308919
551.291237	10767.266909
551.649555	10718.140865
552.007817	10735.555531
552.366022	10699.695283
552.724173	10690.926196
553.082267	10678.106542
553.440305	10813.461523
553.798288	10613.264701
554.156215	10765.620973
554.514086	10737.531663
554.871902	10589.868706
555.229661	10626.359098
555.587365	10605.897054
555.945014	10503.115489
556.302606	10625.040836
556.660143	10519.519404
557.017625	10667.852835
557.375050	10575.264483
557.732421	10706.677281
558.089735	10619.518252
558.446994	10623.992276
558.804197	10653.961936
559.161345	10652.840279
559.518437	10503.846456
559.875474	10597.342216
560.232455	10627.962185
560.589381	10575.239277
560.946251	10571.692825
561.303065	10675.175111
561.659825	10614.721594
562.016528	10542.675944
562.373177	10422.293190
562.729770	10533.012052
563.086307	10451.239495
563.442789	10544.173167
563.799216	10428.614797
564.155587	10468.477721
564.511904	10429.464231
564.868164	10420.551471
565.224370	10431.775600
565.580520	10355.785247
565.936615	10363.039468
566.292654	10233.617925
566.648638	10371.246466
567.004567	10319.257047
567.360441	10310.389657
567.716260	10218.476819
568.072023	10308.025356
568.427732	10268.643862
568.783385	10171.853708
569.138982	10239.201003
569.494525	10263.506926
569.850013	10135.275096
570.205445	10224.168282
570.560823	10108.937587
570.916145	10028.700062
571.271412	10097.315207
571.626625	10049.762003
571.981782	10023.343836
572.336884	9994.589095
572.691931	10003.385908
573.046923	9944.716960
573.401860	9905.007791
573.756743	9835.389456
574.111570	9887.003310
574.466342	9868.406493
574.821059	9900.725331
575.175722	9785.540007
575.530330	9799.335124
575.884882	9788.705851
576.239380	9717.197084
576.593823	9695.961223
576.948211	9714.386641
577.302544	9586.147248
577.656823	9609.225651
578.011047	9609.679355
578.365216	9584.818904
578.719330	9503.805042
579.073389	9520.322382
579.427394	9473.636256
579.781344	9442.149209
580.135239	9394.308659
580.489080	9400.438702
580.842866	9301.125451
581.196597	9306.408580
581.550273	9347.277215
581.903895	9317.239499
582.257463	9380.974807
582.610975	9263.087425
582.964434	9281.868243
583.317837	9211.345022
583.671186	9190.774593
584.024481	9188.133029
584.377721	9105.649670
584.730906	9082.200742
585.084037	9108.558415
585.437113	9048.656905
585.790135	9072.617509
586.143103	8969.737641
586.496016	8941.504659
586.848874	8999.283844
587.201679	8986.028130
587.554428	8879.294300
587.907124	8924.304242
588.259765	8894.006908
588.612352	8896.782063
588.964884	8774.045090
589.317362	8790.685939
589.669786	8790.201988
590.022155	8834.095315
590.374470	8851.346143
590.726731	8790.393552
591.078937	8641.450141
591.431090	8760.902802
591.783188	8627.556721
592.135232	8619.957182
592.487222	8616.105740
592.839157	8678.356428
593.191038	8604.894214
593.542866	8550.149804
593.894639	8449.888816
594.246358	8501.011157
594.598022	8518.728292
594.949633	8416.153414
595.301190	8391.613077
595.652692	8420.181296
596.004141	8527.232718
596.355535	8310.311868
596.706876	8287.724979
597.058162	8221.453970
597.409395	8297.159498
597.760573	8360.431020
598.111698	8269.675127
598.462768	8251.466480
598.813785	8218.262920
599.164748	8188.764608
599.515657	8174.152824
599.866511	8089.814320
600.217312	8221.229639
600.568060	8077.239162
600.918753	8176.449069
601.269392	8151.538208
601.619978	8061.135196
601.970510	8125.271275
602.320988	8124.469732
602.671412	8175.219028
603.021783	8116.358515
603.372100	8087.203002
603.722363	8094.038807
604.072572	8065.914209
604.422728	8079.573216
604.772830	8007.048656
605.122878	8013.952516
605.472872	8011.479830
605.822813	8043.294552
606.172701	7978.190571
606.522534	8057.409783
606.872314	8054.639669
607.222041	8029.890124
607.571714	8078.489368
607.921333	8039.516207
608.270899	8047.771097
608.620411	8135.028429
608.969870	8042.195581
609.319276	8034.265846
609.668627	8045.676497
610.017926	8083.502795
610.367171	8130.486349
610.716362	8106.074562
611.065500	8097.411339
611.414585	8126.629866
611.763616	8114.682332
612.112594	8098.107018
612.461518	8107.440714
612.810389	8171.657453
613.159207	8115.055377
613.507971	8060.678971
613.856682	8178.616765
614.205340	8136.281155
614.553945	8211.225469
614.902496	8111.541693
615.250994	8168.093357
615.599439	8145.249368
615.947830	8156.460894
616.296169	8127.144064
616.644454	8147.187692
616.992686	8146.151735
617.340864	8198.360444
617.688990	8104.350487
618.037063	8198.045372
618.385082	8139.497412
618.733048	8226.321204
619.080961	8164.259559
619.428821	8189.230915
619.776628	8191.391049
620.124382	8138.859706
620.472083	8128.759754
620.819731	8154.338568
621.167326	8047.637506
621.514868	8055.801655
621.862357	7936.855630
622.209793	7959.974361
622.557176	7903.357162
622.904506	7863.950463
623.251783	7798.435627
623.599007	7749.733040
623.946179	7757.045234
624.293297	7715.916980
624.640363	7630.542519
624.987376	7616.397042
625.334336	7564.263949
625.681243	7513.996083
626.028097	7499.848085
626.374899	7475.501833
626.721647	7473.687017
627.068343	7405.699496
627.414987	7377.688325
627.761577	7331.816345
628.108115	7365.501335
628.454600	7263.259173
628.801032	7320.685478
629.147412	7275.229393
629.493739	7261.396467
629.840014	7198.200563
630.186236	7256.710715
630.532405	7139.166130
630.878521	7189.890220
631.224585	7150.493603
631.570597	7072.943013
631.916556	7105.284535
632.262462	7097.518638
632.608316	7060.367855
632.954117	7043.888323
633.299866	7026.405601
633.645562	7023.070878
633.991206	6938.495440
634.336797	6882.016873
634.682336	6846.532191
635.027823	6810.896274
635.373257	6801.159286
635.718639	6730.676393
636.063968	6742.386993
636.409245	6641.165665
636.754470	6641.397558
637.099642	6597.627740
637.444762	6537.151538
637.789829	6554.183076
638.134845	6493.149827
638.479808	6476.075439
638.824719	6480.151212
639.169577	6405.262351
639.514383	6428.953253
639.859137	6362.241144
640.203839	6368.804726
640.548489	6352.383167
640.893086	6326.837120
641.237632	6303.350384
641.582125	6322.068189
641.926566	6294.656915
642.270955	6304.560261
642.615292	6302.019520
642.959576	6317.601726
643.303809	6308.515047
643.647990	6311.973278
643.992118	6305.860879
644.336195	6250.990440
644.680219	6271.878461
645.024192	6268.281598
645.368112	6362.301637
645.711981	6381.662189
646.055797	6462.373582
646.399562	6421.106697
646.743274	6540.670263
647.086935	6595.666731
647.430544	6591.921154
647.774101	6617.618436
648.117606	6617.880576
648.461059	6610.797755
648.804460	6573.503298
649.147810	6478.832950
649.491108	6448.863290
649.834354	6425.984013
650.177548	6341.010324
650.520690	6257.798518
650.863781	6238.022072
651.206820	6252.883393
651.549807	6177.475293
651.892742	6121.221058
652.235626	6124.717098
652.578458	6112.361230
652.921238	6016.286920
653.263967	6057.049690
653.606644	5998.153889
653.949269	6002.582543
654.291843	5942.048368
654.634365	5992.454865
654.976836	5944.054747
655.319255	5940.294046
655.661622	5926.624958
656.003938	5924.190080
656.346203	5884.604420
656.688416	5914.687505
657.030577	5864.044074
657.372687	5838.099775
657.714746	5824.450851
658.056753	5862.050297
658.398708	5804.467718
658.740612	5796.951357
659.082465	5842.412483
659.424266	5837.250341
659.766016	5840.756463
660.107715	5806.590043
660.449362	5821.395912
660.790958	5822.683927
661.132503	5807.484848
661.473996	5847.438513
661.815438	5830.051573
662.156829	5832.304969
662.498168	5822.215100
662.839456	5798.078055
663.180693	5835.773283
663.521879	5834.255896
663.863013	5822.633515
664.204097	5843.579510
664.545129	5881.025200
664.886110	5879.351537
665.227040	5913.102062
665.567918	5876.878851
665.908746	5908.310446
666.249522	5908.050826
666.590248	5897.799640
666.930922	5922.367703
667.271545	5936.883706
667.612118	5937.501247
667.952639	5913.207927
668.293109	5932.117295
668.633528	5891.866202
668.973896	5897.242592
669.314213	5888.453341
669.654480	5868.888623
669.994695	5855.398495
670.334859	5851.758782
670.674973	5845.192679
671.015035	5848.270303
671.355047	5840.227142
671.695008	5826.870605
672.034918	5805.773376
672.374777	5817.980530
672.714585	5803.784641
673.054342	5805.022244
673.394049	5798.428415
673.733705	5827.856151
674.073310	5818.842568
674.412864	5777.593326
674.752368	5770.707110
675.091820	5773.056288
675.431223	5708.153953
675.770574	5714.130241
676.109875	5664.878167
676.449125	5666.302293
676.788324	5634.893384
677.127473	5579.972534
677.466571	5572.499023
677.805619	5559.253392
678.144616	5548.039345
678.483562	5525.901118
678.822458	5496.760728
679.161303	5489.083051
679.500098	5480.379498
679.838842	5461.273525
680.177535	5466.871727
680.516179	5481.912009
680.854771	5492.052290
681.193314	5574.114713
681.531805	5686.116549
681.870247	5838.966854
682.208638	5933.581750
682.546978	5948.231343
682.885268	5925.707468
683.223508	5840.353171
683.561697	5785.228154
683.899836	5754.487198
684.237925	5711.506320
684.575963	5673.337224
684.913951	5635.649557
685.251889	5694.928486
685.589776	5666.637530
685.927614	5636.314990
686.265401	5706.392069
686.603137	5691.871026
686.940824	5769.081338
687.278460	5789.455161
687.616046	5800.381862
687.953582	5865.226224
688.291068	5849.555798
688.628504	5913.790180
688.965889	5872.246031
689.303224	5818.885418
689.640510	5767.697541
689.977745	5697.290266
690.314930	5597.760245
690.652065	5539.988622
690.989150	5451.400426
691.326185	5376.236822
691.663170	5322.500642
692.000105	5244.627418
692.336990	5165.980377
692.673825	5144.399198
693.010610	5075.000153
693.347345	5012.510010
693.684030	4994.765148
694.020665	4950.400474
694.357251	4861.177092
694.693786	4872.809555
695.030272	4837.158515
695.366707	4806.735151
695.703093	4772.767857
696.039429	4791.755362
696.375716	4774.691057
696.711952	4747.370523
697.048139	4736.859718
697.384276	4717.131162
697.720363	4727.215990
698.056400	4741.119493
698.392388	4685.543292
698.728326	4671.400335
699.064214	4646.847395
699.400053	4638.264831
699.735842	4605.663689
700.071581	4583.364145
700.407270	4558.934713
700.742910	4542.061971
701.078501	4488.303107
701.414042	4480.816993
701.749533	4454.240030
702.084974	4386.832242
702.420366	4442.776446
702.755709	4392.818612
703.091002	4332.160928
703.426246	4379.787229
703.761440	4338.227957
704.096584	4305.256290
704.431679	4322.529804
704.766725	4308.810303
705.101721	4292.870175
705.436668	4327.220597
705.771565	4272.614819
706.106413	4302.332421
706.441212	4330.933407
706.775961	4342.911189
707.110661	4319.053928
707.445311	4347.259184
707.779913	4369.851115
708.114465	4383.210173
708.448967	4408.453750
708.783421	4469.628152
709.117825	4511.273124
709.452180	4510.166591
709.786485	4559.063263
710.120742	4643.542919
710.454949	4627.527173
710.789107	4694.307338
711.123216	4769.712917
711.457275	4760.981639
711.791286	4834.713555
712.125247	4852.687789
712.459159	4751.398405
712.793023	4828.762473
713.126837	4787.730001
713.460602	4778.131644
713.794318	4699.638358
714.127985	4705.092887
714.461602	4621.608858
714.795171	4596.728244
715.128691	4530.227863
715.462162	4472.705777
715.795584	4424.242644
716.128957	4404.035179
716.462281	4350.074668
716.795556	4330.565403
717.128782	4289.356491
717.461960	4221.063980
717.795088	4235.171649
718.128167	4191.432077
718.461198	4130.519815
718.794180	4127.933703
719.127113	4107.743882
719.459997	4088.443825
719.792833	4042.758368
720.125619	4035.385681
720.458357	4000.727748
720.791046	4002.313191
721.123686	3975.539623
721.456278	3937.763736
721.788821	3957.124288
722.121315	3930.562448
722.453761	3902.909199
722.786158	3916.086775
723.118506	3933.282151
723.450805	3891.138104
723.783056	3912.016043
724.115259	3925.473403
724.447412	3932.067232
724.779518	3928.629166
725.111574	3925.717899
725.443582	3959.705358
725.775542	3946.442083
726.107453	3995.132067
726.439315	3991.953620
726.771129	4011.561187
727.102895	4040.504972
727.434612	4092.254937
727.766281	4104.104169
728.097901	4104.588120
728.429473	4108.744551
728.760996	4115.164461
729.092471	4110.032566
729.423897	4094.808282
729.755276	4101.422275
730.086606	4103.562245
730.417887	4139.601454
730.749120	4201.161504
731.080305	4270.429479
731.411442	4291.317500
731.742530	4267.286319
732.073570	4267.742544
732.404562	4321.330009
732.735506	4313.838854
733.066401	4277.335859
733.397249	4208.831620
733.728048	4131.265906
734.058798	4052.681879
734.389501	3984.248216
734.720156	3922.519287
735.050762	3875.581104
735.381320	3873.486504
735.711831	3817.600273
736.042293	3791.043474
736.372707	3810.260353
736.703073	3783.116260
737.033391	3775.042852
737.363661	3791.776962
737.693883	3820.370387
738.024056	3827.586798
738.354182	3823.483299
738.684260	3888.536869
739.014290	3908.361207
739.344272	3898.349475
739.674207	3945.935447
740.004093	3948.456024
740.333931	3947.036939
740.663722	3947.203297
740.993464	3941.640384
741.323159	3918.040222
741.652806	3891.286818
741.982405	3861.687684
742.311956	3830.823219
742.641460	3820.400634
742.970915	3797.155873
743.300323	3755.011827
743.629683	3721.470510
743.958996	3710.382492
744.288260	3686.948688
744.617477	3655.383504
744.946647	3637.031183
745.275768	3613.267184
745.604842	3614.701392
745.933869	3564.650296
746.262847	3556.125705
746.591778	3594.851849
746.920662	3562.598547
747.249498	3530.670399
747.578286	3580.534972
747.907027	3601.095318
748.235720	3597.518619
748.564365	3620.047536
748.892963	3618.313379
749.221514	3603.336111
749.550017	3578.674786
749.878473	3578.510949
750.206881	3549.476423
750.535242	3546.514745
750.863555	3545.486350
751.191821	3540.588869
751.520039	3523.648071
751.848210	3499.813496
752.176334	3534.446223
752.504411	3540.397305
752.832440	3500.562107
753.160421	3483.195332
753.488356	3491.866117
753.816243	3505.429341
754.144082	3461.155408
754.471875	3449.180147
754.799620	3465.465594
755.127318	3460.069039
755.454969	3455.179120
755.782572	3462.329997
756.110129	3439.193621
756.437638	3428.997887
756.765100	3446.833490
757.092515	3455.118626
757.419882	3462.637507
757.747203	3434.747323
758.074477	3434.003753
758.401703	3453.674335
758.728882	3474.065803
759.056014	3481.269612
759.383099	3481.544354
759.710138	3479.971514
760.037129	3499.909278
760.364073	3528.492620
760.690970	3512.555012
761.017820	3489.222032
761.344623	3508.900176
761.671379	3553.708472
761.998088	3605.899537
762.324751	3732.820668
762.651366	3980.248060
762.977935	4450.532262
763.304456	4887.570053
763.630931	4982.593283
763.957359	4619.904948
764.283740	4279.506076
764.610074	4088.310234
764.936362	3895.110534
765.262602	3737.932398
765.588796	3625.502064
765.914943	3539.643653
766.241044	3450.412709
766.567097	3421.413471
766.893104	3372.841954
767.219064	3344.006554
767.544978	3318.213490
767.870845	3262.612084
768.196665	3244.436204
768.522438	3254.274016
768.848165	3252.035743
769.173846	3210.594938
769.499479	3194.349820
769.825066	3177.890452
770.150607	3161.214316
770.476101	3181.071421
770.801548	3173.640760
771.126949	3126.987402
771.452303	3111.637088
771.777611	3116.983232
772.102872	3123.662761
772.428087	3097.892382
772.753256	3085.629775
773.078378	3080.986873
773.403453	3045.978580
773.728482	3032.306971
774.053465	3054.530897
774.378401	3042.122097
774.703291	3011.033301
775.028135	3013.707633
775.352932	3008.114473
775.677683	2993.459839
776.002388	2992.454129
776.327046	2998.367402
776.651658	2986.490444
776.976224	2971.966880
777.300743	2973.632981
777.625216	2965.715849
777.949643	2958.133953
778.274024	2960.697380
778.598359	2949.823611
778.922647	2952.639096
779.246889	2953.518777
779.571086	2939.660645
779.895236	2934.725356
780.219339	2946.234310
780.543397	2956.535908
780.867409	2957.476083
781.191374	2952.497943
781.515294	2950.335288
781.839167	2949.417798
782.162995	2940.494956
782.486776	2950.340330
782.810511	2947.663477
783.134201	2934.556477
783.457844	2944.127108
783.781441	2930.379881
784.104993	2909.522107
784.428498	2909.811973
784.751958	2924.731268
785.075372	2918.767583
785.398739	2903.896179
785.722061	2922.344282
786.045337	2931.819130
786.368568	2917.910587
786.691752	2908.614699
787.014891	2958.892647
787.337983	2987.710403
787.661030	3014.602438
787.984031	3083.920824
788.306987	3126.894140
788.629897	3121.013634
788.952760	3103.099894
789.275579	3088.619180
789.598351	3030.540046
789.921078	2985.567913
790.243759	2976.251860
790.566395	2956.271247
790.888984	2931.705704
791.211529	2917.845052
791.534027	2904.450706
791.856480	2898.726476
792.178888	2885.753067
792.501249	2877.104967
792.823566	2872.487270
793.145836	2871.436190
793.468062	2866.148019
793.790241	2861.769777
794.112375	2869.114738
794.434464	2883.267778
794.756507	2885.110319
795.078505	2891.562996
795.400457	2903.510531
795.722364	2943.249947
796.044226	2966.630818
796.366042	2969.504276
796.687812	2959.721917
797.009538	2977.116418
797.331218	2968.377578
797.652852	2951.305711
797.974442	2934.664862
798.295986	2931.209151
798.617484	2925.999118
798.938938	2908.589493
799.260346	2895.048954
799.581709	2889.354971
799.903026	2883.867675
800.224299	2876.396685
800.545526	2866.387474
800.866708	2850.747294
801.187845	2842.270594
801.508936	2844.178671
801.829983	2848.332582
802.150984	2835.487722
802.471940	2822.746205
802.792851	2823.152018
803.113717	2824.124961
803.434538	2831.500169
803.755314	2822.983139
804.076045	2819.018272
804.396731	2815.058446
804.717372	2819.509784
805.037967	2812.747077
805.358518	2819.698828
805.679024	2831.399346
805.999485	2826.733758
806.319901	2829.997905
806.640272	2821.059939
806.960598	2826.958089
807.280879	2835.896055
807.601115	2844.486181
807.921306	2825.763336
808.241453	2823.330979
808.561554	2832.707525
808.881611	2835.255828
809.201623	2829.718121
809.521590	2827.757112
809.841513	2821.977429
810.161390	2826.983295
810.481223	2823.986329
810.801011	2812.114412
811.120755	2808.971252
811.440453	2811.625420
811.760107	2809.157775
812.079716	2808.804894
812.399281	2799.380457
812.718801	2795.639921
813.038276	2788.294960
813.357707	2792.239663
813.677093	2802.700057
813.996434	2796.890127
814.315731	2789.598098
814.634983	2785.192130
814.954191	2788.852007
815.273354	2803.398257
815.592473	2808.474699
815.911547	2811.159113
816.230577	2819.814774
816.549562	2830.406238
816.868502	2828.178048
817.187399	2840.526355
817.506250	2855.435567
817.825058	2845.159175
818.143821	2858.551000
818.462539	2873.926520
818.781213	2903.026580
819.099843	2937.238371
819.418429	2996.945797
819.736970	3056.731361
820.055466	3129.273565
820.373919	3233.035634
820.692327	3373.134341
821.010691	3542.610372
821.329011	3983.660922
821.647286	4873.822827
821.965517	6250.317446
822.283704	6979.535473
822.601847	6954.037317
822.919945	6326.834600
823.237999	5829.239948
823.556010	5245.192027
823.873976	4698.183985
824.191897	4290.372283
824.509775	4000.306812
824.827609	3731.630956
825.145398	3608.233592
825.463144	3598.526850
825.780845	3686.696631
826.098502	3797.279382
826.416116	4078.253132
826.733685	4394.041092
827.051210	4454.618117
827.368692	4338.243080
827.686129	4074.386567
828.003522	3750.298348
828.320872	3496.017507
828.638177	3299.765388
828.955439	3164.284378
829.272656	3081.327151
829.589830	3016.245854
829.906960	2967.588638
830.224046	2921.958633
830.541088	2887.245248
830.858086	2873.180429
831.175041	2854.145032
831.491952	2858.583768
831.808819	2866.735314
832.125642	2891.580640
832.442421	2938.402877
832.759157	3019.759539
833.075849	3195.040458
833.392497	3474.509424
833.709101	3681.600024
834.025662	3624.813947
834.342179	3467.499700
834.658653	3292.352371
834.975083	3144.016419
835.291469	3045.219886
835.607811	2966.378761
835.924110	2903.593710
836.240366	2856.852132
836.556578	2813.402427
836.872746	2791.750671
837.188871	2769.078081
837.504952	2752.643920
837.820990	2745.188053
838.136984	2730.193141
838.452935	2724.196689
838.768842	2719.952037
839.084706	2740.335943
839.400526	2819.212356
839.716303	2948.333950
840.032037	3029.216743
840.347727	3016.031605
840.663373	2953.901905
840.978977	2879.270143
841.294537	2804.517393
841.610054	2759.305805
841.925527	2737.248236
842.240957	2716.569423
842.556344	2695.109231
842.871687	2679.942920
843.186987	2668.499500
843.502244	2667.831547
843.817458	2661.532626
844.132629	2648.539052
844.447756	2643.034112
844.762840	2635.487504
845.077881	2636.616723
845.392879	2636.231075
845.707833	2629.586834
846.022745	2619.328086
846.337613	2627.177162
846.652438	2623.287912
846.967221	2623.978550
847.281960	2624.780094
847.596656	2624.865793
847.911309	2621.468056
848.225919	2621.523508
848.540485	2612.146962
848.855009	2615.549741
849.169490	2616.384052
849.483928	2618.125771
849.798323	2612.207456
850.112675	2612.020933
850.426984	2613.182919
850.741251	2609.321395
851.055474	2613.462703
851.369654	2618.208950
851.683792	2614.460852
851.997887	2612.295676
852.311938	2611.915069
852.625947	2613.145111
852.939914	2616.749536
853.253837	2615.612755
853.567718	2612.479678
853.881555	2612.540172
854.195350	2612.928341
854.509103	2614.634772
854.822812	2610.732918
855.136479	2609.775099
855.450103	2614.791047
855.763685	2615.305245
856.077224	2613.487909
856.390720	2608.867692
856.704173	2613.026643
857.017584	2618.145935
857.330953	2615.670729
857.644278	2619.441512
857.957561	2617.714917
858.270802	2616.852879
858.584000	2614.591922
858.897155	2620.313631
859.210268	2619.310442
859.523339	2614.917076
859.836367	2613.079576
860.149352	2612.504884
860.462295	2612.260388
860.775195	2610.112857
861.088054	2609.676797
861.400869	2610.553957
861.713642	2605.331322
862.026373	2604.630602
862.339062	2609.986828
862.651708	2613.747528
862.964312	2618.715586
863.276873	2614.856582
863.589392	2616.131994
863.901869	2623.381173
864.214303	2626.922584
864.526696	2630.935342
864.839045	2632.059520
865.151353	2633.299644
865.463619	2632.389715
865.775842	2634.696043
866.088023	2632.220837
866.400162	2635.805097
866.712258	2632.682102
867.024313	2631.033645
867.336325	2624.701956
867.648296	2628.606329
867.960224	2633.634880
868.272110	2632.004067
868.583954	2626.297481
868.895755	2628.210599
869.207515	2631.192441
869.519233	2640.997486
869.830909	2636.291568
870.142542	2629.410393
870.454134	2634.965745
870.765684	2637.403143
871.077191	2641.189049
871.388657	2644.259112
871.700081	2641.330202
872.011463	2643.016468
872.322803	2645.267343
872.634101	2646.958650
872.945357	2655.967192
873.256571	2661.227636
873.567744	2655.974754
873.878874	2654.885864
874.189963	2655.274033
874.501010	2659.327121
874.812015	2665.479849
875.122979	2667.463543
875.433900	2658.215547
875.744780	2656.864517
876.055618	2661.164622
876.366415	2663.881803
876.677169	2666.190652
876.987882	2663.239056
877.298554	2658.389466
877.609183	2671.093174
877.919771	2677.233299
878.230317	2682.728157
878.540822	2692.076977
878.851285	2708.357383
879.161707	2729.542832
879.472087	2768.846188
879.782425	2815.544917
880.092722	2930.029521
880.402977	3116.988273
880.713191	3374.394629
881.023363	3659.005573
881.333494	3848.331147
881.643583	4019.823639
881.953631	4021.812374
882.263637	3843.423583
882.573602	3623.278915
882.883526	3495.306704
883.193408	3380.885115
883.503248	3283.021195
883.813048	3169.562466
884.122806	3058.112637
884.432522	2972.861684
884.742197	2906.517579
885.051831	2873.654297
885.361424	2835.349090
885.670975	2800.728966
885.980485	2771.306271
886.289954	2751.907911
886.599382	2738.715212
886.908768	2728.322873
887.218113	2709.988197
887.527417	2697.569314
887.836680	2686.335103
888.145901	2685.011800
888.455082	2674.937054
888.764221	2663.246618
889.073319	2656.065494
889.382376	2658.838129
889.691392	2654.074239
890.000366	2657.124137
890.309300	2656.264620
890.618193	2660.448778
890.927044	2661.429282
891.235855	2659.070022
891.544625	2662.311484
891.853353	2659.059940
892.162041	2667.778615
892.470687	2687.237469
892.779293	2699.031249
893.087858	2707.603731
893.396381	2730.014180
893.704864	2770.444234
894.013306	2839.790346
894.321707	2934.531271
894.630068	2983.763180
894.938387	3000.961076
895.246665	2992.280209
895.554903	2951.772017
895.863100	2906.305851
896.171256	2851.314424
896.479371	2789.479631
896.787446	2752.006214
897.095480	2734.652042
897.403473	2726.848336
897.711425	2710.457024
898.019336	2692.755012
898.327207	2679.789164
898.635038	2679.902590
898.942827	2677.923937
899.250576	2668.063441
899.558284	2656.612460
899.865952	2652.130874
900.173579	2651.236069
900.481165	2648.551655
900.788711	2638.865077
901.096216	2632.341824
901.403681	2629.604478
901.711105	2631.820065
902.018489	2628.308901
902.325832	2631.915847
902.633135	2636.016826
902.940397	2651.445277
903.247619	2684.079186
903.554800	2755.610639
903.861941	2880.691748
904.169041	3002.869153
904.476101	3063.060530
904.783121	3056.300342
905.090100	3003.277486
905.397039	2929.162442
905.703938	2854.744929
906.010796	2792.229580
906.317614	2744.061355
906.624391	2707.046683
906.931129	2681.112467
907.237826	2657.782007
907.544483	2640.800881
907.851099	2625.896709
908.157675	2616.996552
908.464211	2609.429780
908.770707	2600.670775
909.077163	2598.293871
909.383578	2593.913109
909.689954	2592.098293
909.996289	2590.343972
910.302584	2590.046544
910.608839	2585.985894
910.915054	2584.687797
911.221229	2590.739702
911.527363	2592.468818
911.833458	2589.262644
912.139513	2589.237438
912.445527	2590.134764
912.751502	2596.063161
913.057436	2603.297217
913.363331	2609.328957
913.669186	2617.805657
913.975000	2632.379633
914.280775	2649.529638
914.586510	2667.864315
914.892205	2702.176929
915.197859	2768.289141
915.503475	2852.395752
915.809050	2915.284146
916.114585	2930.382402
916.420081	2942.186263
916.725536	2952.639096
917.030952	2927.851742
917.336328	2883.355998
917.641665	2835.825479
917.946961	2782.427057
918.252218	2752.333889
918.557435	2725.194837
918.862612	2704.649615
919.167750	2687.671008
919.472848	2669.114521
919.777906	2654.066677
920.082925	2642.177116
920.387904	2633.518934
920.692843	2625.145577
920.997743	2625.253962
921.302603	2616.953702
921.607423	2608.013216
921.912204	2603.463575
922.216946	2605.091867
922.521647	2602.326794
922.826310	2598.099787
923.130932	2588.655185
923.435516	2583.566140
923.740059	2585.194433
924.044564	2583.702252
924.349028	2579.815522
924.653454	2568.525858
924.957840	2568.445199
925.262186	2569.781105
925.566493	2570.512072
925.870761	2565.110476
926.174989	2568.273800
926.479178	2567.641135
926.783328	2564.654252
927.087438	2563.154508
927.391509	2562.917574
927.695541	2563.109138
927.999533	2556.424568
928.303486	2558.584702
928.607400	2560.822975
928.911275	2556.671585
929.215110	2556.187634
929.518906	2555.113868
929.822663	2556.976574
930.126381	2553.311656
930.430060	2557.901626
930.733699	2555.494475
931.037299	2558.511606
931.340861	2559.996226
931.644383	2559.396328
931.947866	2557.515978
932.251309	2557.846173
932.554714	2555.242417
932.858080	2561.218705
933.161407	2553.588919
933.464694	2555.408776
933.767943	2554.874413
934.071153	2554.760987
934.374323	2553.840977
934.677455	2555.083621
934.980548	2550.917108
935.283602	2554.365257
935.586617	2554.614794
935.889593	2555.257541
936.192530	2552.439536
936.495428	2552.862993
936.798287	2556.301060
937.101108	2557.034548
937.403890	2558.627552
937.706632	2561.871535
938.009336	2565.637277
938.312002	2569.425704
938.614628	2572.881415
938.917216	2575.144893
939.219765	2576.931982
939.522275	2576.763103
939.824747	2575.659091
940.127179	2570.559963
940.429573	2568.082236
940.731929	2569.156002
941.034246	2564.278686
941.336524	2566.595096
941.638763	2564.104766
941.940964	2563.779612
942.243126	2563.895558
942.545250	2563.507389
942.847335	2564.172822
943.149381	2559.658468
943.451389	2558.345248
943.753359	2558.272151
944.055290	2557.647048
944.357182	2557.160577
944.659036	2555.161759
944.960851	2556.081770
945.262628	2561.223747
945.564367	2558.874569
945.866067	2556.353992
946.167729	2557.594116
946.469352	2556.933725
946.770937	2556.177552
947.072484	2555.486913
947.373992	2557.594116
947.675462	2554.902140
947.976893	2555.048333
948.278286	2553.052036
948.579641	2555.204609
948.880958	2556.482541
949.182236	2556.699311
949.483476	2552.835267
949.784678	2553.306614
950.085841	2555.638148
950.386967	2553.367108
950.688054	2551.353167
950.989103	2555.638148
951.290114	2555.355843
951.591087	2555.721327
951.892021	2556.570762
952.192917	2559.134188
952.493776	2557.906667
952.794596	2561.037224
953.095378	2562.831875
953.396122	2560.749878
953.696828	2561.843808
953.997496	2557.861297
954.298126	2554.261913
954.598718	2556.595967
954.899272	2554.720658
955.199788	2554.292160
955.500266	2555.721327
955.800706	2548.497354
956.101108	2545.011396
956.401472	2546.730429
956.701798	2546.178423
957.002087	2547.070707
957.302337	2547.141283
957.602550	2543.937630
957.902724	2544.020809
958.202861	2543.446118
958.502960	2543.216745
958.803022	2543.647764
959.103045	2544.560212
959.403031	2543.831766
959.702979	2540.098791
960.002889	2541.956457
960.302762	2543.262115
960.602596	2542.873947
960.902393	2540.313040
961.202153	2540.857485
961.501875	2538.266332
961.801559	2540.978473
962.101205	2540.033256
962.400814	2541.732125
962.700385	2539.012423
962.999918	2540.431508
963.299414	2541.628782
963.598873	2538.278935
963.898293	2541.419574
964.197677	2540.789429
964.497022	2537.409336
964.796331	2540.645757
965.095601	2537.973945
965.394835	2542.142979
965.694030	2538.094933
965.993189	2538.856147
966.292309	2540.136600
966.591393	2537.643749
966.890439	2538.553678
967.189447	2539.277083
967.488419	2536.567463
967.787353	2538.891435
968.086249	2537.661393
968.385108	2539.773637
968.683930	2539.362783
968.982714	2539.277083
969.281462	2536.869932
969.580172	2539.466127
969.878844	2538.263811
970.177480	2540.083668
970.476078	2539.471168
970.774639	2540.648277
971.073162	2537.361445
971.371649	2538.510828
971.670098	2536.096115
971.968510	2538.084850
972.266885	2538.321785
972.565223	2537.565612
972.863524	2542.223638
973.161788	2541.686755
973.460014	2537.832793
973.758204	2541.490150
974.056356	2539.322454
974.354471	2538.730118
974.652550	2540.542413
974.950591	2540.978473
975.248595	2538.364634
975.546563	2539.604758
975.844493	2540.701209
976.142386	2538.455375
976.440243	2537.147196
976.738062	2540.189532
977.035845	2537.701723
977.333590	2538.397402
977.631299	2538.014274
977.928971	2536.282638
978.226606	2538.760365
978.524204	2537.704243
978.821765	2537.971424
979.119290	2536.302803
979.416777	2538.896476
979.714228	2538.515869
980.011642	2537.626105
980.309020	2540.552495
980.606360	2539.274563
980.903664	2537.484953
981.200931	2537.857998
981.498162	2538.591486
981.795356	2543.521735
982.092513	2546.579195
982.389633	2546.881664
982.686717	2550.612118
982.983764	2551.809392
983.280775	2554.995401
983.577749	2555.469269
983.874686	2553.833415
984.171587	2547.282436
984.468451	2549.162786
984.765279	2546.826211
985.062070	2541.706919
985.358824	2542.939482
985.655543	2540.618030
985.952224	2538.258770
986.248869	2539.768596
986.545478	2536.489325
986.842050	2537.779861
987.138586	2531.796011
987.435086	2531.309540
987.731549	2533.126876
988.027975	2535.965045
988.324366	2533.373892
988.620719	2535.342463
988.917037	2534.765251
989.213318	2535.309695
989.509563	2534.770292
989.805772	2536.075951
990.101944	2533.484798
990.398080	2534.785415
990.694180	2533.124355
990.990244	2537.288348
991.286271	2536.784233
991.582262	2535.841537
991.878217	2537.265663
992.174136	2536.645601
992.470019	2536.280117
992.765865	2534.984541
993.061676	2534.621578
993.357450	2535.569315
993.653188	2536.166691
993.948890	2536.660724
994.244556	2535.100487
994.540186	2535.554191
994.835780	2535.138296
995.131337	2538.021836
995.426859	2535.725590
995.722345	2537.555529
996.017795	2539.403112
996.313208	2538.281455
996.608586	2539.385468
996.903928	2540.116435
997.199234	2537.426980
997.494504	2539.393030
997.789738	2536.721218
998.084936	2538.720036
998.380099	2536.030580
998.675225	2534.790456
998.970316	2534.243491
999.265371	2535.778523
999.560390	2537.391692
999.855373	2537.096784
1000.150320	2533.378933
1000.445232	2537.558050
1000.740108	2534.798018
1001.034948	2534.593851
1001.329752	2533.406660
1001.624521	2534.845909
1001.919254	2529.595547
1002.213951	2531.317101
1002.508613	2532.433717
1002.803239	2530.598737
1003.097829	2529.882893
1003.392384	2534.402287
1003.686903	2533.298275
1003.981386	2534.729963
1004.275834	2533.988913
1004.570246	2536.862371
1004.864623	2534.606454
1005.158964	2537.409336
1005.453270	2533.502442
1005.747540	2532.705939
1006.041775	2534.440096
1006.335974	2534.742565
1006.630138	2534.324150
1006.924266	2533.104190
1007.218359	2532.358100
1007.512416	2532.458923
1007.806438	2535.465971
1008.100425	2534.780374
1008.394376	2530.439941
1008.688292	2532.935312
1008.982172	2534.382123
1009.276017	2535.039993
1009.569827	2533.041176
1009.863602	2535.813811
1010.157341	2531.705270
1010.451045	2533.076464
1010.744714	2531.415404
1011.038347	2532.161495
1011.331945	2534.256094
1011.625508	2531.317101
1011.919036	2533.656197
1012.212528	2532.015301
1012.505986	2531.818696
1012.799408	2533.275590
1013.092795	2533.719211
1013.386147	2533.976310
1013.679464	2531.884231
1013.972745	2532.595034
1014.265992	2530.530681
1014.559204	2534.704757
1014.852380	2532.864736
1015.145521	2532.544622
1015.438628	2530.891124
1015.731699	2533.177287
1016.024736	2531.284334
1016.317737	2534.177956
1016.610703	2532.300126
1016.903635	2527.095135
1017.196531	2530.006401
1017.489393	2529.214940
1017.782219	2528.365506
1018.075011	2532.133768
1018.367768	2533.247863
1018.660490	2534.281300
1018.953177	2534.281300
1019.245829	2534.281300
