Dividing Wavelength (nm)	Counts (n)	Blue Motor Position (mm): 17.600000	Red Motor Position (mm): 0.000000	
326.493990	2133.600310
326.888308	2133.600310
327.282561	2133.600310
327.676750	2102.730804
328.070874	2100.124528
328.464933	2102.733325
328.858929	2109.042329
329.252859	2117.501385
329.646726	2129.612757
330.040528	2143.465848
330.434265	2160.247849
330.827938	2179.144614
331.221547	2195.515761
331.615091	2215.438401
332.008571	2235.585373
332.401986	2253.604977
332.795338	2274.024171
333.188625	2292.061419
333.581847	2311.384162
333.975006	2330.553149
334.368100	2348.146776
334.761129	2368.223172
335.154095	2383.510471
335.546996	2401.146947
335.939833	2421.964392
336.332606	2437.909562
336.725315	2449.980605
337.117960	2457.539815
337.510540	2467.463326
337.903056	2477.228041
338.295508	2489.478045
338.687896	2495.086329
339.080220	2502.839623
339.472480	2510.749194
339.864676	2511.548217
340.256807	2517.683301
340.648875	2519.573733
341.040879	2523.919208
341.432818	2525.393746
341.824694	2527.821061
342.216506	2524.733354
342.608253	2524.486338
342.999937	2526.170083
343.391557	2528.829292
343.783113	2525.507172
344.174605	2524.516585
344.566033	2522.787469
344.957397	2520.864269
345.348697	2520.541635
345.739934	2519.392252
346.131106	2515.190450
346.522215	2514.658608
346.913260	2510.265243
347.304241	2511.833042
347.695159	2506.065962
348.086012	2509.206601
348.476802	2505.319871
348.867528	2504.674603
349.258191	2502.864829
349.648789	2501.113028
350.039324	2500.157729
350.429796	2499.202431
350.820203	2499.693943
351.210548	2495.159425
351.600828	2494.834271
351.991045	2496.487769
352.381198	2498.731083
352.771288	2493.314363
353.161314	2495.444251
353.551276	2494.993067
353.941175	2496.719662
354.331010	2494.718324
354.720782	2494.027686
355.110490	2493.798314
355.500135	2492.656493
355.889717	2491.721358
356.279235	2495.560197
356.668689	2495.083808
357.058080	2494.373005
357.447408	2492.250680
357.836672	2491.050885
358.225873	2493.216061
358.615010	2489.442757
359.004084	2495.534991
359.393095	2497.803511
359.782043	2496.805362
360.170927	2496.351658
360.559748	2495.482059
360.948505	2499.255363
361.337199	2497.929539
361.725830	2497.982472
362.114398	2501.831393
362.502903	2500.682009
362.891344	2500.276197
363.279722	2501.468429
363.668037	2501.770899
364.056289	2501.188645
364.444478	2500.419869
364.832603	2502.355673
365.220665	2503.782319
365.608665	2505.322392
365.996601	2505.173677
366.384474	2499.903151
366.772284	2502.874911
367.160031	2508.231137
367.547715	2504.926661
367.935336	2504.692247
368.322893	2506.131497
368.710388	2506.925478
369.097820	2508.616786
369.485189	2507.238030
369.872495	2506.456651
370.259738	2507.837927
370.646918	2506.895232
371.034035	2507.762310
371.421090	2507.313647
371.808081	2509.798936
372.195010	2506.648215
372.581875	2507.918586
372.968678	2509.476302
373.355418	2508.669718
373.742096	2511.712054
374.128710	2510.154338
374.515262	2509.073010
374.901751	2509.498987
375.288177	2513.330264
375.674540	2507.991682
376.060841	2511.888494
376.447079	2507.754748
376.833254	2510.330778
377.219367	2505.924809
377.605417	2512.216169
377.991404	2509.206601
378.377329	2509.834224
378.763191	2507.336332
379.148991	2514.698938
379.534727	2510.151817
379.920402	2513.363032
380.306013	2511.714575
380.691563	2514.945954
381.077049	2510.585356
381.462474	2514.623320
381.847835	2512.929493
382.233134	2516.738084
382.618371	2511.202897
383.003545	2514.764473
383.388657	2514.451921
383.773706	2518.373939
384.158693	2514.620800
384.543618	2514.764473
384.928480	2516.629700
385.313280	2515.571057
385.698017	2515.954185
386.082692	2517.895029
386.467305	2516.715399
386.851856	2515.240862
387.236344	2518.338651
387.620770	2519.374608
388.005133	2517.426202
388.389435	2518.159690
388.773674	2515.596263
389.157851	2517.769000
389.541965	2515.717251
389.926018	2517.799247
390.310008	2518.807478
390.693936	2519.772859
391.077802	2521.386028
391.461606	2520.753363
391.845348	2519.041892
392.229027	2518.452077
392.612645	2522.142201
392.996200	2519.649351
393.379694	2518.822602
393.763125	2521.607839
394.146494	2520.380318
394.529801	2523.072294
394.913047	2519.412417
395.296230	2522.752181
395.679351	2518.746984
396.062410	2523.271420
396.445408	2521.774197
396.828343	2522.701769
397.211217	2516.491068
397.594028	2518.363857
397.976778	2521.673374
398.359466	2520.662623
398.742092	2516.150790
399.124656	2526.699404
399.507158	2521.834691
399.889598	2524.473735
400.271977	2523.410052
400.654294	2525.663447
401.036549	2523.457943
401.418742	2525.741585
401.800874	2523.866276
402.182944	2525.663447
402.564952	2526.490197
402.946898	2525.144208
403.328783	2524.577079
403.710606	2522.338806
404.092367	2526.429703
404.474067	2526.028931
404.855705	2525.734023
405.237282	2525.585309
405.618797	2524.710669
406.000250	2523.548683
406.381642	2525.834847
406.762972	2525.741585
407.144240	2525.728982
407.525447	2529.958510
407.906593	2525.277799
408.287677	2527.483304
408.668700	2527.016997
409.049661	2527.163191
409.430560	2526.790145
409.811399	2529.204858
410.192176	2530.833151
410.572891	2526.528005
410.953545	2529.048582
411.334138	2529.290558
411.714669	2528.000022
412.095139	2529.240146
412.475547	2530.220650
412.855894	2529.978675
413.236180	2527.637059
413.616405	2531.296937
413.996568	2530.298788
414.376670	2531.543953
414.756711	2529.119158
415.136691	2527.032121
415.516609	2528.015146
415.896466	2528.481452
416.276262	2529.560259
416.655997	2529.282996
417.035670	2525.434075
417.415283	2529.580424
417.794834	2527.652182
418.174324	2530.835671
418.553753	2532.111083
418.933121	2530.195445
419.312428	2528.693181
419.691674	2530.724766
420.070859	2529.212420
420.449983	2531.370033
420.829045	2530.702081
421.208047	2527.808458
421.586988	2529.333407
421.965867	2534.820703
422.344686	2532.340456
422.723444	2531.218799
423.102141	2533.517565
423.480777	2531.758202
423.859352	2534.016639
424.237866	2532.058151
424.616319	2531.357431
424.994712	2535.087884
425.373044	2534.805580
425.751314	2534.303985
426.129524	2533.449509
426.507673	2533.580579
426.885762	2532.932791
427.263789	2533.646114
427.641756	2533.467153
428.019662	2532.005219
428.397508	2530.719725
428.775292	2534.384643
429.153016	2534.835827
429.530679	2533.615868
429.908282	2535.261804
430.285824	2536.280117
430.663305	2534.228368
431.040726	2537.363965
431.418086	2533.898172
431.795385	2536.232226
432.172624	2532.826927
432.549802	2535.259284
432.926920	2537.013605
433.303977	2534.351876
433.680974	2537.212731
434.057910	2537.406815
434.434786	2536.673327
434.811601	2537.343801
435.188355	2536.945550
435.565050	2534.989582
435.941683	2535.425642
436.318257	2534.732483
436.694770	2531.816176
437.071222	2537.399253
437.447614	2530.636546
437.823946	2534.624098
438.200218	2535.750796
438.576429	2537.442103
438.952580	2536.605272
439.328670	2538.568801
439.704700	2536.796836
440.080670	2535.586959
440.456580	2538.120138
440.832429	2540.781868
441.208218	2537.948739
441.583947	2538.677186
441.959616	2536.857329
442.335224	2539.148534
442.710773	2541.923689
443.086261	2537.429500
443.461689	2538.762886
443.837057	2536.844727
444.212365	2538.838503
444.587612	2538.276414
444.962800	2540.572660
445.337927	2539.776157
445.712995	2538.273894
446.088002	2538.911600
446.462949	2542.011909
446.837837	2541.104502
447.212664	2537.454706
447.587431	2538.951929
447.962139	2537.822710
448.336786	2540.060983
448.711374	2541.018802
449.085901	2539.645088
449.460369	2538.546116
449.834776	2542.624409
450.209124	2539.882022
450.583412	2541.734646
450.957640	2542.405119
451.331808	2542.447969
451.705917	2541.298586
452.079965	2540.925541
452.453954	2540.305479
452.827883	2541.001158
453.201752	2540.703730
453.575562	2540.912938
453.949311	2541.086858
454.323001	2541.923689
454.696632	2537.860519
455.070202	2543.254554
455.443713	2542.042156
455.817164	2542.460572
456.190556	2538.911600
456.563888	2537.928575
456.937160	2538.518390
457.310373	2539.766075
457.683526	2541.666590
458.056619	2542.735315
458.429653	2542.037115
458.802628	2544.237579
459.175542	2544.469472
459.548398	2542.964687
459.921194	2546.052394
460.293930	2541.490150
460.666607	2543.252033
461.039224	2543.085675
461.411782	2542.475695
461.784280	2545.089534
462.156719	2542.359749
462.529099	2545.969215
462.901419	2544.787064
463.273680	2546.085162
463.645882	2546.319575
464.018024	2544.267826
464.390106	2544.877805
464.762130	2542.243802
465.134094	2546.533824
465.505999	2546.949719
465.877845	2546.314534
466.249631	2549.646737
466.621358	2546.672456
466.993026	2552.467262
467.364634	2549.371994
467.736184	2545.197918
468.107674	2548.111705
468.479105	2544.971067
468.850477	2547.673125
469.221790	2549.198074
469.593043	2546.838814
469.964238	2547.232024
470.335373	2545.838145
470.706449	2545.021478
471.077467	2547.148845
471.448425	2549.185471
471.819324	2548.809905
472.190164	2549.931562
472.560945	2548.260419
472.931667	2543.773793
473.302330	2547.973074
473.672934	2547.093392
474.043479	2545.185316
474.413965	2547.327806
474.784393	2541.558205
475.154761	2546.480892
475.525070	2546.264122
475.895321	2546.773279
476.265513	2544.013247
476.635645	2548.585574
477.005719	2548.570450
477.375734	2550.110523
477.745691	2550.160934
478.115588	2550.549103
478.485427	2547.035419
478.855207	2550.327292
479.224928	2550.150852
479.594591	2551.630431
479.964194	2550.478527
480.333739	2550.536500
480.703226	2550.367622
481.072653	2553.218394
481.442022	2551.658157
481.811333	2551.874927
482.180584	2552.058929
482.549777	2551.630431
482.918912	2552.290822
483.287988	2552.164793
483.657005	2552.729402
484.025964	2553.825853
484.394864	2550.493651
484.763706	2552.873075
485.132489	2553.074721
485.501213	2553.054557
485.869879	2554.571944
486.238487	2551.945503
486.607036	2552.905843
486.975527	2551.892571
487.343959	2552.704197
487.712333	2553.336861
488.080648	2553.485575
488.448905	2551.637993
488.817104	2550.846531
489.185244	2553.034392
489.553326	2553.563713
489.921350	2553.853580
490.289315	2554.912222
490.657222	2556.946327
491.025070	2557.011862
491.392861	2556.979095
491.760593	2558.864487
492.128267	2556.442212
492.495883	2558.105793
492.863440	2557.077397
493.230939	2557.054712
493.598380	2556.338868
493.965763	2554.519012
494.333088	2553.672098
494.700354	2553.024310
495.067563	2555.751574
495.434713	2552.842828
495.801805	2558.645196
496.168839	2559.328273
496.535815	2557.021945
496.902733	2559.116544
497.269593	2558.609908
497.636395	2554.387942
498.003139	2558.786349
498.369825	2561.024621
498.736453	2560.139898
499.103023	2560.192831
499.469535	2559.454302
499.835989	2558.347768
500.202385	2560.255845
500.568723	2557.142933
500.935003	2560.036555
501.301226	2558.186451
501.667390	2563.378840
502.033497	2562.234498
502.399546	2561.823644
502.765537	2560.762481
503.131470	2561.624518
503.497345	2562.834395
503.863163	2564.429920
504.228923	2563.378840
504.594625	2566.824468
504.960269	2564.961762
505.325856	2569.130796
505.691385	2566.837071
506.056856	2570.512072
506.422270	2568.074675
506.787625	2569.173646
507.152924	2569.894531
507.518164	2570.401167
507.883347	2574.862588
508.248472	2573.788822
508.613540	2575.089440
508.978550	2580.163362
509.343503	2577.242013
509.708398	2579.513053
510.073236	2581.625296
510.438016	2583.866089
510.802738	2585.849783
511.167403	2587.725092
511.532010	2588.957654
511.896561	2592.627614
512.261053	2596.980651
512.625488	2595.233891
512.989866	2598.248501
513.354186	2600.660693
513.718449	2602.346959
514.082655	2611.156375
514.446803	2615.741305
514.810894	2619.663322
515.174927	2623.746657
515.538904	2627.351082
515.902822	2632.165384
516.266684	2636.556229
516.630488	2639.618730
516.994235	2644.833804
517.357925	2652.846718
517.721558	2656.388128
518.085133	2662.308963
518.448651	2668.585200
518.812112	2671.695592
519.175516	2679.141376
519.538863	2687.902902
519.902152	2693.062522
520.265385	2704.831096
520.628560	2706.232537
520.991678	2713.885008
521.354739	2724.587378
521.717743	2732.214644
522.080690	2738.942064
522.443580	2754.262130
522.806413	2762.511978
523.169189	2771.477671
523.531908	2785.459311
523.894569	2790.631535
524.257174	2800.144192
524.619722	2817.392500
524.982213	2823.182265
525.344647	2842.396623
525.707025	2854.001359
526.069345	2866.730273
526.431608	2881.851213
526.793815	2896.881414
527.155964	2903.810480
527.518057	2917.310690
527.880093	2931.015066
528.242072	2947.401337
528.603995	2965.347845
528.965860	2973.259936
529.327669	2992.045795
529.689421	3007.406191
530.051117	3018.922707
530.412755	3048.221893
530.774337	3057.812688
531.135862	3080.633992
531.497331	3093.995570
531.858743	3107.886470
532.220098	3136.885707
532.581396	3151.303407
532.942638	3167.125068
533.303824	3195.141281
533.664953	3221.619942
534.026025	3236.146026
534.387040	3271.136675
534.747999	3289.171403
535.108902	3323.615087
535.469748	3325.064418
535.830537	3359.555993
536.191270	3384.892832
536.551947	3411.217738
536.912567	3442.543468
537.273131	3456.542752
537.633638	3483.326402
537.994089	3514.672297
538.354483	3536.341697
538.714821	3579.546906
539.075103	3613.889766
539.435328	3639.576966
539.795497	3645.686844
540.155609	3706.909137
540.515665	3743.994385
540.875665	3743.520517
541.235609	3784.011065
541.595496	3817.456600
541.955328	3876.962380
542.315102	3891.463259
542.674821	3920.933844
543.034483	3953.464410
543.394090	3990.035461
543.753640	4015.757948
544.113134	4098.455556
544.472571	4107.809417
544.831953	4177.478163
545.191278	4178.657793
545.550548	4215.105336
545.909761	4278.245788
546.268918	4322.605421
546.628019	4377.944687
546.987064	4395.540835
547.346053	4405.608019
547.704986	4480.728773
548.063863	4515.013660
548.422684	4543.949883
548.781449	4575.628494
549.140158	4637.228874
549.498811	4651.102129
549.857408	4648.702540
550.215949	4755.355711
550.574434	4759.481896
550.932864	4834.353112
551.291237	4881.911358
551.649555	4927.304428
552.007817	4968.074759
552.366022	4997.842773
552.724173	5042.565369
553.082267	5075.350513
553.440305	5182.618705
553.798288	5148.958921
554.156215	5251.725363
554.514086	5294.381086
554.871902	5284.024036
555.229661	5337.266182
555.587365	5379.682450
555.945014	5375.465525
556.302606	5480.770188
556.660143	5475.045958
557.017625	5593.192960
557.375050	5595.325368
557.732421	5694.338671
558.089735	5714.125199
558.446994	5750.272793
558.804197	5817.068082
559.161345	5868.011462
559.518437	5840.935424
559.875474	5938.242297
560.232455	5995.111553
560.589381	6010.567731
560.946251	6078.053657
561.303065	6144.745602
561.659825	6184.361510
562.016528	6190.108425
562.373177	6174.027144
562.729770	6291.049969
563.086307	6287.732890
563.442789	6373.737495
563.799216	6384.419700
564.155587	6444.895902
564.511904	6471.218287
564.868164	6508.588360
565.224370	6553.631070
565.580520	6581.445636
565.936615	6605.282732
566.292654	6604.982784
566.648638	6700.825201
567.004567	6732.420632
567.360441	6761.107318
567.716260	6769.589060
568.072023	6861.002823
568.427732	6881.308591
568.783385	6863.304110
569.138982	6960.242977
569.494525	7004.143866
569.850013	6979.356512
570.205445	7072.282622
570.560823	7045.362860
570.916145	7045.665329
571.271412	7126.406970
571.626625	7131.768237
571.981782	7152.615929
572.336884	7189.406270
572.691931	7212.247738
573.046923	7234.007878
573.401860	7241.937613
573.756743	7247.752584
574.111570	7304.982283
574.466342	7326.011457
574.821059	7386.328862
575.175722	7353.339552
575.530330	7405.644043
575.884882	7432.498270
576.239380	7421.122906
576.593823	7443.097296
576.948211	7486.748647
577.302544	7431.066582
577.656823	7485.720252
578.011047	7517.076228
578.365216	7540.283180
578.719330	7519.004470
579.073389	7561.592138
579.427394	7551.290540
579.781344	7567.182777
580.135239	7564.130358
580.489080	7597.228054
580.842866	7560.694812
581.196597	7593.573218
581.550273	7655.657548
581.903895	7658.566293
582.257463	7742.398161
582.610975	7680.999428
582.964434	7722.329328
583.317837	7692.979730
583.671186	7703.651853
584.024481	7732.242757
584.377721	7693.498969
584.730906	7708.894653
585.084037	7752.188082
585.437113	7720.819502
585.790135	7770.772296
586.143103	7712.370528
586.496016	7712.105868
586.848874	7784.456508
587.201679	7797.482849
587.554428	7733.886173
587.907124	7790.284082
588.259765	7789.558156
588.612352	7816.213257
588.964884	7720.902681
589.317362	7767.543437
589.669786	7787.254348
590.022155	7841.020775
590.374470	7880.140128
590.726731	7842.631423
591.078937	7741.594097
591.431090	7866.506328
591.783188	7766.893128
592.135232	7786.924153
592.487222	7793.729710
592.839157	7862.357458
593.191038	7823.903537
593.542866	7794.145606
593.894639	7718.467804
594.246358	7784.370808
594.598022	7816.044378
594.949633	7739.307934
595.301190	7734.836431
595.652692	7777.431660
596.004141	7890.287971
596.355535	7703.477933
596.706876	7704.123201
597.058162	7663.178949
597.409395	7741.682317
597.760573	7807.499622
598.111698	7736.081596
598.462768	7739.426401
598.813785	7723.582055
599.164748	7707.906587
599.515657	7707.657050
599.866511	7641.733881
600.217312	7763.480267
600.568060	7647.969788
600.918753	7755.116993
601.269392	7730.450627
601.619978	7668.184815
601.970510	7735.630412
602.320988	7739.134014
602.671412	7814.469017
603.021783	7759.888445
603.372100	7737.901452
603.722363	7754.259996
604.072572	7732.764516
604.422728	7754.847291
604.772830	7702.580608
605.122878	7716.269861
605.472872	7716.511836
605.822813	7752.092300
606.172701	7704.014816
606.522534	7789.991695
606.872314	7791.985471
607.222041	7772.677852
607.571714	7829.249680
607.921333	7795.181563
608.270899	7813.415416
608.620411	7901.244919
608.969870	7821.471180
609.319276	7814.877351
609.668627	7833.885021
610.017926	7873.397585
610.367171	7937.407636
610.716362	7913.250427
611.065500	7902.742142
611.414585	7938.700692
611.763616	7930.155936
612.112594	7919.488855
612.461518	7934.783716
612.810389	7999.897779
613.159207	7952.523536
613.507971	7902.157368
613.856682	8017.884616
614.205340	7984.683577
614.553945	8060.273158
614.902496	7965.433931
615.250994	8025.811831
615.599439	8008.881115
615.947830	8023.853342
616.296169	8003.550095
616.644454	8018.030810
616.992686	8016.694904
617.340864	8079.613545
617.688990	7990.876634
618.037063	8078.736384
618.385082	8033.958335
618.733048	8117.245758
619.080961	8056.220071
619.428821	8076.702279
619.776628	8089.983198
620.124382	8036.612503
620.472083	8030.893314
620.819731	8051.665388
621.167326	7956.196017
621.514868	7964.851678
621.862357	7857.638938
622.209793	7879.877988
622.557176	7820.404976
622.904506	7790.657127
623.251783	7724.900316
623.599007	7689.203906
623.946179	7687.825150
624.293297	7655.471025
624.640363	7569.841986
624.987376	7559.631129
625.334336	7505.065679
625.681243	7456.743699
626.028097	7447.561238
626.374899	7432.336953
626.721647	7421.367402
627.068343	7356.828030
627.414987	7327.911972
627.761577	7285.694829
628.108115	7327.029770
628.454600	7221.876342
628.801032	7267.942405
629.147412	7230.519400
629.493739	7222.322484
629.840014	7156.588358
630.186236	7219.131433
630.532405	7100.092147
630.878521	7155.885117
631.224585	7107.114474
631.570597	7035.744339
631.916556	7071.339926
632.262462	7064.912455
632.608316	7030.919954
632.954117	7007.150914
633.299866	6995.931826
633.645562	6987.205589
633.991206	6914.859990
634.336797	6854.282965
634.682336	6817.941287
635.027823	6780.838394
635.373257	6769.210973
635.718639	6704.003648
636.063968	6720.281534
636.409245	6615.987623
636.754470	6614.520647
637.099642	6573.420119
637.444762	6516.069433
637.789829	6530.472009
638.134845	6465.887267
638.479808	6459.096832
638.824719	6467.439942
639.169577	6391.827676
639.514383	6416.778867
639.859137	6340.186096
640.203839	6351.168249
640.548489	6339.452608
640.893086	6309.046888
641.237632	6280.584534
641.582125	6308.608308
641.926566	6275.659326
642.270955	6291.488549
642.615292	6287.117869
642.959576	6299.826618
643.303809	6285.353465
643.647990	6296.166740
643.992118	6286.442354
644.336195	6234.941927
644.680219	6258.973107
645.024192	6248.558083
645.368112	6348.745975
645.711981	6367.320106
646.055797	6443.217198
646.399562	6399.318830
646.743274	6528.984869
647.086935	6579.756850
647.430544	6575.333237
647.774101	6593.428459
648.117606	6597.564726
648.461059	6596.127997
648.804460	6555.140896
649.147810	6465.423481
649.491108	6431.393172
649.834354	6412.549338
650.177548	6327.555485
650.520690	6244.063895
650.863781	6219.296706
651.206820	6242.168421
651.549807	6162.034239
651.892742	6105.553152
652.235626	6109.893585
652.578458	6098.934117
652.921238	6004.125136
653.263967	6045.258431
653.606644	5985.205686
653.949269	5989.893959
654.291843	5928.477582
654.634365	5977.618749
654.976836	5936.913953
655.319255	5935.441936
655.661622	5915.105921
656.003938	5909.729530
656.346203	5874.038161
656.688416	5901.192336
657.030577	5854.352455
657.372687	5828.156099
657.714746	5813.924922
658.056753	5856.631057
658.398708	5796.515297
658.740612	5786.680006
659.082465	5837.580537
659.424266	5824.836500
659.766016	5824.418084
660.107715	5801.858920
660.449362	5814.300488
660.790958	5806.912677
661.132503	5797.982273
661.473996	5833.396379
661.815438	5819.313916
662.156829	5814.703780
662.498168	5809.695394
662.839456	5789.989524
663.180693	5821.819369
663.521879	5822.535213
663.863013	5814.262679
664.204097	5826.968908
664.545129	5869.057501
664.886110	5866.998190
665.227040	5899.032202
665.567918	5863.572726
665.908746	5895.369804
666.249522	5898.510443
666.590248	5885.360593
666.930922	5915.294964
667.271545	5927.534886
667.612118	5926.229227
667.952639	5902.434981
668.293109	5915.846971
668.633528	5879.089397
668.973896	5878.489500
669.314213	5875.721907
669.654480	5852.930850
669.994695	5850.039748
670.334859	5840.252348
670.674973	5832.415874
671.015035	5836.128684
671.355047	5831.989897
671.695008	5817.872146
672.034918	5793.472961
672.374777	5807.394107
672.714585	5794.100585
673.054342	5790.329802
673.394049	5785.142454
673.733705	5818.154450
674.073310	5809.219005
674.412864	5763.629330
674.752368	5752.604327
675.091820	5755.475264
675.431223	5697.668353
675.770574	5697.922931
676.109875	5652.555067
676.449125	5660.610831
676.788324	5621.741014
677.127473	5563.719854
677.466571	5556.029574
677.805619	5547.915837
678.144616	5539.484507
678.483562	5511.087687
678.822458	5484.084747
679.161303	5478.912523
679.500098	5465.389627
679.838842	5451.917144
680.177535	5457.570798
680.516179	5475.436647
680.854771	5481.816227
681.193314	5560.304472
681.531805	5675.522564
681.870247	5816.783256
682.208638	5916.308236
682.546978	5923.446510
682.885268	5903.561679
683.223508	5821.791643
683.561697	5770.094610
683.899836	5736.268468
684.237925	5696.372776
684.575963	5663.943033
684.913951	5622.406446
685.251889	5686.948339
685.589776	5651.630015
685.927614	5625.766375
686.265401	5692.632240
686.603137	5677.012225
686.940824	5753.000057
687.278460	5777.792452
687.616046	5787.368124
687.953582	5851.720973
688.291068	5833.290515
688.628504	5899.006996
688.965889	5861.538620
689.303224	5805.687677
689.640510	5755.830665
689.977745	5678.627915
690.314930	5580.204427
690.652065	5525.255850
690.989150	5433.063228
691.326185	5357.917269
691.663170	5308.879445
692.000105	5234.875306
692.336990	5154.597452
692.673825	5135.476355
693.010610	5065.474893
693.347345	4996.960571
693.684030	4978.625894
694.020665	4939.035193
694.357251	4847.664279
694.693786	4861.976115
695.030272	4827.771886
695.366707	4791.394920
695.703093	4759.045836
696.039429	4782.338487
696.375716	4764.059263
696.711952	4736.544646
697.048139	4729.310590
697.384276	4705.400397
697.720363	4716.818611
698.056400	4727.062235
698.392388	4678.906613
698.728326	4660.750897
699.064214	4633.006907
699.400053	4631.938183
699.735842	4596.145990
700.071581	4575.010953
700.407270	4543.992733
700.742910	4534.981671
701.078501	4471.800890
701.414042	4478.402281
701.749533	4445.841468
702.084974	4379.288155
702.420366	4433.876289
702.755709	4379.260428
703.091002	4322.618024
703.426246	4370.173749
703.761440	4327.797809
704.096584	4290.896563
704.431679	4312.626457
704.766725	4298.697749
705.101721	4285.545378
705.436668	4311.698885
705.771565	4260.054784
706.106413	4289.764824
706.441212	4321.577026
706.775961	4329.473993
707.110661	4308.908606
707.445311	4335.142771
707.779913	4361.891133
708.114465	4372.137278
708.448967	4393.942789
708.783421	4453.093168
709.117825	4496.328624
709.452180	4496.847862
709.786485	4549.104463
710.120742	4634.395745
710.454949	4613.540492
710.789107	4681.747303
711.123216	4752.207511
711.457275	4744.418928
711.791286	4822.808870
712.125247	4834.479141
712.459159	4736.968102
712.793023	4813.444927
713.126837	4774.378505
713.460602	4765.861476
713.794318	4690.866751
714.127985	4696.502761
714.461602	4611.196355
714.795171	4582.948250
715.128691	4517.808980
715.462162	4460.828818
715.795584	4412.204369
716.128957	4392.536307
716.462281	4341.141744
716.795556	4315.273063
717.128782	4279.372486
717.461960	4212.272207
717.795088	4223.992890
718.128167	4177.473122
718.461198	4124.788023
718.794180	4117.367445
719.127113	4104.063840
719.459997	4075.314140
719.792833	4034.707645
720.125619	4023.634751
720.458357	3990.577385
720.791046	3994.093589
721.123686	3968.837409
721.456278	3924.931479
721.788821	3945.436372
722.121315	3917.301693
722.453761	3889.572826
722.786158	3907.806680
723.118506	3928.545987
723.450805	3878.250395
723.783056	3901.167480
724.115259	3916.905962
724.447412	3921.775717
724.779518	3915.547371
725.111574	3919.507198
725.443582	3952.262095
725.775542	3935.850618
726.107453	3986.151252
726.439315	3986.357939
726.771129	4000.750433
727.102895	4035.352913
727.434612	4085.272939
727.766281	4092.796861
728.097901	4093.162345
728.429473	4098.200978
728.760996	4107.229685
729.092471	4099.224332
729.423897	4082.049121
729.755276	4093.810133
730.086606	4091.821398
730.417887	4126.731388
730.749120	4194.149259
731.080305	4254.985904
731.411442	4277.610602
731.742530	4252.757714
732.073570	4256.042026
732.404562	4310.388185
732.735506	4301.044406
733.066401	4264.153242
733.397249	4200.818706
733.728048	4124.639309
734.058798	4042.314747
734.389501	3972.741782
734.720156	3912.452103
735.050762	3863.167262
735.381320	3861.395297
735.711831	3806.648366
736.042293	3780.814973
736.372707	3803.048982
736.703073	3775.456227
737.033391	3763.049947
737.363661	3781.361938
737.693883	3809.718429
738.024056	3817.862413
738.354182	3810.792194
738.684260	3873.544477
739.014290	3895.753281
739.344272	3888.178947
739.674207	3934.091256
740.004093	3941.660548
740.333931	3930.073456
740.663722	3937.604940
740.993464	3931.389197
741.323159	3905.434817
741.652806	3876.485991
741.982405	3852.535469
742.311956	3823.135460
742.641460	3810.882935
742.970915	3784.636168
743.300323	3744.674941
743.629683	3714.337277
743.958996	3701.137016
744.288260	3675.500228
744.617477	3644.779437
744.946647	3629.703866
745.275768	3607.283334
745.604842	3604.818210
745.933869	3558.429512
746.262847	3547.848130
746.591778	3588.550407
746.920662	3557.207032
747.249498	3526.445912
747.578286	3573.409301
747.907027	3589.074687
748.235720	3586.183585
748.564365	3612.710136
748.892963	3611.033953
749.221514	3594.413268
749.550017	3572.466605
749.878473	3568.221954
750.206881	3538.557284
750.535242	3535.038558
750.863555	3538.615257
751.191821	3532.954041
751.520039	3514.702544
751.848210	3493.363340
752.176334	3525.722506
752.504411	3530.078063
752.832440	3491.382166
753.160421	3470.589927
753.488356	3484.092658
753.816243	3497.381139
754.144082	3452.194757
754.471875	3440.141358
754.799620	3461.556179
755.127318	3447.965229
755.454969	3450.936989
755.782572	3455.932772
756.110129	3430.853032
756.437638	3423.651744
756.765100	3437.320832
757.092515	3445.636216
757.419882	3453.185343
757.747203	3423.515633
758.074477	3428.080397
758.401703	3442.782923
758.728882	3465.248825
759.056014	3469.732931
759.383099	3472.838282
759.710138	3469.548929
760.037129	3487.752535
760.364073	3517.391999
760.690970	3501.721573
761.017820	3477.458499
761.344623	3501.131758
761.671379	3547.044066
761.998088	3593.170624
762.324751	3721.223493
762.651366	3966.533601
762.977935	4431.146504
763.304456	4866.273699
763.630931	4950.143375
763.957359	4596.982822
764.283740	4258.618055
764.610074	4072.871701
764.936362	3876.604458
765.262602	3722.748443
765.588796	3615.210549
765.914943	3529.515974
766.241044	3440.242181
766.567097	3409.392840
766.893104	3366.648897
767.219064	3333.405008
767.544978	3309.356183
767.870845	3253.313676
768.196665	3237.338259
768.522438	3242.770102
768.848165	3242.079464
769.173846	3202.758464
769.499479	3186.009231
769.825066	3170.316119
770.150607	3156.936897
770.476101	3167.505676
770.801548	3165.527023
771.126949	3120.668315
771.452303	3103.535954
771.777611	3113.945937
772.102872	3117.547841
772.428087	3092.773090
772.753256	3080.034095
773.078378	3074.695513
773.403453	3042.361552
773.728482	3027.996784
774.053465	3049.774569
774.378401	3039.286448
774.703291	3006.821417
775.028135	3010.133455
775.352932	3003.204389
775.677683	2992.713748
776.002388	2987.274343
776.327046	2989.245434
776.651658	2980.236893
776.976224	2968.385140
777.300743	2965.945221
777.625216	2959.840384
777.949643	2952.835701
778.274024	2955.968778
778.598359	2945.573919
778.922647	2949.276646
779.246889	2947.461831
779.571086	2934.364913
779.895236	2928.486928
780.219339	2938.405398
780.543397	2948.273457
780.867409	2953.785958
781.191374	2946.209104
781.515294	2943.514607
781.839167	2942.730708
782.162995	2937.432455
782.486776	2945.967129
782.810511	2942.735749
783.134201	2930.752926
783.457844	2934.672423
783.781441	2927.236722
784.104993	2908.196283
784.428498	2906.885583
784.751958	2921.691452
785.075372	2916.577202
785.398739	2899.046589
785.722061	2916.851945
786.045337	2928.209664
786.368568	2911.596542
786.691752	2904.564132
787.014891	2952.790330
787.337983	2983.412819
787.661030	3008.273270
787.984031	3073.583938
788.306987	3120.403655
788.629897	3109.731532
788.952760	3098.056220
789.275579	3078.793971
789.598351	3023.363964
789.921078	2977.461737
790.243759	2970.837661
790.566395	2954.859724
790.888984	2927.637493
791.211529	2911.541089
791.534027	2903.906262
791.856480	2891.898233
792.178888	2877.508259
792.501249	2870.775798
792.823566	2868.910572
793.145836	2865.268338
793.468062	2861.376567
793.790241	2860.252390
794.112375	2865.482587
794.434464	2875.111191
794.756507	2882.655278
795.078505	2888.397152
795.400457	2902.638411
795.722364	2937.641663
796.044226	2961.261989
796.366042	2962.101342
796.687812	2952.752522
797.009538	2970.278093
797.331218	2960.049592
797.652852	2945.208435
797.974442	2929.931218
798.295986	2926.034406
798.617484	2918.931421
798.938938	2903.298803
799.260346	2890.128788
799.581709	2883.691235
799.903026	2877.480533
800.224299	2871.269832
800.545526	2864.431506
800.866708	2847.614217
801.187845	2838.313288
801.508936	2836.886642
801.829983	2845.363342
802.150984	2833.463698
802.471940	2820.533139
802.792851	2820.548262
803.113717	2820.157573
803.434538	2825.528922
803.755314	2818.925011
804.076045	2811.862354
804.396731	2810.438228
804.717372	2814.720688
805.037967	2808.323464
805.358518	2814.030050
805.679024	2825.029848
805.999485	2819.265288
806.319901	2826.648058
806.640272	2817.573981
806.960598	2822.479024
807.280879	2834.267762
807.601115	2840.712877
807.921306	2828.992195
808.241453	2825.246617
808.561554	2829.292143
808.881611	2828.780466
809.201623	2826.464056
809.521590	2824.992039
809.841513	2819.257727
810.161390	2826.602688
810.481223	2819.224959
810.801011	2807.040490
811.120755	2804.739204
811.440453	2808.580563
811.760107	2807.579894
812.079716	2807.232054
812.399281	2799.098152
812.718801	2787.904270
813.038276	2783.208436
813.357707	2791.538942
813.677093	2799.055303
813.996434	2792.030455
814.315731	2789.333437
814.634983	2785.741615
814.954191	2785.550052
815.273354	2797.258131
815.592473	2808.827579
815.911547	2808.401602
816.230577	2815.320586
816.549562	2824.024138
816.868502	2823.192347
817.187399	2834.502176
817.506250	2849.003055
817.825058	2843.238496
818.143821	2854.260978
818.462539	2871.247146
818.781213	2897.735889
819.099843	2932.386260
819.418429	2987.050012
819.736970	3049.459497
820.055466	3119.922224
820.373919	3222.318141
820.692327	3358.991384
821.010691	3520.555323
821.329011	3956.239565
821.647286	4831.381352
821.965517	6186.133475
822.283704	6893.883749
822.601847	6866.336364
822.919945	6248.681592
823.237999	5763.662098
823.556010	5194.064645
823.873976	4659.558665
824.191897	4257.708127
824.509775	3978.453410
824.827609	3711.345353
825.145398	3587.655602
825.463144	3580.915579
825.780845	3667.976306
826.098502	3776.204838
826.416116	4049.536199
826.733685	4355.889639
827.051210	4415.828958
827.368692	4301.523316
827.686129	4041.523285
828.003522	3725.964699
828.320872	3474.685865
828.638177	3281.110598
828.955439	3150.300217
829.272656	3070.897003
829.589830	3006.284534
829.906960	2956.553552
830.224046	2913.570153
830.541088	2881.876419
830.858086	2867.151209
831.175041	2848.201512
831.491952	2850.044053
831.808819	2859.929756
832.125642	2887.237686
832.442421	2930.909202
832.759157	3010.945081
833.075849	3183.211390
833.392497	3457.329172
833.709101	3657.102537
834.025662	3603.041203
834.342179	3446.788119
834.658653	3278.771503
834.975083	3131.688277
835.291469	3035.059441
835.607811	2955.774693
835.924110	2896.757905
836.240366	2849.151769
836.556578	2808.192394
836.872746	2786.512912
837.188871	2761.627256
837.504952	2748.147211
837.820990	2742.541447
838.136984	2727.717935
838.452935	2720.042778
838.768842	2717.058415
839.084706	2735.463667
839.400526	2813.553661
839.716303	2942.347580
840.032037	3018.897501
840.347727	3003.653052
840.663373	2945.321861
840.978977	2869.215561
841.294537	2801.701908
841.610054	2755.729106
841.925527	2735.567011
842.240957	2713.302755
842.556344	2691.376257
842.871687	2676.043587
843.186987	2664.819458
843.502244	2664.368275
843.817458	2658.538180
844.132629	2646.746922
844.447756	2641.146200
844.762840	2633.733183
845.077881	2636.389871
845.392879	2634.249901
845.707833	2630.090949
846.022745	2623.020731
846.337613	2626.731020
846.652438	2623.154322
846.967221	2625.518623
847.281960	2620.727006
847.596656	2618.037550
847.911309	2619.484362
848.225919	2620.485031
848.540485	2613.440018
848.855009	2614.354987
849.169490	2611.753752
849.483928	2614.793568
849.798323	2612.761983
850.112675	2610.417846
850.426984	2615.131325
850.741251	2612.651077
851.055474	2605.999275
851.369654	2618.261882
851.683792	2613.215687
851.997887	2612.217538
852.311938	2609.412136
852.625947	2613.417333
852.939914	2616.464710
853.253837	2614.561675
853.567718	2609.931375
853.881555	2613.407251
854.195350	2612.356170
854.509103	2614.226438
854.822812	2609.482712
855.136479	2610.440532
855.450103	2610.924482
855.763685	2612.595625
856.077224	2610.349791
856.390720	2608.527414
856.704173	2610.591766
857.017584	2616.363887
857.330953	2618.294649
857.644278	2619.353292
857.957561	2615.882457
858.270802	2612.421705
858.584000	2616.056377
858.897155	2616.265585
859.210268	2620.026286
859.523339	2613.818105
859.836367	2610.070007
860.149352	2608.744183
860.462295	2616.119391
860.775195	2606.566405
861.088054	2608.971035
861.400869	2605.253184
861.713642	2604.791919
862.026373	2606.392485
862.339062	2610.445573
862.651708	2616.557972
862.964312	2615.461521
863.276873	2612.061262
863.589392	2618.771038
863.901869	2621.132819
864.214303	2623.050978
864.526696	2628.225722
864.839045	2629.332256
865.151353	2631.487349
865.463619	2631.784777
865.775842	2629.072636
866.088023	2631.116824
866.400162	2629.743110
866.712258	2631.925929
867.024313	2628.598768
867.336325	2623.671040
867.648296	2626.476442
867.960224	2631.144550
868.272110	2632.830816
868.583954	2624.601133
868.895755	2626.418469
869.207515	2630.983233
869.519233	2638.061013
869.830909	2634.002885
870.142542	2630.965589
870.454134	2630.867287
870.765684	2636.473050
871.077191	2639.200314
871.388657	2641.894811
871.700081	2640.921868
872.011463	2639.701909
872.322803	2640.894142
872.634101	2643.422281
872.945357	2652.198929
873.256571	2658.674292
873.567744	2651.767911
873.878874	2650.716830
874.189963	2652.128353
874.501010	2658.644045
874.812015	2663.070178
875.122979	2661.794766
875.433900	2653.360915
875.744780	2655.047181
876.055618	2657.381236
876.366415	2661.825013
876.677169	2664.035559
876.987882	2659.841319
877.298554	2656.022645
877.609183	2666.936743
877.919771	2672.776919
878.230317	2681.155317
878.540822	2691.192254
878.851285	2702.524768
879.161707	2724.020248
879.472087	2762.154057
879.782425	2804.459420
880.092722	2913.358425
880.402977	3097.252156
880.713191	3348.420084
881.023363	3628.332672
881.333494	3809.000064
881.643583	3977.825786
881.953631	3975.637925
882.263637	3799.593271
882.573602	3585.266095
882.883526	3464.288485
883.193408	3355.255889
883.503248	3260.003287
883.813048	3151.018582
884.122806	3038.973897
884.432522	2960.586475
884.742197	2895.815210
885.051831	2860.580065
885.361424	2830.706187
885.670975	2793.903243
885.980485	2764.735127
886.289954	2746.649988
886.599382	2735.725807
886.908768	2723.248952
887.218113	2705.680531
887.527417	2691.819878
887.836680	2684.527849
888.145901	2680.620955
888.455082	2669.278359
888.764221	2662.813079
889.073319	2655.977274
889.382376	2653.108858
889.691392	2654.258241
890.000366	2654.727068
890.309300	2653.141625
890.618193	2652.708086
890.927044	2656.990546
891.235855	2657.260248
891.544625	2657.908036
891.853353	2657.966009
892.162041	2664.169149
892.470687	2682.428208
892.779293	2693.778366
893.087858	2703.585931
893.396381	2724.912532
893.704864	2763.694129
894.013306	2831.086794
894.321707	2916.889753
894.630068	2968.402784
894.938387	2982.931389
895.246665	2976.950060
895.554903	2935.456323
895.863100	2895.434603
896.171256	2839.266066
896.479371	2781.154165
896.787446	2745.074627
897.095480	2725.083932
897.403473	2722.265927
897.711425	2707.250850
898.019336	2691.335927
898.327207	2676.018381
898.635038	2673.402022
898.942827	2673.200376
899.250576	2663.055054
899.558284	2651.717499
899.865952	2648.289515
900.173579	2646.467137
900.481165	2643.102167
900.788711	2639.023874
901.096216	2631.371402
901.403681	2627.557769
901.711105	2627.908130
902.018489	2624.964096
902.325832	2629.937194
902.633135	2632.316619
902.940397	2645.516880
903.247619	2680.777231
903.554800	2747.451531
903.861941	2868.471991
904.169041	2985.918273
904.476101	3042.996737
904.783121	3039.495656
905.090100	2982.800319
905.397039	2911.349525
905.703938	2844.634895
906.010796	2782.285904
906.317614	2735.796384
906.624391	2701.677854
906.931129	2674.349759
907.237826	2653.250010
907.544483	2636.246198
907.851099	2625.379991
908.157675	2615.181737
908.464211	2607.597321
908.770707	2598.372009
909.077163	2591.107707
909.383578	2591.750454
909.689954	2590.543097
909.996289	2588.017479
910.302584	2587.210895
910.608839	2583.984556
910.915054	2585.300297
911.221229	2589.224836
911.527363	2588.645103
911.833458	2591.009404
912.139513	2588.801379
912.445527	2591.677357
912.751502	2596.332862
913.057436	2600.519541
913.363331	2603.579521
913.669186	2617.719958
913.975000	2630.663120
914.280775	2645.146355
914.586510	2663.221412
914.892205	2700.377237
915.197859	2760.737492
915.503475	2838.262877
915.809050	2901.393246
916.114585	2913.280287
916.420081	2922.639189
916.725536	2932.161929
917.030952	2911.495719
917.336328	2866.153060
917.641665	2819.708910
917.946961	2773.705861
918.252218	2740.933319
918.557435	2717.461707
918.862612	2695.605785
919.167750	2681.674556
919.472848	2664.723676
919.777906	2647.671973
920.082925	2638.524800
920.387904	2627.361164
920.692843	2627.068777
920.997743	2620.898405
921.302603	2612.890532
921.607423	2606.367279
921.912204	2602.130189
922.216946	2600.960642
922.521647	2597.545260
922.826310	2593.645927
923.130932	2590.192737
923.435516	2584.027406
923.740059	2583.087231
924.044564	2580.269226
924.349028	2580.425502
924.653454	2574.613051
924.957840	2571.328739
925.262186	2566.090981
925.566493	2566.690878
925.870761	2566.204407
926.174989	2567.588203
926.479178	2566.695919
926.783328	2562.637790
927.087438	2563.197358
927.391509	2559.197203
927.695541	2559.149312
927.999533	2559.270299
928.303486	2554.108158
928.607400	2558.708211
928.911275	2556.628735
929.215110	2556.273333
929.518906	2554.342572
929.822663	2556.848025
930.126381	2556.759805
930.430060	2553.891388
930.733699	2553.447767
931.037299	2557.359702
931.340861	2559.141750
931.644383	2560.187789
931.947866	2555.549928
932.251309	2557.722665
932.554714	2556.558159
932.858080	2556.263251
933.161407	2556.394321
933.464694	2556.437171
933.767943	2555.214691
934.071153	2557.384908
934.374323	2553.883827
934.677455	2554.922304
934.980548	2553.961964
935.283602	2554.229146
935.586617	2552.593291
935.889593	2555.307952
936.192530	2552.300904
936.495428	2555.534804
936.798287	2553.961964
937.101108	2555.721327
937.403890	2560.218036
937.706632	2559.953376
938.009336	2563.938408
938.312002	2564.792883
938.614628	2571.563153
938.917216	2572.770509
939.219765	2577.310068
939.522275	2578.033474
939.824747	2575.553226
940.127179	2570.645663
940.429573	2566.895045
940.731929	2568.878739
941.034246	2560.757440
941.336524	2567.968810
941.638763	2566.350600
941.940964	2564.855898
942.243126	2563.603171
942.545250	2563.023438
942.847335	2561.185938
943.149381	2560.757440
943.451389	2559.711400
943.753359	2560.974209
944.055290	2559.272820
944.357182	2556.356512
944.659036	2558.461194
944.960851	2556.558159
945.262628	2559.933211
945.564367	2558.919939
945.866067	2557.200906
946.167729	2556.729558
946.469352	2557.210988
946.770937	2556.147305
947.072484	2552.903322
947.373992	2559.746688
947.675462	2557.158056
947.976893	2555.224773
948.278286	2555.655792
948.579641	2554.302242
948.880958	2555.466749
949.182236	2556.374157
949.483476	2553.818292
949.784678	2555.126471
950.085841	2553.556152
950.386967	2555.144115
950.688054	2555.857438
950.989103	2554.435833
951.290114	2557.904147
951.591087	2560.868345
951.892021	2559.482028
952.192917	2559.575289
952.493776	2561.080074
952.794596	2563.328428
953.095378	2563.693912
953.396122	2562.383212
953.696828	2560.996895
953.997496	2558.506565
954.298126	2556.840463
954.598718	2556.109496
954.899272	2555.091183
955.199788	2553.775442
955.500266	2555.214691
955.800706	2550.528939
956.101108	2544.547610
956.401472	2545.180274
956.701798	2546.841335
957.002087	2543.937630
957.302337	2546.972405
957.602550	2546.062476
957.902724	2546.128011
958.202861	2543.246992
958.502960	2542.969728
958.803022	2547.176571
959.103045	2544.305634
959.403031	2542.697506
959.702979	2542.344625
960.002889	2542.085006
960.302762	2542.523586
960.602596	2543.841848
960.902393	2540.572660
961.202153	2541.681714
961.501875	2541.787578
961.801559	2544.824873
962.101205	2542.009389
962.400814	2541.396888
962.700385	2540.028215
962.999918	2541.858154
963.299414	2540.224820
963.598873	2540.469316
963.898293	2539.549306
964.197677	2541.172557
964.497022	2539.004861
964.796331	2539.496373
965.095601	2543.007537
965.394835	2540.136600
965.694030	2540.161806
965.993189	2539.768596
966.292309	2540.623071
966.591393	2538.979655
966.890439	2541.706919
967.189447	2541.159954
967.488419	2540.509645
967.787353	2539.864378
968.086249	2540.209697
968.385108	2540.592824
968.683930	2541.517876
968.982714	2539.766075
969.281462	2540.340767
969.580172	2540.368493
969.878844	2536.191897
970.177480	2542.266488
970.476078	2538.962011
970.774639	2540.444110
971.073162	2540.174409
971.371649	2534.886238
971.670098	2536.431352
971.968510	2535.738193
972.266885	2538.407484
972.565223	2541.933771
972.863524	2540.340767
973.161788	2542.891591
973.460014	2540.224820
973.758204	2542.296734
974.056356	2542.170706
974.354471	2542.205994
974.652550	2541.454862
974.950591	2538.525951
975.248595	2543.257074
975.546563	2541.301107
975.844493	2541.744728
976.142386	2539.466127
976.440243	2539.355221
976.738062	2541.432177
977.035845	2541.265818
977.333590	2539.750952
977.631299	2540.907897
977.928971	2538.964532
978.226606	2540.938143
978.524204	2539.254398
978.821765	2539.947557
979.119290	2538.142824
979.416777	2538.740200
979.714228	2539.191384
980.011642	2539.395550
980.309020	2544.416540
980.606360	2540.882691
980.903664	2539.072917
981.200931	2540.000489
981.498162	2542.843700
981.795356	2542.478216
982.092513	2545.855789
982.389633	2548.250337
982.686717	2552.865513
982.983764	2552.114382
983.280775	2554.634958
983.577749	2554.544218
983.874686	2551.663198
984.171587	2547.960471
984.468451	2548.920811
984.765279	2546.662374
985.062070	2545.545758
985.358824	2543.836807
985.655543	2540.930582
985.952224	2543.458720
986.248869	2541.114584
986.545478	2536.786753
986.842050	2538.321785
987.138586	2537.079140
987.435086	2535.095446
987.731549	2533.210055
988.027975	2538.412525
988.324366	2536.358255
988.620719	2539.866898
988.917037	2536.479243
989.213318	2538.309182
989.509563	2535.622247
989.805772	2539.251878
990.101944	2537.313554
990.398080	2536.191897
990.694180	2535.493697
990.990244	2536.091074
991.286271	2537.142155
991.582262	2536.764068
991.878217	2536.630477
992.174136	2537.258101
992.470019	2536.809438
992.765865	2535.876825
993.061676	2537.999151
993.357450	2539.365303
993.653188	2538.641898
993.948890	2536.328008
994.244556	2537.061496
994.540186	2538.379758
994.835780	2541.243133
995.131337	2538.399923
995.426859	2539.589635
995.722345	2540.000489
996.017795	2538.956970
996.313208	2538.694830
996.608586	2540.653318
996.903928	2540.131559
997.199234	2541.913607
997.494504	2540.890252
997.789738	2543.642722
998.084936	2539.617361
998.380099	2538.094933
998.675225	2537.525282
998.970316	2539.330015
999.265371	2536.106197
999.560390	2536.648122
999.855373	2537.091743
1000.150320	2535.158461
1000.445232	2536.569984
1000.740108	2536.537216
1001.034948	2537.328677
1001.329752	2533.820034
1001.624521	2540.103833
1001.919254	2531.117976
1002.213951	2534.901362
1002.508613	2531.594365
1002.803239	2535.899510
1003.097829	2532.879859
1003.392384	2537.016126
1003.686903	2536.524613
1003.981386	2536.723739
1004.275834	2534.402287
1004.570246	2536.091074
1004.864623	2537.079140
1005.158964	2535.163502
1005.453270	2534.848430
1005.747540	2535.360107
1006.041775	2536.375899
1006.335974	2534.102339
1006.630138	2535.221475
1006.924266	2535.294572
1007.218359	2533.386495
1007.512416	2534.336752
1007.806438	2533.434386
1008.100425	2535.793646
1008.394376	2531.400280
1008.688292	2535.198790
1008.982172	2536.023018
1009.276017	2534.775333
1009.569827	2532.685775
1009.863602	2537.195087
1010.157341	2534.551002
1010.451045	2534.876156
1010.744714	2533.767102
1011.038347	2537.066537
1011.331945	2535.783564
1011.625508	2534.913965
1011.919036	2536.262473
1012.212528	2534.823224
1012.505986	2533.126876
1012.799408	2534.530837
1013.092795	2535.692823
1013.386147	2538.278935
1013.679464	2532.529499
1013.972745	2534.916485
1014.265992	2534.036804
1014.559204	2536.847247
1014.852380	2534.301464
1015.145521	2533.346166
1015.438628	2536.141486
1015.731699	2532.834489
1016.024736	2535.612164
1016.317737	2535.420601
1016.610703	2536.322967
1016.903635	2533.636032
1017.196531	2531.919519
1017.489393	2530.911288
1017.782219	2528.320135
1018.075011	2533.983872
1018.367768	2535.632329
1018.660490	2534.835827
1018.953177	2534.835827
1019.245829	2534.835827
