Dividing Wavelength (nm)	Counts (n)	Blue Motor Position (mm): 36.100000	Red Motor Position (mm): 0.000000	
326.493990	2131.374640
326.888308	2131.374640
327.282561	2131.374640
327.676750	2098.203848
328.070874	2095.809300
328.464933	2101.848602
328.858929	2103.129055
329.252859	2115.880654
329.646726	2127.036728
330.040528	2140.620117
330.434265	2155.582261
330.827938	2172.129849
331.221547	2192.624660
331.615091	2210.435056
332.008571	2229.840978
332.401986	2251.638927
332.795338	2270.308840
333.188625	2287.000101
333.581847	2308.850982
333.975006	2327.049548
334.368100	2344.123936
334.761129	2361.616739
335.154095	2377.587115
335.546996	2398.124776
335.939833	2424.401790
336.332606	2438.829572
336.725315	2451.056891
337.117960	2461.489559
337.510540	2469.575570
337.903056	2479.851962
338.295508	2490.690443
338.687896	2499.252842
339.080220	2505.491270
339.472480	2510.449245
339.864676	2517.335461
340.256807	2519.669515
340.648875	2522.542973
341.040879	2525.237470
341.432818	2528.501617
341.824694	2528.741072
342.216506	2530.245856
342.608253	2530.374406
342.999937	2528.388191
343.391557	2529.731658
343.783113	2526.752337
344.174605	2527.649662
344.566033	2525.615556
344.957397	2522.515247
345.348697	2521.519619
345.739934	2519.518281
346.131106	2517.007786
346.522215	2517.441325
346.913260	2514.978722
347.304241	2513.171468
347.695159	2513.272291
348.086012	2509.907321
348.476802	2509.950171
348.867528	2505.546723
349.258191	2503.633605
349.648789	2504.059583
350.039324	2501.889366
350.429796	2503.540344
350.820203	2499.058758
351.210548	2501.695281
351.600828	2497.947183
351.991045	2499.444406
352.381198	2498.287461
352.771288	2496.018942
353.161314	2494.733448
353.551276	2496.039107
353.941175	2497.291833
354.331010	2496.901144
354.720782	2497.440548
355.110490	2495.683705
355.500135	2497.561535
355.889717	2493.757985
356.279235	2497.347286
356.668689	2496.540702
357.058080	2497.080105
357.447408	2492.338900
357.836672	2494.909888
358.225873	2497.496000
358.615010	2492.595999
359.004084	2498.247132
359.393095	2498.315188
359.782043	2499.386433
360.170927	2500.918944
360.559748	2500.954232
360.948505	2501.390292
361.337199	2501.967504
361.725830	2500.873573
362.114398	2504.561177
362.502903	2500.747544
362.891344	2504.959428
363.279722	2504.616630
363.668037	2506.970849
364.056289	2507.641322
364.444478	2506.146620
364.832603	2504.122597
365.220665	2505.168636
365.608665	2509.294821
365.996601	2508.475633
366.384474	2507.457320
366.772284	2507.512773
367.160031	2507.686693
367.547715	2510.640809
367.935336	2511.465037
368.322893	2509.889677
368.710388	2509.178874
369.097820	2512.841273
369.485189	2509.751045
369.872495	2511.275994
370.259738	2511.396982
370.646918	2512.737929
371.034035	2509.647702
371.421090	2509.630058
371.808081	2514.482168
372.195010	2508.838596
372.581875	2513.191633
372.968678	2512.836231
373.355418	2515.213135
373.742096	2514.580471
374.128710	2515.871006
374.515262	2514.857734
374.901751	2512.748011
375.288177	2514.010820
375.674540	2517.529546
376.060841	2517.045595
376.447079	2516.080214
376.833254	2517.758918
377.219367	2512.309431
377.605417	2514.325892
377.991404	2511.822959
378.377329	2517.723630
378.763191	2513.909997
379.148991	2517.650533
379.534727	2517.960564
379.920402	2519.344361
380.306013	2519.014165
380.691563	2522.979033
381.077049	2516.052488
381.462474	2519.752694
381.847835	2519.752694
382.233134	2521.229753
382.618371	2517.400996
383.003545	2522.429547
383.388657	2520.655061
383.773706	2523.021883
384.158693	2520.707993
384.543618	2523.573889
384.928480	2522.197654
385.313280	2525.464322
385.698017	2523.236132
386.082692	2525.592871
386.467305	2527.042203
386.851856	2523.682274
387.236344	2527.747964
387.620770	2527.488345
388.005133	2525.371060
388.389435	2525.713859
388.773674	2526.850639
389.157851	2526.069260
389.541965	2528.713345
389.926018	2529.840043
390.310008	2528.325177
390.693936	2528.587317
391.077802	2528.438603
391.461606	2530.578572
391.845348	2526.752337
392.229027	2532.458923
392.612645	2529.814838
392.996200	2529.766947
393.379694	2531.518747
393.763125	2534.538399
394.146494	2532.090918
394.529801	2533.550332
394.913047	2534.636701
395.296230	2533.444468
395.679351	2533.545291
396.062410	2532.940353
396.445408	2536.043183
396.828343	2538.687268
397.211217	2530.888603
397.594028	2534.210724
397.976778	2533.890610
398.359466	2536.370858
398.742092	2536.358255
399.124656	2539.738349
399.507158	2544.502239
399.889598	2545.480223
400.271977	2550.360060
400.654294	2557.657130
401.036549	2558.579661
401.418742	2566.416135
401.800874	2575.366704
402.182944	2581.307703
402.564952	2591.778180
402.946898	2603.695468
403.328783	2612.741818
403.710606	2623.832357
404.092367	2644.821201
404.474067	2655.662202
404.855705	2674.289266
405.237282	2683.698579
405.618797	2708.198587
406.000250	2730.770353
406.381642	2758.804210
406.762972	2775.717281
407.144240	2801.621250
407.525447	2822.748726
407.906593	2852.057994
408.287677	2885.049826
408.668700	2901.088257
409.049661	2936.877928
409.430560	2976.002323
409.811399	2991.939931
410.192176	3060.358471
410.572891	3076.739701
410.953545	3137.377220
411.334138	3140.006181
411.714669	3191.572144
412.095139	3199.572455
412.475547	3279.467182
412.855894	3312.385917
413.236180	3357.141280
413.616405	3380.083572
413.996568	3450.924386
414.376670	3469.942139
414.756711	3489.237155
415.136691	3543.222872
415.516609	3622.273205
415.896466	3676.062317
416.276262	3741.814086
416.655997	3772.575207
417.035670	3915.756579
417.415283	4006.570445
417.794834	4022.896222
418.174324	4037.203017
418.553753	4027.208929
418.933121	4183.204914
419.312428	4276.430972
419.691674	4282.240902
420.070859	4411.906941
420.449983	4393.403386
420.829045	4515.989124
421.208047	4494.251668
421.586988	4588.223817
421.965867	4639.646107
422.344686	4777.806490
422.723444	4705.216395
423.102141	4594.192543
423.480777	4866.034244
423.859352	4715.452458
424.237866	4965.143328
424.616319	4985.494467
424.994712	5109.658086
425.373044	5037.612436
425.751314	5188.632802
426.129524	5045.814393
426.507673	5245.537347
426.885762	5341.778015
427.263789	5308.728210
427.641756	5218.834355
428.019662	5350.090877
428.397508	5381.104056
428.775292	5353.481053
429.153016	5464.928362
429.530679	5408.424589
429.908282	5505.096276
430.285824	5398.070059
430.663305	5672.442419
431.040726	5431.598773
431.418086	5439.074804
431.795385	5556.059821
432.172624	5573.653447
432.549802	5577.630918
432.926920	5599.557417
433.303977	5613.987719
433.680974	5654.780736
434.057910	5680.276372
434.434786	5694.121901
434.811601	5662.644936
435.188355	5905.676443
435.565050	5775.758346
435.941683	5764.352736
436.318257	5978.011959
436.694770	5963.019568
437.071222	6000.009034
437.447614	5938.111227
437.823946	5849.938925
438.200218	6005.266958
438.576429	5879.762391
438.952580	5969.903263
439.328670	6021.166757
439.704700	5926.375420
440.080670	5916.305716
440.456580	6188.066758
440.832429	6074.282874
441.208218	5916.159522
441.583947	6077.514254
441.959616	6074.424027
442.335224	6002.088510
442.710773	6139.510364
443.086261	6167.045146
443.461689	5964.965453
443.837057	6117.863649
444.212365	6269.861999
444.587612	6160.693292
444.962800	6315.726417
445.337927	6297.220341
445.712995	5909.336320
446.088002	6487.392829
446.462949	6312.457229
446.837837	6246.768474
447.212664	6418.815493
447.587431	6564.489715
447.962139	7107.152283
448.336786	8027.770319
448.711374	7764.312057
449.085901	6842.458938
449.460369	6766.075375
449.834776	6694.864036
450.209124	7093.064778
450.583412	7239.966522
450.957640	7388.289871
451.331808	7156.346383
451.705917	6705.263937
452.079965	6628.769468
452.453954	6840.142528
452.827883	6717.609722
453.201752	6812.557334
453.575562	6608.206602
453.949311	6816.965823
454.323001	6698.060128
454.696632	6779.588188
455.070202	6915.900988
455.443713	7067.881694
455.817164	7175.739702
456.190556	7255.253821
456.563888	7324.438617
456.937160	7368.319340
457.310373	7029.211003
457.683526	7053.915178
458.056619	6944.065915
458.429653	6930.855571
458.802628	6868.594801
459.175542	6977.743343
459.548398	7330.175450
459.921194	7485.924418
460.293930	7490.176632
460.666607	8021.536932
461.039224	8333.370106
461.411782	8448.825132
461.784280	8465.763409
462.156719	8361.756843
462.529099	8237.938543
462.901419	7826.005698
463.273680	7719.445788
463.645882	7737.745176
464.018024	7603.121163
464.390106	7770.432018
464.762130	8152.455697
465.134094	8624.579920
465.505999	9646.361311
465.877845	10868.636952
466.249631	11514.539829
466.621358	11124.099943
466.993026	10499.072484
467.364634	10244.998330
467.736184	9880.217917
468.107674	9548.343636
468.479105	9578.020908
468.850477	9339.813786
469.221790	9116.485630
469.593043	8790.554869
469.964238	8651.300556
470.335373	8666.272783
470.706449	8715.277839
471.077467	8705.613947
471.448425	10010.967804
471.819324	11079.226112
472.190164	11096.910480
472.560945	9856.267395
472.931667	9066.676509
473.302330	8935.853526
473.672934	8582.811440
474.043479	8937.948125
474.413965	8877.928147
474.784393	8764.761805
475.154761	8913.458200
475.525070	9007.823559
475.895321	8834.186056
476.265513	9008.680555
476.635645	9177.831431
477.005719	9177.503756
477.375734	9290.783524
477.745691	9530.540801
478.115588	9661.378908
478.485427	9911.072299
478.855207	10442.137692
479.224928	11255.096847
479.594591	11880.096580
479.964194	11688.096674
480.333739	11629.725153
480.703226	11544.214581
481.072653	11639.928449
481.442022	11875.602391
481.811333	12054.452447
482.180584	11869.081659
482.549777	11577.002246
482.918912	11400.035061
483.287988	11424.106570
483.657005	11439.592995
484.025964	11124.740170
484.394864	11248.301371
484.763706	11227.138607
485.132489	10977.747685
485.501213	10940.871645
485.869879	11021.661177
486.238487	10857.984993
486.607036	10965.356529
486.975527	10749.554815
487.343959	10939.558424
487.712333	10993.768472
488.080648	10916.449775
488.448905	10957.230189
488.817104	10904.403938
489.185244	11172.976450
489.553326	11322.875160
489.921350	11865.018489
490.289315	12917.293819
490.657222	13262.970779
491.025070	13177.697142
491.392861	13047.037996
491.760593	12666.032629
492.128267	12310.843011
492.495883	11988.675472
492.863440	11650.363637
493.230939	11312.220681
493.598380	11250.453944
493.965763	11121.607093
494.333088	11017.285455
494.700354	10937.342837
495.067563	11005.317756
495.434713	10833.951293
495.801805	10954.487802
496.168839	10877.093487
496.535815	10816.181225
496.902733	10818.401853
497.269593	10749.033056
497.636395	10854.864519
498.003139	10831.355098
498.369825	10709.883455
498.736453	10863.109326
499.103023	10793.097782
499.469535	10826.588687
499.835989	10809.473970
500.202385	10770.039544
500.568723	10621.133942
500.935003	10850.047697
501.301226	10652.900773
501.667390	10917.939436
502.033497	11010.878148
502.399546	10864.420026
502.765537	10775.068095
503.131470	10848.805052
503.497345	11016.990548
503.863163	10629.303132
504.228923	10944.241656
504.594625	11010.716832
504.960269	10752.760989
505.325856	10973.014042
505.691385	10769.595923
506.056856	10924.697103
506.422270	10947.742738
506.787625	10841.654176
507.152924	10948.650145
507.518164	10929.637434
507.883347	10850.440907
508.248472	10773.394432
508.613540	11016.017605
508.978550	10894.556044
509.343503	10866.935562
509.708398	10994.880047
510.073236	11099.186561
510.438016	11099.373084
510.802738	11054.625282
511.167403	11107.058323
511.532010	11006.925884
511.896561	11232.265461
512.261053	11297.001438
512.625488	11174.894609
512.989866	11160.010603
513.354186	11143.473097
513.718449	11047.121524
514.082655	11240.112017
514.446803	11136.125616
514.810894	11262.058680
515.174927	11126.287804
515.538904	11144.128448
515.902822	11298.481017
516.266684	11179.035917
516.630488	11129.541869
516.994235	11184.193018
517.357925	11242.113355
517.721558	11330.648619
518.085133	11349.900786
518.448651	11359.640295
518.812112	11244.699467
519.175516	11258.703792
519.538863	11378.486649
519.902152	11294.291818
520.265385	11455.253339
520.628560	11371.519774
520.991678	11344.592451
521.354739	11404.899774
521.717743	11343.029693
522.080690	11317.428193
522.443580	11454.950870
522.806413	11407.180896
523.169189	11438.080649
523.531908	11499.917962
523.894569	11320.495735
524.257174	11326.920686
524.619722	11443.759509
524.982213	11395.210677
525.344647	11437.246338
525.707025	11383.051413
526.069345	11488.477064
526.431608	11398.237889
526.793815	11514.683502
527.155964	11301.195678
527.518057	11351.713081
527.880093	11303.817078
528.242072	11366.234124
528.603995	11269.514547
528.965860	11197.960409
529.327669	11248.722308
529.689421	11198.915707
530.051117	11168.073928
530.412755	11274.704414
530.774337	11158.646971
531.135862	11138.396656
531.497331	11167.174082
531.858743	11021.537668
532.220098	11191.232989
532.581396	11053.697709
532.942638	11040.741944
533.303824	10999.495223
533.664953	11016.884683
534.026025	10932.946951
534.387040	11034.707683
534.747999	11039.398476
535.108902	11087.213821
535.469748	10852.555671
535.830537	10956.917638
536.191270	10935.071797
536.551947	10951.198449
536.912567	10953.991248
537.273131	10880.319826
537.633638	10859.762000
537.994089	10851.665907
538.354483	10797.158431
538.714821	10948.529158
539.075103	10953.943357
539.435328	10908.888044
539.795497	10743.954093
540.155609	10905.770091
540.515665	10985.027112
540.875665	10724.648995
541.235609	10790.063007
541.595496	10789.316916
541.955328	10943.649321
542.315102	10829.426857
542.674821	10779.463981
543.034483	10774.939546
543.394090	10783.930443
543.753640	10707.786335
544.113134	10927.517628
544.472571	10782.763416
544.831953	10928.689697
545.191278	10730.146373
545.550548	10768.484348
545.909761	10899.962682
546.268918	10876.201203
546.628019	10964.920469
546.987064	10826.606331
547.346053	10738.426468
547.704986	10848.744558
548.063863	10831.040026
548.422684	10818.676596
548.781449	10736.682229
549.140158	10843.342962
549.498811	10720.379138
549.857408	10581.213044
550.215949	10803.996756
550.574434	10654.345063
550.932864	10761.031002
551.291237	10819.515948
551.649555	10764.615262
552.007817	10772.565162
552.366022	10734.519574
552.724173	10735.505120
553.082267	10710.672396
553.440305	10849.795639
553.798288	10654.995372
554.156215	10809.088322
554.514086	10777.127406
554.871902	10635.334872
555.229661	10668.346868
555.587365	10644.116562
555.945014	10542.532271
556.302606	10664.197998
556.660143	10555.503160
557.017625	10715.418642
557.375050	10607.379153
557.732421	10743.056768
558.089735	10659.842442
558.446994	10659.479478
558.804197	10695.261588
559.161345	10699.095386
559.518437	10552.107943
559.875474	10633.023503
560.232455	10665.944758
560.589381	10617.106060
560.946251	10608.082394
561.303065	10716.505011
561.659825	10655.897739
562.016528	10581.036604
562.373177	10463.721392
562.729770	10580.575338
563.086307	10496.803964
563.442789	10581.054248
563.799216	10467.855138
564.155587	10514.490853
564.511904	10472.608947
564.868164	10463.948244
565.224370	10465.611825
565.580520	10393.656916
565.936615	10407.746941
566.292654	10277.208782
566.648638	10405.642259
567.004567	10363.072235
567.360441	10345.859215
567.716260	10257.447459
568.072023	10345.098001
568.427732	10308.022835
568.783385	10212.926509
569.138982	10274.937742
569.494525	10298.709303
569.850013	10177.625829
570.205445	10258.990052
570.560823	10148.475357
570.916145	10066.574251
571.271412	10142.962855
571.626625	10079.928268
571.981782	10055.672756
572.336884	10030.928252
572.691931	10042.795128
573.046923	9984.695830
573.401860	9942.559346
573.756743	9881.213545
574.111570	9924.428836
574.466342	9907.477956
574.821059	9940.903327
575.175722	9826.302777
575.530330	9836.848870
575.884882	9831.492644
576.239380	9754.357949
576.593823	9734.803314
576.948211	9743.630374
577.302544	9626.221901
577.656823	9648.942381
578.011047	9645.116146
578.365216	9622.441036
578.719330	9544.834993
579.073389	9559.766890
579.427394	9500.097273
579.781344	9482.468358
580.135239	9427.270244
580.489080	9434.983209
580.842866	9339.924692
581.196597	9341.920989
581.550273	9385.804233
581.903895	9351.133697
582.257463	9419.204398
582.610975	9294.196385
582.964434	9321.007762
583.317837	9240.603879
583.671186	9229.982168
584.024481	9220.550169
584.377721	9148.633068
584.730906	9120.737843
585.084037	9150.954519
585.437113	9085.953882
585.790135	9116.846072
586.143103	9003.309205
586.496016	8981.221390
586.848874	9030.670068
587.201679	9025.888533
587.554428	8905.931757
587.907124	8959.047875
588.259765	8932.327239
588.612352	8932.450747
588.964884	8804.160943
589.317362	8823.619797
589.669786	8822.137698
590.022155	8871.707364
590.374470	8891.940035
590.726731	8820.461514
591.078937	8679.483126
591.431090	8790.043192
591.783188	8659.348758
592.135232	8654.668047
592.487222	8656.631576
592.839157	8708.661325
593.191038	8639.940316
593.542866	8584.298580
593.894639	8486.222932
594.246358	8539.444914
594.598022	8555.465701
594.949633	8449.225904
595.301190	8424.781349
595.652692	8457.173283
596.004141	8570.453051
596.355535	8336.538471
596.706876	8321.062129
597.058162	8260.192717
597.409395	8336.679624
597.760573	8396.732369
598.111698	8304.043194
598.462768	8291.223539
598.813785	8255.564938
599.164748	8227.647028
599.515657	8217.733599
599.866511	8125.324207
600.217312	8253.006552
600.568060	8110.394830
600.918753	8215.092034
601.269392	8185.676901
601.619978	8095.631811
601.970510	8156.027355
602.320988	8155.465266
602.671412	8215.210501
603.021783	8149.244482
603.372100	8121.661809
603.722363	8122.647355
604.072572	8098.273376
604.422728	8114.110161
604.772830	8040.093419
605.122878	8049.028865
605.472872	8043.138276
605.822813	8073.072648
606.172701	8012.546034
606.522534	8098.124662
606.872314	8095.006708
607.222041	8058.188641
607.571714	8114.258875
607.921333	8077.750839
608.270899	8076.137669
608.620411	8170.616454
608.969870	8072.182884
609.319276	8066.589724
609.668627	8084.450532
610.017926	8120.603167
610.367171	8166.021442
610.716362	8139.545302
611.065500	8132.981720
611.414585	8162.835433
611.763616	8143.943709
612.112594	8133.614385
612.461518	8145.773648
612.810389	8208.069707
613.159207	8140.810632
613.507971	8092.705422
613.856682	8216.007003
614.205340	8168.350456
614.553945	8247.771314
614.902496	8143.237948
615.250994	8196.585958
615.599439	8179.186416
615.947830	8195.870114
616.296169	8167.024632
616.644454	8186.372581
616.992686	8179.982918
617.340864	8240.378462
617.688990	8137.934654
618.037063	8234.775219
618.385082	8184.983743
618.733048	8270.958101
619.080961	8205.168523
619.428821	8223.541008
619.776628	8231.652224
620.124382	8178.392434
620.472083	8162.926174
620.819731	8182.798402
621.167326	8081.806447
621.514868	8093.025535
621.862357	7978.830797
622.209793	7998.939960
622.557176	7929.684588
622.904506	7898.263077
623.251783	7832.753282
623.599007	7790.047148
623.946179	7796.184752
624.293297	7746.370591
624.640363	7667.058117
624.987376	7649.945920
625.334336	7596.522293
625.681243	7545.039509
626.028097	7534.480812
626.374899	7511.518356
626.721647	7503.026533
627.068343	7434.449196
627.414987	7404.784527
627.761577	7362.698454
628.108115	7398.911582
628.454600	7295.330994
628.801032	7342.422933
629.147412	7303.966491
629.493739	7291.623226
629.840014	7232.009061
630.186236	7287.212216
630.532405	7167.835172
630.878521	7220.484983
631.224585	7179.507964
631.570597	7098.242043
631.916556	7135.271839
632.262462	7136.958105
632.608316	7092.853050
632.954117	7072.461583
633.299866	7059.362144
633.645562	7051.659261
633.991206	6968.936447
634.336797	6912.354537
634.682336	6870.588577
635.027823	6837.485840
635.373257	6830.302196
635.718639	6758.334684
636.063968	6772.654081
636.409245	6668.715571
636.754470	6664.077710
637.099642	6624.013139
637.444762	6570.965077
637.789829	6577.775676
638.134845	6521.108066
638.479808	6505.281363
638.824719	6511.567682
639.169577	6431.040291
639.514383	6456.268745
639.859137	6383.832406
640.203839	6396.412605
640.548489	6384.548249
640.893086	6357.235278
641.237632	6328.087326
641.582125	6353.366192
641.926566	6321.780843
642.270955	6332.745352
642.615292	6325.551626
642.959576	6339.646692
643.303809	6330.910372
643.647990	6336.062432
643.992118	6331.031360
644.336195	6276.511281
644.680219	6300.653367
645.024192	6287.193486
645.368112	6387.628394
645.711981	6409.948103
646.055797	6488.093549
646.399562	6445.405059
646.743274	6568.152114
647.086935	6621.850484
647.430544	6619.208920
647.774101	6639.219780
648.117606	6644.104658
648.461059	6639.013093
648.804460	6597.184119
649.147810	6510.748495
649.491108	6480.362940
649.834354	6452.071985
650.177548	6373.820674
650.520690	6285.784484
650.863781	6263.053921
651.206820	6282.613598
651.549807	6203.865734
651.892742	6144.188555
652.235626	6151.180635
652.578458	6136.072297
652.921238	6045.765067
653.263967	6078.726651
653.606644	6023.599113
653.949269	6022.263208
654.291843	5964.751204
654.634365	6015.049317
654.976836	5969.744467
655.319255	5972.242359
655.661622	5945.231856
656.003938	5943.220436
656.346203	5907.130816
656.688416	5940.639365
657.030577	5888.097939
657.372687	5858.881932
657.714746	5845.686712
658.056753	5887.150202
658.398708	5828.093085
658.740612	5818.593031
659.082465	5868.613880
659.424266	5857.810687
659.766016	5858.738259
660.107715	5833.063663
660.449362	5851.882290
660.790958	5845.906002
661.132503	5831.637016
661.473996	5867.323344
661.815438	5855.229616
662.156829	5856.515110
662.498168	5840.297718
662.839456	5821.474050
663.180693	5858.413105
663.521879	5853.366910
663.863013	5846.377350
664.204097	5867.081369
664.545129	5906.505713
664.886110	5902.873561
665.227040	5937.614673
665.567918	5902.525722
665.908746	5929.442963
666.249522	5932.467655
666.590248	5915.027783
666.930922	5942.865035
667.271545	5962.613755
667.612118	5960.957736
667.952639	5934.763900
668.293109	5959.629392
668.633528	5919.700933
668.973896	5918.183545
669.314213	5904.816926
669.654480	5893.491974
669.994695	5878.207195
670.334859	5877.627463
670.674973	5867.618252
671.015035	5868.979363
671.355047	5867.217480
671.695008	5852.635943
672.034918	5828.445966
672.374777	5839.430640
672.714585	5825.852292
673.054342	5826.109391
673.394049	5821.269883
673.733705	5852.482187
674.073310	5839.254200
674.412864	5800.737264
674.752368	5790.208814
675.091820	5797.599145
675.431223	5728.989042
675.770574	5732.684207
676.109875	5686.653432
676.449125	5684.954563
676.788324	5653.512886
677.127473	5594.985090
677.466571	5590.473257
677.805619	5578.059416
678.144616	5565.244803
678.483562	5548.074633
678.822458	5516.050703
679.161303	5510.984343
679.500098	5500.970091
679.838842	5476.931349
680.177535	5486.549871
680.516179	5498.812477
680.854771	5512.196741
681.193314	5597.301500
681.531805	5702.530546
681.870247	5851.887331
682.208638	5955.588907
682.546978	5971.070290
682.885268	5946.865190
683.223508	5860.336305
683.561697	5804.248427
683.899836	5772.993273
684.237925	5731.151697
684.575963	5698.268250
684.913951	5650.498276
685.251889	5714.382298
685.589776	5683.636301
685.927614	5653.495242
686.265401	5726.360080
686.603137	5707.899374
686.940824	5788.656138
687.278460	5815.026414
687.616046	5821.640408
687.953582	5893.305451
688.291068	5871.172265
688.628504	5940.336896
688.965889	5892.312344
689.303224	5840.461556
689.640510	5791.864833
689.977745	5715.652669
690.314930	5617.788749
690.652065	5559.878495
690.989150	5466.844000
691.326185	5391.062855
691.663170	5340.270710
692.000105	5261.714409
692.336990	5185.870250
692.673825	5160.697248
693.010610	5093.130663
693.347345	5022.529303
693.684030	5010.009598
694.020665	4965.385304
694.357251	4876.088825
694.693786	4887.789343
695.030272	4855.334395
695.366707	4822.786185
695.703093	4782.151964
696.039429	4806.339421
696.375716	4790.588335
696.711952	4763.416516
697.048139	4750.395216
697.384276	4733.036002
697.720363	4742.732662
698.056400	4750.911934
698.392388	4703.469635
698.728326	4681.659083
699.064214	4662.593439
699.400053	4653.363087
699.735842	4621.208087
700.071581	4596.163634
700.407270	4567.509716
700.742910	4558.274322
701.078501	4498.299715
701.414042	4498.793748
701.749533	4463.563644
702.084974	4401.534767
702.420366	4456.654743
702.755709	4400.869334
703.091002	4343.332125
703.426246	4396.420516
703.761440	4348.080892
704.096584	4308.696878
704.431679	4329.718489
704.766725	4315.230213
705.101721	4309.359789
705.436668	4334.704190
705.771565	4281.930871
706.106413	4308.971620
706.441212	4346.621478
706.775961	4350.321685
707.110661	4332.470959
707.445311	4360.005741
707.779913	4382.983321
708.114465	4396.259199
708.448967	4416.307868
708.783421	4477.578052
709.117825	4521.715874
709.452180	4524.622100
709.786485	4571.172114
710.120742	4657.580012
710.454949	4638.932784
710.789107	4705.995253
711.123216	4783.336636
711.457275	4770.577475
711.791286	4848.070092
712.125247	4860.501577
712.459159	4765.243934
712.793023	4837.692877
713.126837	4803.385304
713.460602	4794.142349
713.794318	4715.409608
714.127985	4722.368921
714.461602	4636.699552
714.795171	4607.055047
715.128691	4541.439389
715.462162	4482.833455
715.795584	4430.566772
716.128957	4418.629319
716.462281	4361.830639
716.795556	4336.899613
717.128782	4297.946617
717.461960	4230.748036
717.795088	4242.007453
718.128167	4202.545301
718.461198	4141.817041
718.794180	4139.382164
719.127113	4117.906848
719.459997	4097.525463
719.792833	4055.487282
720.125619	4044.762227
720.458357	4006.643542
720.791046	4014.157382
721.123686	3985.717712
721.456278	3947.309161
721.788821	3962.788024
722.121315	3936.637038
722.453761	3908.434303
722.786158	3922.032816
723.118506	3947.533492
723.450805	3897.999115
723.783056	3923.020882
724.115259	3934.502110
724.447412	3941.252215
724.779518	3930.156635
725.111574	3939.598716
725.443582	3967.158704
725.775542	3951.241261
726.107453	4005.002646
726.439315	4005.683202
726.771129	4018.273484
727.102895	4057.322262
727.434612	4101.636524
727.766281	4113.435345
728.097901	4114.289821
728.429473	4118.937764
728.760996	4125.357674
729.092471	4122.358187
729.423897	4104.084005
729.755276	4113.488277
730.086606	4113.437866
730.417887	4147.581601
730.749120	4211.949573
731.080305	4275.034573
731.411442	4303.133964
731.742530	4273.416362
732.073570	4277.698823
732.404562	4333.945497
732.735506	4321.231707
733.066401	4287.236686
733.397249	4222.641861
733.728048	4141.771671
734.058798	4060.946851
734.389501	3990.403465
734.720156	3925.884257
735.050762	3884.899677
735.381320	3878.913306
735.711831	3824.501612
736.042293	3794.773928
736.372707	3817.078513
736.703073	3792.235707
737.033391	3779.405971
737.363661	3798.587561
737.693883	3827.286850
738.024056	3832.166687
738.354182	3829.741892
738.684260	3894.757653
739.014290	3915.237340
739.344272	3910.239036
739.674207	3951.266467
740.004093	3955.974905
740.333931	3951.236220
740.663722	3951.765541
740.993464	3950.444759
741.323159	3925.125564
741.652806	3895.962489
741.982405	3869.927450
742.311956	3840.154395
742.641460	3828.221984
742.970915	3805.037717
743.300323	3762.606325
743.629683	3729.652303
743.958996	3716.925910
744.288260	3694.442364
744.617477	3660.356602
744.946647	3647.854540
745.275768	3623.026858
745.604842	3619.543420
745.933869	3571.939805
746.262847	3561.219791
746.591778	3598.234463
746.920662	3572.869897
747.249498	3539.499980
747.578286	3587.232145
747.907027	3603.618415
748.235720	3601.057509
748.564365	3626.260758
748.892963	3629.698825
749.221514	3608.377265
749.550017	3585.921445
749.878473	3584.948502
750.206881	3553.842062
750.535242	3550.761917
750.863555	3554.729305
751.191821	3548.339643
751.520039	3528.810213
751.848210	3507.816328
752.176334	3538.958056
752.504411	3547.512894
752.832440	3505.562932
753.160421	3487.238338
753.488356	3499.722755
753.816243	3509.888242
754.144082	3468.825523
754.471875	3455.017803
754.799620	3470.191676
755.127318	3465.826037
755.454969	3463.328145
755.782572	3470.622695
756.110129	3443.811318
756.437638	3436.700770
756.765100	3450.231227
757.092515	3459.023000
757.419882	3465.657158
757.747203	3437.288065
758.074477	3438.689506
758.401703	3458.707928
758.728882	3475.706698
759.056014	3482.313130
759.383099	3488.186075
759.710138	3482.630723
760.037129	3504.766430
760.364073	3530.725851
760.690970	3517.092051
761.017820	3498.399452
761.344623	3513.021319
761.671379	3558.555541
761.998088	3609.181329
762.324751	3736.467943
762.651366	3980.537927
762.977935	4455.954023
763.304456	4902.370881
763.630931	4996.232124
763.957359	4633.662257
764.283740	4289.656439
764.610074	4095.861883
764.936362	3903.045310
765.262602	3744.561515
765.588796	3633.494814
765.914943	3544.349570
766.241044	3456.646096
766.567097	3427.906477
766.893104	3377.671379
767.219064	3347.432018
767.544978	3323.529387
767.870845	3264.999070
768.196665	3251.035074
768.522438	3258.037237
768.848165	3249.976432
769.173846	3212.825649
769.499479	3199.254862
769.825066	3182.825742
770.150607	3164.488545
770.476101	3182.621575
770.801548	3173.988599
771.126949	3131.395891
771.452303	3112.320164
771.777611	3119.677728
772.102872	3125.114613
772.428087	3099.956735
772.753256	3089.997935
773.078378	3082.002665
773.403453	3046.918755
773.728482	3036.206303
774.053465	3059.438461
774.378401	3047.647202
774.703291	3013.334588
775.028135	3015.782068
775.352932	3010.083044
775.677683	2997.800273
776.002388	2995.342710
776.327046	2995.930004
776.651658	2984.572285
776.976224	2975.684731
777.300743	2974.686582
777.625216	2965.264666
777.949643	2960.624283
778.274024	2963.142340
778.598359	2953.478448
778.922647	2952.152624
779.246889	2956.782924
779.571086	2941.944288
779.895236	2936.207455
780.219339	2947.149279
780.543397	2959.812658
780.867409	2960.757874
781.191374	2955.205043
781.515294	2950.262192
781.839167	2950.375618
782.162995	2941.256170
782.486776	2951.315793
782.810511	2949.758076
783.134201	2935.194183
783.457844	2944.353959
783.781441	2931.652772
784.104993	2913.965884
784.428498	2913.459248
784.751958	2928.436516
785.075372	2923.297060
785.398739	2905.806777
785.722061	2924.534663
786.045337	2933.006322
786.368568	2917.802202
786.691752	2910.490008
787.014891	2959.454736
787.337983	2988.950527
787.661030	3017.541431
787.984031	3082.095927
788.306987	3131.474028
788.629897	3125.008749
788.952760	3106.386726
789.275579	3092.450457
789.598351	3034.875438
789.921078	2986.961792
790.243759	2979.430308
790.566395	2960.422637
790.888984	2936.767023
791.211529	2919.201122
791.534027	2912.186357
791.856480	2900.634553
792.178888	2887.956051
792.501249	2875.464072
792.823566	2872.298227
793.145836	2871.768906
793.468062	2868.610623
793.790241	2864.681043
794.112375	2872.250336
794.434464	2884.056718
794.756507	2887.519991
795.078505	2894.570045
795.400457	2908.241654
795.722364	2946.045267
796.044226	2970.094091
796.366042	2973.116263
796.687812	2960.374746
797.009538	2981.267808
797.331218	2965.824234
797.652852	2952.326544
797.974442	2937.359358
798.295986	2928.640683
798.617484	2927.708069
798.938938	2913.451686
799.260346	2896.919222
799.581709	2891.134498
799.903026	2885.022099
800.224299	2879.779299
800.545526	2870.869060
800.866708	2850.832994
801.187845	2841.675738
801.508936	2842.126921
801.829983	2852.907429
802.150984	2837.804132
802.471940	2823.179744
802.792851	2827.661330
803.113717	2825.579334
803.434538	2831.318687
803.755314	2823.194868
804.076045	2816.389310
804.396731	2816.101964
804.717372	2818.859476
805.037967	2814.904690
805.358518	2819.139260
805.679024	2829.385405
805.999485	2828.609067
806.319901	2830.696105
806.640272	2823.671257
806.960598	2828.059581
807.280879	2834.449244
807.601115	2844.345029
807.921306	2832.190807
808.241453	2828.780466
808.561554	2834.446723
808.881611	2836.044769
809.201623	2828.208295
809.521590	2827.046309
809.841513	2824.639158
810.161390	2829.226608
810.481223	2824.339210
810.801011	2815.242448
811.120755	2809.359421
811.440453	2812.880667
811.760107	2812.273208
812.079716	2812.119453
812.399281	2800.550005
812.718801	2791.740588
813.038276	2789.036009
813.357707	2795.080353
813.677093	2802.742907
813.996434	2798.667134
814.315731	2791.818726
814.634983	2788.252110
814.954191	2789.872841
815.273354	2804.577887
815.592473	2813.319247
815.911547	2815.804536
816.230577	2821.158242
816.549562	2830.789366
816.868502	2831.205261
817.187399	2839.863443
817.506250	2857.492358
817.825058	2848.342664
818.143821	2860.960672
818.462539	2879.431460
818.781213	2906.043711
819.099843	2942.156016
819.418429	2999.975530
819.736970	3059.330076
820.055466	3134.140799
820.373919	3239.591655
820.692327	3378.679610
821.010691	3549.801577
821.329011	3990.834483
821.647286	4891.887801
821.965517	6268.364777
822.283704	7023.043152
822.601847	6999.150603
822.919945	6361.578232
823.237999	5855.900090
823.556010	5274.692860
823.873976	4716.387592
824.191897	4307.910458
824.509775	4014.396837
824.827609	3746.714088
825.145398	3622.018627
825.463144	3609.889611
825.780845	3701.139537
826.098502	3805.574600
826.416116	4087.664967
826.733685	4406.659100
827.051210	4470.507834
827.368692	4350.425028
827.686129	4087.289401
828.003522	3763.687653
828.320872	3504.852129
828.638177	3307.894248
828.955439	3172.156140
829.272656	3088.205805
829.589830	3019.162162
829.906960	2970.250367
830.224046	2926.586413
830.541088	2889.387738
830.858086	2874.818804
831.175041	2858.251052
831.491952	2858.351875
831.808819	2870.254039
832.125642	2891.986453
832.442421	2940.812549
832.759157	3019.426823
833.075849	3200.903320
833.392497	3478.910352
833.709101	3685.728729
834.025662	3634.172849
834.342179	3472.901296
834.658653	3296.276909
834.975083	3150.635454
835.291469	3051.284394
835.607811	2966.489666
835.924110	2913.371028
836.240366	2856.196782
836.556578	2812.726912
836.872746	2793.452060
837.188871	2771.646549
837.504952	2753.947058
837.820990	2744.265522
838.136984	2731.879407
838.452935	2723.833726
838.768842	2722.361709
839.084706	2738.788308
839.400526	2817.634475
839.716303	2953.692697
840.032037	3033.201775
840.347727	3020.130063
840.663373	2957.521453
840.978977	2881.556306
841.294537	2808.875470
841.610054	2762.887544
841.925527	2738.606827
842.240957	2716.743343
842.556344	2695.807431
842.871687	2683.055832
843.186987	2668.368430
843.502244	2667.398008
843.817458	2658.845691
844.132629	2647.422436
844.447756	2642.552682
844.762840	2635.217803
845.077881	2638.522279
845.392879	2633.949952
845.707833	2633.392905
846.022745	2623.892851
846.337613	2625.700104
846.652438	2624.104579
846.967221	2624.278499
847.281960	2624.366719
847.596656	2622.234311
847.911309	2621.352109
848.225919	2615.955554
848.540485	2615.345574
848.855009	2616.734412
849.169490	2614.821294
849.483928	2612.197374
849.798323	2615.055708
850.112675	2613.616458
850.426984	2613.664349
850.741251	2610.604369
851.055474	2611.630244
851.369654	2614.949844
851.683792	2614.851541
851.997887	2615.247272
852.311938	2610.861468
852.625947	2614.730553
852.939914	2613.510594
853.253837	2616.008486
853.567718	2613.699637
853.881555	2609.949019
854.195350	2616.658795
854.509103	2613.626541
854.822812	2610.901797
855.136479	2611.390789
855.450103	2615.332971
855.763685	2613.243413
856.077224	2610.374997
856.390720	2610.306941
856.704173	2611.297528
857.017584	2617.120060
857.330953	2615.148969
857.644278	2619.610390
857.957561	2621.057202
858.270802	2614.382714
858.584000	2612.943464
858.897155	2620.061574
859.210268	2617.120060
859.523339	2614.670060
859.836367	2611.002620
860.149352	2611.337857
860.462295	2613.624020
860.775195	2610.306941
861.088054	2609.477671
861.400869	2606.868874
861.713642	2604.416353
862.026373	2607.315016
862.339062	2608.890377
862.651708	2616.941099
862.964312	2617.596449
863.276873	2616.147118
863.589392	2614.523866
863.901869	2621.883951
864.214303	2626.186576
864.526696	2629.410393
864.839045	2630.005250
865.151353	2633.907103
865.463619	2629.730507
865.775842	2633.455919
866.088023	2632.460292
866.400162	2632.467853
866.712258	2630.731176
867.024313	2632.041876
867.336325	2626.554580
867.648296	2629.838892
867.960224	2635.001033
868.272110	2632.435086
868.583954	2626.398304
868.895755	2627.474590
869.207515	2633.438275
869.519233	2639.439769
869.830909	2636.979686
870.142542	2632.251084
870.454134	2633.057668
870.765684	2638.648308
871.077191	2642.827424
871.388657	2645.547127
871.700081	2641.171405
872.011463	2642.247692
872.322803	2644.622075
872.634101	2647.349339
872.945357	2656.546925
873.256571	2659.208654
873.567744	2656.070536
873.878874	2657.792090
874.189963	2656.652789
874.501010	2660.721000
874.812015	2667.617298
875.122979	2666.999757
875.433900	2654.689259
875.744780	2655.815957
876.055618	2662.873573
876.366415	2670.813390
876.677169	2667.206444
876.987882	2662.508089
877.298554	2657.494662
877.609183	2671.695592
877.919771	2676.973680
878.230317	2686.478776
878.540822	2693.692667
878.851285	2708.324616
879.161707	2733.089284
879.472087	2772.622012
879.782425	2820.497851
880.092722	2933.505396
880.402977	3122.263840
880.713191	3383.294787
881.023363	3678.877801
881.333494	3876.075137
881.643583	4045.959501
881.953631	4042.559242
882.263637	3861.107951
882.573602	3643.221720
882.883526	3512.769261
883.193408	3398.123341
883.503248	3296.100469
883.813048	3178.097140
884.122806	3063.307546
884.432522	2978.356542
884.742197	2915.715164
885.051831	2877.009185
885.361424	2842.890656
885.670975	2807.468988
885.980485	2775.170316
886.289954	2755.116606
886.599382	2742.904411
886.908768	2731.856722
887.218113	2711.210676
887.527417	2696.016639
887.836680	2691.484641
888.145901	2684.250586
888.455082	2676.162054
888.764221	2664.927843
889.073319	2656.975423
889.382376	2657.378715
889.691392	2659.576658
890.000366	2659.284271
890.309300	2655.248827
890.618193	2657.847542
890.927044	2661.499858
891.235855	2658.593633
891.544625	2661.134375
891.853353	2661.802327
892.162041	2668.781805
892.470687	2687.804599
892.779293	2700.835982
893.087858	2712.521376
893.396381	2732.454099
893.704864	2775.815583
894.013306	2846.086747
894.321707	2939.164092
894.630068	2990.334324
894.938387	3009.941892
895.246665	3003.088443
895.554903	2958.738892
895.863100	2911.717529
896.171256	2854.986905
896.479371	2793.865435
896.787446	2754.904877
897.095480	2737.399471
897.403473	2729.779767
897.711425	2714.366439
898.019336	2695.784746
898.327207	2682.176151
898.635038	2683.365863
898.942827	2678.450738
899.250576	2670.488236
899.558284	2656.950217
899.865952	2654.860659
900.173579	2651.389824
900.481165	2649.859834
900.788711	2640.279121
901.096216	2631.615898
901.403681	2629.377626
901.711105	2631.459622
902.018489	2629.463326
902.325832	2635.033801
902.633135	2634.801907
902.940397	2650.157262
903.247619	2687.703776
903.554800	2755.774476
903.861941	2884.833056
904.169041	3012.303672
904.476101	3074.229206
904.783121	3069.901375
905.090100	3012.270905
905.397039	2934.599327
905.703938	2861.749612
906.010796	2798.896506
906.317614	2746.405492
906.624391	2709.617672
906.931129	2684.215297
907.237826	2660.632780
907.544483	2642.550161
907.851099	2629.478449
908.157675	2618.420678
908.464211	2610.644698
908.770707	2599.707915
909.077163	2594.631473
909.383578	2591.485793
909.689954	2591.510999
909.996289	2589.444126
910.302584	2589.403797
910.608839	2585.708631
910.915054	2586.001018
911.221229	2589.746595
911.527363	2591.674836
911.833458	2589.295412
912.139513	2590.633838
912.445527	2593.565269
912.751502	2596.468974
913.057436	2600.764037
913.363331	2611.156375
913.669186	2619.786831
913.975000	2633.909623
914.280775	2651.672129
914.586510	2667.098060
914.892205	2705.100798
915.197859	2775.316509
915.503475	2858.805579
915.809050	2924.383428
916.114585	2941.404884
916.420081	2953.929631
916.725536	2961.975313
917.030952	2934.309460
917.336328	2889.196175
917.641665	2839.228258
917.946961	2790.379477
918.252218	2753.667274
918.557435	2728.537122
918.862612	2706.363607
919.167750	2688.578416
919.472848	2671.982938
919.777906	2655.616832
920.082925	2644.279277
920.387904	2633.677730
920.692843	2629.410393
920.997743	2623.839918
921.302603	2617.069649
921.607423	2609.210490
921.912204	2604.108842
922.216946	2600.638008
922.521647	2602.094901
922.826310	2597.114241
923.130932	2592.970413
923.435516	2584.987746
923.740059	2584.592015
924.044564	2583.989597
924.349028	2582.920873
924.653454	2569.304716
924.957840	2572.115159
925.262186	2567.931002
925.566493	2571.185067
925.870761	2563.877914
926.174989	2564.457647
926.479178	2563.020918
926.783328	2562.920095
927.087438	2563.923284
927.391509	2559.108983
927.695541	2560.676781
927.999533	2556.643858
928.303486	2558.133519
928.607400	2555.754095
928.911275	2559.320711
929.215110	2556.225443
929.518906	2554.995401
929.822663	2555.784342
930.126381	2556.225443
930.430060	2557.095042
930.733699	2555.686039
931.037299	2558.239383
931.340861	2557.344579
931.644383	2559.794579
931.947866	2555.726368
932.251309	2554.801317
932.554714	2555.789383
932.858080	2558.476318
933.161407	2555.111347
933.464694	2553.939279
933.767943	2550.526418
934.071153	2556.127140
934.374323	2551.262427
934.677455	2553.893909
934.980548	2554.012376
935.283602	2551.970709
935.586617	2552.225287
935.889593	2552.247972
936.192530	2552.868034
936.495428	2553.760318
936.798287	2554.302242
937.101108	2555.892726
937.403890	2556.386759
937.706632	2560.313818
938.009336	2564.886145
938.312002	2567.968810
938.614628	2571.621126
938.917216	2575.185222
939.219765	2571.837896
939.522275	2577.589852
939.824747	2576.037177
940.127179	2571.729511
940.429573	2570.081054
940.731929	2568.858574
941.034246	2567.827658
941.336524	2564.954200
941.638763	2566.857236
941.940964	2568.198183
942.243126	2563.638459
942.545250	2566.355641
942.847335	2563.436813
943.149381	2562.032852
943.451389	2559.476987
943.753359	2559.222408
944.055290	2555.789383
944.357182	2559.083777
944.659036	2557.316852
944.960851	2556.900957
945.262628	2556.137222
945.564367	2556.858107
945.866067	2553.704866
946.167729	2557.009342
946.469352	2557.367264
946.770937	2557.768036
947.072484	2554.597150
947.373992	2555.844835
947.675462	2556.132181
947.976893	2553.818292
948.278286	2550.783517
948.579641	2552.782334
948.880958	2553.798127
949.182236	2553.069680
949.483476	2554.183775
949.784678	2550.760832
950.085841	2553.130174
950.386967	2552.658826
950.688054	2552.121943
950.989103	2553.722510
951.290114	2556.787531
951.591087	2555.141594
951.892021	2555.509599
952.192917	2559.373643
952.493776	2559.106462
952.794596	2559.666030
953.095378	2558.108313
953.396122	2563.290620
953.696828	2560.364230
953.997496	2559.776935
954.298126	2553.684701
954.598718	2554.415668
954.899272	2554.458518
955.199788	2554.158569
955.500266	2552.048847
955.800706	2550.927190
956.101108	2547.421067
956.401472	2545.512991
956.701798	2541.785057
957.002087	2542.437887
957.302337	2547.683207
957.602550	2542.831097
957.902724	2540.484440
958.202861	2544.401416
958.502960	2544.126673
958.803022	2542.440407
959.103045	2542.614327
959.403031	2541.984183
959.702979	2541.170037
960.002889	2544.204811
960.302762	2537.810108
960.602596	2538.704912
960.902393	2538.667104
961.202153	2539.577032
961.501875	2538.790612
961.801559	2542.732794
962.101205	2538.258770
962.400814	2539.367824
962.700385	2539.887063
962.999918	2540.925541
963.299414	2536.469161
963.598873	2538.470499
963.898293	2538.803215
964.197677	2537.931095
964.497022	2535.975128
964.796331	2538.765406
965.095601	2533.835158
965.394835	2538.392361
965.694030	2537.033770
965.993189	2537.449665
966.292309	2536.839685
966.591393	2536.887576
966.890439	2537.510159
967.189447	2538.331867
967.488419	2535.960004
967.787353	2537.154758
968.086249	2534.364479
968.385108	2536.242309
968.683930	2538.752803
968.982714	2535.844058
969.281462	2536.428831
969.580172	2540.398740
969.878844	2535.836496
970.177480	2534.692154
970.476078	2536.869932
970.774639	2541.628782
971.073162	2539.849254
971.371649	2536.585107
971.670098	2533.111752
971.968510	2535.934798
972.266885	2534.366999
972.565223	2538.720036
972.863524	2537.570653
973.161788	2540.171888
973.460014	2537.268183
973.758204	2538.341949
974.056356	2538.649460
974.354471	2540.305479
974.652550	2538.810777
974.950591	2538.402443
975.248595	2537.545447
975.546563	2538.762886
975.844493	2535.211393
976.142386	2538.747762
976.440243	2539.478729
976.738062	2540.139121
977.035845	2535.196269
977.333590	2537.686599
977.631299	2535.952442
977.928971	2537.820190
978.226606	2537.230375
978.524204	2535.647452
978.821765	2536.930426
979.119290	2534.901362
979.416777	2534.326670
979.714228	2535.783564
980.011642	2536.486805
980.309020	2539.173740
980.606360	2536.315405
980.903664	2539.559388
981.200931	2535.080323
981.498162	2538.276414
981.795356	2539.861857
982.092513	2544.877805
982.389633	2546.337219
982.686717	2549.233362
982.983764	2549.145142
983.280775	2552.333672
983.577749	2552.994063
983.874686	2551.224618
984.171587	2549.072045
984.468451	2547.237065
984.765279	2545.402085
985.062070	2541.964018
985.358824	2540.517207
985.655543	2537.167360
985.952224	2539.168698
986.248869	2539.357742
986.545478	2533.898172
986.842050	2532.602596
987.138586	2530.616381
987.435086	2532.567307
987.731549	2530.286185
988.027975	2535.584438
988.324366	2531.213758
988.620719	2532.809283
988.917037	2535.352545
989.213318	2532.171577
989.509563	2529.986237
989.805772	2534.079654
990.101944	2535.392874
990.398080	2533.157123
990.694180	2532.952956
990.990244	2534.460261
991.286271	2533.310878
991.582262	2532.932791
991.878217	2534.848430
992.174136	2533.141999
992.470019	2532.647966
992.765865	2533.326001
993.061676	2533.499921
993.357450	2534.896321
993.653188	2533.900693
993.948890	2532.393388
994.244556	2534.356917
994.540186	2534.785415
994.835780	2533.671320
995.131337	2534.881197
995.426859	2534.198121
995.722345	2535.176105
996.017795	2537.842875
996.313208	2540.204656
996.608586	2537.167360
996.903928	2539.758513
997.199234	2537.381609
997.494504	2537.857998
997.789738	2536.146527
998.084936	2535.539068
998.380099	2537.001002
998.675225	2533.056299
998.970316	2536.111239
999.265371	2533.013450
999.560390	2534.631660
999.855373	2534.056968
1000.150320	2532.106042
1000.445232	2535.052596
1000.740108	2532.050589
1001.034948	2534.210724
1001.329752	2530.545805
1001.624521	2532.151412
1001.919254	2527.198479
1002.213951	2532.733666
1002.508613	2527.526154
1002.803239	2529.562780
1003.097829	2526.580937
1003.392384	2528.143695
1003.686903	2531.208717
1003.981386	2532.363141
1004.275834	2530.797863
1004.570246	2533.021011
1004.864623	2529.504807
1005.158964	2533.215096
1005.453270	2531.014632
1005.747540	2532.221988
1006.041775	2532.476567
1006.335974	2530.888603
1006.630138	2531.546474
1006.924266	2533.358769
1007.218359	2530.422297
1007.512416	2532.113604
1007.806438	2531.591844
1008.100425	2529.958510
1008.394376	2532.862215
1008.688292	2531.319622
1008.982172	2530.021525
1009.276017	2532.973120
1009.569827	2531.690147
1009.863602	2533.847761
1010.157341	2530.787780
1010.451045	2530.976823
1010.744714	2531.291896
1011.038347	2531.599406
1011.331945	2531.889272
1011.625508	2531.866587
1011.919036	2530.760054
1012.212528	2532.433717
1012.505986	2532.965559
1012.799408	2535.241640
1013.092795	2529.560259
1013.386147	2531.662420
1013.679464	2529.981196
1013.972745	2531.599406
1014.265992	2531.911957
1014.559204	2535.337422
1014.852380	2532.249715
1015.145521	2533.477236
1015.438628	2530.807945
1015.731699	2530.921371
1016.024736	2530.757533
1016.317737	2531.259128
1016.610703	2531.851464
1016.903635	2528.241997
1017.196531	2527.886596
1017.489393	2529.247708
1017.782219	2525.708818
1018.075011	2531.344828
1018.367768	2530.021525
1018.660490	2532.746268
1018.953177	2532.746268
1019.245829	2532.746268
