Dividing Wavelength (nm)	Counts (n)	Blue Motor Position (mm): 32.100000	Red Motor Position (mm): 0.000000	
326.493990	2132.012346
326.888308	2132.012346
327.282561	2132.012346
327.676750	2099.040680
328.070874	2099.607809
328.464933	2097.984558
328.858929	2105.752976
329.252859	2113.118102
329.646726	2128.133178
330.040528	2141.716568
330.434265	2158.861532
330.827938	2173.800991
331.221547	2194.958714
331.615091	2212.738863
332.008571	2232.648901
332.401986	2251.560789
332.795338	2270.724736
333.188625	2288.671243
333.581847	2308.188070
333.975006	2329.181956
334.368100	2343.093020
334.761129	2362.647655
335.154095	2377.471168
335.546996	2400.983110
335.939833	2424.704259
336.332606	2439.618513
336.725315	2450.577981
337.117960	2464.201700
337.510540	2471.312247
337.903056	2480.414050
338.295508	2488.749598
338.687896	2497.185969
339.080220	2506.073523
339.472480	2515.984432
339.864676	2517.302694
340.256807	2522.278313
340.648875	2520.498785
341.040879	2524.897192
341.432818	2528.887265
341.824694	2530.346679
342.216506	2530.996988
342.608253	2530.674354
342.999937	2528.826771
343.391557	2528.209230
343.783113	2529.414066
344.174605	2528.176463
344.566033	2526.923736
344.957397	2522.749660
345.348697	2521.932993
345.739934	2520.914680
346.131106	2518.268075
346.522215	2516.717920
346.913260	2515.316479
347.304241	2516.919566
347.695159	2510.756755
348.086012	2512.886643
348.476802	2509.045284
348.867528	2509.594769
349.258191	2502.869870
349.648789	2506.544871
350.039324	2502.075888
350.429796	2503.999089
350.820203	2501.657473
351.210548	2500.611433
351.600828	2499.925836
351.991045	2500.805518
352.381198	2498.678151
352.771288	2496.717142
353.161314	2495.804693
353.551276	2498.622698
353.941175	2495.776967
354.331010	2499.409118
354.720782	2499.494818
355.110490	2495.252687
355.500135	2496.568428
355.889717	2498.458861
356.279235	2497.007008
356.668689	2501.778460
357.058080	2496.081957
357.447408	2498.690754
357.836672	2493.243787
358.225873	2494.408293
358.615010	2493.684888
359.004084	2499.318377
359.393095	2500.314005
359.782043	2501.423059
360.170927	2501.571773
360.559748	2500.679489
360.948505	2503.323574
361.337199	2504.382216
361.725830	2504.389778
362.114398	2504.198214
362.502903	2504.004130
362.891344	2501.647390
363.279722	2504.450272
363.668037	2505.382885
364.056289	2506.882629
364.444478	2508.001765
364.832603	2505.745848
365.220665	2507.815242
365.608665	2505.430776
365.996601	2508.342043
366.384474	2508.820952
366.772284	2509.521673
367.160031	2507.873215
367.547715	2508.825993
367.935336	2508.919255
368.322893	2510.590397
368.710388	2509.057887
369.097820	2512.720285
369.485189	2511.230624
369.872495	2511.530572
370.259738	2509.199039
370.646918	2510.618124
371.034035	2511.023937
371.421090	2511.583505
371.808081	2512.591735
372.195010	2512.679956
372.581875	2514.706499
372.968678	2514.257837
373.355418	2512.989987
373.742096	2513.610048
374.128710	2514.023423
374.515262	2514.915707
374.901751	2515.008969
375.288177	2513.783968
375.674540	2515.656757
376.060841	2513.761283
376.447079	2517.660616
376.833254	2515.555934
377.219367	2511.654081
377.605417	2512.526200
377.991404	2510.479492
378.377329	2515.200533
378.763191	2514.726664
379.148991	2516.949813
379.534727	2517.353105
379.920402	2516.664988
380.306013	2516.163393
380.691563	2517.791686
381.077049	2517.030471
381.462474	2518.174813
381.847835	2516.022241
382.233134	2520.347551
382.618371	2518.068949
383.003545	2521.534742
383.388657	2522.399300
383.773706	2520.574403
384.158693	2521.262520
384.543618	2519.651871
384.928480	2522.210257
385.313280	2519.992149
385.698017	2522.719413
386.082692	2525.045906
386.467305	2519.956861
386.851856	2521.658251
387.236344	2523.200844
387.620770	2520.851666
388.005133	2526.389373
388.389435	2524.965248
388.773674	2524.236801
389.157851	2526.278468
389.541965	2525.050947
389.926018	2522.971471
390.310008	2524.796369
390.693936	2523.662109
391.077802	2523.601615
391.461606	2524.264527
391.845348	2523.006759
392.229027	2525.764270
392.612645	2525.134126
392.996200	2526.722090
393.379694	2523.523477
393.763125	2528.673016
394.146494	2528.277286
394.529801	2527.662265
394.913047	2529.701412
395.296230	2528.226874
395.679351	2528.985568
396.062410	2529.104035
396.445408	2528.015146
396.828343	2530.044210
397.211217	2525.126564
397.594028	2528.133613
397.976778	2526.071781
398.359466	2531.969931
398.742092	2522.396780
399.124656	2532.022863
399.507158	2533.704088
399.889598	2530.344159
400.271977	2531.289375
400.654294	2533.018491
401.036549	2534.205682
401.418742	2532.695857
401.800874	2532.718542
402.182944	2532.983203
402.564952	2534.311547
402.946898	2532.897503
403.328783	2534.142668
403.710606	2535.055117
404.092367	2534.906403
404.474067	2535.551671
404.855705	2539.632485
405.237282	2534.515713
405.618797	2535.574356
406.000250	2535.138296
406.381642	2537.454706
406.762972	2537.840354
407.144240	2538.014274
407.525447	2541.328833
407.906593	2535.665097
408.287677	2538.702392
408.668700	2537.396733
409.049661	2540.307999
409.430560	2539.723225
409.811399	2540.282793
410.192176	2540.164326
410.572891	2540.713812
410.953545	2543.728422
411.334138	2542.669780
411.714669	2546.009544
412.095139	2544.252702
412.475547	2546.818649
412.855894	2546.944678
413.236180	2546.281767
413.616405	2550.428116
413.996568	2551.194371
414.376670	2552.721841
414.756711	2558.209137
415.136691	2559.497151
415.516609	2563.625856
415.896466	2569.841599
416.276262	2574.106415
416.655997	2578.472054
417.035670	2585.754001
417.415283	2595.876638
417.794834	2601.343769
418.174324	2613.039246
418.553753	2621.815895
418.933121	2637.135962
419.312428	2647.843372
419.691674	2657.328303
420.070859	2677.500481
420.449983	2687.590350
420.829045	2706.484595
421.208047	2713.121274
421.586988	2736.567680
421.965867	2754.420927
422.344686	2787.314455
422.723444	2790.502985
423.102141	2793.336114
423.480777	2838.668690
423.859352	2842.116839
424.237866	2893.937380
424.616319	2915.142993
424.994712	2955.588171
425.373044	2963.822896
425.751314	3014.728467
426.129524	3016.087058
426.507673	3076.220462
426.885762	3116.635392
427.263789	3146.819301
427.641756	3152.656957
428.019662	3214.585011
428.397508	3253.369128
428.775292	3284.042029
429.153016	3343.847758
429.530679	3364.985316
429.908282	3426.797424
430.285824	3430.142229
430.663305	3554.051270
431.040726	3520.560365
431.418086	3560.660223
431.795385	3641.805156
432.172624	3691.195861
432.549802	3733.710432
432.926920	3786.995428
433.303977	3835.259435
433.680974	3900.421389
434.057910	3960.191830
434.434786	4009.900127
434.811601	4043.464130
435.188355	4203.183007
435.565050	4192.914177
435.941683	4232.978747
436.318257	4396.380187
436.694770	4440.621353
437.071222	4512.798073
437.447614	4533.350858
437.823946	4526.336092
438.200218	4671.324718
438.576429	4639.625942
438.952580	4755.585084
439.328670	4831.656095
439.704700	4812.237571
440.080670	4853.358262
440.456580	5087.928192
440.832429	5057.298141
441.208218	4992.219366
441.583947	5145.866173
441.959616	5193.058935
442.335224	5184.390671
442.710773	5325.893339
443.086261	5393.066714
443.461689	5263.708186
443.837057	5428.632054
444.212365	5589.588535
444.587612	5537.183220
444.962800	5701.348395
445.337927	5721.150047
445.712995	5428.765645
446.088002	5948.758143
446.462949	5832.597356
446.837837	5805.380166
447.212664	5985.490511
447.587431	6147.044368
447.962139	6658.797101
448.336786	7510.462235
448.711374	7307.212994
449.085901	6498.889180
449.460369	6457.166071
449.834776	6420.348003
450.209124	6806.084493
450.583412	6966.831766
450.957640	7123.586444
451.331808	6924.412977
451.705917	6521.024887
452.079965	6459.774868
452.453954	6678.336613
452.827883	6574.665284
453.201752	6674.321334
453.575562	6490.861143
453.949311	6698.546599
454.323001	6597.852072
454.696632	6679.249062
455.070202	6829.412432
455.443713	6985.428582
455.817164	7094.798935
456.190556	7179.545773
456.563888	7263.705316
456.937160	7305.562016
457.310373	6973.707899
457.683526	7004.292580
458.056619	6895.960704
458.429653	6890.791001
458.802628	6829.926630
459.175542	6938.349246
459.548398	7299.779812
459.921194	7456.267310
460.293930	7464.071016
460.666607	7989.797827
461.039224	8295.684961
461.411782	8427.962317
461.784280	8438.841127
462.156719	8336.677103
462.529099	8224.345072
462.901419	7808.293604
463.273680	7699.755041
463.645882	7719.470994
464.018024	7584.136178
464.390106	7749.528873
464.762130	8140.092268
465.134094	8609.058207
465.505999	9622.113361
465.877845	10841.576038
466.249631	11484.149233
466.621358	11101.029103
466.993026	10479.502724
467.364634	10222.121574
467.736184	9856.534576
468.107674	9534.694712
468.479105	9559.403927
468.850477	9329.048402
469.221790	9102.917364
469.593043	8775.270091
469.964238	8641.639184
470.335373	8650.320051
470.706449	8715.202222
471.077467	8694.881331
471.448425	9998.531277
471.819324	11068.541387
472.190164	11083.135527
472.560945	9842.769706
472.931667	9054.761742
473.302330	8923.598481
473.672934	8569.293586
474.043479	8926.114017
474.413965	8864.667392
474.784393	8745.562571
475.154761	8908.623733
475.525070	8994.885437
475.895321	8820.088469
476.265513	9003.309205
476.635645	9160.928442
477.005719	9173.508642
477.375734	9275.408005
477.745691	9517.887505
478.115588	9651.019337
478.485427	9890.675791
478.855207	10429.812071
479.224928	11245.092677
479.594591	11865.575536
479.964194	11676.277689
480.333739	11614.110179
480.703226	11530.434587
481.072653	11620.550253
481.442022	11857.905421
481.811333	12047.571272
482.180584	11848.720438
482.549777	11563.071017
482.918912	11386.484439
483.287988	11411.208778
483.657005	11416.267576
484.025964	11107.121337
484.394864	11224.897814
484.763706	11202.041223
485.132489	10964.292846
485.501213	10932.410068
485.869879	10999.414565
486.238487	10843.821872
486.607036	10959.715478
486.975527	10732.379604
487.343959	10932.236148
487.712333	10975.849691
488.080648	10905.870914
488.448905	10947.087388
488.817104	10888.216793
489.185244	11156.196970
489.553326	11312.203037
489.921350	11857.131603
490.289315	12895.606775
490.657222	13245.614087
491.025070	13151.478100
491.392861	13028.408412
491.760593	12644.393476
492.128267	12295.346504
492.495883	11964.296452
492.863440	11641.876855
493.230939	11300.948661
493.598380	11230.395193
493.965763	11109.188210
494.333088	10997.456076
494.700354	10922.932699
495.067563	10987.547688
495.434713	10814.205093
495.801805	10946.001019
496.168839	10866.958247
496.535815	10805.924998
496.902733	10807.666716
497.269593	10737.004863
497.636395	10834.609163
498.003139	10827.793523
498.369825	10698.568585
498.736453	10851.731442
499.103023	10780.477253
499.469535	10808.871552
499.835989	10798.879985
500.202385	10762.195509
500.568723	10609.365368
500.935003	10835.685449
501.301226	10642.500872
501.667390	10900.416385
502.033497	10993.052628
502.399546	10859.764521
502.765537	10765.220201
503.131470	10833.457259
503.497345	11005.453867
503.863163	10618.449527
504.228923	10930.285222
504.594625	10994.532207
504.960269	10743.888558
505.325856	10964.426436
505.691385	10754.999262
506.056856	10911.539691
506.422270	10932.914184
506.787625	10824.428553
507.152924	10943.588827
507.518164	10924.616444
507.883347	10840.492190
508.248472	10766.687177
508.613540	10999.522949
508.978550	10880.584486
509.343503	10854.302431
509.708398	10971.879782
510.073236	11081.255177
510.438016	11089.641136
510.802738	11046.017511
511.167403	11094.120201
511.532010	10988.278656
511.896561	11217.628471
512.261053	11293.578494
512.625488	11155.723101
512.989866	11140.743313
513.354186	11132.644699
513.718449	11034.180882
514.082655	11224.620551
514.446803	11118.063162
514.810894	11245.808521
515.174927	11114.032759
515.538904	11130.655964
515.902822	11292.570264
516.266684	11176.885865
516.630488	11114.126020
516.994235	11164.613176
517.357925	11226.957126
517.721558	11318.764099
518.085133	11338.212871
518.448651	11346.802997
518.812112	11223.400592
519.175516	11244.651576
519.538863	11363.708506
519.902152	11286.034408
520.265385	11442.945362
520.628560	11349.752072
520.991678	11332.284474
521.354739	11393.395861
521.717743	11330.023516
522.080690	11306.473766
522.443580	11437.306832
522.806413	11394.792261
523.169189	11429.551017
523.531908	11483.813997
523.894569	11303.159207
524.257174	11308.931328
524.619722	11426.269225
524.982213	11373.253931
525.344647	11429.493043
525.707025	11377.871628
526.069345	11472.040382
526.431608	11391.754966
526.793815	11495.882519
527.155964	11294.006993
527.518057	11342.790238
527.880093	11285.487443
528.242072	11351.760972
528.603995	11261.511715
528.965860	11181.861484
529.327669	11232.436860
529.689421	11183.328460
530.051117	11152.660600
530.412755	11258.885274
530.774337	11148.824282
531.135862	11128.057249
531.497331	11154.911476
531.858743	11006.315904
532.220098	11165.525625
532.581396	11044.043900
532.942638	11028.439008
533.303824	10988.533234
533.664953	11006.988898
534.026025	10921.155692
534.387040	11020.738645
534.747999	11022.006496
535.108902	11080.466236
535.469748	10837.845584
535.830537	10942.744434
536.191270	10918.632595
536.551947	10942.570514
536.912567	10936.475759
537.273131	10866.922959
537.633638	10844.646100
537.994089	10830.311579
538.354483	10786.468664
538.714821	10930.338154
539.075103	10937.234452
539.435328	10900.053422
539.795497	10722.352749
540.155609	10877.491738
540.515665	10972.688888
540.875665	10708.824813
541.235609	10774.400142
541.595496	10773.381829
541.955328	10932.137846
542.315102	10812.667541
542.674821	10760.504202
543.034483	10760.453790
543.394090	10768.277661
543.753640	10694.515498
544.113134	10911.590103
544.472571	10766.961920
544.831953	10912.563046
545.191278	10719.517100
545.550548	10748.309650
545.909761	10881.081040
546.268918	10860.160251
546.628019	10942.144536
546.987064	10805.143619
547.346053	10729.881713
547.704986	10833.386683
548.063863	10817.081071
548.422684	10800.921653
548.781449	10720.076668
549.140158	10827.289408
549.498811	10702.052023
549.857408	10560.834180
550.215949	10789.465630
550.574434	10635.435695
550.932864	10736.944369
551.291237	10795.860334
551.649555	10742.623229
552.007817	10758.339026
552.366022	10718.904600
552.724173	10713.185411
553.082267	10696.617659
553.440305	10839.816675
553.798288	10632.292536
554.156215	10784.535382
554.514086	10762.321537
554.871902	10618.825093
555.229661	10661.349747
555.587365	10628.672987
555.945014	10525.147852
556.302606	10651.338015
556.660143	10538.814420
557.017625	10703.902126
557.375050	10602.088463
557.732421	10732.185520
558.089735	10644.502210
558.446994	10646.687551
558.804197	10678.260297
559.161345	10682.792294
559.518437	10528.885867
559.875474	10616.019691
560.232455	10651.849692
560.589381	10594.657802
560.946251	10596.119736
561.303065	10702.238545
561.659825	10639.740841
562.016528	10565.708976
562.373177	10446.664648
562.729770	10561.451721
563.086307	10475.225305
563.442789	10571.881869
563.799216	10454.327202
564.155587	10503.919553
564.511904	10451.047932
564.868164	10441.852867
565.224370	10460.104364
565.580520	10387.819259
565.936615	10384.726512
566.292654	10259.736143
566.648638	10389.334126
567.004567	10341.238998
567.360441	10330.846659
567.716260	10243.924564
568.072023	10330.211474
568.427732	10286.247571
568.783385	10201.674654
569.138982	10262.788562
569.494525	10285.819073
569.850013	10156.178240
570.205445	10241.550181
570.560823	10134.226536
570.916145	10056.713754
571.271412	10126.064908
571.626625	10068.454602
571.981782	10046.228154
572.336884	10020.369556
572.691931	10024.735195
573.046923	9972.579417
573.401860	9926.382283
573.756743	9860.713693
574.111570	9911.899048
574.466342	9888.639164
574.821059	9927.698024
575.175722	9810.967587
575.530330	9823.966202
575.884882	9810.118152
576.239380	9740.648532
576.593823	9718.941323
576.948211	9738.387574
577.302544	9611.826886
577.656823	9629.581830
578.011047	9635.555597
578.365216	9606.180794
578.719330	9530.127426
579.073389	9543.657883
579.427394	9488.298452
579.781344	9462.371798
580.135239	9419.448894
580.489080	9426.753526
580.842866	9322.169748
581.196597	9330.026386
581.550273	9372.500628
581.903895	9331.901695
582.257463	9408.839785
582.610975	9278.609138
582.964434	9308.140217
583.317837	9226.425633
583.671186	9213.762255
584.024481	9208.569867
584.377721	9129.617836
584.730906	9111.603272
585.084037	9136.355338
585.437113	9077.273015
585.790135	9090.362371
586.143103	8994.663627
586.496016	8963.864697
586.848874	9019.009879
587.201679	9011.753138
587.554428	8900.013442
587.907124	8946.535731
588.259765	8915.383921
588.612352	8918.428777
588.964884	8791.648799
589.317362	8809.532293
589.669786	8811.294176
590.022155	8853.546607
590.374470	8876.151141
590.726731	8812.786358
591.078937	8661.070312
591.431090	8774.241695
591.783188	8652.366760
592.135232	8642.017271
592.487222	8639.796643
592.839157	8695.793780
593.191038	8631.203996
593.542866	8574.329698
593.894639	8472.939492
594.246358	8521.301801
594.598022	8540.218731
594.949633	8434.974562
595.301190	8413.877333
595.652692	8446.102909
596.004141	8557.956031
596.355535	8329.942122
596.706876	8313.328999
597.058162	8244.411385
597.409395	8328.848191
597.760573	8380.593115
598.111698	8293.217316
598.462768	8283.583671
598.813785	8243.047753
599.164748	8215.530614
599.515657	8204.019140
599.866511	8118.443032
600.217312	8236.395950
600.568060	8098.222964
600.918753	8202.824386
601.269392	8172.655601
601.619978	8080.500788
601.970510	8149.615007
602.320988	8147.979153
602.671412	8202.284983
603.021783	8135.527503
603.372100	8113.149821
603.722363	8117.404555
604.072572	8085.794000
604.422728	8097.121472
604.772830	8026.076491
605.122878	8037.943367
605.472872	8032.130917
605.822813	8064.341369
606.172701	8001.400043
606.522534	8085.126047
606.872314	8076.954336
607.222041	8043.297073
607.571714	8097.854960
607.921333	8059.338024
608.270899	8067.769354
608.620411	8155.712283
608.969870	8062.771050
609.319276	8052.368629
609.668627	8073.266732
610.017926	8102.011392
610.367171	8154.646079
610.716362	8129.941904
611.065500	8123.421172
611.414585	8155.092221
611.763616	8135.512379
612.112594	8115.105789
612.461518	8137.241495
612.810389	8197.364817
613.159207	8141.685272
613.507971	8081.173782
613.856682	8201.236423
614.205340	8161.474322
614.553945	8238.062052
614.902496	8138.826938
615.250994	8193.921708
615.599439	8172.806836
615.947830	8183.710851
616.296169	8151.918815
616.644454	8171.044952
616.992686	8172.269953
617.340864	8226.182572
617.688990	8129.657079
618.037063	8224.740803
618.385082	8173.815066
618.733048	8251.879854
619.080961	8193.611677
619.428821	8215.170172
619.776628	8215.454997
620.124382	8166.593613
620.472083	8149.002507
620.819731	8176.633071
621.167326	8073.594407
621.514868	8084.659740
621.862357	7966.341339
622.209793	7983.385480
622.557176	7917.127074
622.904506	7886.010552
623.251783	7819.956313
623.599007	7779.712782
623.946179	7777.759335
624.293297	7741.299190
624.640363	7656.607805
624.987376	7636.135679
625.334336	7588.766477
625.681243	7536.250257
626.028097	7529.759772
626.374899	7502.592993
626.721647	7497.047724
627.068343	7425.314626
627.414987	7400.502066
627.761577	7355.081270
628.108115	7393.000829
628.454600	7286.529140
628.801032	7340.716502
629.147412	7294.375696
629.493739	7281.992101
629.840014	7218.793676
630.186236	7276.482120
630.532405	7163.167064
630.878521	7212.192285
631.224585	7168.755183
631.570597	7096.500325
631.916556	7128.524255
632.262462	7125.116435
632.608316	7087.133861
632.954117	7061.565129
633.299866	7049.967954
633.645562	7042.907818
633.991206	6962.549305
634.336797	6905.450676
634.682336	6861.567432
635.027823	6830.831517
635.373257	6822.311967
635.718639	6751.597182
636.063968	6766.138390
636.409245	6662.507390
636.754470	6654.640670
637.099642	6617.810000
637.444762	6559.667852
637.789829	6568.716723
638.134845	6510.796386
638.479808	6496.335836
638.824719	6498.921948
639.169577	6430.533655
639.514383	6449.959741
639.859137	6383.121603
640.203839	6391.104270
640.548489	6374.440736
640.893086	6348.869483
641.237632	6323.915772
641.582125	6344.970151
641.926566	6313.039482
642.270955	6321.001985
642.615292	6318.322611
642.959576	6336.347257
643.303809	6325.712943
643.647990	6332.939437
643.992118	6321.617005
644.336195	6268.750425
644.680219	6290.006450
645.024192	6285.769360
645.368112	6381.326952
645.711981	6406.494913
646.055797	6477.882692
646.399562	6436.993893
646.743274	6565.303862
647.086935	6616.607684
647.430544	6607.142918
647.774101	6633.762731
648.117606	6639.686087
648.461059	6631.287524
648.804460	6595.593635
649.147810	6503.159038
649.491108	6471.034285
649.834354	6448.891017
650.177548	6363.907245
650.520690	6279.641838
650.863781	6253.120327
651.206820	6274.066322
651.549807	6195.381472
651.892742	6136.498274
652.235626	6145.990767
652.578458	6129.196163
652.921238	6038.372215
653.263967	6080.939718
653.606644	6012.120406
653.949269	6019.185583
654.291843	5960.657787
654.634365	6011.734758
654.976836	5963.332119
655.319255	5967.329754
655.661622	5937.143325
656.003938	5937.589467
656.346203	5894.603548
656.688416	5932.981853
657.030577	5879.427155
657.372687	5854.559143
657.714746	5842.581361
658.056753	5882.557711
658.398708	5824.768444
658.740612	5818.799718
659.082465	5864.235638
659.424266	5851.347928
659.766016	5859.197004
660.107715	5824.841541
660.449362	5847.652762
660.790958	5838.261092
661.132503	5822.789791
661.473996	5860.674062
661.815438	5845.298543
662.156829	5843.420713
662.498168	5840.471638
662.839456	5817.015149
663.180693	5850.069995
663.521879	5851.300037
663.863013	5839.160938
664.204097	5860.550554
664.545129	5900.471451
664.886110	5898.671759
665.227040	5933.944713
665.567918	5891.722529
665.908746	5920.323515
666.249522	5930.738539
666.590248	5916.819913
666.930922	5938.154076
667.271545	5954.885666
667.612118	5954.280728
667.952639	5929.102685
668.293109	5948.435510
668.633528	5910.641979
668.973896	5913.646507
669.314213	5904.466566
669.654480	5884.627105
669.994695	5877.317432
670.334859	5871.580599
670.674973	5857.578794
671.015035	5866.274784
671.355047	5863.229927
671.695008	5848.000602
672.034918	5818.822403
672.374777	5830.139793
672.714585	5816.115303
673.054342	5822.691489
673.394049	5818.272917
673.733705	5846.957083
674.073310	5835.102809
674.412864	5793.687210
674.752368	5785.717146
675.091820	5791.494308
675.431223	5722.417898
675.770574	5726.818825
676.109875	5684.246281
676.449125	5685.347773
676.788324	5650.936857
677.127473	5597.130101
677.466571	5585.469912
677.805619	5574.676802
678.144616	5559.886056
678.483562	5543.754364
678.822458	5509.691287
679.161303	5504.531667
679.500098	5495.472713
679.838842	5474.990505
680.177535	5480.359334
680.516179	5498.036140
680.854771	5504.955123
681.193314	5586.127783
681.531805	5696.372776
681.870247	5850.939594
682.208638	5948.228822
682.546978	5959.397499
682.885268	5939.021155
683.223508	5852.091498
683.561697	5800.777593
683.899836	5771.085197
684.237925	5729.016768
684.575963	5690.681313
684.913951	5648.045755
685.251889	5711.418100
685.589776	5679.197565
685.927614	5656.436755
686.265401	5726.816304
686.603137	5706.235794
686.940824	5783.652793
687.278460	5808.470394
687.616046	5813.382998
687.953582	5884.092743
688.291068	5863.401327
688.628504	5928.749804
688.965889	5890.736983
689.303224	5836.713458
689.640510	5785.611282
689.977745	5712.280137
690.314930	5616.205827
690.652065	5559.034101
690.989150	5460.824863
691.326185	5389.411877
691.663170	5337.956820
692.000105	5261.258185
692.336990	5180.778684
692.673825	5156.969315
693.010610	5089.679993
693.347345	5016.439589
693.684030	5003.846787
694.020665	4964.278771
694.357251	4874.001787
694.693786	4886.241709
695.030272	4848.402808
695.366707	4816.212520
695.703093	4785.277480
696.039429	4806.256242
696.375716	4790.023726
696.711952	4764.949027
697.048139	4749.865895
697.384276	4727.573912
697.720363	4741.187548
698.056400	4752.908231
698.392388	4701.518709
698.728326	4680.880225
699.064214	4655.366945
699.400053	4652.180936
699.735842	4617.354125
700.071581	4596.680353
700.407270	4563.375970
700.742910	4548.247467
701.078501	4498.077904
701.414042	4495.900126
701.749533	4460.281853
702.084974	4396.637286
702.420366	4455.941420
702.755709	4396.186103
703.091002	4339.026980
703.426246	4393.201739
703.761440	4343.997557
704.096584	4309.921878
704.431679	4331.208150
704.766725	4314.799194
705.101721	4303.580106
705.436668	4333.166638
705.771565	4279.967342
706.106413	4307.136640
706.441212	4340.614943
706.775961	4351.866798
707.110661	4329.249662
707.445311	4354.999876
707.779913	4381.085326
708.114465	4393.226945
708.448967	4417.711829
708.783421	4478.470336
709.117825	4514.491901
709.452180	4524.186040
709.786485	4565.861259
710.120742	4651.833096
710.454949	4638.532012
710.789107	4704.931570
711.123216	4779.011326
711.457275	4771.469759
711.791286	4844.395091
712.125247	4859.959653
712.459159	4762.131022
712.793023	4836.515767
713.126837	4794.901042
713.460602	4789.194456
713.794318	4711.948856
714.127985	4717.736101
714.461602	4634.617556
714.795171	4600.715796
715.128691	4535.974778
715.462162	4482.911593
715.795584	4431.955610
716.128957	4415.284514
716.462281	4362.362481
716.795556	4335.382225
717.128782	4299.310249
717.461960	4230.682501
717.795088	4240.449737
718.128167	4199.669323
718.461198	4140.687823
718.794180	4132.211123
719.127113	4115.925675
719.459997	4093.056481
719.792833	4053.110377
720.125619	4040.071433
720.458357	4003.495341
720.791046	4013.643184
721.123686	3985.511025
721.456278	3946.457206
721.788821	3960.764001
722.121315	3932.029424
722.453761	3908.293151
722.786158	3920.366714
723.118506	3944.342442
723.450805	3892.965523
723.783056	3917.848658
724.115259	3934.015638
724.447412	3940.687606
724.779518	3931.041358
725.111574	3930.917849
725.443582	3966.548725
725.775542	3952.047846
726.107453	3998.986029
726.439315	4001.199096
726.771129	4013.068492
727.102895	4049.725243
727.434612	4098.372377
727.766281	4113.087505
728.097901	4115.971045
728.429473	4113.904172
728.760996	4123.620996
729.092471	4117.168319
729.423897	4103.221967
729.755276	4111.265128
730.086606	4110.352679
730.417887	4144.824089
730.749120	4211.967218
731.080305	4279.221251
731.411442	4301.861073
731.742530	4272.869397
732.073570	4274.212865
732.404562	4332.118078
732.735506	4325.607428
733.066401	4283.917086
733.397249	4222.543558
733.728048	4146.880880
734.058798	4061.176224
734.389501	3986.705778
734.720156	3925.264195
735.050762	3882.250550
735.381320	3874.076319
735.711831	3826.870955
736.042293	3796.903816
736.372707	3819.578926
736.703073	3792.742343
737.033391	3782.377731
737.363661	3799.477325
737.693883	3824.463804
738.024056	3835.420752
738.354182	3827.238959
738.684260	3892.461407
739.014290	3914.098040
739.344272	3910.208789
739.674207	3949.315540
740.004093	3954.218062
740.333931	3949.370993
740.663722	3949.260088
740.993464	3949.282773
741.323159	3922.151283
741.652806	3891.692631
741.982405	3865.080380
742.311956	3838.117769
742.641460	3824.657888
742.970915	3802.829692
743.300323	3763.639762
743.629683	3728.727251
743.958996	3718.506312
744.288260	3692.567054
744.617477	3657.939369
744.946647	3645.855723
745.275768	3620.939820
745.604842	3621.050725
745.933869	3569.245308
746.262847	3561.943197
746.591778	3599.814865
746.920662	3569.963672
747.249498	3539.608364
747.578286	3585.508070
747.907027	3606.018005
748.235720	3602.393415
748.564365	3622.973926
748.892963	3625.287815
749.221514	3608.588993
749.550017	3585.755087
749.878473	3583.037905
750.206881	3556.087896
750.535242	3550.333419
750.863555	3551.485323
751.191821	3543.598438
751.520039	3527.161756
751.848210	3503.853981
752.176334	3539.507541
752.504411	3545.284704
752.832440	3505.227695
753.160421	3483.593583
753.488356	3496.584637
753.816243	3507.405474
754.144082	3466.723362
754.471875	3454.120478
754.799620	3473.249136
755.127318	3463.166828
755.454969	3463.607929
755.782572	3470.002633
756.110129	3444.179322
756.437638	3435.667334
756.765100	3448.053449
757.092515	3460.011066
757.419882	3464.611119
757.747203	3438.598765
758.074477	3439.251594
758.401703	3457.064511
758.728882	3476.856081
759.056014	3483.273470
759.383099	3486.968636
759.710138	3480.009323
760.037129	3502.293744
760.364073	3531.305584
760.690970	3518.637164
761.017820	3492.672702
761.344623	3511.009899
761.671379	3555.735016
761.998088	3609.327522
762.324751	3734.030545
762.651366	3984.275942
762.977935	4453.950164
763.304456	4902.136467
763.630931	4991.959746
763.957359	4632.452380
764.283740	4287.584525
764.610074	4099.055454
764.936362	3902.268972
765.262602	3743.036566
765.588796	3632.413486
765.914943	3543.154816
766.241044	3453.223152
766.567097	3427.601488
766.893104	3379.022409
767.219064	3346.287676
767.544978	3322.075014
767.870845	3264.305912
768.196665	3247.463417
768.522438	3253.575816
768.848165	3251.231679
769.173846	3213.954867
769.499479	3197.734955
769.825066	3182.538396
770.150607	3164.728000
770.476101	3178.200483
770.801548	3174.805266
771.126949	3129.744913
771.452303	3108.803960
771.777611	3119.002214
772.102872	3125.553193
772.428087	3099.802979
772.753256	3087.890733
773.078378	3081.191039
773.403453	3048.534445
773.728482	3034.366282
774.053465	3059.897206
774.378401	3048.811708
774.703291	3016.102182
775.028135	3015.582943
775.352932	3008.921058
775.677683	2999.405880
776.002388	2994.861280
776.327046	2996.804645
776.651658	2987.856597
776.976224	2975.765389
777.300743	2975.223465
777.625216	2967.162660
777.949643	2958.678398
778.274024	2960.374746
778.598359	2953.727985
778.922647	2956.377111
779.246889	2955.469704
779.571086	2940.547888
779.895236	2936.928340
780.219339	2944.195163
780.543397	2959.928604
780.867409	2962.436578
781.191374	2952.855865
781.515294	2949.095165
781.839167	2951.126750
782.162995	2943.965791
782.486776	2950.884774
782.810511	2950.557099
783.134201	2935.007660
783.457844	2943.653239
783.781441	2934.722835
784.104993	2912.400606
784.428498	2914.427150
784.751958	2927.579520
785.075372	2922.263623
785.398739	2903.969276
785.722061	2921.822522
786.045337	2936.051179
786.368568	2919.947213
786.691752	2911.934299
787.014891	2959.288378
787.337983	2989.179899
787.661030	3016.104702
787.984031	3082.660536
788.306987	3131.206847
788.629897	3117.580608
788.952760	3107.359669
789.275579	3091.172524
789.598351	3031.331507
789.921078	2985.124291
790.243759	2978.096923
790.566395	2959.542956
790.888984	2935.176539
791.211529	2920.806730
791.534027	2912.912283
791.856480	2902.303175
792.178888	2886.405896
792.501249	2877.462889
792.823566	2876.381562
793.145836	2873.190511
793.468062	2866.120293
793.790241	2864.123996
794.112375	2871.267311
794.434464	2884.828015
794.756507	2887.996380
795.078505	2896.687329
795.400457	2906.610841
795.722364	2945.992334
796.044226	2966.575366
796.366042	2972.796149
796.687812	2960.150415
797.009538	2981.386276
797.331218	2969.897486
797.652852	2951.976184
797.974442	2935.675613
798.295986	2934.085129
798.617484	2927.438368
798.938938	2910.469844
799.260346	2895.598440
799.581709	2890.995867
799.903026	2880.681666
800.224299	2878.345091
800.545526	2869.177753
800.866708	2854.631503
801.187845	2841.877384
801.508936	2843.241016
801.829983	2852.433560
802.150984	2839.089626
802.471940	2827.240394
802.792851	2828.528409
803.113717	2825.014724
803.434538	2830.693584
803.755314	2825.705362
804.076045	2818.932572
804.396731	2817.929383
804.717372	2816.606080
805.037967	2812.522745
805.358518	2817.611790
805.679024	2830.696105
805.999485	2826.459015
806.319901	2832.813389
806.640272	2822.350475
806.960598	2830.486897
807.280879	2840.218844
807.601115	2843.614062
807.921306	2833.307422
808.241453	2826.005311
808.561554	2836.899245
808.881611	2837.559636
809.201623	2830.496979
809.521590	2827.346258
809.841513	2825.723007
810.161390	2828.853563
810.481223	2823.489775
810.801011	2815.681028
811.120755	2812.547951
811.440453	2813.916624
811.760107	2815.045843
812.079716	2809.372024
812.399281	2800.562608
812.718801	2794.982050
813.038276	2789.630866
813.357707	2793.598254
813.677093	2802.500931
813.996434	2797.855508
814.315731	2795.460960
814.634983	2789.194806
814.954191	2790.689508
815.273354	2804.023360
815.592473	2810.624751
815.911547	2813.314206
816.230577	2821.236380
816.549562	2829.191320
816.868502	2829.826506
817.187399	2838.809842
817.506250	2856.453880
817.825058	2847.742767
818.143821	2861.961341
818.462539	2880.253168
818.781213	2905.862229
819.099843	2938.473453
819.418429	2997.782628
819.736970	3059.466187
820.055466	3130.702732
820.373919	3237.386150
820.692327	3379.723129
821.010691	3546.847461
821.329011	3985.412722
821.647286	4883.469074
821.965517	6260.782881
822.283704	7004.312744
822.601847	6982.355999
822.919945	6348.708166
823.237999	5846.193348
823.556010	5264.693731
823.873976	4710.940625
824.191897	4303.859890
824.509775	4009.133872
824.827609	3743.772575
825.145398	3616.193574
825.463144	3607.590845
825.780845	3701.189948
826.098502	3802.872542
826.416116	4084.015171
826.733685	4399.470414
827.051210	4467.359633
827.368692	4348.305223
827.686129	4084.244544
828.003522	3754.285901
828.320872	3499.669823
828.638177	3305.030873
828.955439	3166.888134
829.272656	3084.051894
829.589830	3018.060670
829.906960	2967.608802
830.224046	2924.080959
830.541088	2890.960578
830.858086	2874.932230
831.175041	2858.412369
831.491952	2859.776001
831.808819	2869.931405
832.125642	2891.315980
832.442421	2937.757610
832.759157	3020.427492
833.075849	3200.578165
833.392497	3481.748521
833.709101	3683.228317
834.025662	3633.862818
834.342179	3470.433651
834.658653	3297.718679
834.975083	3149.680156
835.291469	3047.919424
835.607811	2966.353555
835.924110	2905.663104
836.240366	2857.588140
836.556578	2816.187664
836.872746	2790.548356
837.188871	2769.166302
837.504952	2752.976636
837.820990	2744.610841
838.136984	2730.714901
838.452935	2723.654765
838.768842	2722.333982
839.084706	2740.023391
839.400526	2819.527428
839.716303	2950.635237
840.032037	3032.932074
840.347727	3016.192922
840.663373	2955.542800
840.978977	2879.857437
841.294537	2806.942188
841.610054	2762.554828
841.925527	2736.852505
842.240957	2716.571943
842.556344	2694.068233
842.871687	2677.765141
843.186987	2671.607372
843.502244	2666.714932
843.817458	2664.259890
844.132629	2651.324289
844.447756	2639.719553
844.762840	2633.304685
845.077881	2640.009419
845.392879	2636.616723
845.707833	2631.189921
846.022745	2622.612397
846.337613	2631.411732
846.652438	2627.588016
846.967221	2626.489045
847.281960	2623.169445
847.596656	2622.158694
847.911309	2618.647530
848.225919	2615.736264
848.540485	2616.472272
848.855009	2617.641820
849.169490	2616.386572
849.483928	2613.185440
849.798323	2614.947323
850.112675	2613.306427
850.426984	2613.808022
850.741251	2612.179730
851.055474	2610.972373
851.369654	2616.938579
851.683792	2613.366921
851.997887	2611.007661
852.311938	2613.296345
852.625947	2614.521346
852.939914	2618.975205
853.253837	2618.216511
853.567718	2612.635954
853.881555	2611.776437
854.195350	2615.663167
854.509103	2615.814402
854.822812	2610.190994
855.136479	2611.123608
855.450103	2611.610079
855.763685	2618.070318
856.077224	2612.507405
856.390720	2609.265943
856.704173	2613.003958
857.017584	2616.686521
857.330953	2617.888836
857.644278	2619.449073
857.957561	2619.968312
858.270802	2617.513270
858.584000	2617.470421
858.897155	2619.232304
859.210268	2619.703652
859.523339	2611.584873
859.836367	2611.184102
860.149352	2611.917590
860.462295	2614.191150
860.775195	2609.704523
861.088054	2608.592949
861.400869	2607.448607
861.713642	2605.961466
862.026373	2608.441714
862.339062	2609.296190
862.651708	2615.244751
862.964312	2616.089144
863.276873	2614.690224
863.589392	2614.004627
863.901869	2619.922942
864.214303	2627.764457
864.526696	2628.455095
864.839045	2630.252266
865.151353	2631.933491
865.463619	2635.316105
865.775842	2632.193110
866.088023	2632.583800
866.400162	2631.419293
866.712258	2636.036990
867.024313	2632.961886
867.336325	2627.343520
867.648296	2631.368882
867.960224	2634.756537
868.272110	2633.864253
868.583954	2628.329066
868.895755	2629.390229
869.207515	2633.284520
869.519233	2641.763741
869.830909	2636.730149
870.142542	2634.577576
870.454134	2636.226033
870.765684	2638.023205
871.077191	2640.306847
871.388657	2644.601911
871.700081	2642.875315
872.011463	2643.838176
872.322803	2645.900008
872.634101	2647.916469
872.945357	2654.893426
873.256571	2662.288799
873.567744	2657.512306
873.878874	2656.713283
874.189963	2656.630104
874.501010	2662.233346
874.812015	2667.602175
875.122979	2665.331135
875.433900	2659.506082
875.744780	2654.049033
876.055618	2665.207627
876.366415	2668.318019
876.677169	2666.583862
876.987882	2659.528767
877.298554	2661.792245
877.609183	2671.370437
877.919771	2677.989472
878.230317	2684.472396
878.540822	2696.248532
878.851285	2708.831252
879.161707	2730.946794
879.472087	2770.986158
879.782425	2817.475679
880.092722	2932.872732
880.402977	3119.609673
880.713191	3379.735732
881.023363	3673.193900
881.333494	3865.826471
881.643583	4040.489849
881.953631	4033.764950
882.263637	3855.000593
882.573602	3634.371974
882.883526	3503.896831
883.193408	3392.595715
883.503248	3290.424130
883.813048	3174.623785
884.122806	3062.599264
884.432522	2979.470637
884.742197	2911.054618
885.051831	2874.309647
885.361424	2841.753876
885.670975	2805.644091
885.980485	2773.395830
886.289954	2755.592995
886.599382	2739.355438
886.908768	2730.523337
887.218113	2711.795450
887.527417	2698.070909
887.836680	2687.270237
888.145901	2684.424505
888.455082	2677.659277
888.764221	2666.641835
889.073319	2657.134219
889.382376	2656.776297
889.691392	2656.499034
890.000366	2658.507933
890.309300	2656.693118
890.618193	2657.136740
890.927044	2662.487924
891.235855	2662.641680
891.544625	2659.755619
891.853353	2660.970537
892.162041	2665.915909
892.470687	2689.112778
892.779293	2701.453523
893.087858	2707.989379
893.396381	2731.566856
893.704864	2769.229316
894.013306	2845.645647
894.321707	2936.444389
894.630068	2983.803509
894.938387	3007.570029
895.246665	3000.298164
895.554903	2955.275619
895.863100	2911.979669
896.171256	2855.503623
896.479371	2791.977523
896.787446	2752.124681
897.095480	2736.829820
897.403473	2726.687019
897.711425	2712.743187
898.019336	2694.955476
898.327207	2682.647499
898.635038	2682.403003
898.942827	2676.547702
899.250576	2668.950684
899.558284	2657.703869
899.865952	2650.855462
900.173579	2651.241110
900.481165	2649.960657
900.788711	2639.485139
901.096216	2636.205869
901.403681	2633.783594
901.711105	2632.195631
902.018489	2630.002729
902.325832	2632.747637
902.633135	2630.892493
902.940397	2650.449649
903.247619	2687.277798
903.554800	2754.773807
903.861941	2885.430433
904.169041	3011.431553
904.476101	3074.574525
904.783121	3065.291240
905.090100	3004.033659
905.397039	2934.921961
905.703938	2860.196937
906.010796	2797.971455
906.317614	2742.808629
906.624391	2710.686396
906.931129	2680.431912
907.237826	2657.161945
907.544483	2639.918679
907.851099	2627.169601
908.157675	2615.834566
908.464211	2608.776951
908.770707	2599.281937
909.077163	2596.595002
909.383578	2591.332038
909.689954	2592.786411
909.996289	2589.444126
910.302584	2587.503282
910.608839	2585.650658
910.915054	2588.851790
911.221229	2589.439085
911.527363	2590.656523
911.833458	2588.508992
912.139513	2591.725248
912.445527	2593.865218
912.751502	2598.931577
913.057436	2601.174891
913.363331	2609.351642
913.669186	2619.267592
913.975000	2635.986579
914.280775	2649.514515
914.586510	2671.355314
914.892205	2706.837475
915.197859	2772.879111
915.503475	2856.862214
915.809050	2921.320928
916.114585	2939.474123
916.420081	2950.433591
916.725536	2959.089252
917.030952	2932.663524
917.336328	2889.420506
917.641665	2837.481498
917.946961	2788.368057
918.252218	2754.667943
918.557435	2728.781618
918.862612	2705.917465
919.167750	2690.002542
919.472848	2675.201714
919.777906	2657.068684
920.082925	2642.305665
920.387904	2632.984572
920.692843	2629.569190
920.997743	2625.443005
921.302603	2619.648199
921.607423	2610.301900
921.912204	2604.116404
922.216946	2603.208996
922.521647	2600.895107
922.826310	2598.321598
923.130932	2592.662902
923.435516	2587.215936
923.740059	2586.293405
924.044564	2581.090934
924.349028	2579.513053
924.653454	2571.091805
924.957840	2570.759089
925.262186	2569.100549
925.566493	2573.501477
925.870761	2569.241702
926.174989	2566.176680
926.479178	2563.951011
926.783328	2564.543346
927.087438	2562.431103
927.391509	2563.351113
927.695541	2561.717780
927.999533	2559.502193
928.303486	2559.303067
928.607400	2559.476987
928.911275	2555.900288
929.215110	2555.537325
929.518906	2556.104455
929.822663	2556.429609
930.126381	2556.074208
930.430060	2557.871379
930.733699	2554.995401
931.037299	2558.889692
931.340861	2556.296019
931.644383	2558.493962
931.947866	2559.098900
932.251309	2557.417675
932.554714	2555.779300
932.858080	2558.380536
933.161407	2557.939435
933.464694	2558.632593
933.767943	2554.700493
934.071153	2552.900802
934.374323	2553.488096
934.677455	2555.638148
934.980548	2553.777962
935.283602	2553.316697
935.586617	2554.077911
935.889593	2554.095555
936.192530	2554.634958
936.495428	2552.931048
936.798287	2556.361554
937.101108	2558.025134
937.403890	2560.001267
937.706632	2563.318346
938.009336	2565.914540
938.312002	2569.118193
938.614628	2571.933678
938.917216	2572.720098
939.219765	2575.336457
939.522275	2576.924420
939.824747	2575.558267
940.127179	2569.445868
940.429573	2569.773543
940.731929	2569.453430
941.034246	2566.600137
941.336524	2568.225909
941.638763	2567.394119
941.940964	2564.626525
942.243126	2564.528223
942.545250	2564.399673
942.847335	2563.378840
943.149381	2560.328942
943.451389	2557.818447
943.753359	2560.041596
944.055290	2556.235525
944.357182	2556.454815
944.659036	2556.827860
944.960851	2557.006821
945.262628	2556.066646
945.564367	2558.657799
945.866067	2557.616801
946.167729	2557.745350
946.469352	2558.320042
946.770937	2559.078736
947.072484	2558.690567
947.373992	2557.286605
947.675462	2555.973385
947.976893	2555.688560
948.278286	2556.084290
948.579641	2552.857952
948.880958	2552.873075
949.182236	2556.298539
949.483476	2556.452294
949.784678	2553.233518
950.085841	2552.641182
950.386967	2554.085473
950.688054	2554.095555
950.989103	2553.856100
951.290114	2558.181410
951.591087	2558.345248
951.892021	2558.551935
952.192917	2563.043603
952.493776	2560.689384
952.794596	2561.742985
953.095378	2559.686195
953.396122	2564.248439
953.696828	2560.591082
953.997496	2558.526729
954.298126	2558.264589
954.598718	2555.136553
954.899272	2554.783672
955.199788	2554.266954
955.500266	2551.486758
955.800706	2550.856614
956.101108	2546.604400
956.401472	2546.707744
956.701798	2546.304452
957.002087	2546.289328
957.302337	2546.059956
957.602550	2547.229503
957.902724	2543.904863
958.202861	2544.315717
958.502960	2542.579039
958.803022	2544.494677
959.103045	2544.487116
959.403031	2542.485778
959.702979	2541.175078
960.002889	2541.064172
960.302762	2541.696837
960.602596	2545.147507
960.902393	2538.921682
961.202153	2538.442772
961.501875	2540.451672
961.801559	2540.398740
962.101205	2540.207176
962.400814	2538.810777
962.700385	2540.605427
962.999918	2540.529810
963.299414	2536.864891
963.598873	2539.619882
963.898293	2541.641384
964.197677	2537.139634
964.497022	2539.093081
964.796331	2538.725077
965.095601	2537.195087
965.394835	2538.069727
965.694030	2542.052238
965.993189	2536.459078
966.292309	2540.502084
966.591393	2536.799356
966.890439	2536.927906
967.189447	2534.137627
967.488419	2537.787422
967.787353	2539.292207
968.086249	2541.127187
968.385108	2538.946888
968.683930	2541.064172
968.982714	2539.261960
969.281462	2538.956970
969.580172	2543.766231
969.878844	2539.340098
970.177480	2538.485622
970.476078	2537.386651
970.774639	2541.036446
971.073162	2539.287166
971.371649	2538.581404
971.670098	2535.266845
971.968510	2538.372196
972.266885	2536.174253
972.565223	2538.467978
972.863524	2537.442103
973.161788	2539.284645
973.460014	2542.430325
973.758204	2540.234903
974.056356	2539.289686
974.354471	2537.973945
974.652550	2541.177598
974.950591	2537.016126
975.248595	2540.532331
975.546563	2536.759027
975.844493	2540.832279
976.142386	2537.621064
976.440243	2538.566281
976.738062	2537.482432
977.035845	2534.997144
977.333590	2538.490663
977.631299	2537.772299
977.928971	2535.438245
978.226606	2536.438914
978.524204	2537.185004
978.821765	2536.418749
979.119290	2538.457896
979.416777	2534.639222
979.714228	2537.802546
980.011642	2537.479912
980.309020	2539.713143
980.606360	2537.268183
980.903664	2539.294727
981.200931	2539.335057
981.498162	2538.750283
981.795356	2540.209697
982.092513	2544.439225
982.389633	2548.096582
982.686717	2553.049516
982.983764	2552.313507
983.280775	2554.017417
983.577749	2552.752088
983.874686	2553.546069
984.171587	2551.648075
984.468451	2548.053732
984.765279	2546.664894
985.062070	2546.415357
985.358824	2543.123484
985.655543	2542.347146
985.952224	2539.642567
986.248869	2535.919675
986.545478	2534.586290
986.842050	2537.961342
987.138586	2532.463964
987.435086	2531.576721
987.731549	2532.020342
988.027975	2536.844727
988.324366	2534.301464
988.620719	2536.882535
988.917037	2534.687113
989.213318	2535.584438
989.509563	2534.545960
989.805772	2532.748789
990.101944	2536.345652
990.398080	2536.660724
990.694180	2534.939170
990.990244	2533.956145
991.286271	2538.916641
991.582262	2533.532688
991.878217	2533.386495
992.174136	2534.624098
992.470019	2534.518234
992.765865	2535.861702
993.061676	2535.415559
993.357450	2537.442103
993.653188	2534.472864
993.948890	2537.772299
994.244556	2536.514531
994.540186	2536.406146
994.835780	2534.608975
995.131337	2536.711136
995.426859	2535.362627
995.722345	2534.669469
996.017795	2538.319264
996.313208	2540.996117
996.608586	2538.402443
996.903928	2539.508976
997.199234	2539.413194
997.494504	2538.009233
997.789738	2538.283976
998.084936	2538.886394
998.380099	2536.506969
998.675225	2538.793133
998.970316	2536.353214
999.265371	2537.429500
999.560390	2535.760878
999.855373	2537.026208
1000.150320	2533.222657
1000.445232	2536.020498
1000.740108	2533.613347
1001.034948	2533.308357
1001.329752	2531.896834
1001.624521	2535.508821
1001.919254	2528.420958
1002.213951	2531.758202
1002.508613	2533.310878
1002.803239	2530.011442
1003.097829	2527.793335
1003.392384	2534.712318
1003.686903	2532.993285
1003.981386	2535.750796
1004.275834	2532.353058
1004.570246	2533.721732
1004.864623	2530.830630
1005.158964	2533.714170
1005.453270	2531.211237
1005.747540	2533.457071
1006.041775	2531.891793
1006.335974	2534.442617
1006.630138	2532.647966
1006.924266	2532.612678
1007.218359	2531.990095
1007.512416	2533.084026
1007.806438	2531.455733
1008.100425	2534.112421
1008.394376	2533.343645
1008.688292	2532.501773
1008.982172	2533.890610
1009.276017	2532.552184
1009.569827	2532.521937
1009.863602	2535.004705
1010.157341	2534.573687
1010.451045	2533.227699
1010.744714	2534.969417
1011.038347	2530.848274
1011.331945	2533.512524
1011.625508	2532.710980
1011.919036	2532.968079
1012.212528	2533.694005
1012.505986	2533.278110
1012.799408	2532.211906
1013.092795	2532.975641
1013.386147	2533.068902
1013.679464	2531.675023
1013.972745	2532.632843
1014.265992	2532.743748
1014.559204	2534.162833
1014.852380	2530.949097
1015.145521	2534.886238
1015.438628	2531.939684
1015.731699	2533.764582
1016.024736	2529.963552
1016.317737	2532.942873
1016.610703	2533.502442
1016.903635	2529.545136
1017.196531	2528.098325
1017.489393	2530.855836
1017.782219	2527.374919
1018.075011	2528.410876
1018.367768	2533.630991
1018.660490	2530.765095
1018.953177	2530.765095
1019.245829	2530.765095
