Dividing Wavelength (nm)	Counts (n)	Blue Motor Position (mm): 40.200000	Red Motor Position (mm): 0.000000	
326.493990	2129.010339
326.888308	2129.010339
327.282561	2129.010339
327.676750	2097.157809
328.070874	2096.010946
328.464933	2098.997830
328.858929	2106.483943
329.252859	2114.242279
329.646726	2127.215688
330.040528	2138.361680
330.434265	2156.562766
330.827938	2172.510456
331.221547	2191.102231
331.615091	2211.738194
332.008571	2231.504559
332.401986	2250.731519
332.795338	2268.940167
333.188625	2289.084618
333.581847	2304.434931
333.975006	2321.887406
334.368100	2343.944975
334.761129	2362.582120
335.154095	2379.376724
335.546996	2400.726011
335.939833	2425.969589
336.332606	2437.506269
336.725315	2452.811213
337.117960	2461.867645
337.510540	2469.152113
337.903056	2480.603094
338.295508	2487.101141
338.687896	2497.017091
339.080220	2505.171157
339.472480	2510.434122
339.864676	2518.036182
340.256807	2519.730009
340.648875	2521.668333
341.040879	2526.442306
341.432818	2525.764270
341.824694	2530.427338
342.216506	2528.703263
342.608253	2531.465815
342.999937	2532.153933
343.391557	2527.455578
343.783113	2529.938346
344.174605	2526.769981
344.566033	2524.559435
344.957397	2522.653878
345.348697	2523.223529
345.739934	2518.726820
346.131106	2518.633558
346.522215	2519.583816
346.913260	2511.515449
347.304241	2513.269771
347.695159	2511.389420
348.086012	2509.418329
348.476802	2508.137876
348.867528	2508.105108
349.258191	2506.514624
349.648789	2505.329953
350.039324	2500.548419
350.429796	2503.908348
350.820203	2501.090343
351.210548	2496.575990
351.600828	2498.100939
351.991045	2499.527585
352.381198	2496.742348
352.771288	2496.303767
353.161314	2495.504744
353.551276	2498.068171
353.941175	2496.548263
354.331010	2497.816113
354.720782	2495.464415
355.110490	2496.999447
355.500135	2493.926863
355.889717	2496.802842
356.279235	2495.736637
356.668689	2498.607575
357.058080	2496.999447
357.447408	2496.805362
357.836672	2496.535660
358.225873	2495.441730
358.615010	2494.670433
359.004084	2499.454488
359.393095	2497.836278
359.782043	2501.123110
360.170927	2499.666217
360.559748	2503.013543
360.948505	2505.766013
361.337199	2503.938595
361.725830	2503.512617
362.114398	2502.832062
362.502903	2501.291989
362.891344	2503.923471
363.279722	2505.279542
363.668037	2507.159892
364.056289	2503.706702
364.444478	2509.251971
364.832603	2506.212155
365.220665	2509.937568
365.608665	2506.048318
365.996601	2506.451610
366.384474	2507.545540
366.772284	2511.568381
367.160031	2508.092506
367.547715	2508.931858
367.935336	2509.309944
368.322893	2512.188443
368.710388	2509.199039
369.097820	2513.952847
369.485189	2511.870850
369.872495	2509.075531
370.259738	2512.637106
370.646918	2512.909328
371.034035	2514.356139
371.421090	2515.311438
371.808081	2513.320182
372.195010	2515.878568
372.581875	2517.476613
372.968678	2515.293794
373.355418	2514.830008
373.742096	2516.110461
374.128710	2516.763290
374.515262	2515.129956
374.901751	2517.101048
375.288177	2518.298322
375.674540	2516.929648
376.060841	2518.172293
376.447079	2520.284536
376.833254	2519.409896
377.219367	2515.989473
377.605417	2517.572395
377.991404	2516.649864
378.377329	2520.962571
378.763191	2518.142046
379.148991	2521.141532
379.534727	2520.014834
379.920402	2522.293436
380.306013	2522.681605
380.691563	2523.001718
381.077049	2522.888292
381.462474	2526.296112
381.847835	2524.423323
382.233134	2525.804600
382.618371	2523.553724
383.003545	2524.360309
383.388657	2526.240659
383.773706	2525.928108
384.158693	2527.054806
384.543618	2527.173273
384.928480	2527.987419
385.313280	2529.877852
385.698017	2527.800897
386.082692	2529.560259
386.467305	2534.780374
386.851856	2534.487987
387.236344	2536.653163
387.620770	2542.687424
388.005133	2545.318906
388.389435	2552.268137
388.773674	2560.389436
389.157851	2565.859087
389.541965	2580.133115
389.926018	2584.891964
390.310008	2598.518203
390.693936	2614.990173
391.077802	2627.842595
391.461606	2643.644091
391.845348	2666.974551
392.229027	2679.116170
392.612645	2699.363965
392.996200	2728.554766
393.379694	2753.631986
393.763125	2788.322686
394.146494	2802.390026
394.529801	2842.560460
394.913047	2878.219062
395.296230	2897.032648
395.679351	2938.221396
396.062410	2975.256233
396.445408	2999.771364
396.828343	3040.700492
397.211217	3077.677355
397.594028	3083.620876
397.976778	3142.859474
398.359466	3185.734488
398.742092	3230.177300
399.124656	3236.171232
399.507158	3305.182108
399.889598	3351.190198
400.271977	3416.475661
400.654294	3439.796039
401.036549	3480.891525
401.418742	3500.851974
401.800874	3596.149946
402.182944	3644.418994
402.564952	3719.743915
402.946898	3748.715426
403.328783	3784.210190
403.710606	3760.267230
404.092367	3927.658743
404.474067	3939.707101
404.855705	3972.434272
405.237282	3953.083803
405.618797	4064.823498
406.000250	4121.309627
406.381642	4214.258422
406.762972	4215.392682
407.144240	4249.380141
407.525447	4278.331487
407.906593	4353.830328
408.287677	4417.195111
408.668700	4376.888566
409.049661	4445.183597
409.430560	4499.091176
409.811399	4455.646512
410.192176	4622.791009
410.572891	4579.351386
410.953545	4693.031926
411.334138	4595.082307
411.714669	4673.270603
412.095139	4584.619392
412.475547	4735.561621
412.855894	4725.912852
413.236180	4746.528651
413.616405	4710.320563
413.996568	4804.149039
414.376670	4754.448303
414.756711	4712.342066
415.136691	4747.904886
415.516609	4833.740612
415.896466	4872.819637
416.276262	4911.049227
416.655997	4890.256988
417.035670	5078.012243
417.415283	5165.824101
417.794834	5118.502790
418.174324	5074.838836
418.553753	4986.767358
418.933121	5168.604298
419.312428	5239.087190
419.691674	5177.660731
420.070859	5305.862314
420.449983	5217.344694
420.829045	5336.915822
421.208047	5241.093569
421.586988	5316.549560
421.965867	5324.743956
422.344686	5461.785202
422.723444	5315.049817
423.102141	5136.224967
423.480777	5432.060039
423.859352	5200.444225
424.237866	5460.933247
424.616319	5453.699192
424.994712	5560.075100
425.373044	5439.336944
425.751314	5585.527885
426.129524	5382.548346
426.507673	5578.225774
426.885762	5661.528321
427.263789	5596.444504
427.641756	5476.127285
428.019662	5599.900215
428.397508	5605.095124
428.775292	5552.261311
429.153016	5651.325025
429.530679	5579.307102
429.908282	5657.949102
430.285824	5533.349422
430.663305	5805.942255
431.040726	5545.967431
431.418086	5540.414600
431.795385	5649.416949
432.172624	5659.295090
432.549802	5652.441641
432.926920	5665.967057
433.303977	5674.544580
433.680974	5717.596034
434.057910	5731.799485
434.434786	5735.363581
434.811601	5705.961051
435.188355	5941.508964
435.565050	5815.344007
435.941683	5798.274660
436.318257	6011.434809
436.694770	5995.655998
437.071222	6028.476430
437.447614	5959.062262
437.823946	5874.005394
438.200218	6028.378127
438.576429	5895.838631
438.952580	5988.169884
439.328670	6039.415734
439.704700	5945.882165
440.080670	5930.425987
440.456580	6202.456731
440.832429	6080.838895
441.208218	5933.594353
441.583947	6089.255101
441.959616	6086.616057
442.335224	6018.880593
442.710773	6150.835316
443.086261	6184.709349
443.461689	5975.307380
443.837057	6128.054342
444.212365	6279.956910
444.587612	6172.550086
444.962800	6326.809394
445.337927	6301.510363
445.712995	5915.300005
446.088002	6496.774416
446.462949	6322.058106
446.837837	6257.521255
447.212664	6426.924189
447.587431	6573.319296
447.962139	7116.576720
448.336786	8042.382103
448.711374	7775.637009
449.085901	6852.647110
449.460369	6773.896726
449.834776	6709.858948
450.209124	7096.996878
450.583412	7254.084273
450.957640	7394.755151
451.331808	7162.781416
451.705917	6710.912549
452.079965	6636.240458
452.453954	6848.674681
452.827883	6721.816565
453.201752	6819.151164
453.575562	6614.273630
453.949311	6818.004301
454.323001	6710.726027
454.696632	6783.946266
455.070202	6925.363234
455.443713	7081.485248
455.817164	7178.255237
456.190556	7255.074860
456.563888	7336.285328
456.937160	7377.705969
457.310373	7033.357352
457.683526	7059.399953
458.056619	6949.344003
458.429653	6937.736746
458.802628	6873.388938
459.175542	6979.164948
459.548398	7340.018303
459.921194	7499.152406
460.293930	7499.928744
460.666607	8028.483642
461.039224	8332.240888
461.411782	8463.489849
461.784280	8482.767221
462.156719	8372.194553
462.529099	8249.767611
462.901419	7834.247984
463.273680	7732.971204
463.645882	7742.357832
464.018024	7611.527287
464.390106	7783.042464
464.762130	8166.654107
465.134094	8639.365624
465.505999	9658.384462
465.877845	10876.097859
466.249631	11525.156499
466.621358	11137.128805
466.993026	10512.774340
467.364634	10256.603066
467.736184	9899.991843
468.107674	9568.815762
468.479105	9589.245038
468.850477	9360.359009
469.221790	9132.914750
469.593043	8806.991551
469.964238	8664.473091
470.335373	8671.659256
470.706449	8735.147547
471.077467	8719.925783
471.448425	10028.594198
471.819324	11090.132649
472.190164	11115.862698
472.560945	9867.859528
472.931667	9081.111853
473.302330	8947.601935
473.672934	8592.205630
474.043479	8955.882030
474.413965	8890.641938
474.784393	8774.826469
475.154761	8927.598636
475.525070	9022.725209
475.895321	8848.891101
476.265513	9023.788893
476.635645	9188.183440
477.005719	9198.303557
477.375734	9304.626533
477.745691	9546.717864
478.115588	9675.128655
478.485427	9914.487681
478.855207	10456.031112
479.224928	11273.814651
479.594591	11900.926627
479.964194	11710.580220
480.333739	11652.508648
480.703226	11569.107799
481.072653	11656.483598
481.442022	11894.662994
481.811333	12080.006056
482.180584	11889.967159
482.549777	11600.496543
482.918912	11424.600603
483.287988	11446.602719
483.657005	11451.928698
484.025964	11138.580658
484.394864	11272.524115
484.763706	11236.179917
485.132489	10996.294090
485.501213	10959.357556
485.869879	11038.697756
486.238487	10883.057172
486.607036	10993.760911
486.975527	10770.384863
487.343959	10964.711262
487.712333	11009.070895
488.080648	10934.613053
488.448905	10983.033335
488.817104	10929.014851
489.185244	11184.112359
489.553326	11341.101452
489.921350	11886.277034
490.289315	12944.687449
490.657222	13284.579685
491.025070	13189.458153
491.392861	13063.081468
491.760593	12689.647914
492.128267	12337.402330
492.495883	12009.457629
492.863440	11671.912049
493.230939	11331.939155
493.598380	11267.755184
493.965763	11136.256686
494.333088	11035.002590
494.700354	10953.613161
495.067563	11017.741679
495.434713	10845.868580
495.801805	10976.991512
496.168839	10899.173741
496.535815	10834.843577
496.902733	10841.507982
497.269593	10767.730696
497.636395	10870.204750
498.003139	10854.705723
498.369825	10726.952802
498.736453	10880.219003
499.103023	10808.226284
499.469535	10839.793990
499.835989	10830.762763
500.202385	10794.148862
500.568723	10645.432303
500.935003	10865.261899
501.301226	10665.675057
501.667390	10927.736919
502.033497	11022.913903
502.399546	10887.659746
502.765537	10797.115581
503.131470	10863.038750
503.497345	11041.679598
503.863163	10651.673252
504.228923	10958.671959
504.594625	11017.028356
504.960269	10777.893662
505.325856	10995.190078
505.691385	10793.158276
506.056856	10943.840885
506.422270	10966.213525
506.787625	10856.671773
507.152924	10973.765174
507.518164	10957.179778
507.883347	10874.043589
508.248472	10790.985538
508.613540	11029.338854
508.978550	10906.271686
509.343503	10882.147244
509.708398	11004.869093
510.073236	11122.625406
510.438016	11126.736467
510.802738	11074.522716
511.167403	11124.218410
511.532010	11024.864830
511.896561	11255.459810
512.261053	11327.303814
512.625488	11196.256499
512.989866	11176.716987
513.354186	11158.735191
513.718449	11063.333875
514.082655	11252.876218
514.446803	11159.642598
514.810894	11279.642225
515.174927	11142.366564
515.538904	11172.018631
515.902822	11321.831641
516.266684	11201.910153
516.630488	11147.967286
516.994235	11209.797038
517.357925	11265.262333
517.721558	11358.420336
518.085133	11368.918539
518.448651	11378.093439
518.812112	11258.237485
519.175516	11279.138109
519.538863	11400.030020
519.902152	11304.505195
520.265385	11477.101700
520.628560	11385.277083
520.991678	11363.199350
521.354739	11431.872468
521.717743	11362.838907
522.080690	11335.672129
522.443580	11472.607512
522.806413	11424.855182
523.169189	11460.168464
523.531908	11509.745692
523.894569	11335.841008
524.257174	11348.350631
524.619722	11461.612755
524.982213	11411.917060
525.344647	11463.417488
525.707025	11412.476628
526.069345	11504.611277
526.431608	11426.496077
526.793815	11535.702593
527.155964	11328.296921
527.518057	11371.071111
527.880093	11319.754686
528.242072	11391.023998
528.603995	11296.956067
528.965860	11217.751979
529.327669	11271.772983
529.689421	11214.631505
530.051117	11189.287104
530.412755	11293.165120
530.774337	11181.707729
531.135862	11164.734164
531.497331	11189.405571
531.858743	11043.370906
532.220098	11207.190762
532.581396	11074.668909
532.942638	11062.993597
533.303824	11026.674604
533.664953	11034.632065
534.026025	10957.701537
534.387040	11057.770962
534.747999	11048.308716
535.108902	11112.149888
535.469748	10871.270954
535.830537	10972.847684
536.191270	10953.232554
536.551947	10973.351799
536.912567	10974.314660
537.273131	10892.796681
537.633638	10875.908816
537.994089	10870.111489
538.354483	10813.358179
538.714821	10963.355191
539.075103	10969.926335
539.435328	10931.341344
539.795497	10759.044788
540.155609	10916.220403
540.515665	11008.307160
540.875665	10740.654658
541.235609	10805.645214
541.595496	10810.749382
541.955328	10957.641043
542.315102	10844.769609
542.674821	10794.128698
543.034483	10796.379573
543.394090	10799.273195
543.753640	10728.573533
544.113134	10948.483787
544.472571	10803.583382
544.831953	10945.433889
545.191278	10744.571635
545.550548	10776.895513
545.909761	10924.072000
546.268918	10890.258460
546.628019	10973.596295
546.987064	10837.699390
547.346053	10764.315314
547.704986	10861.733091
548.063863	10845.339259
548.422684	10836.481952
548.781449	10762.999573
549.140158	10859.938441
549.498811	10737.501417
549.857408	10597.110323
550.215949	10819.505866
550.574434	10674.098825
550.932864	10778.601944
551.291237	10828.574902
551.649555	10781.934147
552.007817	10791.177102
552.366022	10750.542882
552.724173	10749.958108
553.082267	10727.376259
553.440305	10870.774401
553.798288	10665.057515
554.156215	10820.410753
554.514086	10803.434668
554.871902	10645.276028
555.229661	10686.192553
555.587365	10660.820425
555.945014	10557.696062
556.302606	10686.668942
556.660143	10579.952756
557.017625	10731.023534
557.375050	10626.875816
557.732421	10759.692576
558.089735	10680.145689
558.446994	10674.819710
558.804197	10713.364372
559.161345	10713.087108
559.518437	10559.866278
559.875474	10649.324074
560.232455	10684.670124
560.589381	10632.700869
560.946251	10626.696855
561.303065	10733.609646
561.659825	10668.026755
562.016528	10599.212484
562.373177	10480.291665
562.729770	10592.689231
563.086307	10509.563125
563.442789	10603.810017
563.799216	10481.657818
564.155587	10530.272185
564.511904	10483.782664
564.868164	10470.514347
565.224370	10494.734571
565.580520	10423.152707
565.936615	10419.437376
566.292654	10292.934662
566.648638	10418.840000
567.004567	10373.754440
567.360441	10363.639365
567.716260	10275.199882
568.072023	10370.328976
568.427732	10315.561881
568.783385	10225.912521
569.138982	10295.664447
569.494525	10312.005347
569.850013	10192.451863
570.205445	10266.183779
570.560823	10163.099744
570.916145	10085.642416
571.271412	10151.865533
571.626625	10099.634138
571.981782	10072.411907
572.336884	10054.120081
572.691931	10045.968535
573.046923	9992.527263
573.401860	9955.799937
573.756743	9885.788392
574.111570	9930.500906
574.466342	9912.796374
574.821059	9944.185118
575.175722	9841.015384
575.530330	9853.295635
575.884882	9838.343573
576.239380	9767.124672
576.593823	9742.065096
576.948211	9754.683104
577.302544	9642.116659
577.656823	9650.041353
578.011047	9652.478751
578.365216	9630.610225
578.719330	9554.022496
579.073389	9564.298888
579.427394	9519.934213
579.781344	9491.350871
580.135239	9440.657028
580.489080	9448.743039
580.842866	9346.024488
581.196597	9356.041261
581.550273	9391.399914
581.903895	9364.064257
582.257463	9429.899206
582.610975	9307.830186
582.964434	9334.089556
583.317837	9259.924101
583.671186	9237.291841
584.024481	9233.667251
584.377721	9154.717741
584.730906	9131.402404
585.084037	9163.776694
585.437113	9093.528215
585.790135	9112.974466
586.143103	9014.881174
586.496016	8987.137184
586.848874	9043.497284
587.201679	9034.793732
587.554428	8921.844159
587.907124	8966.017270
588.259765	8937.834699
588.612352	8938.026263
588.964884	8818.510588
589.317362	8829.691867
589.669786	8829.250766
590.022155	8876.282211
590.374470	8887.652533
590.726731	8836.119338
591.078937	8686.863376
591.431090	8794.597874
591.783188	8670.877877
592.135232	8658.370774
592.487222	8662.139037
592.839157	8710.549237
593.191038	8647.368456
593.542866	8593.581865
593.894639	8491.657296
594.246358	8547.213332
594.598022	8554.253303
594.949633	8460.296278
595.301190	8427.402749
595.652692	8459.144374
596.004141	8573.094616
596.355535	8353.282664
596.706876	8329.627049
597.058162	8266.836958
597.409395	8337.914706
597.760573	8401.400477
598.111698	8314.241448
598.462768	8294.465001
598.813785	8264.757482
599.164748	8231.367399
599.515657	8221.983291
599.866511	8136.452555
600.217312	8259.131554
600.568060	8116.582847
600.918753	8220.228970
601.269392	8189.447684
601.619978	8101.603058
601.970510	8164.584714
602.320988	8161.071029
602.671412	8217.988177
603.021783	8152.692632
603.372100	8132.260835
603.722363	8127.950649
604.072572	8107.365097
604.422728	8118.097713
604.772830	8045.190026
605.122878	8055.937766
605.472872	8044.196919
605.822813	8073.324706
606.172701	8018.877723
606.522534	8097.975948
606.872314	8093.328004
607.222041	8064.056544
607.571714	8117.928835
607.921333	8083.648989
608.270899	8082.219822
608.620411	8175.261878
608.969870	8080.339471
609.319276	8072.054335
609.668627	8088.788445
610.017926	8123.975699
610.367171	8169.562853
610.716362	8143.666446
611.065500	8132.873335
611.414585	8165.154364
611.763616	8148.140470
612.112594	8138.607648
612.461518	8145.572002
612.810389	8214.512301
613.159207	8144.712485
613.507971	8098.694312
613.856682	8217.279895
614.205340	8175.713061
614.553945	8251.088393
614.902496	8151.414699
615.250994	8205.718008
615.599439	8184.010800
615.947830	8202.113583
616.296169	8172.567381
616.644454	8189.341820
616.992686	8182.823608
617.340864	8240.595231
617.688990	8144.538565
618.037063	8239.067762
618.385082	8183.249586
618.733048	8267.225127
619.080961	8209.022485
619.428821	8226.545536
619.776628	8228.204075
620.124382	8180.953340
620.472083	8162.323756
620.819731	8188.084052
621.167326	8086.257786
621.514868	8089.267355
621.862357	7981.303483
622.209793	8002.912389
622.557176	7933.281452
622.904506	7904.937564
623.251783	7837.945671
623.599007	7791.960265
623.946179	7795.731048
624.293297	7753.090449
624.640363	7668.504928
624.987376	7650.306363
625.334336	7600.827438
625.681243	7544.913480
626.028097	7538.196143
626.374899	7510.109354
626.721647	7508.052563
627.068343	7441.728623
627.414987	7407.539517
627.761577	7366.078547
628.108115	7403.194043
628.454600	7296.130017
628.801032	7345.245979
629.147412	7312.849004
629.493739	7295.827548
629.840014	7229.569142
630.186236	7290.534336
630.532405	7177.194074
630.878521	7228.157619
631.224585	7180.057450
631.570597	7104.009123
631.916556	7140.857437
632.262462	7138.346943
632.608316	7091.837257
632.954117	7070.545944
633.299866	7056.322329
633.645562	7051.923922
633.991206	6972.205636
634.336797	6914.910402
634.682336	6873.260388
635.027823	6835.348391
635.373257	6833.631878
635.718639	6757.923830
636.063968	6778.269927
636.409245	6671.037023
636.754470	6664.342370
637.099642	6626.984900
637.444762	6565.697072
637.789829	6577.256437
638.134845	6517.637232
638.479808	6502.075190
638.824719	6506.274471
639.169577	6433.548265
639.514383	6456.162881
639.859137	6390.837089
640.203839	6396.127780
640.548489	6381.382405
640.893086	6357.908272
641.237632	6329.418191
641.582125	6349.693712
641.926566	6321.508621
642.270955	6334.678635
642.615292	6329.612275
642.959576	6341.882444
643.303809	6332.636968
643.647990	6339.293811
643.992118	6326.902655
644.336195	6276.712927
644.680219	6300.242513
645.024192	6289.787160
645.368112	6389.153343
645.711981	6406.822588
646.055797	6484.443754
646.399562	6441.659481
646.743274	6570.234110
647.086935	6624.219827
647.430544	6621.721935
647.774101	6634.602083
648.117606	6648.712273
648.461059	6636.492516
648.804460	6605.494461
649.147810	6506.178689
649.491108	6479.049719
649.834354	6456.566173
650.177548	6370.448142
650.520690	6280.453464
650.863781	6262.554847
651.206820	6284.592251
651.549807	6204.337082
651.892742	6143.278626
652.235626	6151.425131
652.578458	6139.477596
652.921238	6043.075611
653.263967	6085.741417
653.606644	6023.702457
653.949269	6024.887128
654.291843	5968.965609
654.634365	6019.016705
654.976836	5971.501309
655.319255	5967.992666
655.661622	5948.044820
656.003938	5944.236228
656.346203	5906.790538
656.688416	5935.736843
657.030577	5887.782867
657.372687	5855.615264
657.714746	5846.515982
658.056753	5890.285800
658.398708	5830.243137
658.740612	5820.561601
659.082465	5868.598756
659.424266	5859.890163
659.766016	5861.767993
660.107715	5837.590619
660.449362	5848.489593
660.790958	5840.002811
661.132503	5826.873126
661.473996	5871.169745
661.815438	5853.190469
662.156829	5848.703843
662.498168	5847.042782
662.839456	5819.815510
663.180693	5851.602506
663.521879	5856.119380
663.863013	5848.779460
664.204097	5860.495101
664.545129	5902.563530
664.886110	5897.416512
665.227040	5937.639879
665.567918	5902.659312
665.908746	5927.217293
666.249522	5930.688128
666.590248	5917.694553
666.930922	5951.571107
667.271545	5958.558147
667.612118	5964.955371
667.952639	5934.015289
668.293109	5960.798939
668.633528	5910.152987
668.973896	5920.467188
669.314213	5911.987967
669.654480	5889.038114
669.994695	5883.218102
670.334859	5871.832656
670.674973	5867.262850
671.015035	5870.133788
671.355047	5869.342326
671.695008	5857.115008
672.034918	5829.575184
672.374777	5840.438871
672.714585	5820.269214
673.054342	5825.451520
673.394049	5822.162168
673.733705	5850.798442
674.073310	5835.153221
674.412864	5800.770031
674.752368	5789.752589
675.091820	5796.570750
675.431223	5732.338888
675.770574	5732.616152
676.109875	5687.822979
676.449125	5688.848854
676.788324	5655.647815
677.127473	5600.416933
677.466571	5594.521304
677.805619	5584.229788
678.144616	5565.869906
678.483562	5542.075660
678.822458	5514.891238
679.161303	5508.246997
679.500098	5500.778527
679.838842	5481.203727
680.177535	5488.173122
680.516179	5502.989073
680.854771	5513.003326
681.193314	5592.469554
681.531805	5702.021389
681.870247	5850.478329
682.208638	5958.631243
682.546978	5969.384024
682.885268	5947.928874
683.223508	5861.389906
683.561697	5808.467873
683.899836	5776.118789
684.237925	5730.975256
684.575963	5693.179205
684.913951	5653.661600
685.251889	5716.865067
685.589776	5684.384912
685.927614	5656.474564
686.265401	5728.598352
686.603137	5713.495055
686.940824	5786.695130
687.278460	5810.542308
687.616046	5821.877342
687.953582	5886.265480
688.291068	5873.534046
688.628504	5934.315238
688.965889	5894.739659
689.303224	5841.230332
689.640510	5794.985307
689.977745	5716.708791
690.314930	5614.045693
690.652065	5564.382766
690.989150	5470.526563
691.326185	5396.819853
691.663170	5339.403631
692.000105	5263.193988
692.336990	5181.244991
692.673825	5158.521990
693.010610	5094.451445
693.347345	5021.931927
693.684030	5008.958517
694.020665	4971.336386
694.357251	4878.059916
694.693786	4890.292276
695.030272	4855.878839
695.366707	4817.697140
695.703093	4784.576759
696.039429	4807.844205
696.375716	4793.018172
696.711952	4762.670425
697.048139	4754.350001
697.384276	4734.039192
697.720363	4742.767950
698.056400	4756.953757
698.392388	4703.323442
698.728326	4685.946584
699.064214	4663.342051
699.400053	4653.176564
699.735842	4621.412253
700.071581	4599.871403
700.407270	4573.042382
700.742910	4552.068662
701.078501	4498.128316
701.414042	4494.712934
701.749533	4468.350220
702.084974	4401.433944
702.420366	4458.744301
702.755709	4401.678440
703.091002	4346.606354
703.426246	4393.327768
703.761440	4353.774875
704.096584	4315.497394
704.431679	4332.072708
704.766725	4320.483095
705.101721	4309.410201
705.436668	4336.745858
705.771565	4282.253505
706.106413	4310.783915
706.441212	4341.756764
706.775961	4353.013661
707.110661	4329.163962
707.445311	4358.926934
707.779913	4381.342425
708.114465	4395.984456
708.448967	4422.989917
708.783421	4482.341942
709.117825	4518.567674
709.452180	4524.995145
709.786485	4570.844439
710.120742	4655.840814
710.454949	4644.596520
710.789107	4708.041962
711.123216	4781.511738
711.457275	4773.801293
711.791286	4846.913147
712.125247	4863.251527
712.459159	4768.702166
712.793023	4844.337118
713.126837	4798.571002
713.460602	4795.097647
713.794318	4714.905493
714.127985	4723.815732
714.461602	4637.932115
714.795171	4607.291982
715.128691	4540.232032
715.462162	4485.059124
715.795584	4437.032052
716.128957	4420.083692
716.462281	4362.995146
716.795556	4339.190817
717.128782	4303.456598
717.461960	4233.291298
717.795088	4246.415942
718.128167	4204.773491
718.461198	4143.762927
718.794180	4138.933501
719.127113	4117.092702
719.459997	4096.338272
719.792833	4053.150707
720.125619	4042.203841
720.458357	4009.065816
720.791046	4014.805170
721.123686	3986.932630
721.456278	3948.740849
721.788821	3963.675267
722.121315	3935.381791
722.453761	3911.839603
722.786158	3922.269750
723.118506	3944.153399
723.450805	3898.568765
723.783056	3922.201694
724.115259	3938.282975
724.447412	3940.362451
724.779518	3933.178807
725.111574	3941.438737
725.443582	3969.129796
725.775542	3950.442238
726.107453	4001.940145
726.439315	4003.664220
726.771129	4020.519318
727.102895	4056.729926
727.434612	4099.604939
727.766281	4114.604893
728.097901	4118.811736
728.429473	4121.607055
728.760996	4125.844145
729.092471	4121.705358
729.423897	4107.481742
729.755276	4111.252525
730.086606	4114.778813
730.417887	4148.557064
730.749120	4216.534503
731.080305	4278.616313
731.411442	4304.628666
731.742530	4275.420221
732.073570	4277.930716
732.404562	4336.188810
732.735506	4326.335875
733.066401	4287.846665
733.397249	4225.966502
733.728048	4143.967093
734.058798	4060.946851
734.389501	3992.082169
734.720156	3933.493879
735.050762	3887.125346
735.381320	3880.579408
735.711831	3827.246521
736.042293	3800.891368
736.372707	3822.419616
736.703073	3796.684525
737.033391	3782.158441
737.363661	3802.436482
737.693883	3826.835667
738.024056	3836.703725
738.354182	3831.357582
738.684260	3896.446439
739.014290	3913.185591
739.344272	3911.285076
739.674207	3949.791929
740.004093	3959.372642
740.333931	3952.657825
740.663722	3953.764359
740.993464	3952.632620
741.323159	3928.987087
741.652806	3898.808220
741.982405	3870.890310
742.311956	3836.204651
742.641460	3827.962364
742.970915	3805.819096
743.300323	3766.810648
743.629683	3733.932242
743.958996	3718.680231
744.288260	3699.601985
744.617477	3664.253414
744.946647	3649.699603
745.275768	3624.725727
745.604842	3622.482413
745.933869	3570.979465
746.262847	3562.964030
746.591778	3600.301336
746.920662	3574.339394
747.249498	3543.553067
747.578286	3588.011003
747.907027	3608.624281
748.235720	3603.699074
748.564365	3626.840491
748.892963	3627.929380
749.221514	3610.111422
749.550017	3589.311621
749.878473	3588.079059
750.206881	3557.885068
750.535242	3553.647978
750.863555	3556.481106
751.191821	3550.058676
751.520039	3531.721479
751.848210	3508.935464
752.176334	3541.246739
752.504411	3550.237637
752.832440	3507.861698
753.160421	3489.126250
753.488356	3498.109586
753.816243	3513.699354
754.144082	3471.577993
754.471875	3456.439408
754.799620	3472.402222
755.127318	3467.567755
755.454969	3465.793269
755.782572	3472.001450
756.110129	3446.730146
756.437638	3438.082047
756.765100	3452.784572
757.092515	3459.789255
757.419882	3469.216213
757.747203	3441.971297
758.074477	3443.561781
758.401703	3463.270172
758.728882	3478.922954
759.056014	3489.368225
759.383099	3489.632886
759.710138	3487.964264
760.037129	3505.512520
760.364073	3533.339690
760.690970	3521.828215
761.017820	3497.633197
761.344623	3514.889067
761.671379	3558.757187
761.998088	3611.356587
762.324751	3739.258221
762.651366	3985.553875
762.977935	4461.000218
763.304456	4907.464967
763.630931	4999.609697
763.957359	4641.833968
764.283740	4298.332265
764.610074	4097.984208
764.936362	3905.351638
765.262602	3746.711567
765.588796	3637.124444
765.914943	3543.316133
766.241044	3459.610294
766.567097	3430.512754
766.893104	3380.418808
767.219064	3349.819004
767.544978	3323.637772
767.870845	3268.106942
768.196665	3249.825197
768.522438	3258.611928
768.848165	3253.386772
769.173846	3218.116340
769.499479	3199.380891
769.825066	3187.322451
770.150607	3165.821930
770.476101	3181.275587
770.801548	3178.742408
771.126949	3134.491159
771.452303	3113.829990
771.777611	3121.830301
772.102872	3127.970427
772.428087	3101.466560
772.753256	3089.513984
773.078378	3084.364446
773.403453	3052.945454
773.728482	3036.685213
774.053465	3060.960889
774.378401	3046.797767
774.703291	3016.583612
775.028135	3016.152593
775.352932	3010.957684
775.677683	3000.741786
776.002388	2998.196003
776.327046	2997.051661
776.651658	2987.395331
776.976224	2974.729432
777.300743	2975.447796
777.625216	2963.868266
777.949643	2963.291054
778.274024	2965.373050
778.598359	2953.123047
778.922647	2956.341823
779.246889	2954.335444
779.571086	2941.530913
779.895236	2934.664862
780.219339	2947.930658
780.543397	2962.479428
780.867409	2961.957669
781.191374	2954.375773
781.515294	2953.533901
781.839167	2951.421657
782.162995	2947.792026
782.486776	2953.523818
782.810511	2948.472582
783.134201	2936.204934
783.457844	2944.762293
783.781441	2933.707043
784.104993	2918.828077
784.428498	2917.766914
784.751958	2931.078081
785.075372	2925.184972
785.398739	2907.356931
785.722061	2923.165990
786.045337	2935.415994
786.368568	2920.695824
786.691752	2913.073600
787.014891	2957.786114
787.337983	2988.060763
787.661030	3016.422295
787.984031	3084.198088
788.306987	3134.108031
788.629897	3121.711834
788.952760	3108.279680
789.275579	3094.229984
789.598351	3032.985006
789.921078	2989.071515
790.243759	2979.057263
790.566395	2959.772328
790.888984	2936.225099
791.211529	2920.804209
791.534027	2913.071079
791.856480	2900.339645
792.178888	2888.303890
792.501249	2880.374155
792.823566	2873.888711
793.145836	2872.809904
793.468062	2866.884028
793.790241	2865.280941
794.112375	2871.544574
794.434464	2884.220556
794.756507	2889.448232
795.078505	2894.494427
795.400457	2908.846592
795.722364	2947.033333
796.044226	2970.298258
796.366042	2972.987713
796.687812	2963.011270
797.009538	2979.160606
797.331218	2968.919502
797.652852	2955.951134
797.974442	2934.712753
798.295986	2933.162598
798.617484	2925.931063
798.938938	2910.527817
799.260346	2898.476939
799.581709	2890.854714
799.903026	2887.199878
800.224299	2880.522869
800.545526	2872.651108
800.866708	2854.954137
801.187845	2845.454083
801.508936	2846.800071
801.829983	2853.978674
802.150984	2839.508042
802.471940	2826.897595
802.792851	2827.149653
803.113717	2827.991526
803.434538	2833.619974
803.755314	2826.118737
804.076045	2817.702531
804.396731	2819.648416
804.717372	2817.785710
805.037967	2814.929896
805.358518	2818.095741
805.679024	2831.157370
805.999485	2826.965651
806.319901	2831.265755
806.640272	2823.600681
806.960598	2827.883141
807.280879	2838.076354
807.601115	2846.618589
807.921306	2831.875735
808.241453	2828.220898
808.561554	2832.483194
808.881611	2839.175326
809.201623	2830.363389
809.521590	2830.527226
809.841513	2826.196875
810.161390	2829.924808
810.481223	2823.789724
810.801011	2813.667087
811.120755	2811.562405
811.440453	2812.800009
811.760107	2813.316727
812.079716	2813.790595
812.399281	2802.947073
812.718801	2798.105045
813.038276	2791.838891
813.357707	2795.604633
813.677093	2802.574028
813.996434	2798.788122
814.315731	2793.716721
814.634983	2787.984929
814.954191	2789.734209
815.273354	2803.914975
815.592473	2811.300265
815.911547	2815.257571
816.230577	2823.157059
816.549562	2831.580827
816.868502	2829.672751
817.187399	2837.710870
817.506250	2857.792307
817.825058	2851.107737
818.143821	2861.013604
818.462539	2880.152345
818.781213	2903.979358
819.099843	2942.138372
819.418429	3001.066940
819.736970	3062.150601
820.055466	3137.122641
820.373919	3242.225658
820.692327	3381.674056
821.010691	3553.073286
821.329011	4000.596678
821.647286	4904.226025
821.965517	6291.622140
822.283704	7037.118053
822.601847	7020.809920
822.919945	6386.350462
823.237999	5874.517071
823.556010	5288.659377
823.873976	4732.456270
824.191897	4320.107529
824.509775	4029.432078
824.827609	3751.677104
825.145398	3627.707569
825.463144	3616.168368
825.780845	3706.573900
826.098502	3809.874704
826.416116	4092.844752
826.733685	4416.524638
827.051210	4482.011747
827.368692	4360.295608
827.686129	4095.720730
828.003522	3769.522788
828.320872	3511.254395
828.638177	3312.025474
828.955439	3174.159999
829.272656	3088.515836
829.589830	3022.020496
829.906960	2970.232723
830.224046	2927.645055
830.541088	2891.469735
830.858086	2877.382231
831.175041	2860.224663
831.491952	2863.040148
831.808819	2872.457023
832.125642	2896.518451
832.442421	2944.628702
832.759157	3025.645086
833.075849	3205.699978
833.392497	3487.137515
833.709101	3689.388607
834.025662	3639.849188
834.342179	3480.505877
834.658653	3300.599699
834.975083	3153.521515
835.291469	3057.726989
835.607811	2968.511169
835.924110	2912.146028
836.240366	2860.731299
836.556578	2816.646409
836.872746	2792.766463
837.188871	2768.543719
837.504952	2755.282964
837.820990	2746.246696
838.136984	2732.633060
838.452935	2724.141236
838.768842	2724.778942
839.084706	2742.107908
839.400526	2821.198571
839.716303	2954.461473
840.032037	3035.790408
840.347727	3019.520084
840.663373	2959.051443
840.978977	2883.207284
841.294537	2809.992086
841.610054	2760.974427
841.925527	2740.378792
842.240957	2715.772921
842.556344	2697.418079
842.871687	2680.094154
843.186987	2671.894717
843.502244	2664.597647
843.817458	2659.899292
844.132629	2649.832108
844.447756	2640.241312
844.762840	2633.806280
845.077881	2638.179481
845.392879	2633.506331
845.707833	2632.114972
846.022745	2624.820423
846.337613	2625.226236
846.652438	2624.154991
846.967221	2627.086422
847.281960	2625.395114
847.596656	2621.180710
847.911309	2620.011162
848.225919	2619.572582
848.540485	2613.555965
848.855009	2614.541510
849.169490	2615.925307
849.483928	2614.743156
849.798323	2614.365070
850.112675	2615.355657
850.426984	2614.758280
850.741251	2610.954729
851.055474	2610.367435
851.369654	2614.264247
851.683792	2614.826335
851.997887	2612.449431
852.311938	2609.623865
852.625947	2612.141921
852.939914	2616.550410
853.253837	2616.300873
853.567718	2610.616972
853.881555	2611.587394
854.195350	2617.888836
854.509103	2611.715943
854.822812	2609.333998
855.136479	2611.070676
855.450103	2616.578136
855.763685	2615.668208
856.077224	2612.293156
856.390720	2608.295521
856.704173	2611.484050
857.017584	2614.755759
857.330953	2616.953702
857.644278	2620.742129
857.957561	2618.145935
858.270802	2613.687035
858.584000	2614.876747
858.897155	2620.220370
859.210268	2621.684825
859.523339	2615.993362
859.836367	2607.529265
860.149352	2610.896756
860.462295	2614.314658
860.775195	2607.372989
861.088054	2610.627054
861.400869	2607.526745
861.713642	2604.260077
862.026373	2605.885849
862.339062	2608.774430
862.651708	2614.470934
862.964312	2616.472272
863.276873	2613.626541
863.589392	2615.612755
863.901869	2621.266409
864.214303	2626.569703
864.526696	2628.455095
864.839045	2632.472894
865.151353	2634.406177
865.463619	2631.716721
865.775842	2634.575056
866.088023	2632.331742
866.400162	2632.235960
866.712258	2632.195631
867.024313	2631.648666
867.336325	2628.634056
867.648296	2629.380147
867.960224	2634.907772
868.272110	2634.272586
868.583954	2625.712707
868.895755	2627.477111
869.207515	2633.526496
869.519233	2642.197280
869.830909	2637.259470
870.142542	2633.844088
870.454134	2635.482463
870.765684	2638.595376
871.077191	2641.965387
871.388657	2645.106026
871.700081	2642.083854
872.011463	2646.457055
872.322803	2644.533855
872.634101	2646.867909
872.945357	2652.521563
873.256571	2658.754950
873.567744	2658.477687
873.878874	2657.214877
874.189963	2658.349137
874.501010	2663.465908
874.812015	2666.626712
875.122979	2666.329284
875.433900	2657.572799
875.744780	2656.677995
876.055618	2662.515651
876.366415	2667.143430
876.677169	2668.355827
876.987882	2664.406083
877.298554	2659.979950
877.609183	2670.319357
877.919771	2680.764628
878.230317	2686.289732
878.540822	2694.844570
878.851285	2709.670604
879.161707	2733.921074
879.472087	2772.649739
879.782425	2821.911894
880.092722	2937.404729
880.402977	3127.189048
880.713191	3392.625962
881.023363	3690.888350
881.333494	3887.024523
881.643583	4061.360226
881.953631	4054.751273
882.263637	3874.540105
882.573602	3658.539266
882.883526	3521.077083
883.193408	3406.597520
883.503248	3303.309319
883.813048	3187.889581
884.122806	3071.151582
884.432522	2986.447594
884.742197	2918.530649
885.051831	2881.175699
885.361424	2847.026923
885.670975	2806.606951
885.980485	2778.137035
886.289954	2757.843870
886.599382	2743.592528
886.908768	2734.621795
887.218113	2713.441387
887.527417	2700.047041
887.836680	2690.516740
888.145901	2684.537931
888.455082	2676.308248
888.764221	2666.445230
889.073319	2658.137409
889.382376	2657.754281
889.691392	2658.202944
890.000366	2658.273520
890.309300	2658.003818
890.618193	2659.513644
890.927044	2662.860970
891.235855	2662.898778
891.544625	2659.274189
891.853353	2663.357523
892.162041	2669.157371
892.470687	2687.736543
892.779293	2702.292875
893.087858	2711.717312
893.396381	2737.109604
893.704864	2775.346756
894.013306	2849.058508
894.321707	2942.652570
894.630068	2994.309273
894.938387	3013.407685
895.246665	3008.207735
895.554903	2962.963379
895.863100	2919.821184
896.171256	2859.213912
896.479371	2799.700570
896.787446	2758.302615
897.095480	2739.471385
897.403473	2732.683471
897.711425	2716.566902
898.019336	2701.700540
898.327207	2683.519618
898.635038	2684.028775
898.942827	2680.928465
899.250576	2670.984789
899.558284	2659.569096
899.865952	2654.119609
900.173579	2652.055257
900.481165	2650.071562
900.788711	2640.485808
901.096216	2633.806280
901.403681	2632.243522
901.711105	2633.249232
902.018489	2631.744448
902.325832	2634.507000
902.633135	2636.087402
902.940397	2650.762201
903.247619	2687.081193
903.554800	2757.783376
903.861941	2888.858417
904.169041	3019.963705
904.476101	3077.992427
904.783121	3076.764906
905.090100	3016.457583
905.397039	2941.278856
905.703938	2864.628111
906.010796	2801.517906
906.317614	2746.329875
906.624391	2713.461552
906.931129	2684.248065
907.237826	2662.092194
907.544483	2641.234420
907.851099	2630.403501
908.157675	2618.841614
908.464211	2613.079576
908.770707	2599.707915
909.077163	2598.059458
909.383578	2591.238777
909.689954	2589.663416
909.996289	2588.360278
910.302584	2589.542428
910.608839	2587.888930
910.915054	2585.859865
911.221229	2590.170052
911.527363	2593.005701
911.833458	2590.338931
912.139513	2590.278437
912.445527	2594.021493
912.751502	2600.322936
913.057436	2604.781836
913.363331	2608.991200
913.669186	2622.708179
913.975000	2634.436424
914.280775	2653.156749
914.586510	2673.712053
914.892205	2710.227651
915.197859	2777.171654
915.503475	2863.284644
915.809050	2928.610436
916.114585	2946.809001
916.420081	2964.115283
916.725536	2970.973772
917.030952	2943.890173
917.336328	2894.731362
917.641665	2843.820749
917.946961	2794.596402
918.252218	2759.129364
918.557435	2731.365209
918.862612	2709.935264
919.167750	2691.010773
919.472848	2672.287927
919.777906	2657.822337
920.082925	2644.894297
920.387904	2634.862401
920.692843	2631.454581
920.997743	2625.639610
921.302603	2619.149125
921.607423	2613.256016
921.912204	2605.608586
922.216946	2603.745879
922.521647	2599.400405
922.826310	2597.784715
923.130932	2590.142326
923.435516	2583.941706
923.740059	2585.633013
924.044564	2584.607139
924.349028	2583.309042
924.653454	2574.113977
924.957840	2572.929306
925.262186	2568.838409
925.566493	2569.042576
925.870761	2563.923284
926.174989	2567.273131
926.479178	2564.442523
926.783328	2562.272307
927.087438	2559.187120
927.391509	2561.463201
927.695541	2559.482028
927.999533	2556.873231
928.303486	2557.241235
928.607400	2557.848694
928.911275	2553.795606
929.215110	2554.042623
929.518906	2554.392983
929.822663	2558.317521
930.126381	2554.345092
930.430060	2556.996739
930.733699	2556.495144
931.037299	2558.171328
931.340861	2556.762325
931.644383	2556.966492
931.947866	2555.504558
932.251309	2557.437840
932.554714	2554.602191
932.858080	2557.052192
933.161407	2554.309804
933.464694	2554.329969
933.767943	2552.129505
934.071153	2554.745864
934.374323	2553.684701
934.677455	2552.043805
934.980548	2551.950544
935.283602	2552.013558
935.586617	2553.089845
935.889593	2555.454146
936.192530	2551.854762
936.495428	2552.820143
936.798287	2554.841646
937.101108	2555.852397
937.403890	2556.346430
937.706632	2561.526216
938.009336	2568.172977
938.312002	2569.302196
938.614628	2572.606672
938.917216	2575.848134
939.219765	2575.117167
939.522275	2575.056673
939.824747	2577.549523
940.127179	2569.697926
940.429573	2569.655076
940.731929	2566.262380
941.034246	2564.893707
941.336524	2565.448233
941.638763	2566.262380
941.940964	2565.475960
942.243126	2564.008984
942.545250	2563.159550
942.847335	2562.002605
943.149381	2560.696946
943.451389	2558.967830
943.753359	2556.681667
944.055290	2559.300546
944.357182	2557.906667
944.659036	2554.503888
944.960851	2557.972202
945.262628	2557.851215
945.564367	2556.598488
945.866067	2558.010011
946.167729	2556.918601
946.469352	2556.719476
946.770937	2555.643189
947.072484	2554.657644
947.373992	2556.389280
947.675462	2555.633107
947.976893	2554.763508
948.278286	2556.364074
948.579641	2551.300235
948.880958	2551.370811
949.182236	2550.145811
949.483476	2551.645554
949.784678	2553.102448
950.085841	2554.239228
950.386967	2551.532128
950.688054	2550.344937
950.989103	2552.338713
951.290114	2554.750905
951.591087	2556.890875
951.892021	2556.671585
952.192917	2559.119065
952.493776	2559.355999
952.794596	2560.815413
953.095378	2560.472615
953.396122	2561.569066
953.696828	2559.804662
953.997496	2557.057233
954.298126	2554.887016
954.598718	2554.352654
954.899272	2554.135884
955.199788	2553.029351
955.500266	2552.447098
955.800706	2546.012065
956.101108	2547.791592
956.401472	2546.082641
956.701798	2539.158616
957.002087	2540.562577
957.302337	2545.429812
957.602550	2542.379913
957.902724	2541.938812
958.202861	2544.600542
958.502960	2537.673996
958.803022	2542.679862
959.103045	2542.112732
959.403031	2541.855633
959.702979	2540.739018
960.002889	2540.176929
960.302762	2538.853626
960.602596	2539.524100
960.902393	2539.680376
961.202153	2538.772968
961.501875	2540.083668
961.801559	2537.351362
962.101205	2539.335057
962.400814	2538.193235
962.700385	2537.963863
962.999918	2538.596528
963.299414	2537.845396
963.598873	2535.221475
963.898293	2535.430683
964.197677	2538.841023
964.497022	2536.829603
964.796331	2535.813811
965.095601	2537.472350
965.394835	2537.726928
965.694030	2533.636032
965.993189	2535.783564
966.292309	2535.604603
966.591393	2535.801208
966.890439	2534.871115
967.189447	2537.333718
967.488419	2536.176774
967.787353	2534.344314
968.086249	2537.384130
968.385108	2535.065199
968.683930	2538.626774
968.982714	2535.392874
969.281462	2538.420087
969.580172	2535.168543
969.878844	2539.803884
970.177480	2537.187525
970.476078	2538.059645
970.774639	2538.924203
971.073162	2535.211393
971.371649	2533.482277
971.670098	2535.551671
971.968510	2535.902031
972.266885	2534.137627
972.565223	2536.960673
972.863524	2538.377237
973.161788	2536.272556
973.460014	2537.721887
973.758204	2538.089892
974.056356	2536.907741
974.354471	2538.843544
974.652550	2537.842875
974.950591	2539.488812
975.248595	2537.729449
975.546563	2535.821372
975.844493	2535.909593
976.142386	2537.883204
976.440243	2534.127545
976.738062	2536.993441
977.035845	2536.519572
977.333590	2535.360107
977.631299	2537.253060
977.928971	2530.800383
978.226606	2536.199459
978.524204	2535.392874
978.821765	2534.798018
979.119290	2536.761548
979.416777	2533.552853
979.714228	2536.131403
980.011642	2534.616537
980.309020	2536.733821
980.606360	2534.102339
980.903664	2535.445806
981.200931	2537.147196
981.498162	2537.006043
981.795356	2541.149872
982.092513	2541.764893
982.389633	2546.281767
982.686717	2548.114226
982.983764	2549.482899
983.280775	2553.662016
983.577749	2553.417520
983.874686	2549.934083
984.171587	2549.177909
984.468451	2545.200439
984.765279	2546.566592
985.062070	2542.828576
985.358824	2539.330015
985.655543	2540.255067
985.952224	2538.246167
986.248869	2538.258770
986.545478	2531.075126
986.842050	2534.954294
987.138586	2529.809796
987.435086	2530.076978
987.731549	2530.901206
988.027975	2536.002854
988.324366	2533.101670
988.620719	2538.140303
988.917037	2531.148223
989.213318	2531.342307
989.509563	2532.519417
989.805772	2532.378264
990.101944	2533.588141
990.398080	2533.943543
990.694180	2532.290044
990.990244	2529.983716
991.286271	2533.013450
991.582262	2534.946732
991.878217	2532.184180
992.174136	2534.934129
992.470019	2534.112421
992.765865	2532.511855
993.061676	2531.566638
993.357450	2532.232071
993.653188	2533.951104
993.948890	2534.334232
994.244556	2531.879190
994.540186	2535.970086
994.835780	2533.159643
995.131337	2536.643080
995.426859	2534.762730
995.722345	2534.389685
996.017795	2535.297092
996.313208	2538.009233
996.608586	2536.075951
996.903928	2539.060314
997.199234	2535.738193
997.494504	2538.115097
997.789738	2537.689120
998.084936	2536.486805
998.380099	2536.509490
998.675225	2534.465302
998.970316	2534.644263
999.265371	2535.534027
999.560390	2533.608306
999.855373	2535.987730
1000.150320	2532.340456
1000.445232	2532.897503
1000.740108	2532.675692
1001.034948	2533.767102
1001.329752	2533.855322
1001.624521	2532.302647
1001.919254	2527.586648
1002.213951	2533.174767
1002.508613	2526.399456
1002.803239	2530.487832
1003.097829	2526.296112
1003.392384	2529.305681
1003.686903	2530.908768
1003.981386	2532.511855
1004.275834	2531.102852
1004.570246	2533.489839
1004.864623	2531.780888
1005.158964	2532.658048
1005.453270	2532.627801
1005.747540	2531.201155
1006.041775	2531.112935
1006.335974	2532.380785
1006.630138	2531.034797
1006.924266	2534.329191
1007.218359	2530.528161
1007.512416	2527.841226
1007.806438	2532.247194
1008.100425	2529.605630
1008.394376	2531.400280
1008.688292	2532.448840
1008.982172	2531.244005
1009.276017	2530.792821
1009.569827	2529.598068
1009.863602	2531.291896
1010.157341	2530.248377
1010.451045	2528.980527
1010.744714	2531.120496
1011.038347	2527.871473
1011.331945	2531.032276
1011.625508	2531.538912
1011.919036	2533.053779
1012.212528	2530.296268
1012.505986	2531.065044
1012.799408	2531.848943
1013.092795	2529.454395
1013.386147	2530.034128
1013.679464	2530.429858
1013.972745	2528.725948
1014.265992	2529.817358
1014.559204	2535.791125
1014.852380	2530.659231
1015.145521	2532.564787
1015.438628	2528.047913
1015.731699	2529.734179
1016.024736	2531.236443
1016.317737	2530.848274
1016.610703	2532.252235
1016.903635	2527.354754
1017.196531	2527.740403
1017.489393	2529.562780
1017.782219	2523.319311
1018.075011	2528.763757
1018.367768	2527.397604
1018.660490	2530.714683
1018.953177	2530.714683
1019.245829	2530.714683
