Dividing Wavelength (nm)	Counts (n)	Blue Motor Position (mm): 26.400000	Red Motor Position (mm): 0.000000	
326.493990	2132.531585
326.888308	2132.531585
327.282561	2132.531585
327.676750	2101.271390
328.070874	2098.975145
328.464933	2103.635691
328.858929	2108.371855
329.252859	2119.066663
329.646726	2131.944291
330.040528	2142.177833
330.434265	2161.218271
330.827938	2177.118070
331.221547	2194.149609
331.615091	2211.977649
332.008571	2234.609909
332.401986	2253.413413
332.795338	2269.686258
333.188625	2291.128806
333.581847	2310.970787
333.975006	2327.525937
334.368100	2347.115860
334.761129	2363.030783
335.154095	2382.535007
335.546996	2401.792215
335.939833	2421.987077
336.332606	2440.069696
336.725315	2452.125616
337.117960	2459.828499
337.510540	2469.033646
337.903056	2481.127374
338.295508	2488.946203
338.687896	2496.656648
339.080220	2505.652587
339.472480	2512.354801
339.864676	2515.649195
340.256807	2520.672705
340.648875	2522.600946
341.040879	2523.692356
341.432818	2527.143026
341.824694	2529.028418
342.216506	2527.868952
342.608253	2528.544467
342.999937	2530.487832
343.391557	2528.864580
343.783113	2529.318284
344.174605	2528.965403
344.566033	2526.994312
344.957397	2524.171266
345.348697	2523.341996
345.739934	2519.304032
346.131106	2518.255472
346.522215	2518.716737
346.913260	2516.055008
347.304241	2513.582322
347.695159	2513.327744
348.086012	2510.860099
348.476802	2510.799605
348.867528	2504.346928
349.258191	2505.960098
349.648789	2502.396002
350.039324	2501.624705
350.429796	2502.862308
350.820203	2499.754437
351.210548	2501.450785
351.600828	2497.400218
351.991045	2496.492811
352.381198	2494.874600
352.771288	2494.695639
353.161314	2497.105311
353.551276	2499.101608
353.941175	2496.452481
354.331010	2493.972234
354.720782	2495.761843
355.110490	2496.780156
355.500135	2498.267297
355.889717	2495.895434
356.279235	2495.960969
356.668689	2499.225116
357.058080	2498.844509
357.447408	2496.220588
357.836672	2496.908706
358.225873	2494.539363
358.615010	2493.364775
359.004084	2498.408449
359.393095	2500.371978
359.782043	2501.533964
360.170927	2502.905158
360.559748	2501.773419
360.948505	2499.774602
361.337199	2500.964314
361.725830	2503.021105
362.114398	2503.999089
362.502903	2505.844151
362.891344	2502.804335
363.279722	2503.842813
363.668037	2504.374655
364.056289	2509.360356
364.444478	2504.972031
364.832603	2502.930364
365.220665	2505.357680
365.608665	2508.316837
365.996601	2506.711229
366.384474	2508.072341
366.772284	2506.839779
367.160031	2504.684686
367.547715	2509.236848
367.935336	2507.353977
368.322893	2510.769358
368.710388	2511.891015
369.097820	2512.279184
369.485189	2509.531755
369.872495	2511.961591
370.259738	2511.374297
370.646918	2509.985459
371.034035	2511.512928
371.421090	2512.868999
371.808081	2513.201715
372.195010	2512.690038
372.581875	2512.906808
372.968678	2512.243896
373.355418	2512.039729
373.742096	2510.842455
374.128710	2512.054852
374.515262	2512.173320
374.901751	2512.145593
375.288177	2513.292456
375.674540	2516.962416
376.060841	2511.659122
376.447079	2512.228772
376.833254	2514.507374
377.219367	2510.290449
377.605417	2512.853875
377.991404	2513.753721
378.377329	2510.660973
378.763191	2512.261540
379.148991	2514.658608
379.534727	2513.811695
379.920402	2514.651047
380.306013	2516.392765
380.691563	2519.500637
381.077049	2518.401665
381.462474	2516.861593
381.847835	2515.661798
382.233134	2519.798065
382.618371	2517.736233
383.003545	2518.169772
383.388657	2518.598270
383.773706	2519.732530
384.158693	2520.985257
384.543618	2519.571213
384.928480	2516.750687
385.313280	2519.064577
385.698017	2519.989629
386.082692	2523.072294
386.467305	2520.448374
386.851856	2522.500123
387.236344	2520.740761
387.620770	2521.708662
388.005133	2519.896367
388.389435	2520.682787
388.773674	2520.713034
389.157851	2520.685308
389.541965	2521.121368
389.926018	2522.497603
390.310008	2522.782428
390.693936	2523.082377
391.077802	2520.740761
391.461606	2523.417613
391.845348	2523.284023
392.229027	2524.826616
392.612645	2523.079856
392.996200	2525.391225
393.379694	2523.457943
393.763125	2524.861904
394.146494	2524.438447
394.529801	2524.246883
394.913047	2524.718231
395.296230	2526.631349
395.679351	2525.030782
396.062410	2524.680422
396.445408	2524.027593
396.828343	2524.909795
397.211217	2522.479959
397.594028	2523.281502
397.976778	2521.887623
398.359466	2523.304187
398.742092	2525.613036
399.124656	2527.558921
399.507158	2527.067409
399.889598	2528.173942
400.271977	2525.310567
400.654294	2527.173273
401.036549	2526.908612
401.418742	2527.226205
401.800874	2529.835002
402.182944	2528.489014
402.564952	2527.211082
402.946898	2530.898686
403.328783	2532.592513
403.710606	2530.729807
404.092367	2529.053623
404.474067	2528.453726
404.855705	2531.201155
405.237282	2530.296268
405.618797	2530.631504
406.000250	2533.608306
406.381642	2530.883562
406.762972	2532.405991
407.144240	2531.775846
407.525447	2531.133099
407.906593	2529.865249
408.287677	2535.513862
408.668700	2533.401618
409.049661	2533.729293
409.430560	2530.946577
409.811399	2533.961187
410.192176	2535.402957
410.572891	2532.476567
410.953545	2532.010260
411.334138	2532.791639
411.714669	2532.060672
412.095139	2533.189890
412.475547	2534.445137
412.855894	2534.127545
413.236180	2533.091587
413.616405	2531.407842
413.996568	2537.051414
414.376670	2535.985210
414.756711	2537.331198
415.136691	2535.181146
415.516609	2535.279448
415.896466	2536.731301
416.276262	2538.830941
416.655997	2533.373892
417.035670	2533.270548
417.415283	2535.642411
417.794834	2529.530012
418.174324	2538.573842
418.553753	2536.461599
418.933121	2538.394881
419.312428	2537.530323
419.691674	2536.632998
420.070859	2538.576363
420.449983	2538.155427
420.829045	2536.315405
421.208047	2540.549975
421.586988	2538.692309
421.965867	2540.668442
422.344686	2540.277752
422.723444	2539.763555
423.102141	2542.021992
423.480777	2539.032587
423.859352	2537.701723
424.237866	2542.148020
424.616319	2541.371683
424.994712	2541.502753
425.373044	2543.289842
425.751314	2539.433359
426.129524	2539.433359
426.507673	2540.338246
426.885762	2542.024512
427.263789	2542.523586
427.641756	2544.098947
428.019662	2541.880839
428.397508	2542.067362
428.775292	2542.021992
429.153016	2542.924358
429.530679	2541.792619
429.908282	2541.621220
430.285824	2543.400747
430.663305	2542.556354
431.040726	2542.609286
431.418086	2541.752290
431.795385	2548.187323
432.172624	2545.772610
432.549802	2545.792775
432.926920	2546.674977
433.303977	2549.377035
433.680974	2545.724719
434.057910	2546.773279
434.434786	2543.582229
434.811601	2550.307128
435.188355	2548.368804
435.565050	2549.311500
435.941683	2547.960471
436.318257	2547.479041
436.694770	2546.526262
437.071222	2546.513660
437.447614	2546.014585
437.823946	2546.107847
438.200218	2551.259906
438.576429	2551.753939
438.952580	2552.847869
439.328670	2553.636810
439.704700	2554.529094
440.080670	2557.155535
440.456580	2556.285936
440.832429	2557.117727
441.208218	2561.153170
441.583947	2562.216854
441.959616	2562.355486
442.335224	2565.244067
442.710773	2568.767833
443.086261	2571.326219
443.461689	2571.409398
443.837057	2580.654874
444.212365	2580.659915
444.587612	2585.373394
444.962800	2589.547469
445.337927	2595.206165
445.712995	2595.692636
446.088002	2609.926334
446.462949	2610.609410
446.837837	2618.085441
447.212664	2622.367902
447.587431	2639.686786
447.962139	2660.108500
448.336786	2693.954807
448.711374	2697.246680
449.085901	2681.019206
449.460369	2687.897860
449.834776	2696.364478
450.209124	2725.338510
450.583412	2747.320461
450.957640	2763.326125
451.331808	2768.886517
451.705917	2762.653131
452.079965	2775.205604
452.453954	2802.420273
452.827883	2810.952426
453.201752	2831.797597
453.575562	2837.002588
453.949311	2870.669934
454.323001	2882.524208
454.696632	2910.401788
455.070202	2943.444031
455.443713	2980.945175
455.817164	3011.807118
456.190556	3046.157541
456.563888	3087.437029
456.937160	3115.160855
457.310373	3104.251798
457.683526	3135.191879
458.056619	3153.004797
458.429653	3184.045701
458.802628	3203.171839
459.175542	3251.251844
459.548398	3345.307172
459.921194	3411.492481
460.293930	3454.685087
460.666607	3607.001030
461.039224	3720.179975
461.411782	3789.153042
461.784280	3839.675485
462.156719	3861.019731
462.529099	3882.492526
462.901419	3839.287317
463.273680	3856.240717
463.645882	3899.950041
464.018024	3935.333900
464.390106	4020.703320
464.762130	4187.436963
465.134094	4396.087800
465.505999	4795.992452
465.877845	5270.415441
466.249631	5550.244850
466.621358	5497.723588
466.993026	5371.530905
467.364634	5354.970714
467.736184	5307.326769
468.107674	5261.401858
468.479105	5366.033526
468.850477	5332.590512
469.221790	5323.264377
469.593043	5254.704685
469.964238	5278.592192
470.335373	5352.243450
470.706449	5447.710301
471.077467	5509.245145
471.448425	6214.124482
471.819324	6822.218706
472.190164	6911.495020
472.560945	6379.212188
472.931667	6055.686058
473.302330	6045.485283
473.672934	5930.357932
474.043479	6196.694692
474.413965	6236.033337
474.784393	6240.411579
475.154761	6397.299848
475.525070	6528.364807
475.895321	6488.673282
476.265513	6662.232647
476.635645	6833.195818
477.005719	6914.242449
477.375734	7052.445681
477.745691	7280.031092
478.115588	7446.326155
478.485427	7689.491252
478.855207	8125.810679
479.224928	8768.391436
479.594591	9280.779354
479.964194	9246.446576
480.333739	9290.627248
480.703226	9340.799332
481.072653	9489.281477
481.442022	9730.883817
481.811333	9942.062792
482.180584	9874.312205
482.549777	9732.580165
482.918912	9656.781376
483.287988	9745.319161
483.657005	9821.427981
484.025964	9631.220205
484.394864	9808.154623
484.763706	9849.575263
485.132489	9694.930307
485.501213	9728.234690
485.869879	9846.217855
486.238487	9771.056772
486.607036	9907.818234
486.975527	9770.466957
487.343959	9982.429832
487.712333	10076.593544
488.080648	10047.233864
488.448905	10137.142843
488.817104	10119.894535
489.185244	10404.853318
489.553326	10591.779303
489.921350	11114.126020
490.289315	12093.418046
490.657222	12442.079369
491.025070	12397.142524
491.392861	12331.317658
491.760593	12035.233048
492.128267	11750.896848
492.495883	11472.242028
492.863440	11190.290293
493.230939	10893.736857
493.598380	10860.003976
493.965763	10755.019426
494.333088	10680.117962
494.700354	10626.790116
495.067563	10698.182937
495.434713	10555.861082
495.801805	10694.669253
496.168839	10636.201951
496.535815	10590.834087
496.902733	10602.305232
497.269593	10551.518128
497.636395	10655.103757
498.003139	10660.759932
498.369825	10538.148988
498.736453	10700.927845
499.103023	10642.200924
499.469535	10683.941678
499.835989	10673.645121
500.202385	10644.381223
500.568723	10506.709832
500.935003	10725.755528
501.301226	10549.065606
501.667390	10796.336723
502.033497	10905.727241
502.399546	10772.144226
502.765537	10687.382265
503.131470	10762.336661
503.497345	10938.923239
503.863163	10557.249920
504.228923	10868.909174
504.594625	10928.503174
504.960269	10681.307675
505.325856	10903.660368
505.691385	10693.068687
506.056856	10857.256547
506.422270	10890.117308
506.787625	10771.443505
507.152924	10894.808102
507.518164	10876.750689
507.883347	10801.907198
508.248472	10723.091278
508.613540	10956.852103
508.978550	10838.087559
509.343503	10814.295834
509.708398	10940.022211
510.073236	11046.768643
510.438016	11057.768441
510.802738	11002.782055
511.167403	11065.806561
511.532010	10967.607404
511.896561	11183.774602
512.261053	11256.087433
512.625488	11128.553803
512.989866	11115.739190
513.354186	11099.806623
513.718449	11007.427479
514.082655	11196.566530
514.446803	11096.187074
514.810894	11216.814324
515.174927	11087.266753
515.538904	11109.223498
515.902822	11257.955181
516.266684	11146.097018
516.630488	11092.421332
516.994235	11144.720783
517.357925	11210.311236
517.721558	11300.817591
518.085133	11319.167391
518.448651	11326.328350
518.812112	11214.755013
519.175516	11226.284132
519.538863	11342.112203
519.902152	11259.215469
520.265385	11423.978021
520.628560	11334.270688
520.991678	11307.741616
521.354739	11374.063036
521.717743	11309.805969
522.080690	11292.686210
522.443580	11421.061713
522.806413	11377.125537
523.169189	11410.714745
523.531908	11469.542490
523.894569	11290.107660
524.257174	11295.678135
524.619722	11405.726523
524.982213	11357.301200
525.344647	11407.813561
525.707025	11368.643796
526.069345	11454.930706
526.431608	11380.843388
526.793815	11480.809469
527.155964	11276.602409
527.518057	11328.818680
527.880093	11270.474886
528.242072	11341.688746
528.603995	11250.824469
528.965860	11172.280771
529.327669	11223.582073
529.689421	11171.529639
530.051117	11139.142746
530.412755	11240.936245
530.774337	11134.835080
531.135862	11112.497728
531.497331	11141.242387
531.858743	10995.777372
532.220098	11156.731332
532.581396	11030.649554
532.942638	11017.759323
533.303824	10972.696449
533.664953	10986.337812
534.026025	10913.893910
534.387040	10997.947589
534.747999	11005.277427
535.108902	11069.831922
535.469748	10822.162554
535.830537	10928.558627
536.191270	10902.775645
536.551947	10928.876219
536.912567	10924.656774
537.273131	10857.044818
537.633638	10825.300672
537.994089	10821.615589
538.354483	10771.340162
538.714821	10913.523385
539.075103	10926.022926
539.435328	10884.950125
539.795497	10715.101049
540.155609	10874.845133
540.515665	10961.641199
540.875665	10693.358553
541.235609	10766.782959
541.595496	10759.264078
541.955328	10915.970866
542.315102	10798.585078
542.674821	10750.190001
543.034483	10750.048848
543.394090	10758.422205
543.753640	10688.514004
544.113134	10906.730431
544.472571	10756.846844
544.831953	10903.899823
545.191278	10705.653927
545.550548	10737.708104
545.909761	10874.923270
546.268918	10846.889414
546.628019	10935.540625
546.987064	10791.280446
547.346053	10719.335619
547.704986	10817.149127
548.063863	10805.088166
548.422684	10791.608121
548.781449	10716.016019
549.140158	10816.289610
549.498811	10686.414363
549.857408	10547.666686
550.215949	10775.292426
550.574434	10630.734819
550.932864	10729.372556
551.291237	10787.746597
551.649555	10731.772145
552.007817	10752.667728
552.366022	10703.007321
552.724173	10706.697446
553.082267	10686.328664
553.440305	10822.830507
553.798288	10619.931627
554.156215	10779.516913
554.514086	10751.110011
554.871902	10606.330593
555.229661	10639.055244
555.587365	10618.308375
555.945014	10511.995482
556.302606	10636.292691
556.660143	10533.574141
557.017625	10689.403768
557.375050	10582.294372
557.732421	10714.720442
558.089735	10630.475200
558.446994	10631.642227
558.804197	10666.095993
559.161345	10671.711838
559.518437	10513.671665
559.875474	10608.034503
560.232455	10636.186827
560.589381	10581.649104
560.946251	10579.252036
561.303065	10688.027533
561.659825	10625.872626
562.016528	10563.024561
562.373177	10440.718607
562.729770	10548.538806
563.086307	10465.279109
563.442789	10557.731350
563.799216	10434.402042
564.155587	10484.949691
564.511904	10440.519482
564.868164	10428.614797
565.224370	10447.652714
565.580520	10365.950734
565.936615	10378.397343
566.292654	10245.005892
566.648638	10377.469771
567.004567	10334.441002
567.360441	10318.306789
567.716260	10229.290094
568.072023	10321.379372
568.427732	10277.448237
568.783385	10183.617241
569.138982	10252.978476
569.494525	10271.308112
569.850013	10144.228185
570.205445	10230.986443
570.560823	10123.128436
570.916145	10044.068020
571.271412	10110.555798
571.626625	10056.592767
571.981782	10033.232060
572.336884	10002.087811
572.691931	10009.185756
573.046923	9957.077869
573.401860	9921.520090
573.756743	9846.727011
574.111570	9893.806347
574.466342	9872.862873
574.821059	9907.876208
575.175722	9792.942941
575.530330	9802.614395
575.884882	9798.727665
576.239380	9731.771060
576.593823	9704.155619
576.948211	9718.999296
577.302544	9604.113921
577.656823	9612.540209
578.011047	9618.579512
578.365216	9587.760418
578.719330	9515.140076
579.073389	9524.178865
579.427394	9470.339342
579.781344	9447.991907
580.135239	9401.401563
580.489080	9408.663345
580.842866	9312.379827
581.196597	9314.111463
581.550273	9356.187454
581.903895	9324.027413
582.257463	9391.442763
582.610975	9272.476574
582.964434	9291.895098
583.317837	9221.833142
583.671186	9197.880100
584.024481	9194.658803
584.377721	9110.600083
584.730906	9093.497968
585.084037	9124.049881
585.437113	9056.455570
585.790135	9078.729908
586.143103	8976.676790
586.496016	8947.700237
586.848874	9010.891101
587.201679	9000.392898
587.554428	8885.774703
587.907124	8927.722145
588.259765	8899.519409
588.612352	8907.108867
588.964884	8783.673694
589.317362	8797.108369
589.669786	8792.031927
590.022155	8843.691151
590.374470	8859.548101
590.726731	8798.456878
591.078937	8645.750245
591.431090	8759.818954
591.783188	8635.932598
592.135232	8624.385835
592.487222	8628.106207
592.839157	8679.220986
593.191038	8609.375800
593.542866	8558.757574
593.894639	8463.386505
594.246358	8511.532045
594.598022	8529.692802
594.949633	8432.935415
595.301190	8399.051300
595.652692	8428.138757
596.004141	8537.148668
596.355535	8321.629259
596.706876	8293.950804
597.058162	8228.509065
597.409395	8304.088564
597.760573	8366.785394
598.111698	8280.816077
598.462768	8264.656659
598.813785	8225.444043
599.164748	8196.986730
599.515657	8189.689660
599.866511	8097.192048
600.217312	8227.034527
600.568060	8080.037002
600.918753	8187.723610
601.269392	8160.516503
601.619978	8064.164929
601.970510	8134.108418
602.320988	8131.968448
602.671412	8183.121036
603.021783	8124.825133
603.372100	8096.103159
603.722363	8098.434693
604.072572	8076.114984
604.422728	8085.574709
604.772830	8014.053339
605.122878	8021.718414
605.472872	8014.224738
605.822813	8045.358905
606.172701	7989.684402
606.522534	8063.585196
606.872314	8062.957573
607.222041	8030.371554
607.571714	8090.825071
607.921333	8052.227477
608.270899	8052.761839
608.620411	8144.233576
608.969870	8048.091210
609.319276	8044.040643
609.668627	8058.191162
610.017926	8093.809434
610.367171	8139.910786
610.716362	8116.048484
611.065500	8106.747556
611.414585	8130.146071
611.763616	8120.842622
612.112594	8104.978111
612.461518	8115.554451
612.810389	8172.927823
613.159207	8113.911035
613.507971	8065.100063
613.856682	8183.725975
614.205340	8139.348698
614.553945	8223.488076
614.902496	8121.747509
615.250994	8173.900766
615.599439	8150.373701
615.947830	8173.310951
616.296169	8136.661763
616.644454	8157.764033
616.992686	8149.277250
617.340864	8209.080458
617.688990	8112.028164
618.037063	8204.374541
618.385082	8148.677353
618.733048	8237.066424
619.080961	8176.237341
619.428821	8196.699384
619.776628	8198.383130
620.124382	8148.115264
620.472083	8134.194118
620.819731	8157.852253
621.167326	8051.335192
621.514868	8063.007984
621.862357	7955.273485
622.209793	7965.219682
622.557176	7903.463027
622.904506	7868.898355
623.251783	7809.022051
623.599007	7763.238291
623.946179	7767.303982
624.293297	7718.273720
624.640363	7637.779096
624.987376	7625.115717
625.334336	7570.353663
625.681243	7522.492948
626.028097	7510.724375
626.374899	7490.814338
626.721647	7479.738922
627.068343	7414.634941
627.414987	7386.124696
627.761577	7335.445976
628.108115	7375.107254
628.454600	7269.721933
628.801032	7323.516085
629.147412	7282.904550
629.493739	7266.334277
629.840014	7208.237500
630.186236	7260.347907
630.532405	7150.801113
630.878521	7199.843979
631.224585	7151.985785
631.570597	7079.433498
631.916556	7110.610514
632.262462	7104.276305
632.608316	7072.176757
632.954117	7046.532408
633.299866	7034.395830
633.645562	7025.132710
633.991206	6949.926256
634.336797	6889.477780
634.682336	6846.466656
635.027823	6815.151008
635.373257	6808.658002
635.718639	6738.021354
636.063968	6750.435196
636.409245	6646.400904
636.754470	6641.619369
637.099642	6605.953206
637.444762	6547.649741
637.789829	6553.996554
638.134845	6496.207287
638.479808	6482.384443
638.824719	6487.332335
639.169577	6416.612508
639.514383	6440.184944
639.859137	6363.977821
640.203839	6370.669953
640.548489	6360.539754
640.893086	6335.717113
641.237632	6312.462270
641.582125	6327.366441
641.926566	6297.691689
642.270955	6313.226005
642.615292	6308.288195
642.959576	6321.601882
643.303809	6312.905892
643.647990	6323.378889
643.992118	6308.764584
644.336195	6258.375730
644.680219	6284.073012
645.024192	6271.018944
645.368112	6366.702565
645.711981	6386.925153
646.055797	6464.919365
646.399562	6420.514362
646.743274	6549.678805
647.086935	6604.738288
647.430544	6601.368276
647.774101	6611.742971
648.117606	6618.530885
648.461059	6618.576255
648.804460	6578.350368
649.147810	6486.717314
649.491108	6459.512728
649.834354	6425.467295
650.177548	6349.098856
650.520690	6263.603407
650.863781	6241.293781
651.206820	6256.109732
651.549807	6181.379667
651.892742	6117.636797
652.235626	6130.395958
652.578458	6114.619667
652.921238	6029.156986
653.263967	6063.774589
653.606644	6001.687738
653.949269	6008.437843
654.291843	5946.323266
654.634365	5999.383931
654.976836	5955.541016
655.319255	5947.465088
655.661622	5930.272232
656.003938	5928.258291
656.346203	5887.301437
656.688416	5917.303864
657.030577	5872.107399
657.372687	5840.887533
657.714746	5824.226520
658.056753	5870.136308
658.398708	5810.620446
658.740612	5805.206247
659.082465	5848.814748
659.424266	5840.511968
659.766016	5843.375343
660.107715	5818.298123
660.449362	5828.191388
660.790958	5824.304658
661.132503	5811.689170
661.473996	5849.835582
661.815438	5837.885526
662.156829	5832.892263
662.498168	5822.578063
662.839456	5801.881606
663.180693	5837.552810
663.521879	5841.870558
663.863013	5824.309699
664.204097	5846.339541
664.545129	5886.310850
664.886110	5881.902361
665.227040	5915.680613
665.567918	5886.731787
665.908746	5910.868831
666.249522	5910.803296
666.590248	5903.591926
666.930922	5928.661584
667.271545	5940.346978
667.612118	5944.430313
667.952639	5917.336632
668.293109	5934.416061
668.633528	5897.550103
668.973896	5896.015071
669.314213	5889.242281
669.654480	5876.911619
669.994695	5863.552561
670.334859	5852.880438
670.674973	5847.882134
671.015035	5853.586200
671.355047	5847.743503
671.695008	5836.844528
672.034918	5808.293953
672.374777	5819.833154
672.714585	5802.786493
673.054342	5810.254962
673.394049	5805.433098
673.733705	5836.292522
674.073310	5822.328526
674.412864	5781.238081
674.752368	5771.377584
675.091820	5780.338235
675.431223	5706.734868
675.770574	5716.126537
676.109875	5666.561913
676.449125	5667.086193
676.788324	5637.885309
677.127473	5581.918419
677.466571	5572.236883
677.805619	5564.632303
678.144616	5548.800559
678.483562	5525.996900
678.822458	5498.583105
679.161303	5489.067927
679.500098	5481.586855
679.838842	5466.861644
680.177535	5468.951203
680.516179	5484.336804
680.854771	5497.466489
681.193314	5576.108489
681.531805	5682.696126
681.870247	5835.274209
682.208638	5934.874806
682.546978	5947.349141
682.885268	5927.076141
683.223508	5837.847718
683.561697	5786.712774
683.899836	5757.834524
684.237925	5714.145364
684.575963	5677.430641
684.913951	5640.632738
685.251889	5701.242531
685.589776	5668.911091
685.927614	5641.008304
686.265401	5713.734510
686.603137	5693.529565
686.940824	5774.563593
687.278460	5799.068642
687.616046	5801.629548
687.953582	5869.927100
688.291068	5847.935067
688.628504	5912.751702
688.965889	5875.333738
689.303224	5817.552032
689.640510	5773.550321
689.977745	5698.174989
690.314930	5600.220328
690.652065	5544.008942
690.989150	5451.770950
691.326185	5377.156832
691.663170	5324.010468
692.000105	5249.741669
692.336990	5172.249052
692.673825	5147.121421
693.010610	5077.218261
693.347345	5007.395759
693.684030	4994.825642
694.020665	4957.014468
694.357251	4865.726733
694.693786	4877.817941
695.030272	4842.237477
695.366707	4808.716325
695.703093	4774.554946
696.039429	4795.664777
696.375716	4778.668527
696.711952	4754.402933
697.048139	4741.941201
697.384276	4716.153178
697.720363	4731.644644
698.056400	4741.737034
698.392388	4691.270043
698.728326	4672.900078
699.064214	4650.960977
699.400053	4645.589627
699.735842	4607.549080
700.071581	4589.199280
700.407270	4563.524684
700.742910	4540.196744
701.078501	4490.047346
701.414042	4481.794977
701.749533	4457.415957
702.084974	4393.126122
702.420366	4446.408598
702.755709	4388.183271
703.091002	4337.665868
703.426246	4385.327457
703.761440	4337.547401
704.096584	4304.427020
704.431679	4326.429136
704.766725	4307.429027
705.101721	4297.122388
705.436668	4324.692459
705.771565	4270.295888
706.106413	4301.898882
706.441212	4335.452802
706.775961	4343.914378
707.110661	4323.845545
707.445311	4352.272611
707.779913	4372.989233
708.114465	4383.724370
708.448967	4403.147936
708.783421	4466.026248
709.117825	4512.684647
709.452180	4517.156151
709.786485	4562.418151
710.120742	4647.749762
710.454949	4628.830311
710.789107	4695.711299
711.123216	4768.873565
711.457275	4757.415022
711.791286	4832.911342
712.125247	4848.377602
712.459159	4754.685238
712.793023	4826.665353
713.126837	4788.042553
713.460602	4782.988796
713.794318	4700.545766
714.127985	4710.280234
714.461602	4621.505515
714.795171	4593.945527
715.128691	4525.582439
715.462162	4476.544615
715.795584	4424.635854
716.128957	4404.987957
716.462281	4354.989793
716.795556	4331.598839
717.128782	4293.833035
717.461960	4222.619176
717.795088	4233.871031
718.128167	4195.333930
718.461198	4134.245228
718.794180	4133.912512
719.127113	4106.876804
719.459997	4087.589349
719.792833	4046.914799
720.125619	4033.956513
720.458357	4000.904188
720.791046	4007.664376
721.123686	3978.559274
721.456278	3938.066206
721.788821	3955.768217
722.121315	3928.314093
722.453761	3901.414497
722.786158	3913.641815
723.118506	3938.983696
723.450805	3891.054925
723.783056	3914.085437
724.115259	3928.740071
724.447412	3932.697377
724.779518	3926.973147
725.111574	3932.044547
725.443582	3957.557827
725.775542	3946.641208
726.107453	3995.434536
726.439315	3997.705576
726.771129	4012.955067
727.102895	4047.872619
727.434612	4095.362808
727.766281	4105.104838
728.097901	4102.309518
728.429473	4113.112711
728.760996	4117.291828
729.092471	4114.143627
729.423897	4098.327007
729.755276	4103.597533
730.086606	4101.031586
730.417887	4142.928616
730.749120	4204.735682
731.080305	4274.308647
731.411442	4294.977377
731.742530	4266.492338
732.073570	4267.510651
732.404562	4325.322603
732.735506	4313.218793
733.066401	4277.406436
733.397249	4211.236250
733.728048	4136.014673
734.058798	4050.680541
734.389501	3985.016992
734.720156	3921.800923
735.050762	3877.355590
735.381320	3870.504662
735.711831	3821.492043
736.042293	3793.944658
736.372707	3816.886949
736.703073	3787.812095
737.033391	3778.760703
737.363661	3797.944814
737.693883	3820.929955
738.024056	3825.174606
738.354182	3824.156293
738.684260	3884.972773
739.014290	3908.716608
739.344272	3901.175042
739.674207	3946.177422
740.004093	3950.001137
740.333931	3947.692289
740.663722	3943.765230
740.993464	3945.209521
741.323159	3919.673556
741.652806	3887.972260
741.982405	3864.109958
742.311956	3831.402952
742.641460	3822.084379
742.970915	3797.828867
743.300323	3757.595418
743.629683	3724.404462
743.958996	3714.327195
744.288260	3688.249306
744.617477	3655.126405
744.946647	3642.326915
745.275768	3619.382103
745.604842	3615.583594
745.933869	3565.532498
746.262847	3561.030748
746.591778	3595.759257
746.920662	3566.933939
747.249498	3537.818755
747.578286	3580.739139
747.907027	3598.826799
748.235720	3595.605501
748.564365	3624.080459
748.892963	3622.888226
749.221514	3604.054475
749.550017	3583.131166
749.878473	3580.666042
750.206881	3550.439283
750.535242	3546.592883
750.863555	3549.640261
751.191821	3546.033315
751.520039	3527.310470
751.848210	3502.082015
752.176334	3535.953528
752.504411	3541.597100
752.832440	3501.958507
753.160421	3485.899911
753.488356	3495.117661
753.816243	3507.400432
754.144082	3462.879482
754.471875	3450.556382
754.799620	3470.237046
755.127318	3460.371508
755.454969	3463.318063
755.782572	3468.250832
756.110129	3437.920730
756.437638	3433.807148
756.765100	3445.089250
757.092515	3455.516877
757.419882	3463.502065
757.747203	3435.193465
758.074477	3442.586318
758.401703	3451.642750
758.728882	3472.155205
759.056014	3482.595435
759.383099	3486.000734
759.710138	3482.141731
760.037129	3497.550018
760.364073	3528.671581
760.690970	3513.094416
761.017820	3490.804954
761.344623	3510.374713
761.671379	3556.521436
761.998088	3602.559773
762.324751	3733.959969
762.651366	3978.919716
762.977935	4449.473619
763.304456	4893.964757
763.630931	4983.498170
763.957359	4620.588025
764.283740	4283.228968
764.610074	4090.939196
764.936362	3895.823857
765.262602	3736.624218
765.588796	3623.825881
765.914943	3539.782284
766.241044	3452.966053
766.567097	3423.969336
766.893104	3375.193652
767.219064	3346.880012
767.544978	3316.189467
767.870845	3264.918412
768.196665	3245.706575
768.522438	3254.077411
768.848165	3248.537182
769.173846	3212.361862
769.499479	3193.243287
769.825066	3177.187212
770.150607	3163.142557
770.476101	3178.775175
770.801548	3175.359793
771.126949	3127.730972
771.452303	3110.946450
771.777611	3117.668829
772.102872	3122.432719
772.428087	3100.498659
772.753256	3089.264447
773.078378	3082.610124
773.403453	3047.596790
773.728482	3037.668238
774.053465	3055.372770
774.378401	3044.831717
774.703291	3013.006913
775.028135	3013.410205
775.352932	3007.852333
775.677683	2996.729027
776.002388	2994.442864
776.327046	2997.654079
776.651658	2984.673108
776.976224	2973.789257
777.300743	2972.554174
777.625216	2965.488997
777.949643	2960.173100
778.274024	2962.648307
778.598359	2951.368725
778.922647	2954.191771
779.246889	2954.610187
779.571086	2940.447065
779.895236	2932.724018
780.219339	2948.487706
780.543397	2956.036833
780.867409	2961.259469
781.191374	2955.532718
781.515294	2949.657253
781.839167	2952.024075
782.162995	2942.501335
782.486776	2952.238324
782.810511	2949.841255
783.134201	2936.615788
783.457844	2942.329936
783.781441	2932.209820
784.104993	2912.763569
784.428498	2915.395051
784.751958	2927.662699
785.075372	2919.891760
785.398739	2903.734862
785.722061	2922.946700
786.045337	2932.406425
786.368568	2916.466296
786.691752	2910.613517
787.014891	2958.020528
787.337983	2985.948520
787.661030	3011.824763
787.984031	3082.612645
788.306987	3128.003194
788.629897	3119.498767
788.952760	3105.698609
789.275579	3087.525249
789.598351	3030.126672
789.921078	2985.144456
790.243759	2974.807570
790.566395	2959.749643
790.888984	2937.124945
791.211529	2921.603232
791.534027	2910.530338
791.856480	2903.140006
792.178888	2885.621997
792.501249	2876.411808
792.823566	2872.588093
793.145836	2870.990047
793.468062	2865.601054
793.790241	2868.136754
794.112375	2871.083309
794.434464	2882.924979
794.756507	2887.547717
795.078505	2893.955024
795.400457	2908.665111
795.722364	2945.158023
796.044226	2969.463947
796.366042	2971.414873
796.687812	2958.050774
797.009538	2980.083137
797.331218	2968.501086
797.652852	2955.016000
797.974442	2936.081426
798.295986	2933.240736
798.617484	2924.058274
798.938938	2909.756521
799.260346	2894.023079
799.581709	2890.264899
799.903026	2885.795916
800.224299	2878.279556
800.545526	2869.901158
800.866708	2855.778366
801.187845	2842.976356
801.508936	2844.135821
801.829983	2852.408354
802.150984	2837.131138
802.471940	2826.872390
802.792851	2826.413645
803.113717	2825.523881
803.434538	2830.297854
803.755314	2824.530774
804.076045	2816.222952
804.396731	2816.669094
804.717372	2820.202943
805.037967	2811.388486
805.358518	2819.383756
805.679024	2829.690395
805.999485	2828.364571
806.319901	2832.001764
806.640272	2820.951554
806.960598	2824.896257
807.280879	2835.049141
807.601115	2840.904441
807.921306	2831.991681
808.241453	2827.704180
808.561554	2833.224243
808.881611	2837.053000
809.201623	2831.104438
809.521590	2828.246104
809.841513	2827.862976
810.161390	2831.573266
810.481223	2824.621514
810.801011	2813.445276
811.120755	2811.527117
811.440453	2814.508960
811.760107	2811.121304
812.079716	2814.098106
812.399281	2801.583441
812.718801	2792.738737
813.038276	2789.015845
813.357707	2794.674540
813.677093	2802.198462
813.996434	2796.257462
814.315731	2793.936011
814.634983	2791.675053
814.954191	2790.059364
815.273354	2801.288534
815.592473	2810.496201
815.911547	2812.772282
816.230577	2820.941472
816.549562	2830.408759
816.868502	2828.747699
817.187399	2838.774554
817.506250	2854.225690
817.825058	2848.443487
818.143821	2861.472349
818.462539	2877.097405
818.781213	2907.430028
819.099843	2939.612754
819.418429	2997.379336
819.736970	3060.643296
820.055466	3129.944038
820.373919	3237.744072
820.692327	3374.480329
821.010691	3543.772357
821.329011	3981.016836
821.647286	4880.081419
821.965517	6248.875676
822.283704	6978.910370
822.601847	6957.354396
822.919945	6327.699157
823.237999	5833.383776
823.556010	5249.620681
823.873976	4700.991908
824.191897	4298.428047
824.509775	4006.242770
824.827609	3736.064650
825.145398	3615.946557
825.463144	3602.877366
825.780845	3692.337682
826.098502	3799.207623
826.416116	4077.350766
826.733685	4391.023961
827.051210	4453.519145
827.368692	4343.138041
827.686129	4080.622475
828.003522	3751.767845
828.320872	3499.689988
828.638177	3301.854946
828.955439	3166.636077
829.272656	3083.593149
829.589830	3016.187881
829.906960	2966.048565
830.224046	2925.951227
830.541088	2887.545197
830.858086	2873.682024
831.175041	2856.993284
831.491952	2858.876155
831.808819	2871.300078
832.125642	2893.652555
832.442421	2939.116201
832.759157	3018.567306
833.075849	3197.377033
833.392497	3481.809015
833.709101	3680.080116
834.025662	3627.543732
834.342179	3469.138075
834.658653	3294.537711
834.975083	3143.726553
835.291469	3049.391441
835.607811	2965.438585
835.924110	2908.110584
836.240366	2855.969930
836.556578	2812.999134
836.872746	2790.324024
837.188871	2771.066817
837.504952	2751.570154
837.820990	2745.666963
838.136984	2732.542319
838.452935	2724.708366
838.768842	2722.210474
839.084706	2741.288721
839.400526	2815.938127
839.716303	2950.516770
840.032037	3029.698173
840.347727	3012.318796
840.663373	2955.091617
840.978977	2879.270143
841.294537	2806.675007
841.610054	2760.974427
841.925527	2737.465006
842.240957	2715.891388
842.556344	2696.903882
842.871687	2681.215811
843.186987	2670.689882
843.502244	2668.368430
843.817458	2661.028510
844.132629	2651.168013
844.447756	2640.720222
844.762840	2634.837196
845.077881	2639.391878
845.392879	2636.445324
845.707833	2631.890641
846.022745	2622.332613
846.337613	2626.047944
846.652438	2629.559107
846.967221	2625.558952
847.281960	2623.756739
847.596656	2623.706328
847.911309	2621.657099
848.225919	2619.318003
848.540485	2614.289453
848.855009	2615.872375
849.169490	2615.317848
849.483928	2617.667026
849.798323	2616.323558
850.112675	2613.377004
850.426984	2613.104781
850.741251	2612.252826
851.055474	2610.488422
851.369654	2617.167951
851.683792	2616.699124
851.997887	2614.624689
852.311938	2610.465737
852.625947	2615.282560
852.939914	2617.190637
853.253837	2617.838425
853.567718	2612.812394
853.881555	2615.048146
854.195350	2615.877416
854.509103	2616.056377
854.822812	2612.220059
855.136479	2612.116715
855.450103	2614.337343
855.763685	2615.882457
856.077224	2613.356839
856.390720	2611.126128
856.704173	2613.926489
857.017584	2619.065946
857.330953	2618.652571
857.644278	2618.236676
857.957561	2619.771707
858.270802	2616.162241
858.584000	2613.959257
858.897155	2617.525873
859.210268	2620.908487
859.523339	2614.433125
859.836367	2613.051849
860.149352	2614.430605
860.462295	2615.421192
860.775195	2611.297528
861.088054	2609.825511
861.400869	2607.846858
861.713642	2607.103288
862.026373	2608.781992
862.339062	2612.215018
862.651708	2615.010337
862.964312	2617.099896
863.276873	2615.380862
863.589392	2616.363887
863.901869	2621.578961
864.214303	2625.700104
864.526696	2628.649179
864.839045	2630.055661
865.151353	2634.446506
865.463619	2634.343162
865.775842	2632.891310
866.088023	2632.145219
866.400162	2636.906589
866.712258	2634.524644
867.024313	2632.440127
867.336325	2628.674385
867.648296	2631.472225
867.960224	2631.368882
868.272110	2633.183697
868.583954	2630.222019
868.895755	2628.266052
869.207515	2634.867442
869.519233	2643.946561
869.830909	2635.913482
870.142542	2632.238481
870.454134	2634.751496
870.765684	2641.617547
871.077191	2640.168216
871.388657	2644.453197
871.700081	2641.844399
872.011463	2641.932620
872.322803	2645.433701
872.634101	2646.920841
872.945357	2654.401914
873.256571	2661.978768
873.567744	2658.805362
873.878874	2656.070536
874.189963	2655.437871
874.501010	2662.377019
874.812015	2667.342556
875.122979	2667.297185
875.433900	2659.213695
875.744780	2653.938127
876.055618	2662.863490
876.366415	2667.130827
876.677169	2666.765343
876.987882	2659.347286
877.298554	2658.865855
877.609183	2674.349759
877.919771	2677.044256
878.230317	2682.652540
878.540822	2693.599405
878.851285	2709.781509
879.161707	2729.928481
879.472087	2770.885335
879.782425	2818.153714
880.092722	2929.868204
880.402977	3115.783437
880.713191	3374.941595
881.023363	3665.506141
881.333494	3851.504553
881.643583	4024.756408
881.953631	4021.099051
882.263637	3845.268646
882.573602	3626.101962
882.883526	3497.514730
883.193408	3387.234448
883.503248	3286.708799
883.813048	3172.874504
884.122806	3058.077349
884.432522	2975.780513
884.742197	2912.786254
885.051831	2873.858464
885.361424	2837.047959
885.670975	2801.848102
885.980485	2771.792743
886.289954	2753.115268
886.599382	2740.903072
886.908768	2729.842781
887.218113	2708.488453
887.527417	2698.149047
887.836680	2688.696883
888.145901	2687.897860
888.455082	2675.088288
888.764221	2666.770385
889.073319	2656.123468
889.382376	2655.941986
889.691392	2660.080773
890.000366	2657.343427
890.309300	2656.861997
890.618193	2657.721513
890.927044	2661.119251
891.235855	2661.658655
891.544625	2660.892399
891.853353	2661.356185
892.162041	2666.982113
892.470687	2686.191430
892.779293	2697.962524
893.087858	2710.202446
893.396381	2733.406877
893.704864	2770.378699
894.013306	2842.527693
894.321707	2935.751230
894.630068	2985.008345
894.938387	3005.951818
895.246665	2995.294819
895.554903	2953.231431
895.863100	2912.813980
896.171256	2852.889785
896.479371	2793.615898
896.787446	2753.422778
897.095480	2736.401322
897.403473	2728.620301
897.711425	2712.866695
898.019336	2696.979499
898.327207	2680.941068
898.635038	2678.496108
898.942827	2678.586849
899.250576	2668.214675
899.558284	2659.362409
899.865952	2656.236894
900.173579	2648.985194
900.481165	2647.372025
900.788711	2639.331384
901.096216	2637.942546
901.403681	2631.434417
901.711105	2631.704118
902.018489	2629.881741
902.325832	2635.023718
902.633135	2632.946763
902.940397	2649.229690
903.247619	2688.238138
903.554800	2756.608787
903.861941	2879.005482
904.169041	3005.198166
904.476101	3067.653021
904.783121	3061.502813
905.090100	3004.734380
905.397039	2928.991043
905.703938	2857.762060
906.010796	2794.485497
906.317614	2744.230234
906.624391	2708.362424
906.931129	2681.987107
907.237826	2656.635145
907.544483	2641.541930
907.851099	2628.349231
908.157675	2618.221552
908.464211	2613.500512
908.770707	2600.731269
909.077163	2597.560383
909.383578	2593.676174
909.689954	2591.420258
909.996289	2591.546287
910.302584	2588.952613
910.608839	2586.953796
910.915054	2588.171234
911.221229	2590.094435
911.527363	2592.688108
911.833458	2588.007397
912.139513	2592.725917
912.445527	2594.392018
912.751502	2599.654983
913.057436	2604.822166
913.363331	2609.563371
913.669186	2621.581482
913.975000	2629.455764
914.280775	2650.880668
914.586510	2668.968328
914.892205	2704.992413
915.197859	2771.810387
915.503475	2852.504136
915.809050	2921.769590
916.114585	2935.471446
916.420081	2944.331274
916.725536	2958.073460
917.030952	2930.972217
917.336328	2883.726523
917.641665	2837.068123
917.946961	2786.434774
918.252218	2751.933117
918.557435	2728.975702
918.862612	2707.089533
919.167750	2690.373067
919.472848	2674.067455
919.777906	2654.835453
920.082925	2641.980511
920.387904	2635.825262
920.692843	2629.801083
920.997743	2623.481997
921.302603	2616.247941
921.607423	2608.902980
921.912204	2607.514142
922.216946	2601.479881
922.521647	2602.634305
922.826310	2599.138265
923.130932	2595.672471
923.435516	2587.576378
923.740059	2586.074114
924.044564	2582.189905
924.349028	2582.535224
924.653454	2572.478123
924.957840	2573.209090
925.262186	2569.859243
925.566493	2571.611044
925.870761	2565.339849
926.174989	2569.108111
926.479178	2567.280693
926.783328	2565.344890
927.087438	2563.295661
927.391509	2565.629715
927.695541	2556.311142
927.999533	2560.989333
928.303486	2557.168138
928.607400	2555.660833
928.911275	2556.951369
929.215110	2556.991698
929.518906	2557.954558
929.822663	2556.636297
930.126381	2556.701832
930.430060	2558.887172
930.733699	2558.630073
931.037299	2559.363561
931.340861	2557.684857
931.644383	2557.178221
931.947866	2559.769374
932.251309	2560.391956
932.554714	2556.167469
932.858080	2560.331462
933.161407	2559.580330
933.464694	2557.997408
933.767943	2556.686708
934.071153	2556.447253
934.374323	2553.823333
934.677455	2555.998591
934.980548	2555.000442
935.283602	2554.927345
935.586617	2554.957592
935.889593	2553.248641
936.192530	2553.903991
936.495428	2556.210319
936.798287	2553.825853
937.101108	2555.234856
937.403890	2559.537481
937.706632	2563.436813
938.009336	2563.560321
938.312002	2569.219017
938.614628	2574.842424
938.917216	2577.360480
939.219765	2577.221848
939.522275	2576.228741
939.824747	2575.157496
940.127179	2572.596590
940.429573	2565.720456
940.731929	2566.196845
941.034246	2566.769016
941.336524	2567.411763
941.638763	2569.153482
941.940964	2567.026115
942.243126	2564.129972
942.545250	2564.049313
942.847335	2561.047306
943.149381	2561.241391
943.451389	2561.886658
943.753359	2558.995557
944.055290	2557.841132
944.357182	2557.289126
944.659036	2558.015052
944.960851	2556.704352
945.262628	2558.524209
945.564367	2559.043447
945.866067	2559.749209
946.167729	2558.970351
946.469352	2557.216029
946.770937	2557.616801
947.072484	2559.643345
947.373992	2555.605381
947.675462	2558.773746
947.976893	2557.889023
948.278286	2552.202602
948.579641	2555.128992
948.880958	2555.592778
949.182236	2552.358877
949.483476	2556.898437
949.784678	2552.905843
950.085841	2554.569423
950.386967	2554.740823
950.688054	2553.901471
950.989103	2554.841646
951.290114	2555.232335
951.591087	2556.618652
951.892021	2558.688046
952.192917	2561.047306
952.493776	2559.207285
952.794596	2561.211144
953.095378	2564.649211
953.396122	2560.523026
953.696828	2560.041596
953.997496	2558.332645
954.298126	2557.979764
954.598718	2556.737120
954.899272	2557.115206
955.199788	2557.044630
955.500266	2554.002294
955.800706	2549.503064
956.101108	2548.121788
956.401472	2543.877136
956.701798	2544.172044
957.002087	2544.033412
957.302337	2548.371325
957.602550	2545.218083
957.902724	2546.974925
958.202861	2545.394523
958.502960	2542.253885
958.803022	2545.543237
959.103045	2543.350336
959.403031	2543.415871
959.702979	2542.417722
960.002889	2543.282280
960.302762	2543.181457
960.602596	2543.988042
960.902393	2541.217928
961.202153	2543.027702
961.501875	2539.841692
961.801559	2541.737166
962.101205	2542.054759
962.400814	2540.237423
962.700385	2538.004192
962.999918	2542.180788
963.299414	2541.701878
963.598873	2539.904707
963.898293	2539.171219
964.197677	2541.298586
964.497022	2539.206507
964.796331	2540.103832
965.095601	2536.285158
965.394835	2540.681045
965.694030	2538.808256
965.993189	2542.009389
966.292309	2537.787422
966.591393	2537.502597
966.890439	2539.816487
967.189447	2538.601569
967.488419	2538.898997
967.787353	2539.549306
968.086249	2539.009902
968.385108	2542.798329
968.683930	2539.950077
968.982714	2539.307330
969.281462	2541.011240
969.580172	2538.296579
969.878844	2539.201466
970.177480	2541.946374
970.476078	2537.283307
970.774639	2540.807073
971.073162	2539.952598
971.371649	2536.582587
971.670098	2537.099305
971.968510	2538.062165
972.266885	2536.638039
972.565223	2542.573998
972.863524	2539.229192
973.161788	2541.966539
973.460014	2540.096271
973.758204	2541.026364
974.056356	2540.983514
974.354471	2536.970755
974.652550	2540.499563
974.950591	2541.238092
975.248595	2541.369162
975.546563	2540.307999
975.844493	2541.893442
976.142386	2540.393699
976.440243	2541.563247
976.738062	2537.915972
977.035845	2541.164995
977.333590	2539.307330
977.631299	2536.837165
977.928971	2539.128369
978.226606	2538.601569
978.524204	2540.101312
978.821765	2535.478574
979.119290	2538.528472
979.416777	2540.870088
979.714228	2539.163657
980.011642	2541.061652
980.309020	2542.185829
980.606360	2538.049562
980.903664	2540.181970
981.200931	2539.665252
981.498162	2539.932433
981.795356	2543.985521
982.092513	2545.964174
982.389633	2547.647919
982.686717	2552.328631
982.983764	2552.840308
983.280775	2556.807696
983.577749	2554.660164
983.874686	2551.708569
984.171587	2551.378373
984.468451	2547.360573
984.765279	2547.592467
985.062070	2543.728422
985.358824	2543.791437
985.655543	2541.041487
985.952224	2537.593338
986.248869	2540.832279
986.545478	2535.213913
986.842050	2533.915816
987.138586	2533.073943
987.435086	2534.094777
987.731549	2531.964890
988.027975	2538.168029
988.324366	2536.363296
988.620719	2536.121321
988.917037	2536.701054
989.213318	2536.033101
989.509563	2533.527647
989.805772	2534.908923
990.101944	2535.970086
990.398080	2535.541588
990.694180	2535.781043
990.990244	2535.292051
991.286271	2537.926054
991.582262	2537.185004
991.878217	2535.241640
992.174136	2532.990764
992.470019	2533.603265
992.765865	2533.719211
993.061676	2535.735673
993.357450	2535.314736
993.653188	2533.452030
993.948890	2538.422608
994.244556	2535.826413
994.540186	2537.532844
994.835780	2534.435055
995.131337	2539.100643
995.426859	2537.545447
995.722345	2535.430683
996.017795	2537.825231
996.313208	2540.512166
996.608586	2540.492001
996.903928	2540.270191
997.199234	2539.304810
997.494504	2539.302289
997.789738	2539.939995
998.084936	2538.525951
998.380099	2536.108718
998.675225	2537.222813
998.970316	2534.578728
999.265371	2537.026208
999.560390	2538.480581
999.855373	2537.961342
1000.150320	2535.639891
1000.445232	2536.335570
1000.740108	2533.172246
1001.034948	2534.911444
1001.329752	2533.865405
1001.624521	2536.610313
1001.919254	2529.411545
1002.213951	2530.117307
1002.508613	2530.714683
1002.803239	2532.350538
1003.097829	2529.444313
1003.392384	2534.752648
1003.686903	2536.196938
1003.981386	2533.784746
1004.275834	2531.433048
1004.570246	2536.101156
1004.864623	2531.080167
1005.158964	2534.979500
1005.453270	2534.374561
1005.747540	2534.823224
1006.041775	2533.706608
1006.335974	2535.433203
1006.630138	2532.751310
1006.924266	2536.277597
1007.218359	2532.161495
1007.512416	2534.987061
1007.806438	2532.857174
1008.100425	2534.742565
1008.394376	2535.917154
1008.688292	2534.225847
1008.982172	2535.218954
1009.276017	2532.398429
1009.569827	2534.634181
1009.863602	2531.793490
1010.157341	2532.403470
1010.451045	2533.205013
1010.744714	2534.140147
1011.038347	2536.759027
1011.331945	2532.325332
1011.625508	2535.904551
1011.919036	2532.698377
1012.212528	2536.509490
1012.505986	2534.351876
1012.799408	2532.080836
1013.092795	2532.121165
1013.386147	2536.688451
1013.679464	2533.749458
1013.972745	2532.910106
1014.265992	2531.614529
1014.559204	2533.381454
1014.852380	2533.167205
1015.145521	2534.679551
1015.438628	2533.202493
1015.731699	2532.821886
1016.024736	2533.129396
1016.317737	2534.523275
1016.610703	2534.062010
1016.903635	2531.796011
1017.196531	2529.144364
1017.489393	2529.388860
1017.782219	2528.529343
1018.075011	2530.447502
1018.367768	2534.155271
1018.660490	2532.388347
1018.953177	2532.388347
1019.245829	2532.388347
