Dividing Wavelength (nm)	Counts (n)	Blue Motor Position (mm): 48.100000	Red Motor Position (mm): 0.000000	
326.493990	2131.906482
326.888308	2131.906482
327.282561	2131.906482
327.676750	2097.281317
328.070874	2094.899372
328.464933	2098.874322
328.858929	2106.320106
329.252859	2113.007196
329.646726	2126.066305
330.040528	2140.337812
330.434265	2157.263486
330.827938	2176.873574
331.221547	2192.105421
331.615091	2209.076465
332.008571	2230.098077
332.401986	2250.038361
332.795338	2269.091402
333.188625	2288.814916
333.581847	2307.003399
333.975006	2325.607778
334.368100	2345.283401
334.761129	2360.323683
335.154095	2377.534183
335.546996	2398.759961
335.939833	2425.183169
336.332606	2439.089192
336.725315	2451.561006
337.117960	2459.210957
337.510540	2469.993985
337.903056	2480.736684
338.295508	2487.799341
338.687896	2497.800990
339.080220	2506.764162
339.472480	2510.522342
339.864676	2517.199350
340.256807	2520.234125
340.648875	2519.362005
341.040879	2527.130423
341.432818	2526.303674
341.824694	2527.939528
342.216506	2529.056144
342.608253	2531.944725
342.999937	2529.310722
343.391557	2531.748120
343.783113	2528.730989
344.174605	2528.884745
344.566033	2526.228057
344.957397	2527.521113
345.348697	2526.001205
345.739934	2522.689167
346.131106	2520.408044
346.522215	2519.046933
346.913260	2515.419823
347.304241	2514.719102
347.695159	2511.613752
348.086012	2513.783968
348.476802	2509.572084
348.867528	2509.284738
349.258191	2507.013699
349.648789	2508.740294
350.039324	2500.926505
350.429796	2503.666373
350.820203	2500.921464
351.210548	2500.916423
351.600828	2498.915085
351.991045	2497.800990
352.381198	2498.993223
352.771288	2497.768223
353.161314	2498.284941
353.551276	2498.113542
353.941175	2500.326608
354.331010	2500.477843
354.720782	2498.733603
355.110490	2496.034066
355.500135	2495.648417
355.889717	2497.133037
356.279235	2499.668738
356.668689	2500.319046
357.058080	2499.817452
357.447408	2498.098418
357.836672	2496.586072
358.225873	2498.698315
358.615010	2495.512306
359.004084	2502.368275
359.393095	2499.711587
359.782043	2504.379696
360.170927	2505.188801
360.559748	2504.016733
360.948505	2506.489419
361.337199	2505.662669
361.725830	2506.779285
362.114398	2510.063597
362.502903	2509.559481
362.891344	2509.456138
363.279722	2508.705006
363.668037	2509.246930
364.056289	2511.991838
364.444478	2511.273474
364.832603	2509.718278
365.220665	2513.012672
365.608665	2509.962774
365.996601	2516.738084
366.384474	2512.085099
366.772284	2514.164575
367.160031	2513.342867
367.547715	2513.998217
367.935336	2515.445028
368.322893	2516.181037
368.710388	2518.613394
369.097820	2521.862417
369.485189	2520.372756
369.872495	2524.624970
370.259738	2526.197810
370.646918	2529.247708
371.034035	2532.141330
371.421090	2538.830941
371.808081	2545.981818
372.195010	2548.827549
372.581875	2558.234342
372.968678	2568.566187
373.355418	2575.240675
373.742096	2590.908581
374.128710	2599.995261
374.515262	2612.630913
374.901751	2624.147429
375.288177	2636.490694
375.674540	2654.729589
376.060841	2673.553257
376.447079	2690.357943
376.833254	2706.025850
377.219367	2722.059239
377.605417	2752.671646
377.991404	2763.986516
378.377329	2788.930145
378.763191	2806.859009
379.148991	2843.354442
379.534727	2866.939480
379.920402	2895.548028
380.306013	2909.791809
380.691563	2958.728810
381.077049	2981.166985
381.462474	3004.225223
381.847835	3044.688044
382.233134	3070.236612
382.618371	3077.001841
383.003545	3142.539361
383.388657	3154.076042
383.773706	3189.101979
384.158693	3213.665001
384.543618	3244.186667
384.928480	3280.901390
385.313280	3329.367043
385.698017	3331.900223
386.082692	3389.273595
386.467305	3395.940521
386.851856	3433.207251
387.236344	3456.094089
387.620770	3494.149760
388.005133	3520.618338
388.389435	3549.617575
388.773674	3565.769432
389.157851	3609.355248
389.541965	3626.837970
389.926018	3592.585850
390.310008	3664.301305
390.693936	3685.922814
391.077802	3729.891758
391.461606	3715.897514
391.845348	3778.233902
392.229027	3777.603758
392.612645	3795.152015
392.996200	3872.861401
393.379694	3914.702978
393.763125	3978.914675
394.146494	3943.188018
394.529801	4007.981968
394.913047	4054.388310
395.296230	4016.751055
395.679351	4076.614757
396.062410	4100.769446
396.445408	4080.226744
396.828343	4115.739152
397.211217	4137.552225
397.594028	4058.055749
397.976778	4123.845328
398.359466	4150.999503
398.742092	4182.446221
399.124656	4102.049899
399.507158	4186.839586
399.889598	4209.197103
400.271977	4270.726907
400.654294	4240.278338
401.036549	4248.107249
401.418742	4217.746900
401.800874	4319.805060
402.182944	4344.171477
402.564952	4406.424686
402.946898	4394.124271
403.328783	4390.479516
403.710606	4303.393584
404.092367	4495.839632
404.474067	4465.007935
404.855705	4470.684274
405.237282	4399.278850
405.618797	4509.344883
406.000250	4542.971900
406.381642	4621.699599
406.762972	4588.193570
407.144240	4597.093727
407.525447	4596.481227
407.906593	4655.220752
408.287677	4697.586609
408.668700	4627.088593
409.049661	4677.900903
409.430560	4720.417994
409.811399	4644.629287
410.192176	4805.447136
410.572891	4746.639556
410.953545	4846.734186
411.334138	4724.455959
411.714669	4794.792658
412.095139	4691.882543
412.475547	4832.591229
412.855894	4816.464578
413.236180	4821.747707
413.616405	4777.498979
413.996568	4862.349160
414.376670	4805.114420
414.756711	4761.107668
415.136691	4792.998007
415.516609	4867.788565
415.896466	4908.558897
416.276262	4940.779432
416.655997	4922.119601
417.035670	5105.965441
417.415283	5199.325089
417.794834	5140.731758
418.174324	5089.874078
418.553753	5004.595398
418.933121	5186.840672
419.312428	5255.796095
419.691674	5193.875602
420.070859	5318.634077
420.449983	5228.677207
420.829045	5348.581052
421.208047	5252.751238
421.586988	5326.926775
421.965867	5337.989587
422.344686	5466.733095
422.723444	5323.183719
423.102141	5142.402901
423.480777	5438.789979
423.859352	5207.932859
424.237866	5466.055060
424.616319	5463.985666
424.994712	5570.427109
425.373044	5449.331032
425.751314	5589.293627
426.129524	5394.344646
426.507673	5586.999902
426.885762	5671.620711
427.263789	5603.169403
427.641756	5480.200537
428.019662	5604.291060
428.397508	5612.908912
428.775292	5560.062497
429.153016	5655.299975
429.530679	5585.558132
429.908282	5667.207181
430.285824	5540.636410
430.663305	5818.086395
431.040726	5550.101177
431.418086	5552.246188
431.795385	5657.964225
432.172624	5666.050236
432.549802	5659.370707
432.926920	5677.292009
433.303977	5683.537998
433.680974	5721.349173
434.057910	5742.121247
434.434786	5747.530405
434.811601	5713.018666
435.188355	5947.064316
435.565050	5820.798535
435.941683	5798.539321
436.318257	6016.783473
436.694770	6000.944168
437.071222	6041.006218
437.447614	5967.065094
437.823946	5881.335231
438.200218	6034.049425
438.576429	5902.014044
438.952580	6002.244786
439.328670	6040.723913
439.704700	5948.778308
440.080670	5935.338592
440.456580	6204.185847
440.832429	6092.007571
441.208218	5932.182830
441.583947	6095.874136
441.959616	6101.527790
442.335224	6024.864443
442.710773	6158.384444
443.086261	6183.335635
443.461689	5982.876673
443.837057	6129.579291
444.212365	6287.062416
444.587612	6178.443195
444.962800	6333.473799
445.337927	6311.491848
445.712995	5920.741931
446.088002	6499.516804
446.462949	6331.603531
446.837837	6264.188181
447.212664	6437.944151
447.587431	6582.274906
447.962139	7122.542926
448.336786	8049.270840
448.711374	7783.145808
449.085901	6856.317070
449.460369	6783.180010
449.834776	6717.208951
450.209124	7113.065556
450.583412	7254.089315
450.957640	7404.910555
451.331808	7170.280132
451.705917	6717.554270
452.079965	6643.035933
452.453954	6855.883531
452.827883	6737.854996
453.201752	6823.821793
453.575562	6626.102698
453.949311	6826.087791
454.323001	6718.020576
454.696632	6791.586134
455.070202	6930.464882
455.443713	7089.374654
455.817164	7183.180445
456.190556	7266.024246
456.563888	7344.434353
456.937160	7388.771301
457.310373	7044.768004
457.683526	7066.462610
458.056619	6958.017308
458.429653	6947.912315
458.802628	6880.998560
459.175542	6987.818089
459.548398	7348.981474
459.921194	7509.932913
460.293930	7510.835280
460.666607	8036.809108
461.039224	8349.864762
461.411782	8475.863361
461.784280	8495.019745
462.156719	8383.224597
462.529099	8261.062316
462.901419	7850.470417
463.273680	7742.320023
463.645882	7751.996518
464.018024	7625.473639
464.390106	7791.743496
464.762130	8180.202208
465.134094	8651.666039
465.505999	9672.925671
465.877845	10894.868596
466.249631	11543.740713
466.621358	11162.914307
466.993026	10532.538183
467.364634	10272.684347
467.736184	9913.106405
468.107674	9583.460313
468.479105	9613.341753
468.850477	9373.221513
469.221790	9154.034664
469.593043	8814.679311
469.964238	8681.461779
470.335373	8690.084673
470.706449	8745.421419
471.077467	8735.873473
471.448425	10046.618844
471.819324	11117.528799
472.190164	11134.678805
472.560945	9888.732426
472.931667	9103.078681
473.302330	8963.111045
473.672934	8611.425029
474.043479	8965.974420
474.413965	8905.238598
474.784393	8790.219632
475.154761	8945.595556
475.525070	9035.098722
475.895321	8864.450623
476.265513	9035.854895
476.635645	9212.159168
477.005719	9206.470226
477.375734	9321.456425
477.745691	9560.238238
478.115588	9695.714207
478.485427	9938.798645
478.855207	10478.388629
479.224928	11299.658126
479.594591	11925.963518
479.964194	11733.257851
480.333739	11671.428099
480.703226	11587.760068
481.072653	11679.239367
481.442022	11911.782752
481.811333	12103.815426
482.180584	11908.753019
482.549777	11612.645724
482.918912	11443.394025
483.287988	11462.633589
483.657005	11477.099180
484.025964	11157.994141
484.394864	11292.212342
484.763706	11260.526169
485.132489	11014.812769
485.501213	10976.512603
485.869879	11052.404653
486.238487	10897.270705
486.607036	11010.169866
486.975527	10784.772316
487.343959	10980.101904
487.712333	11028.091168
488.080648	10950.449837
488.448905	11002.605615
488.817104	10939.845770
489.185244	11208.307377
489.553326	11361.442507
489.921350	11905.004921
490.289315	12968.191829
490.657222	13307.274960
491.025070	13223.954769
491.392861	13098.079678
491.760593	12699.548740
492.128267	12353.750792
492.495883	12023.509845
492.863440	11687.002743
493.230939	11352.312978
493.598380	11283.476022
493.965763	11153.449541
494.333088	11050.030270
494.700354	10975.688374
495.067563	11035.783969
495.434713	10865.208967
495.801805	10990.153965
496.168839	10916.850547
496.535815	10848.936122
496.902733	10854.854437
497.269593	10788.117122
497.636395	10887.689992
498.003139	10874.051151
498.369825	10737.947559
498.736453	10905.218084
499.103023	10828.466517
499.469535	10853.702533
499.835989	10847.716163
500.202385	10802.275202
500.568723	10650.165947
500.935003	10882.374096
501.301226	10684.138282
501.667390	10944.160998
502.033497	11039.610205
502.399546	10901.066694
502.765537	10811.122427
503.131470	10881.512058
503.497345	11062.204656
503.863163	10667.270582
504.228923	10967.405758
504.594625	11038.649865
504.960269	10786.077975
505.325856	11008.329845
505.691385	10795.769593
506.056856	10958.233379
506.422270	10980.283386
506.787625	10870.250121
507.152924	10987.010806
507.518164	10967.972888
507.883347	10890.472709
508.248472	10810.197376
508.613540	11041.372088
508.978550	10927.028637
509.343503	10901.346478
509.708398	11019.180929
510.073236	11135.563527
510.438016	11142.968982
510.802738	11087.657442
511.167403	11141.804476
511.532010	11040.996522
511.896561	11271.044537
512.261053	11340.541884
512.625488	11213.671165
512.989866	11195.034019
513.354186	11181.324601
513.718449	11086.830693
514.082655	11278.835640
514.446803	11174.829074
514.810894	11291.521704
515.174927	11157.643781
515.538904	11183.124293
515.902822	11348.083450
516.266684	11217.696526
516.630488	11162.490850
516.994235	11224.156765
517.357925	11276.945207
517.721558	11366.531552
518.085133	11383.114428
518.448651	11395.054401
518.812112	11273.822212
519.175516	11286.684717
519.538863	11413.323542
519.902152	11330.245327
520.265385	11489.283648
520.628560	11402.454815
520.991678	11378.837009
521.354739	11441.516195
521.717743	11377.193593
522.080690	11359.753721
522.443580	11485.802732
522.806413	11448.041969
523.169189	11481.326187
523.531908	11535.286698
523.894569	11357.749862
524.257174	11364.875533
524.619722	11481.293420
524.982213	11428.905749
525.344647	11479.145888
525.707025	11429.808115
526.069345	11523.271108
526.431608	11435.912953
526.793815	11549.941332
527.155964	11338.182624
527.518057	11390.673638
527.880093	11341.721514
528.242072	11409.567883
528.603995	11304.792541
528.965860	11241.445402
529.327669	11289.500201
529.689421	11234.186140
530.051117	11203.125071
530.412755	11306.975361
530.774337	11193.695593
531.135862	11178.672954
531.497331	11204.302180
531.858743	11057.443287
532.220098	11215.962369
532.581396	11090.828328
532.942638	11072.682695
533.303824	11034.352281
533.664953	11049.488346
534.026025	10967.292332
534.387040	11064.873947
534.747999	11069.554659
535.108902	11127.543051
535.469748	10885.116483
535.830537	10986.685651
536.191270	10968.116561
536.551947	10993.501291
536.912567	10990.882412
537.273131	10909.296378
537.633638	10898.011755
537.994089	10880.183714
538.354483	10828.048101
538.714821	10974.712911
539.075103	10986.173974
539.435328	10948.463623
539.795497	10777.684454
540.155609	10932.019379
540.515665	11022.611434
540.875665	10753.577656
541.235609	10829.459624
541.595496	10814.709208
541.955328	10973.891203
542.315102	10862.388441
542.674821	10808.609412
543.034483	10802.423916
543.394090	10807.664196
543.753640	10737.967723
544.113134	10960.078441
544.472571	10814.605865
544.831953	10954.666763
545.191278	10767.521488
545.550548	10795.509974
545.909761	10934.580285
546.268918	10909.082129
546.628019	10991.504994
546.987064	10853.790753
547.346053	10776.441809
547.704986	10875.719773
548.063863	10861.602021
548.422684	10852.059117
548.781449	10767.738257
549.140158	10875.490400
549.498811	10746.187325
549.857408	10602.685839
550.215949	10834.054636
550.574434	10686.994096
550.932864	10790.451176
551.291237	10849.846051
551.649555	10789.526124
552.007817	10809.627725
552.366022	10769.321180
552.724173	10770.394945
553.082267	10739.543084
553.440305	10886.412060
553.798288	10682.419249
554.156215	10838.011942
554.514086	10814.968828
554.871902	10660.351598
555.229661	10699.907012
555.587365	10668.241004
555.945014	10568.363143
556.302606	10693.431650
556.660143	10594.907339
557.017625	10744.251522
557.375050	10649.767696
557.732421	10773.197827
558.089735	10687.238592
558.446994	10689.066010
558.804197	10725.077493
559.161345	10724.487678
559.518437	10577.480070
559.875474	10663.663636
560.232455	10696.055570
560.589381	10644.330811
560.946251	10642.634463
561.303065	10744.705225
561.659825	10683.528303
562.016528	10620.188725
562.373177	10492.420681
562.729770	10607.033834
563.086307	10526.082986
563.442789	10616.891811
563.799216	10497.827319
564.155587	10549.176512
564.511904	10501.887968
564.868164	10495.397482
565.224370	10505.530202
565.580520	10426.250496
565.936615	10441.890676
566.292654	10298.157297
566.648638	10439.985119
567.004567	10387.705833
567.360441	10379.806345
567.716260	10287.686821
568.072023	10378.409946
568.427732	10331.804478
568.783385	10239.644624
569.138982	10312.832096
569.494525	10331.862452
569.850013	10202.662720
570.205445	10287.588518
570.560823	10176.763792
570.916145	10095.134908
571.271412	10167.306587
571.626625	10108.567063
571.981782	10087.283311
572.336884	10056.698631
572.691931	10063.942769
573.046923	10015.618268
573.401860	9964.092635
573.756743	9908.090457
574.111570	9948.570922
574.466342	9935.567266
574.821059	9961.347726
575.175722	9848.173822
575.530330	9862.432726
575.884882	9848.463689
576.239380	9778.563050
576.593823	9761.352550
576.948211	9774.809911
577.302544	9657.028392
577.656823	9670.934415
578.011047	9673.906175
578.365216	9646.714191
578.719330	9568.810720
579.073389	9581.307741
579.427394	9527.463177
579.781344	9504.599023
580.135239	9455.203277
580.489080	9464.307601
580.842866	9371.021049
581.196597	9370.511893
581.550273	9410.473119
581.903895	9384.914469
582.257463	9443.974107
582.610975	9322.073966
582.964434	9354.160910
583.317837	9271.264176
583.671186	9259.054502
584.024481	9248.246268
584.377721	9165.432713
584.730906	9141.525041
585.084037	9169.947066
585.437113	9113.902038
585.790135	9131.465418
586.143103	9029.992033
586.496016	8999.462805
586.848874	9057.730982
587.201679	9050.960712
587.554428	8934.822610
587.907124	8981.365063
588.259765	8952.635527
588.612352	8956.585271
588.964884	8831.552053
589.317362	8842.572015
589.669786	8848.434877
590.022155	8897.482783
590.374470	8907.897807
590.726731	8850.499229
591.078937	8699.115900
591.431090	8811.205956
591.783188	8679.062190
592.135232	8681.585287
592.487222	8679.304165
592.839157	8731.762412
593.191038	8666.706322
593.542866	8602.842464
593.894639	8507.383175
594.246358	8559.627173
594.598022	8571.163854
594.949633	8468.803225
595.301190	8449.984598
595.652692	8476.546437
596.004141	8588.984332
596.355535	8365.023511
596.706876	8346.149431
597.058162	8283.926469
597.409395	8351.762756
597.760573	8418.900843
598.111698	8329.440527
598.462768	8318.355029
598.813785	8275.999255
599.164748	8243.009944
599.515657	8237.182370
599.866511	8148.014441
600.217312	8273.682845
600.568060	8133.125393
600.918753	8232.998213
601.269392	8206.078451
601.619978	8120.252807
601.970510	8177.835387
602.320988	8174.840941
602.671412	8228.236843
603.021783	8169.000764
603.372100	8144.014285
603.722363	8146.645768
604.072572	8118.770707
604.422728	8131.282851
604.772830	8056.840132
605.122878	8069.891680
605.472872	8068.081906
605.822813	8089.390863
606.172701	8033.134107
606.522534	8110.102443
606.872314	8105.600693
607.222041	8081.443484
607.571714	8132.051627
607.921333	8087.686953
608.270899	8100.713294
608.620411	8190.307201
608.969870	8094.905885
609.319276	8084.541273
609.668627	8104.267308
610.017926	8138.249726
610.367171	8185.576078
610.716362	8163.198396
611.065500	8156.425606
611.414585	8178.001745
611.763616	8173.873040
612.112594	8149.113412
612.461518	8164.826689
612.810389	8223.840957
613.159207	8162.101945
613.507971	8110.440201
613.856682	8235.256649
614.205340	8185.550872
614.553945	8264.747399
614.902496	8165.262749
615.250994	8218.139412
615.599439	8204.293882
615.947830	8214.900470
616.296169	8190.549177
616.644454	8196.270886
616.992686	8195.197120
617.340864	8258.380422
617.688990	8163.725197
618.037063	8250.916994
618.385082	8201.881690
618.733048	8287.261193
619.080961	8224.942449
619.428821	8244.512208
619.776628	8243.403154
620.124382	8196.278448
620.472083	8181.374277
620.819731	8206.380920
621.167326	8100.143644
621.514868	8110.336857
621.862357	7997.273859
622.209793	8015.603494
622.557176	7947.442053
622.904506	7918.682270
623.251783	7853.694235
623.599007	7810.297462
623.946179	7806.337636
624.293297	7769.917820
624.640363	7680.603698
624.987376	7669.291348
625.334336	7614.057946
625.681243	7561.302271
626.028097	7551.232566
626.374899	7528.360851
626.721647	7522.104779
627.068343	7453.343441
627.414987	7427.570542
627.761577	7378.721761
628.108115	7412.318531
628.454600	7310.333468
628.801032	7360.467743
629.147412	7320.009963
629.493739	7311.366905
629.840014	7246.426761
630.186236	7308.291801
630.532405	7188.347627
630.878521	7240.788230
631.224585	7192.698143
631.570597	7115.429857
631.916556	7149.810527
632.262462	7148.467059
632.608316	7108.180678
632.954117	7084.688901
633.299866	7073.492499
633.645562	7061.602937
633.991206	6986.986299
634.336797	6930.883298
634.682336	6882.914198
635.027823	6852.997471
635.373257	6844.664443
635.718639	6774.539473
636.063968	6788.957173
636.409245	6685.684095
636.754470	6681.963723
637.099642	6641.700028
637.444762	6582.486635
637.789829	6594.744200
638.134845	6533.446290
638.479808	6515.981212
638.824719	6523.656369
639.169577	6454.257325
639.514383	6472.866744
639.859137	6395.147275
640.203839	6404.312093
640.548489	6395.238016
640.893086	6369.061825
641.237632	6343.871179
641.582125	6364.935640
641.926566	6330.933058
642.270955	6345.915367
642.615292	6343.788000
642.959576	6353.502303
643.303809	6348.914853
643.647990	6349.532395
643.992118	6339.601322
644.336195	6290.901255
644.680219	6314.287168
645.024192	6303.620086
645.368112	6400.352267
645.711981	6423.029897
646.055797	6496.542523
646.399562	6455.986441
646.743274	6577.175779
647.086935	6636.832794
647.430544	6630.710312
647.774101	6652.440206
648.117606	6657.125958
648.461059	6650.927860
648.804460	6615.579289
649.147810	6522.073447
649.491108	6492.902810
649.834354	6466.139324
650.177548	6379.832250
650.520690	6298.755373
650.863781	6276.715448
651.206820	6294.830834
651.549807	6217.156736
651.892742	6156.599875
652.235626	6164.007851
652.578458	6147.649307
652.921238	6053.384771
653.263967	6095.017140
653.606644	6035.312234
653.949269	6039.937493
654.291843	5979.567155
654.634365	6030.172778
654.976836	5983.766436
655.319255	5982.402804
655.661622	5962.386903
656.003938	5956.120749
656.346203	5917.750006
656.688416	5948.657320
657.030577	5898.306276
657.372687	5870.973140
657.714746	5856.086612
658.056753	5899.775772
658.398708	5841.041289
658.740612	5829.915462
659.082465	5877.720724
659.424266	5874.738882
659.766016	5872.142687
660.107715	5842.294015
660.449362	5858.942426
660.790958	5856.416808
661.132503	5845.031362
661.473996	5881.491507
661.815438	5867.497264
662.156829	5863.287901
662.498168	5853.639132
662.839456	5829.552499
663.180693	5864.850658
663.521879	5867.645978
663.863013	5854.458320
664.204097	5870.688314
664.545129	5920.661273
664.886110	5909.295991
665.227040	5947.528102
665.567918	5913.462505
665.908746	5944.989881
666.249522	5946.824861
666.590248	5930.655360
666.930922	5960.133507
667.271545	5973.724458
667.612118	5977.349048
667.952639	5948.145643
668.293109	5972.232276
668.633528	5930.509167
668.973896	5926.955153
669.314213	5917.739924
669.654480	5903.208798
669.994695	5891.359566
670.334859	5890.200100
670.674973	5875.338779
671.015035	5884.551488
671.355047	5879.288523
671.695008	5867.131780
672.034918	5838.011555
672.374777	5849.109655
672.714585	5836.176575
673.054342	5840.327965
673.394049	5833.066183
673.733705	5862.990473
674.073310	5852.187280
674.412864	5811.260672
674.752368	5801.284229
675.091820	5806.448891
675.431223	5739.046143
675.770574	5744.445219
676.109875	5693.224576
676.449125	5698.875709
676.788324	5664.963867
677.127473	5605.765597
677.466571	5601.498261
677.805619	5593.684472
678.144616	5581.442030
678.483562	5555.580911
678.822458	5524.003123
679.161303	5521.681672
679.500098	5507.062326
679.838842	5492.334595
680.177535	5500.193754
680.516179	5512.847050
680.854771	5519.284603
681.193314	5602.400627
681.531805	5716.398760
681.870247	5865.843766
682.208638	5971.773531
682.546978	5978.329552
682.885268	5959.223579
683.223508	5867.661102
683.561697	5819.477753
683.899836	5786.324605
684.237925	5743.464715
684.575963	5702.598601
684.913951	5667.696172
685.251889	5732.404423
685.589776	5692.556623
685.927614	5667.015617
686.265401	5737.208643
686.603137	5725.039297
686.940824	5798.927489
687.278460	5826.096788
687.616046	5827.233568
687.953582	5903.349950
688.291068	5884.180963
688.628504	5945.856959
688.965889	5909.467390
689.303224	5849.623853
689.640510	5802.778931
689.977745	5731.920473
690.314930	5633.955730
690.652065	5576.269806
690.989150	5482.118697
691.326185	5402.455863
691.663170	5352.009036
692.000105	5272.331079
692.336990	5193.870561
692.673825	5168.866438
693.010610	5100.175675
693.347345	5032.130181
693.684030	5020.475033
694.020665	4974.895441
694.357251	4888.316144
694.693786	4895.769490
695.030272	4867.228997
695.366707	4828.195343
695.703093	4794.192760
696.039429	4814.937108
696.375716	4797.466990
696.711952	4775.948825
697.048139	4761.823512
697.384276	4739.307198
697.720363	4755.101133
698.056400	4763.547586
698.392388	4715.502869
698.728326	4691.474210
699.064214	4670.538298
699.400053	4661.081093
699.735842	4631.981032
700.071581	4604.718473
700.407270	4578.300306
700.742910	4563.534766
701.078501	4509.392774
701.414042	4509.072661
701.749533	4476.731138
702.084974	4407.422834
702.420366	4467.715034
702.755709	4409.406528
703.091002	4356.028271
703.426246	4400.730703
703.761440	4359.299980
704.096584	4320.651974
704.431679	4343.528730
704.766725	4322.759176
705.101721	4314.201818
705.436668	4341.013194
705.771565	4291.655257
706.106413	4318.481757
706.441212	4351.655070
706.775961	4363.443808
707.110661	4339.271476
707.445311	4364.134446
707.779913	4390.431625
708.114465	4404.690529
708.448967	4424.809774
708.783421	4486.518538
709.117825	4525.665618
709.452180	4534.006208
709.786485	4579.565635
710.120742	4664.705683
710.454949	4651.951563
710.789107	4714.524886
711.123216	4789.587666
711.457275	4785.010299
711.791286	4857.428994
712.125247	4872.065984
712.459159	4778.643321
712.793023	4850.573025
713.126837	4811.574659
713.460602	4802.440088
713.794318	4722.971339
714.127985	4732.587340
714.461602	4648.296727
714.795171	4617.245740
715.128691	4545.928536
715.462162	4488.209845
715.795584	4439.456847
716.128957	4425.253396
716.462281	4373.112741
716.795556	4348.867312
717.128782	4305.934325
717.461960	4240.769850
717.795088	4251.646139
718.128167	4210.893452
718.461198	4149.492198
718.794180	4146.931292
719.127113	4126.907829
719.459997	4101.775156
719.792833	4058.511974
720.125619	4054.030388
720.458357	4015.251312
720.791046	4022.329092
721.123686	3992.911439
721.456278	3953.038432
721.788821	3969.984271
722.121315	3946.550467
722.453761	3919.416457
722.786158	3927.527673
723.118506	3953.618165
723.450805	3903.269641
723.783056	3927.671346
724.115259	3941.874797
724.447412	3946.724387
724.779518	3941.015281
725.111574	3946.132052
725.443582	3974.178511
725.775542	3962.672077
726.107453	4012.249305
726.439315	4010.676465
726.771129	4022.248434
727.102895	4059.275709
727.434612	4108.134572
727.766281	4121.135708
728.097901	4124.311634
728.429473	4129.052840
728.760996	4137.511896
729.092471	4127.250627
729.423897	4113.241261
729.755276	4120.460193
730.086606	4121.954895
730.417887	4156.748939
730.749120	4223.055235
731.080305	4289.792551
731.411442	4313.980007
731.742530	4283.589411
732.073570	4287.798774
732.404562	4340.975386
732.735506	4335.790559
733.066401	4295.431081
733.397249	4230.488417
733.728048	4151.284328
734.058798	4066.315680
734.389501	4000.188344
734.720156	3937.839354
735.050762	3887.994945
735.381320	3885.343298
735.711831	3834.712469
736.042293	3805.786329
736.372707	3828.196778
736.703073	3799.973878
737.033391	3787.602887
737.363661	3807.263387
737.693883	3833.633662
738.024056	3844.482226
738.354182	3837.822861
738.684260	3901.386770
739.014290	3921.130449
739.344272	3916.802619
739.674207	3960.693425
740.004093	3964.635607
740.333931	3961.731902
740.663722	3958.314000
740.993464	3959.241572
741.323159	3934.655865
741.652806	3900.854928
741.982405	3875.903737
742.311956	3843.219417
742.641460	3836.491997
742.970915	3809.267245
743.300323	3766.959362
743.629683	3736.392325
743.958996	3727.504771
744.288260	3702.722459
744.617477	3669.045031
744.946647	3653.288904
745.275768	3632.317704
745.604842	3623.314203
745.933869	3576.844847
746.262847	3571.700350
746.591778	3608.896503
746.920662	3576.313006
747.249498	3545.050290
747.578286	3594.350254
747.907027	3608.820886
748.235720	3606.325515
748.564365	3629.156901
748.892963	3633.497334
749.221514	3613.909931
749.550017	3590.365222
749.878473	3592.580809
750.206881	3560.549317
750.535242	3557.237279
750.863555	3563.130388
751.191821	3551.568502
751.520039	3534.854556
751.848210	3515.052904
752.176334	3546.003068
752.504411	3551.407185
752.832440	3509.255577
753.160421	3495.914163
753.488356	3503.201151
753.816243	3514.384951
754.144082	3473.886842
754.471875	3458.516364
754.799620	3477.239209
755.127318	3469.732931
755.454969	3469.639670
755.782572	3475.167295
756.110129	3449.399437
756.437638	3441.109259
756.765100	3459.753967
757.092515	3465.967189
757.419882	3471.585555
757.747203	3446.659570
758.074477	3449.439766
758.401703	3467.030872
758.728882	3484.556444
759.056014	3492.319821
759.383099	3495.657065
759.710138	3491.329234
760.037129	3507.473529
760.364073	3539.116852
760.690970	3525.634286
761.017820	3501.346007
761.344623	3520.804861
761.671379	3566.636511
761.998088	3616.450672
762.324751	3744.473295
762.651366	3990.821881
762.977935	4467.268892
763.304456	4915.384619
763.630931	5016.338766
763.957359	4651.898631
764.283740	4306.730828
764.610074	4110.181280
764.936362	3910.763316
765.262602	3755.082403
765.588796	3639.090494
765.914943	3551.903739
766.241044	3461.588947
766.567097	3431.324380
766.893104	3386.145559
767.219064	3352.498378
767.544978	3328.673885
767.870845	3269.793208
768.196665	3250.840990
768.522438	3263.252311
768.848165	3257.046650
769.173846	3219.154817
769.499479	3202.980275
769.825066	3186.767924
770.150607	3168.624812
770.476101	3184.832121
770.801548	3178.729805
771.126949	3134.017291
771.452303	3117.147069
771.777611	3124.164355
772.102872	3130.551497
772.428087	3103.808176
772.753256	3094.895416
773.078378	3089.778645
773.403453	3053.943603
773.728482	3041.872560
774.053465	3064.421641
774.378401	3049.308262
774.703291	3020.092255
775.028135	3020.616535
775.352932	3016.513036
775.677683	3002.478463
776.002388	2999.176508
776.327046	2998.556446
776.651658	2990.493120
776.976224	2979.049701
777.300743	2978.442242
777.625216	2972.254225
777.949643	2961.735858
778.274024	2965.806590
778.598359	2955.772173
778.922647	2959.363995
779.246889	2959.648820
779.571086	2947.613065
779.895236	2939.264915
780.219339	2950.668005
780.543397	2965.829275
780.867409	2968.372537
781.191374	2956.399797
781.515294	2955.333593
781.839167	2954.078345
782.162995	2946.960236
782.486776	2955.867955
782.810511	2953.153293
783.134201	2940.903290
783.457844	2944.094340
783.781441	2935.663010
784.104993	2918.265988
784.428498	2916.378076
784.751958	2932.287958
785.075372	2924.612801
785.398739	2908.022364
785.722061	2926.800662
786.045337	2937.896241
786.368568	2921.966195
786.691752	2914.480082
787.014891	2963.679223
787.337983	2992.002946
787.661030	3020.142666
787.984031	3087.580702
788.306987	3133.757671
788.629897	3126.276599
788.952760	3110.031481
789.275579	3095.311311
789.598351	3037.229657
789.921078	2989.875579
790.243759	2983.236379
790.566395	2962.991105
790.888984	2943.451593
791.211529	2924.799324
791.534027	2912.708116
791.856480	2903.444996
792.178888	2886.902450
792.501249	2880.895915
792.823566	2876.363918
793.145836	2873.765203
793.468062	2871.501725
793.790241	2868.093905
794.112375	2876.147148
794.434464	2888.066956
794.756507	2893.405538
795.078505	2900.322001
795.400457	2912.927406
795.722364	2949.511060
796.044226	2975.346973
796.366042	2977.368476
796.687812	2967.807928
797.009538	2985.819970
797.331218	2969.547126
797.652852	2957.828964
797.974442	2937.223247
798.295986	2937.727363
798.617484	2930.677309
798.938938	2915.984866
799.260346	2900.057341
799.581709	2895.515261
799.903026	2887.739281
800.224299	2881.720143
800.545526	2871.383257
800.866708	2857.136957
801.187845	2850.059177
801.508936	2846.699248
801.829983	2856.650485
802.150984	2842.038701
802.471940	2828.407421
802.792851	2829.259376
803.113717	2831.008656
803.434538	2834.318174
803.755314	2824.964313
804.076045	2820.442398
804.396731	2820.926349
804.717372	2822.998263
805.037967	2817.405103
805.358518	2823.817450
805.679024	2834.217351
805.999485	2831.626198
806.319901	2834.114007
806.640272	2825.531443
806.960598	2830.678461
807.280879	2840.365038
807.601115	2849.083713
807.921306	2835.172649
808.241453	2832.178204
808.561554	2835.762464
808.881611	2842.079030
809.201623	2834.918071
809.521590	2831.265755
809.841513	2827.116886
810.161390	2831.439675
810.481223	2826.017914
810.801011	2819.189671
811.120755	2816.351502
811.440453	2819.429126
811.760107	2814.108188
812.079716	2814.599701
812.399281	2802.879018
812.718801	2797.631177
813.038276	2792.224539
813.357707	2796.562452
813.677093	2806.470840
813.996434	2802.921868
814.315731	2795.360137
814.634983	2791.705300
814.954191	2791.208747
815.273354	2807.766417
815.592473	2812.845379
815.911547	2817.445432
816.230577	2825.528922
816.549562	2835.215499
816.868502	2833.904799
817.187399	2843.084740
817.506250	2856.232070
817.825058	2855.382635
818.143821	2865.447299
818.462539	2884.739795
818.781213	2909.053280
819.099843	2946.239351
819.418429	3003.821931
819.736970	3064.318298
820.055466	3141.170688
820.373919	3246.871081
820.692327	3390.304511
821.010691	3559.624266
821.329011	4007.881145
821.647286	4918.507614
821.965517	6323.706564
822.283704	7083.673109
822.601847	7066.621406
822.919945	6418.853301
823.237999	5908.436474
823.556010	5314.008819
823.873976	4752.895628
824.191897	4336.836598
824.509775	4038.226371
824.827609	3764.186727
825.145398	3632.741161
825.463144	3625.890233
825.780845	3713.931464
826.098502	3822.885923
826.416116	4108.197586
826.733685	4431.847225
827.051210	4497.767873
827.368692	4379.971231
827.686129	4110.113225
828.003522	3781.598873
828.320872	3519.085827
828.638177	3321.724654
828.955439	3179.851461
829.272656	3093.930035
829.589830	3025.783718
829.906960	2975.858650
830.224046	2929.003646
830.541088	2894.766650
830.858086	2878.587066
831.175041	2861.908409
831.491952	2863.433358
831.808819	2876.172354
832.125642	2902.734193
832.442421	2945.999896
832.759157	3028.725231
833.075849	3211.756924
833.392497	3495.742764
833.709101	3702.102397
834.025662	3651.728667
834.342179	3491.881240
834.658653	3309.827531
834.975083	3161.052999
835.291469	3061.268399
835.607811	2974.621047
835.924110	2912.738363
836.240366	2864.358410
836.556578	2817.158086
836.872746	2795.060188
837.188871	2772.523710
837.504952	2756.828077
837.820990	2748.842890
838.136984	2736.613051
838.452935	2725.552759
838.768842	2727.304560
839.084706	2743.630337
839.400526	2822.942810
839.716303	2960.803244
840.032037	3041.902807
840.347727	3025.519057
840.663373	2963.049078
840.978977	2886.826832
841.294537	2813.548620
841.610054	2764.283944
841.925527	2743.889956
842.240957	2719.231152
842.556344	2697.103007
842.871687	2681.331757
843.186987	2670.972186
843.502244	2667.292144
843.817458	2663.647390
844.132629	2647.951757
844.447756	2642.837507
844.762840	2637.390540
845.077881	2638.149234
845.392879	2639.280973
845.707833	2632.639252
846.022745	2625.548870
846.337613	2628.961731
846.652438	2626.226905
846.967221	2626.524333
847.281960	2626.015176
847.596656	2624.215484
847.911309	2622.438478
848.225919	2617.825822
848.540485	2616.825153
848.855009	2615.960595
849.169490	2616.104268
849.483928	2616.018568
849.798323	2614.168465
850.112675	2615.859772
850.426984	2614.561675
850.741251	2614.060080
851.055474	2612.434308
851.369654	2616.686521
851.683792	2619.446553
851.997887	2613.966819
852.311938	2612.767024
852.625947	2614.365070
852.939914	2614.894391
853.253837	2618.037550
853.567718	2613.510594
853.881555	2613.750049
854.195350	2615.292642
854.509103	2615.154010
854.822812	2611.239554
855.136479	2611.970522
855.450103	2614.780965
855.763685	2615.557303
856.077224	2611.572271
856.390720	2611.564709
856.704173	2615.237189
857.017584	2617.591408
857.330953	2619.428909
857.644278	2619.622993
857.957561	2619.350771
858.270802	2616.285749
858.584000	2615.559823
858.897155	2619.731378
859.210268	2618.508898
859.523339	2617.195678
859.836367	2612.033536
860.149352	2609.984307
860.462295	2612.676283
860.775195	2609.613782
861.088054	2605.618668
861.400869	2610.415326
861.713642	2607.345263
862.026373	2607.430963
862.339062	2609.850717
862.651708	2618.085441
862.964312	2617.609052
863.276873	2613.697117
863.589392	2617.243569
863.901869	2619.827160
864.214303	2625.009466
864.526696	2630.574900
864.839045	2631.608337
865.151353	2636.823410
865.463619	2634.880045
865.775842	2634.378451
866.088023	2633.861732
866.400162	2634.272586
866.712258	2633.816362
867.024313	2632.067082
867.336325	2626.902419
867.648296	2629.516258
867.960224	2634.920375
868.272110	2634.756537
868.583954	2626.657923
868.895755	2631.061371
869.207515	2634.799387
869.519233	2640.185860
869.830909	2636.503297
870.142542	2633.564304
870.454134	2634.693523
870.765684	2641.020171
871.077191	2642.971097
871.388657	2644.501087
871.700081	2643.651653
872.011463	2643.286169
872.322803	2645.824390
872.634101	2648.750780
872.945357	2656.514157
873.256571	2661.484735
873.567744	2660.058088
873.878874	2659.611946
874.189963	2660.852070
874.501010	2663.019766
874.812015	2668.610406
875.122979	2671.146106
875.433900	2662.732420
875.744780	2659.362409
876.055618	2667.740807
876.366415	2670.770540
876.677169	2670.039573
876.987882	2661.709066
877.298554	2664.595127
877.609183	2676.772034
877.919771	2681.389731
878.230317	2688.938859
878.540822	2698.937987
878.851285	2711.084647
879.161707	2736.829820
879.472087	2776.942281
879.782425	2826.080928
880.092722	2944.600976
880.402977	3138.793784
880.713191	3406.718508
881.023363	3708.935681
881.333494	3908.585538
881.643583	4084.035336
881.953631	4081.494594
882.263637	3899.382912
882.573602	3675.991741
882.883526	3538.075854
883.193408	3419.795261
883.503248	3316.000424
883.813048	3195.549614
884.122806	3080.704568
884.432522	2991.095538
884.742197	2922.840835
885.051831	2887.905639
885.361424	2849.053467
885.670975	2813.026861
885.980485	2781.078548
886.289954	2761.254211
886.599382	2747.164186
886.908768	2735.047772
887.218113	2716.503888
887.527417	2704.374872
887.836680	2693.191072
888.145901	2689.206040
888.455082	2679.723629
888.764221	2671.073009
889.073319	2658.833088
889.382376	2659.054899
889.691392	2661.676299
890.000366	2660.829385
890.309300	2659.896771
890.618193	2662.626556
890.927044	2664.832061
891.235855	2664.660662
891.544625	2665.794921
891.853353	2666.820796
892.162041	2672.928154
892.470687	2692.029086
892.779293	2704.115252
893.087858	2715.137735
893.396381	2738.773185
893.704864	2780.937396
894.013306	2854.603777
894.321707	2948.132304
894.630068	2999.224398
894.938387	3022.963192
895.246665	3016.742408
895.554903	2970.104173
895.863100	2923.763367
896.171256	2865.104500
896.479371	2804.449337
896.787446	2763.736979
897.095480	2741.893659
897.403473	2735.458626
897.711425	2718.351471
898.019336	2697.899510
898.327207	2685.571368
898.635038	2686.690504
898.942827	2681.475430
899.250576	2671.640139
899.558284	2661.830054
899.865952	2652.977788
900.173579	2654.154897
900.481165	2651.808240
900.788711	2640.674852
901.096216	2637.027577
901.403681	2634.940539
901.711105	2637.415746
902.018489	2631.406690
902.325832	2635.784932
902.633135	2639.059162
902.940397	2654.787562
903.247619	2691.267872
903.554800	2763.232863
903.861941	2895.517782
904.169041	3026.751619
904.476101	3094.774428
904.783121	3089.829057
905.090100	3029.647762
905.397039	2948.240689
905.703938	2870.377547
906.010796	2807.884884
906.317614	2754.201636
906.624391	2717.000442
906.931129	2689.720237
907.237826	2661.643531
907.544483	2645.075779
907.851099	2631.741927
908.157675	2619.736419
908.464211	2612.343567
908.770707	2602.178080
909.077163	2598.576176
909.383578	2594.928901
909.689954	2595.196082
909.996289	2590.376739
910.302584	2590.931266
910.608839	2587.382294
910.915054	2587.962027
911.221229	2592.630135
911.527363	2591.909250
911.833458	2594.034096
912.139513	2589.613004
912.445527	2594.278592
912.751502	2600.098604
913.057436	2605.797629
913.363331	2612.265429
913.669186	2623.960906
913.975000	2636.949439
914.280775	2654.033909
914.586510	2675.300017
914.892205	2711.364432
915.197859	2783.760442
915.503475	2872.245295
915.809050	2941.898918
916.114585	2958.151598
916.420081	2971.926550
916.725536	2980.851913
917.030952	2951.459466
917.336328	2903.497928
917.641665	2851.397603
917.946961	2799.912299
918.252218	2765.259407
918.557435	2736.950808
918.862612	2716.019937
919.167750	2697.188707
919.472848	2678.395285
919.777906	2661.323418
920.082925	2649.484268
920.387904	2638.991106
920.692843	2634.101187
920.997743	2627.502317
921.302603	2617.735081
921.607423	2613.256016
921.912204	2606.883997
922.216946	2607.131014
922.521647	2603.425766
922.826310	2596.458891
923.130932	2591.221132
923.435516	2588.758529
923.740059	2586.275761
924.044564	2588.022520
924.349028	2583.916501
924.653454	2571.013667
924.957840	2572.757907
925.262186	2570.083574
925.566493	2569.045097
925.870761	2564.319015
926.174989	2568.742627
926.479178	2566.728687
926.783328	2561.843808
927.087438	2562.673078
927.391509	2561.415310
927.695541	2559.759291
927.999533	2559.124106
928.303486	2557.760474
928.607400	2558.113355
928.911275	2555.030689
929.215110	2556.273333
929.518906	2554.907181
929.822663	2554.513971
930.126381	2556.689229
930.430060	2555.577654
930.733699	2553.588919
931.037299	2559.093859
931.340861	2554.884496
931.644383	2561.259035
931.947866	2558.224260
932.251309	2556.316183
932.554714	2555.128992
932.858080	2560.306257
933.161407	2555.595298
933.464694	2554.579506
933.767943	2556.530432
934.071153	2555.234856
934.374323	2555.449105
934.677455	2554.917263
934.980548	2553.238559
935.283602	2551.290153
935.586617	2554.513971
935.889593	2554.398024
936.192530	2552.502550
936.495428	2554.793755
936.798287	2551.280071
937.101108	2555.865000
937.403890	2559.920608
937.706632	2562.020249
938.009336	2565.617112
938.312002	2568.823286
938.614628	2572.382341
938.917216	2575.258319
939.219765	2578.499781
939.522275	2578.151941
939.824747	2576.624472
940.127179	2572.001733
940.429573	2567.782288
940.731929	2568.324212
941.034246	2565.168449
941.336524	2568.427555
941.638763	2565.690209
941.940964	2569.718091
942.243126	2563.739282
942.545250	2565.332287
942.847335	2563.666186
943.149381	2562.904971
943.451389	2560.969168
943.753359	2559.716442
944.055290	2556.439692
944.357182	2559.547563
944.659036	2555.731409
944.960851	2555.829712
945.262628	2558.569579
945.564367	2555.887685
945.866067	2558.660320
946.167729	2557.092521
946.469352	2557.508416
946.770937	2558.919939
947.072484	2556.540515
947.373992	2559.229970
947.675462	2557.889023
947.976893	2556.454815
948.278286	2554.103117
948.579641	2555.408776
948.880958	2554.256872
949.182236	2554.347613
949.483476	2549.616490
949.784678	2552.293343
950.085841	2554.904660
950.386967	2553.074721
950.688054	2550.831408
950.989103	2553.591440
951.290114	2557.561348
951.591087	2557.205947
951.892021	2559.575289
952.192917	2559.151832
952.493776	2559.567727
952.794596	2559.025803
953.095378	2562.284909
953.396122	2564.971844
953.696828	2558.544373
953.997496	2557.500854
954.298126	2556.921122
954.598718	2556.051523
954.899272	2555.991029
955.199788	2552.900802
955.500266	2550.818805
955.800706	2548.991387
956.101108	2545.868392
956.401472	2545.402085
956.701798	2542.947043
957.002087	2544.260264
957.302337	2544.073741
957.602550	2542.780685
957.902724	2546.473330
958.202861	2542.987373
958.502960	2543.297403
958.803022	2543.844369
959.103045	2538.994779
959.403031	2541.013761
959.702979	2540.340767
960.002889	2541.139790
960.302762	2537.966383
960.602596	2540.227341
960.902393	2540.111394
961.202153	2539.771116
961.501875	2539.922351
961.801559	2539.050231
962.101205	2539.687937
962.400814	2538.712474
962.700385	2538.473019
962.999918	2537.437062
963.299414	2537.560570
963.598873	2538.311702
963.898293	2537.507638
964.197677	2539.708102
964.497022	2536.249870
964.796331	2535.092926
965.095601	2540.093750
965.394835	2536.620395
965.694030	2538.972093
965.993189	2542.087527
966.292309	2534.868594
966.591393	2537.452186
966.890439	2537.941178
967.189447	2535.365148
967.488419	2537.263142
967.787353	2538.231044
968.086249	2536.696013
968.385108	2539.025026
968.683930	2535.178625
968.982714	2537.535365
969.281462	2533.656197
969.580172	2536.877494
969.878844	2534.679551
970.177480	2537.086702
970.476078	2538.881353
970.774639	2538.684748
971.073162	2539.037628
971.371649	2534.389685
971.670098	2536.459078
971.968510	2538.042001
972.266885	2536.615354
972.565223	2538.042001
972.863524	2537.396733
973.161788	2539.398071
973.460014	2538.329346
973.758204	2538.732639
974.056356	2539.100643
974.354471	2539.851775
974.652550	2539.269522
974.950591	2540.018133
975.248595	2538.379758
975.546563	2537.588297
975.844493	2537.162319
976.142386	2536.144006
976.440243	2536.902700
976.738062	2536.625436
977.035845	2539.468647
977.333590	2534.961856
977.631299	2538.352032
977.928971	2535.695343
978.226606	2536.035621
978.524204	2537.931095
978.821765	2535.712987
979.119290	2537.041332
979.416777	2534.974458
979.714228	2535.977648
980.011642	2533.759540
980.309020	2536.874973
980.606360	2536.718698
980.903664	2537.489994
981.200931	2538.727598
981.498162	2536.925385
981.795356	2539.879501
982.092513	2544.444266
982.389633	2546.450645
982.686717	2550.952396
982.983764	2552.734443
983.280775	2552.520194
983.577749	2555.388611
983.874686	2550.939793
984.171587	2548.633465
984.468451	2545.538196
984.765279	2542.183308
985.062070	2544.318237
985.358824	2543.194060
985.655543	2541.061652
985.952224	2536.005374
986.248869	2537.779861
986.545478	2532.438758
986.842050	2533.966228
987.138586	2531.445651
987.435086	2530.986906
987.731549	2529.789632
988.027975	2532.766433
988.324366	2533.099149
988.620719	2534.203162
988.917037	2532.678213
989.213318	2534.719880
989.509563	2531.125537
989.805772	2533.356248
990.101944	2531.541433
990.398080	2534.394726
990.694180	2533.215096
990.990244	2536.491846
991.286271	2530.089580
991.582262	2535.312216
991.878217	2532.252235
992.174136	2534.246012
992.470019	2532.584952
992.765865	2533.194931
993.061676	2532.632842
993.357450	2534.765251
993.653188	2537.053934
993.948890	2534.001516
994.244556	2532.945394
994.540186	2536.290200
994.835780	2534.984541
995.131337	2535.965045
995.426859	2535.728111
995.722345	2538.218441
996.017795	2537.084181
996.313208	2539.322454
996.608586	2537.759696
996.903928	2535.491177
997.199234	2537.031249
997.494504	2537.253060
997.789738	2539.077958
998.084936	2536.819521
998.380099	2533.719211
998.675225	2536.257432
998.970316	2535.544109
999.265371	2534.233409
999.560390	2533.467153
999.855373	2536.973276
1000.150320	2534.205683
1000.445232	2533.857843
1000.740108	2532.282482
1001.034948	2530.989426
1001.329752	2532.327853
1001.624521	2534.656866
1001.919254	2528.226874
1002.213951	2531.392719
1002.508613	2526.419620
1002.803239	2530.911288
1003.097829	2526.127233
1003.392384	2532.499252
1003.686903	2533.257946
1003.981386	2529.567821
1004.275834	2533.736855
1004.570246	2532.267359
1004.864623	2531.869108
1005.158964	2533.005888
1005.453270	2528.799045
1005.747540	2531.985054
1006.041775	2531.574200
1006.335974	2529.719056
1006.630138	2533.071423
1006.924266	2532.970600
1007.218359	2531.165867
1007.512416	2532.065713
1007.806438	2532.476567
1008.100425	2533.099149
1008.394376	2532.584952
1008.688292	2530.197965
1008.982172	2527.861390
1009.276017	2532.874818
1009.569827	2529.991278
1009.863602	2531.077647
1010.157341	2529.925743
1010.451045	2530.288706
1010.744714	2530.893644
1011.038347	2529.109076
1011.331945	2532.179139
1011.625508	2530.422297
1011.919036	2531.763243
1012.212528	2529.812317
1012.505986	2529.116638
1012.799408	2532.048069
1013.092795	2527.601771
1013.386147	2530.749972
1013.679464	2531.128058
1013.972745	2530.404652
1014.265992	2528.758716
1014.559204	2534.094777
1014.852380	2528.884745
1015.145521	2529.721576
1015.438628	2530.296268
1015.731699	2530.576052
1016.024736	2531.687626
1016.317737	2531.526309
1016.610703	2531.143182
1016.903635	2528.541946
1017.196531	2525.963396
1017.489393	2528.506658
1017.782219	2523.631862
1018.075011	2528.070598
1018.367768	2528.166380
1018.660490	2530.908768
1018.953177	2530.908768
1019.245829	2530.908768
