Dividing Wavelength (nm)	Counts (n)	Blue Motor Position (mm): 48.500000	Red Motor Position (mm): 0.000000	
326.493990	2132.912192
326.888308	2132.912192
327.282561	2132.912192
327.676750	2096.787284
328.070874	2096.878025
328.464933	2098.052613
328.858929	2106.640219
329.252859	2113.239089
329.646726	2125.864659
330.040528	2139.450569
330.434265	2155.826757
330.827938	2173.743018
331.221547	2191.462674
331.615091	2210.107381
332.008571	2229.909033
332.401986	2250.103896
332.795338	2268.103336
333.188625	2287.852056
333.581847	2307.636064
333.975006	2325.595175
334.368100	2343.292145
334.761129	2361.006760
335.154095	2378.587784
335.546996	2400.025291
335.939833	2425.094949
336.332606	2442.217228
336.725315	2452.100410
337.117960	2465.756896
337.510540	2470.248564
337.903056	2480.315748
338.295508	2488.510143
338.687896	2498.368120
339.080220	2506.023112
339.472480	2513.567199
339.864676	2516.662467
340.256807	2521.411234
340.648875	2524.788807
341.040879	2526.764939
341.432818	2527.647141
341.824694	2528.708304
342.216506	2526.775022
342.608253	2530.016484
342.999937	2530.147554
343.391557	2526.464991
343.783113	2526.883407
344.174605	2527.538757
344.566033	2526.948942
344.957397	2523.969620
345.348697	2522.059022
345.739934	2524.740916
346.131106	2521.784279
346.522215	2520.692870
346.913260	2515.351767
347.304241	2515.712210
347.695159	2515.845800
348.086012	2508.843637
348.476802	2510.701303
348.867528	2508.747856
349.258191	2505.639984
349.648789	2504.369613
350.039324	2505.645025
350.429796	2504.795591
350.820203	2501.778460
351.210548	2500.729900
351.600828	2500.440034
351.991045	2500.530775
352.381198	2498.186638
352.771288	2498.237050
353.161314	2499.782163
353.551276	2499.767040
353.941175	2501.082781
354.331010	2497.564056
354.720782	2498.705877
355.110490	2499.031032
355.500135	2500.036742
355.889717	2500.510610
356.279235	2500.061947
356.668689	2500.674448
357.058080	2500.966835
357.447408	2497.795949
357.836672	2497.405259
358.225873	2500.276197
358.615010	2497.556494
359.004084	2503.106804
359.393095	2501.400374
359.782043	2501.581855
360.170927	2505.498832
360.559748	2504.780468
360.948505	2506.686024
361.337199	2504.525889
361.725830	2506.328102
362.114398	2506.191991
362.502903	2509.705675
362.891344	2509.042763
363.279722	2508.964625
363.668037	2510.227434
364.056289	2509.619975
364.444478	2509.012516
364.832603	2509.665346
365.220665	2510.623165
365.608665	2511.863289
365.996601	2512.246416
366.384474	2515.518125
366.772284	2512.929493
367.160031	2511.081910
367.547715	2514.527538
367.935336	2517.703465
368.322893	2518.522653
368.710388	2517.741274
369.097820	2523.644465
369.485189	2521.174300
369.872495	2525.250073
370.259738	2528.607481
370.646918	2533.477236
371.034035	2538.783050
371.421090	2545.603731
371.808081	2553.959444
372.195010	2559.461863
372.581875	2569.947463
372.968678	2582.142014
373.355418	2586.689135
373.742096	2602.208327
374.128710	2615.791716
374.515262	2627.454426
374.901751	2640.657208
375.288177	2656.988026
375.674540	2672.124090
376.060841	2690.632686
376.447079	2705.466282
376.833254	2727.677605
377.219367	2739.788977
377.605417	2777.683331
377.991404	2787.682460
378.377329	2811.312868
378.763191	2828.215857
379.148991	2863.917309
379.534727	2889.102913
379.920402	2919.279260
380.306013	2932.272834
380.691563	2982.265957
381.077049	3005.893845
381.462474	3027.795138
381.847835	3067.148905
382.233134	3093.496496
382.618371	3094.597988
383.003545	3167.465346
383.388657	3176.390709
383.773706	3211.472099
384.158693	3231.934142
384.543618	3262.027310
384.928480	3301.897796
385.313280	3347.835310
385.698017	3346.418746
386.082692	3404.712129
386.467305	3411.883170
386.851856	3444.822069
387.236344	3469.059937
387.620770	3503.997654
388.005133	3530.657796
388.389435	3559.190727
388.773674	3568.176583
389.157851	3616.576701
389.541965	3631.548928
389.926018	3598.413424
390.310008	3668.266172
390.693936	3686.774769
391.077802	3730.053074
391.461606	3718.009758
391.845348	3782.854120
392.229027	3780.840179
392.612645	3797.836429
392.996200	3877.421125
393.379694	3910.788522
393.763125	3981.326867
394.146494	3948.158596
394.529801	4007.399715
394.913047	4057.614648
395.296230	4021.237682
395.679351	4077.983431
396.062410	4101.873459
396.445408	4079.992330
396.828343	4113.823514
397.211217	4141.438955
397.594028	4060.979619
397.976778	4123.812560
398.359466	4149.686282
398.742092	4180.586035
399.124656	4101.346658
399.507158	4186.995862
399.889598	4209.250036
400.271977	4270.845374
400.654294	4240.570724
401.036549	4250.675717
401.418742	4219.995255
401.800874	4320.291531
402.182944	4344.841951
402.564952	4405.943256
402.946898	4395.238366
403.328783	4388.596645
403.710606	4302.713028
404.092367	4499.227287
404.474067	4462.084066
404.855705	4471.780725
405.237282	4397.653078
405.618797	4513.060213
406.000250	4545.802507
406.381642	4625.024240
406.762972	4585.534362
407.144240	4596.292184
407.525447	4592.428139
407.906593	4655.268643
408.287677	4694.267009
408.668700	4625.989621
409.049661	4677.316129
409.430560	4720.705340
409.811399	4649.093229
410.192176	4808.776818
410.572891	4744.091253
410.953545	4845.950287
411.334138	4729.726485
411.714669	4793.055980
412.095139	4690.029919
412.475547	4831.421682
412.855894	4815.529444
413.236180	4821.659487
413.616405	4777.688023
413.996568	4861.431670
414.376670	4804.448988
414.756711	4759.736474
415.136691	4787.858551
415.516609	4870.397362
415.896466	4907.442282
416.276262	4942.155667
416.655997	4924.098254
417.035670	5104.906798
417.415283	5195.682856
417.794834	5138.001973
418.174324	5095.210139
418.553753	4996.501826
418.933121	5187.412843
419.312428	5251.526237
419.691674	5189.570457
420.070859	5313.492100
420.449983	5230.280294
420.829045	5346.451164
421.208047	5255.291979
421.586988	5321.583152
421.965867	5335.552190
422.344686	5469.170493
422.723444	5325.792516
423.102141	5141.719824
423.480777	5438.515236
423.859352	5213.773036
424.237866	5472.152335
424.616319	5457.485098
424.994712	5567.210853
425.373044	5449.005877
425.751314	5586.563842
426.129524	5387.801229
426.507673	5586.629377
426.885762	5668.011245
427.263789	5600.003559
427.641756	5480.329087
428.019662	5600.709320
428.397508	5612.069560
428.775292	5555.051590
429.153016	5656.088916
429.530679	5582.170477
429.908282	5665.563764
430.285824	5542.007604
430.663305	5809.009797
431.040726	5547.235281
431.418086	5548.777874
431.795385	5655.383154
432.172624	5664.860523
432.549802	5653.069265
432.926920	5671.030896
433.303977	5676.800496
433.680974	5717.709460
434.057910	5736.339044
434.434786	5740.170321
434.811601	5707.987595
435.188355	5942.716321
435.565050	5820.536395
435.941683	5800.954033
436.318257	6016.695253
436.694770	5996.328992
437.071222	6033.915835
437.447614	5965.764476
437.823946	5878.318101
438.200218	6032.279980
438.576429	5894.500205
438.952580	5998.708416
439.328670	6038.916659
439.704700	5950.724193
440.080670	5935.804899
440.456580	6204.889088
440.832429	6089.275266
441.208218	5933.932110
441.583947	6084.796201
441.959616	6094.581080
442.335224	6019.656931
442.710773	6160.423591
443.086261	6187.156829
443.461689	5980.479604
443.837057	6126.363035
444.212365	6280.750892
444.587612	6177.132495
444.962800	6328.399878
445.337927	6307.017824
445.712995	5920.850316
446.088002	6497.712071
446.462949	6324.750082
446.837837	6260.051914
447.212664	6427.614827
447.587431	6575.623104
447.962139	7115.533201
448.336786	8039.803553
448.711374	7787.355171
449.085901	6856.014601
449.460369	6780.762777
449.834776	6712.661830
450.209124	7107.298476
450.583412	7259.644666
450.957640	7405.575988
451.331808	7162.567167
451.705917	6719.432099
452.079965	6641.642054
452.453954	6851.613674
452.827883	6729.947946
453.201752	6822.826165
453.575562	6618.044413
453.949311	6825.697102
454.323001	6712.487910
454.696632	6784.699918
455.070202	6926.346259
455.443713	7084.943480
455.817164	7183.901330
456.190556	7267.597086
456.563888	7342.105340
456.937160	7386.520426
457.310373	7041.841614
457.683526	7066.460089
458.056619	6956.872966
458.429653	6944.196985
458.802628	6877.462190
459.175542	6981.400700
459.548398	7348.124478
459.921194	7509.653129
460.293930	7504.944692
460.666607	8037.444293
461.039224	8343.417126
461.411782	8468.110066
461.784280	8488.730906
462.156719	8381.006489
462.529099	8257.871266
462.901419	7848.522012
463.273680	7740.502688
463.645882	7751.247907
464.018024	7617.145653
464.390106	7786.445243
464.762130	8175.382865
465.134094	8645.805698
465.505999	9662.740019
465.877845	10886.114632
466.249631	11537.124198
466.621358	11154.971969
466.993026	10529.332010
467.364634	10269.205951
467.736184	9910.394264
468.107674	9579.896218
468.479105	9603.156102
468.850477	9370.610195
469.221790	9143.733066
469.593043	8816.118560
469.964238	8668.755551
470.335373	8684.680556
470.706449	8739.946726
471.077467	8730.489521
471.448425	10029.577223
471.819324	11113.276586
472.190164	11126.938113
472.560945	9877.044511
472.931667	9090.397659
473.302330	8966.627249
473.672934	8604.672403
474.043479	8963.300088
474.413965	8905.067199
474.784393	8786.781565
475.154761	8943.183363
475.525070	9031.839616
475.895321	8854.406124
476.265513	9035.335656
476.635645	9198.248104
477.005719	9204.181542
477.375734	9323.757711
477.745691	9558.741016
478.115588	9689.102733
478.485427	9928.088714
478.855207	10465.858842
479.224928	11285.232864
479.594591	11913.222002
479.964194	11725.381048
480.333739	11667.206132
480.703226	11586.187228
481.072653	11676.577637
481.442022	11906.650858
481.811333	12091.893097
482.180584	11901.176165
482.549777	11609.724376
482.918912	11431.484299
483.287988	11462.174844
483.657005	11465.421347
484.025964	11146.926288
484.394864	11282.550970
484.763706	11253.866805
485.132489	11005.489155
485.501213	10971.620163
485.869879	11046.972810
486.238487	10887.649663
486.607036	10995.182516
486.975527	10779.874835
487.343959	10972.126799
487.712333	11020.695796
488.080648	10946.658890
488.448905	10991.086578
488.817104	10930.703638
489.185244	11206.222860
489.553326	11359.478978
489.921350	11891.298024
490.289315	12957.428965
490.657222	13292.133854
491.025070	13205.027757
491.392861	13075.656626
491.760593	12699.805839
492.128267	12347.535050
492.495883	12016.101869
492.863440	11683.773884
493.230939	11341.842501
493.598380	11278.611309
493.965763	11143.697429
494.333088	11041.984588
494.700354	10966.016920
495.067563	11029.890860
495.434713	10855.240085
495.801805	10981.785650
496.168839	10911.373333
496.535815	10844.187355
496.902733	10847.663231
497.269593	10775.925091
497.636395	10880.221523
498.003139	10868.165604
498.369825	10732.374563
498.736453	10896.133925
499.103023	10820.221710
499.469535	10846.896976
499.835989	10837.197796
500.202385	10806.960955
500.568723	10656.167440
500.935003	10876.770853
501.301226	10677.085708
501.667390	10941.184197
502.033497	11037.140039
502.399546	10895.965047
502.765537	10799.212701
503.131470	10875.344207
503.497345	11058.658205
503.863163	10663.996352
504.228923	10968.018258
504.594625	11038.939731
504.960269	10781.750144
505.325856	11004.730461
505.691385	10801.851745
506.056856	10950.142327
506.422270	10978.024949
506.787625	10866.527229
507.152924	10989.501136
507.518164	10958.316558
507.883347	10883.296627
508.248472	10804.021962
508.613540	11037.744978
508.978550	10918.569580
509.343503	10894.119984
509.708398	11013.625577
510.073236	11129.683021
510.438016	11131.792744
510.802738	11081.759292
511.167403	11135.263578
511.532010	11028.930520
511.896561	11260.160686
512.261053	11334.437046
512.625488	11204.687829
512.989866	11186.796774
513.354186	11176.008704
513.718449	11078.038921
514.082655	11266.452046
514.446803	11174.571976
514.810894	11288.129007
515.174927	11147.521144
515.538904	11172.096769
515.902822	11328.004534
516.266684	11209.943232
516.630488	11152.988275
516.994235	11205.537263
517.357925	11272.486307
517.721558	11362.813701
518.085133	11379.870445
518.448651	11383.053934
518.812112	11266.205029
519.175516	11285.878132
519.538863	11405.068653
519.902152	11320.793163
520.265385	11485.283493
520.628560	11397.113712
520.991678	11372.565813
521.354739	11434.551841
521.717743	11369.052129
522.080690	11348.988337
522.443580	11478.319139
522.806413	11447.371495
523.169189	11466.169958
523.531908	11524.828824
523.894569	11355.662825
524.257174	11354.914213
524.619722	11476.254786
524.982213	11417.616085
525.344647	11468.435957
525.707025	11411.284396
526.069345	11511.283244
526.431608	11436.865731
526.793815	11542.639221
527.155964	11335.543580
527.518057	11377.309539
527.880093	11334.563075
528.242072	11396.251675
528.603995	11308.361678
528.965860	11222.410005
529.327669	11281.636001
529.689421	11224.282794
530.051117	11196.019565
530.412755	11301.535956
530.774337	11191.784995
531.135862	11171.675833
531.497331	11201.726151
531.858743	11040.041223
532.220098	11213.277955
532.581396	11085.862791
532.942638	11068.596839
533.303824	11032.907991
533.664953	11039.194310
534.026025	10951.989910
534.387040	11050.645291
534.747999	11059.568133
535.108902	11121.511311
535.469748	10873.889834
535.830537	10979.025618
536.191270	10960.217073
536.551947	10981.720115
536.912567	10978.546708
537.273131	10906.324618
537.633638	10882.517769
537.994089	10870.577796
538.354483	10825.341002
538.714821	10971.650410
539.075103	10980.258180
539.435328	10946.542943
539.795497	10760.554613
540.155609	10933.110789
540.515665	11010.265648
540.875665	10749.829558
541.235609	10818.555609
541.595496	10814.351286
541.955328	10966.505912
542.315102	10850.143479
542.674821	10798.975767
543.034483	10808.276696
543.394090	10807.530605
543.753640	10736.563762
544.113134	10959.344953
544.472571	10809.267283
544.831953	10964.499533
545.191278	10759.881619
545.550548	10790.037801
545.909761	10927.016034
546.268918	10901.154914
546.628019	10985.697585
546.987064	10851.123983
547.346053	10761.494788
547.704986	10870.282888
548.063863	10848.086688
548.422684	10849.765392
548.781449	10758.011351
549.140158	10868.768022
549.498811	10746.187325
549.857408	10602.053174
550.215949	10831.801240
550.574434	10680.738024
550.932864	10777.147571
551.291237	10837.956489
551.649555	10781.583786
552.007817	10798.927876
552.366022	10760.950344
552.724173	10752.040104
553.082267	10735.132074
553.440305	10877.542150
553.798288	10669.518936
554.156215	10828.963071
554.514086	10806.260234
554.871902	10655.267594
555.229661	10699.874244
555.587365	10671.500110
555.945014	10568.963041
556.302606	10691.788233
556.660143	10580.308157
557.017625	10733.778524
557.375050	10636.433844
557.732421	10774.442992
558.089735	10681.756337
558.446994	10684.564260
558.804197	10716.510052
559.161345	10722.614889
559.518437	10565.696373
559.875474	10663.464511
560.232455	10686.905876
560.589381	10635.970057
560.946251	10641.820317
561.303065	10744.054917
561.659825	10676.727786
562.016528	10610.731521
562.373177	10488.780968
562.729770	10604.006622
563.086307	10519.431183
563.442789	10610.131623
563.799216	10490.328602
564.155587	10536.364419
564.511904	10492.725671
564.868164	10486.966153
565.224370	10495.473100
565.580520	10421.229507
565.936615	10427.104971
566.292654	10300.440940
566.648638	10429.224777
567.004567	10392.031143
567.360441	10368.365447
567.716260	10277.412949
568.072023	10379.168639
568.427732	10325.649230
568.783385	10236.730837
569.138982	10308.501745
569.494525	10322.715278
569.850013	10196.903202
570.205445	10274.829358
570.560823	10172.420838
570.916145	10089.420760
571.271412	10158.514815
571.626625	10106.298543
571.981782	10084.540923
572.336884	10055.032529
572.691931	10058.563858
573.046923	10002.488583
573.401860	9962.174476
573.756743	9900.808510
574.111570	9943.302916
574.466342	9923.188712
574.821059	9952.016551
575.175722	9846.023770
575.530330	9855.922076
575.884882	9849.938226
576.239380	9779.346949
576.593823	9754.920038
576.948211	9767.830433
577.302544	9650.472372
577.656823	9659.962344
578.011047	9665.331172
578.365216	9637.735896
578.719330	9565.518847
579.073389	9572.011853
579.427394	9528.826809
579.781344	9493.999997
580.135239	9449.342936
580.489080	9460.173855
580.842866	9362.035192
581.196597	9364.674237
581.550273	9398.976768
581.903895	9378.297955
582.257463	9440.203324
582.610975	9317.811670
582.964434	9343.158592
583.317837	9264.927446
583.671186	9250.003110
584.024481	9244.662008
584.377721	9157.802927
584.730906	9142.024115
585.084037	9172.906224
585.437113	9101.301674
585.790135	9126.381415
586.143103	9024.293008
586.496016	8993.849480
586.848874	9063.210716
587.201679	9047.646153
587.554428	8933.615253
587.907124	8970.856777
588.259765	8944.234444
588.612352	8949.809960
588.964884	8823.140887
589.317362	8847.630813
589.669786	8839.683434
590.022155	8888.474241
590.374470	8900.351200
590.726731	8840.719391
591.078937	8691.544087
591.431090	8800.957290
591.783188	8678.061521
592.135232	8666.459305
592.487222	8672.445676
592.839157	8726.580106
593.191038	8658.917739
593.542866	8604.942105
593.894639	8496.940425
594.246358	8556.486534
594.598022	8570.929440
594.949633	8466.907751
595.301190	8442.196015
595.652692	8469.808935
596.004141	8579.769103
596.355535	8358.558231
596.706876	8337.327412
597.058162	8274.040767
597.409395	8344.841252
597.760573	8414.235255
598.111698	8317.293867
598.462768	8303.937329
598.813785	8270.670755
599.164748	8241.205211
599.515657	8230.223057
599.866511	8143.187536
600.217312	8265.770754
600.568060	8123.998384
600.918753	8234.316474
601.269392	8200.175260
601.619978	8111.483720
601.970510	8172.708533
602.320988	8169.013367
602.671412	8230.139878
603.021783	8162.648911
603.372100	8135.056155
603.722363	8137.768296
604.072572	8114.543700
604.422728	8124.505020
604.772830	8057.540853
605.122878	8060.643683
605.472872	8061.374650
605.822813	8083.923732
606.172701	8027.321656
606.522534	8112.963298
606.872314	8103.909386
607.222041	8077.629851
607.571714	8131.141699
607.921333	8090.240297
608.270899	8101.741690
608.620411	8181.933845
608.969870	8086.862724
609.319276	8090.963703
609.668627	8094.918488
610.017926	8136.112277
610.367171	8184.366201
610.716362	8158.837798
611.065500	8143.550499
611.414585	8173.099222
611.763616	8164.493973
612.112594	8148.198443
612.461518	8162.507758
612.810389	8220.549083
613.159207	8163.321905
613.507971	8110.775437
613.856682	8228.599806
614.205340	8182.047271
614.553945	8267.625898
614.902496	8160.960124
615.250994	8211.248154
615.599439	8199.545116
615.947830	8208.687248
616.296169	8183.110954
616.644454	8193.790638
616.992686	8191.446502
617.340864	8250.796006
617.688990	8148.982342
618.037063	8246.420285
618.385082	8191.307870
618.733048	8278.121581
619.080961	8216.571613
619.428821	8235.657421
619.776628	8237.245385
620.124382	8190.483642
620.472083	8171.349942
620.819731	8204.835807
621.167326	8096.703057
621.514868	8102.530630
621.862357	7990.861511
622.209793	8009.052515
622.557176	7947.487423
622.904506	7915.632372
623.251783	7851.042588
623.599007	7807.267729
623.946179	7803.653222
624.293297	7762.451871
624.640363	7678.796444
624.987376	7663.398239
625.334336	7614.912422
625.681243	7556.200623
626.028097	7545.117647
626.374899	7525.101745
626.721647	7516.088162
627.068343	7445.665764
627.414987	7421.059892
627.761577	7375.545834
628.108115	7411.043119
628.454600	7310.252810
628.801032	7357.790890
629.147412	7318.069119
629.493739	7307.089486
629.840014	7244.858962
630.186236	7297.798639
630.532405	7179.031575
630.878521	7229.922023
631.224585	7186.134561
631.570597	7116.329703
631.916556	7151.161556
632.262462	7144.063611
632.608316	7105.622293
632.954117	7078.571461
633.299866	7071.261788
633.645562	7062.918678
633.991206	6983.477656
634.336797	6923.480363
634.682336	6888.404015
635.027823	6847.300967
635.373257	6839.595563
635.718639	6768.661487
636.063968	6786.388705
636.409245	6680.894999
636.754470	6676.524318
637.099642	6634.836497
637.444762	6583.252890
637.789829	6590.144147
638.134845	6529.602410
638.479808	6519.613364
638.824719	6516.994484
639.169577	6448.830523
639.514383	6469.179140
639.859137	6391.772223
640.203839	6404.347381
640.548489	6392.513272
640.893086	6368.411516
641.237632	6339.074521
641.582125	6359.655032
641.926566	6328.175547
642.270955	6347.029462
642.615292	6336.866496
642.959576	6352.650348
643.303809	6342.966292
643.647990	6349.000553
643.992118	6341.080900
644.336195	6287.049813
644.680219	6312.023690
645.024192	6301.144880
645.368112	6396.175671
645.711981	6421.270535
646.055797	6491.428273
646.399562	6455.447037
646.743274	6577.851294
647.086935	6628.111598
647.430544	6626.924406
647.774101	6646.842005
648.117606	6658.275342
648.461059	6648.813096
648.804460	6608.660305
649.147810	6517.037334
649.491108	6487.851574
649.834354	6463.676721
650.177548	6377.571292
650.520690	6292.332943
650.863781	6273.791579
651.206820	6293.552902
651.549807	6212.178597
651.892742	6154.190204
652.235626	6160.582387
652.578458	6146.547815
652.921238	6057.440379
653.263967	6098.520742
653.606644	6036.428850
653.949269	6036.562441
654.291843	5978.574048
654.634365	6026.969125
654.976836	5977.535570
655.319255	5979.960365
655.661622	5960.758610
656.003938	5952.327280
656.346203	5914.488380
656.688416	5946.867711
657.030577	5898.843159
657.372687	5867.948447
657.714746	5853.911354
658.056753	5897.986163
658.398708	5838.659343
658.740612	5829.965874
659.082465	5878.061002
659.424266	5868.422316
659.766016	5868.941555
660.107715	5847.819120
660.449362	5859.857395
660.790958	5852.986303
661.132503	5840.821998
661.473996	5874.706114
661.815438	5862.894691
662.156829	5858.614751
662.498168	5850.571590
662.839456	5826.721891
663.180693	5861.142890
663.521879	5866.247058
663.863013	5853.230799
664.204097	5875.991608
664.545129	5916.245222
664.886110	5910.662144
665.227040	5942.328152
665.567918	5907.929838
665.908746	5937.370177
666.249522	5942.814623
666.590248	5925.460451
666.930922	5958.074196
667.271545	5968.527028
667.612118	5972.481813
667.952639	5949.983144
668.293109	5966.069466
668.633528	5927.711326
668.973896	5929.826090
669.314213	5919.022898
669.654480	5899.518673
669.994695	5894.729577
670.334859	5884.596858
670.674973	5877.191403
671.015035	5881.390684
671.355047	5875.603439
671.695008	5863.892839
672.034918	5839.803685
672.374777	5847.483883
672.714585	5836.678170
673.054342	5838.908881
673.394049	5832.196584
673.733705	5863.993662
674.073310	5852.192321
674.412864	5812.087422
674.752368	5800.036543
675.091820	5807.245393
675.431223	5740.573613
675.770574	5744.992184
676.109875	5694.048804
676.449125	5699.722623
676.788324	5666.395555
677.127473	5608.069405
677.466571	5598.453404
677.805619	5586.394964
678.144616	5574.583540
678.483562	5555.487650
678.822458	5525.079410
679.161303	5519.846692
679.500098	5510.341596
679.838842	5496.107898
680.177535	5494.255274
680.516179	5511.727914
680.854771	5521.442217
681.193314	5601.253765
681.531805	5712.010435
681.870247	5859.832190
682.208638	5966.366894
682.546978	5977.764943
682.885268	5951.283762
683.223508	5867.988777
683.561697	5815.689326
683.899836	5781.913595
684.237925	5745.342545
684.575963	5705.988777
684.913951	5667.363456
685.251889	5727.378393
685.589776	5697.393610
685.927614	5666.997973
686.265401	5737.448098
686.603137	5722.435542
686.940824	5799.048477
687.278460	5817.607485
687.616046	5829.744063
687.953582	5897.832407
688.291068	5882.918154
688.628504	5944.715138
688.965889	5903.909518
689.303224	5853.704667
689.640510	5805.057533
689.977745	5725.061983
690.314930	5629.794257
690.652065	5569.597839
690.989150	5476.429754
691.326185	5405.939300
691.663170	5352.354355
692.000105	5272.845277
692.336990	5197.106982
692.673825	5172.891799
693.010610	5101.461170
693.347345	5031.321076
693.684030	5016.520248
694.020665	4976.019618
694.357251	4887.224734
694.693786	4895.953492
695.030272	4867.604563
695.366707	4828.681814
695.703093	4793.862565
696.039429	4812.131706
696.375716	4798.092093
696.711952	4773.342548
697.048139	4764.724696
697.384276	4742.841047
697.720363	4752.535186
698.056400	4762.657822
698.392388	4712.276531
698.728326	4691.249878
699.064214	4669.207433
699.400053	4668.514274
699.735842	4629.112616
700.071581	4606.906333
700.407270	4578.018001
700.742910	4561.450249
701.078501	4507.028473
701.414042	4502.423379
701.749533	4475.843895
702.084974	4411.299482
702.420366	4465.958192
702.755709	4409.840068
703.091002	4353.865616
703.426246	4403.044592
703.761440	4355.803940
704.096584	4321.919824
704.431679	4343.911858
704.766725	4329.529446
705.101721	4311.766940
705.436668	4340.549408
705.771565	4291.050318
706.106413	4323.691790
706.441212	4349.978886
706.775961	4359.730998
707.110661	4341.058565
707.445311	4364.794838
707.779913	4391.109661
708.114465	4402.565683
708.448967	4428.580557
708.783421	4484.759176
709.117825	4530.603429
709.452180	4533.623080
709.786485	4574.038010
710.120742	4665.139222
710.454949	4649.199093
710.789107	4715.767530
711.123216	4788.864261
711.457275	4782.467037
711.791286	4854.938664
712.125247	4873.802662
712.459159	4770.171662
712.793023	4848.919527
713.126837	4809.603568
713.460602	4805.432013
713.794318	4722.535279
714.127985	4728.451073
714.461602	4642.469153
714.795171	4614.510914
715.128691	4551.786357
715.462162	4491.441225
715.795584	4442.632773
716.128957	4423.834311
716.462281	4373.047206
716.795556	4349.678938
717.128782	4311.880366
717.461960	4235.942945
717.795088	4252.326695
718.128167	4208.624933
718.461198	4147.967249
718.794180	4147.926920
719.127113	4124.692242
719.459997	4102.904375
719.792833	4058.229669
720.125619	4049.357238
720.458357	4018.797764
720.791046	4020.660470
721.123686	3995.086697
721.456278	3951.120273
721.788821	3967.516626
722.121315	3941.070733
722.453761	3917.069800
722.786158	3928.384670
723.118506	3953.403916
723.450805	3906.150661
723.783056	3927.414247
724.115259	3944.223975
724.447412	3948.110705
724.779518	3941.521917
725.111574	3942.583079
725.443582	3975.884942
725.775542	3959.354998
726.107453	4011.288965
726.439315	4011.132689
726.771129	4027.438302
727.102895	4061.521543
727.434612	4111.262608
727.766281	4117.458186
728.097901	4123.409268
728.429473	4129.075525
728.760996	4133.615084
729.092471	4132.223725
729.423897	4114.816621
729.755276	4121.221407
730.086606	4119.598156
730.417887	4155.889422
730.749120	4226.024475
731.080305	4283.944812
731.411442	4313.307013
731.742530	4282.916417
732.073570	4288.698620
732.404562	4345.114173
732.735506	4333.494313
733.066401	4294.546359
733.397249	4234.836412
733.728048	4151.727950
734.058798	4067.986823
734.389501	4001.539374
734.720156	3935.923715
735.050762	3890.389493
735.381320	3884.282135
735.711831	3833.048889
736.042293	3807.008808
736.372707	3826.545800
736.703073	3801.108138
737.033391	3788.606076
737.363661	3810.227585
737.693883	3831.692818
738.024056	3842.007019
738.354182	3839.796473
738.684260	3897.948703
739.014290	3920.462496
739.344272	3915.670880
739.674207	3958.926500
740.004093	3966.919250
740.333931	3958.470276
740.663722	3962.440184
740.993464	3957.041109
741.323159	3932.815844
741.652806	3902.606729
741.982405	3877.118656
742.311956	3843.358048
742.641460	3836.776822
742.970915	3815.356959
743.300323	3768.338117
743.629683	3739.154878
743.958996	3726.022672
744.288260	3700.038044
744.617477	3665.453208
744.946647	3653.036847
745.275768	3628.128505
745.604842	3623.977115
745.933869	3577.101946
746.262847	3567.281778
746.591778	3607.484980
746.920662	3579.526741
747.249498	3546.056000
747.578286	3592.598453
747.907027	3609.934981
748.235720	3609.695526
748.564365	3632.010194
748.892963	3636.864825
749.221514	3618.731795
749.550017	3595.136674
749.878473	3590.458483
750.206881	3560.645099
750.535242	3557.055798
750.863555	3559.387332
751.191821	3554.804923
751.520039	3537.097870
751.848210	3509.500073
752.176334	3547.848130
752.504411	3554.968760
752.832440	3512.386134
753.160421	3497.013135
753.488356	3505.436903
753.816243	3516.580374
754.144082	3474.201914
754.471875	3459.781693
754.799620	3480.226093
755.127318	3469.463229
755.454969	3469.352324
755.782572	3477.710557
756.110129	3452.857668
756.437638	3443.090433
756.765100	3452.976136
757.092515	3466.194041
757.419882	3472.162767
757.747203	3444.690999
758.074477	3446.064714
758.401703	3465.064823
758.728882	3483.669201
759.056014	3489.985767
759.383099	3493.822085
759.710138	3490.338647
760.037129	3508.514527
760.364073	3539.061399
760.690970	3526.713093
761.017820	3501.575379
761.344623	3520.338554
761.671379	3563.266499
761.998088	3616.516208
762.324751	3748.531424
762.651366	3990.247189
762.977935	4469.476918
763.304456	4911.560904
763.630931	5013.309033
763.957359	4647.946367
764.283740	4306.756033
764.610074	4112.371662
764.936362	3912.154675
765.262602	3754.258175
765.588796	3640.101246
765.914943	3552.672515
766.241044	3460.300932
766.567097	3434.681788
766.893104	3386.954664
767.219064	3353.907380
767.544978	3323.516784
767.870845	3273.536264
768.196665	3252.807040
768.522438	3258.884151
768.848165	3258.385077
769.173846	3220.785631
769.499479	3204.313660
769.825066	3186.185671
770.150607	3170.419462
770.476101	3184.310362
770.801548	3182.445135
771.126949	3135.645583
771.452303	3116.746298
771.777611	3124.615539
772.102872	3128.696353
772.428087	3104.108125
772.753256	3095.026486
773.078378	3087.270671
773.403453	3054.866134
773.728482	3040.917261
774.053465	3062.732855
774.378401	3049.343550
774.703291	3017.042357
775.028135	3018.806761
775.352932	3013.107736
775.677683	3002.480984
776.002388	2999.065602
776.327046	2998.805983
776.651658	2989.681494
776.976224	2976.564412
777.300743	2978.974083
777.625216	2970.353710
777.949643	2962.686115
778.274024	2966.971096
778.598359	2956.866103
778.922647	2961.065384
779.246889	2959.351392
779.571086	2945.904114
779.895236	2937.467743
780.219339	2947.575257
780.543397	2960.170580
780.867409	2964.513534
781.191374	2957.864252
781.515294	2954.965588
781.839167	2957.029941
782.162995	2945.669701
782.486776	2956.389714
782.810511	2954.053139
783.134201	2938.760799
783.457844	2946.574588
783.781441	2937.762651
784.104993	2914.974115
784.428498	2917.381266
784.751958	2929.328800
785.075372	2926.601536
785.398739	2910.827766
785.722061	2925.600867
786.045337	2938.354986
786.368568	2919.979981
786.691752	2914.243148
787.014891	2961.970272
787.337983	2993.371619
787.661030	3021.138294
787.984031	3086.123808
788.306987	3134.977630
788.629897	3128.230046
788.952760	3112.355452
789.275579	3094.744182
789.598351	3032.422917
789.921078	2989.326093
790.243759	2981.925679
790.566395	2964.732824
790.888984	2942.680296
791.211529	2922.056936
791.534027	2911.951943
791.856480	2904.032290
792.178888	2888.029148
792.501249	2879.643188
792.823566	2878.960112
793.145836	2875.416181
793.468062	2869.165150
793.790241	2870.115407
794.112375	2875.920296
794.434464	2888.508057
794.756507	2892.359499
795.078505	2895.830333
795.400457	2911.130235
795.722364	2947.686162
796.044226	2972.463433
796.366042	2973.479226
796.687812	2964.354737
797.009538	2984.710917
797.331218	2972.806232
797.652852	2959.542956
797.974442	2942.728187
798.295986	2935.398350
798.617484	2932.424069
798.938938	2913.214752
799.260346	2899.510375
799.581709	2894.605333
799.903026	2887.298180
800.224299	2880.238044
800.545526	2874.533979
800.866708	2856.249714
801.187845	2848.559433
801.508936	2846.442149
801.829983	2853.356091
802.150984	2843.183043
802.471940	2829.324911
802.792851	2830.562514
803.113717	2829.662668
803.434538	2836.959738
803.755314	2830.151660
804.076045	2822.191678
804.396731	2820.114723
804.717372	2819.726554
805.037967	2816.633806
805.358518	2824.893737
805.679024	2831.779953
805.999485	2829.566886
806.319901	2832.876404
806.640272	2825.980105
806.960598	2832.110148
807.280879	2841.290090
807.601115	2845.617920
807.921306	2830.854901
808.241453	2830.779284
808.561554	2838.711539
808.881611	2838.966118
809.201623	2834.471929
809.521590	2833.322546
809.841513	2828.538491
810.161390	2833.834223
810.481223	2824.984477
810.801011	2817.508446
811.120755	2813.488126
811.440453	2817.281594
811.760107	2814.571974
812.079716	2814.882005
812.399281	2804.968576
812.718801	2796.065898
813.038276	2790.891154
813.357707	2797.963893
813.677093	2804.809780
813.996434	2798.760395
814.315731	2794.609005
814.634983	2790.195475
814.954191	2790.142543
815.273354	2806.919503
815.592473	2815.655822
815.911547	2816.764876
816.230577	2827.757112
816.549562	2832.946980
816.868502	2831.583348
817.187399	2842.421829
817.506250	2858.722400
817.825058	2852.098323
818.143821	2864.015611
818.462539	2882.894732
818.781213	2909.433887
819.099843	2945.967129
819.418429	3003.320336
819.736970	3064.708987
820.055466	3139.842344
820.373919	3246.102305
820.692327	3387.834346
821.010691	3559.210891
821.329011	4010.195035
821.647286	4913.597530
821.965517	6309.203164
822.283704	7068.524442
822.601847	7052.879221
822.919945	6415.644607
823.237999	5895.934413
823.556010	5308.723169
823.873976	4752.015947
824.191897	4335.770394
824.509775	4036.734189
824.827609	3763.506171
825.145398	3633.590596
825.463144	3622.699183
825.780845	3712.288048
826.098502	3817.648164
826.416116	4106.828913
826.733685	4431.126340
827.051210	4499.136546
827.368692	4377.561560
827.686129	4108.119448
828.003522	3777.785240
828.320872	3517.328985
828.638177	3318.221052
828.955439	3180.683252
829.272656	3095.442381
829.589830	3025.692977
829.906960	2977.086171
830.224046	2930.082453
830.541088	2897.158677
830.858086	2882.262068
831.175041	2860.524612
831.491952	2864.408821
831.808819	2875.862323
832.125642	2902.829975
832.442421	2945.233641
832.759157	3031.729758
833.075849	3211.270453
833.392497	3495.135305
833.709101	3698.921429
834.025662	3650.153307
834.342179	3486.903101
834.658653	3308.615133
834.975083	3159.752381
835.291469	3059.420817
835.607811	2973.222127
835.924110	2913.270205
836.240366	2860.055785
836.556578	2819.744198
836.872746	2795.798717
837.188871	2772.246447
837.504952	2755.630803
837.820990	2748.850452
838.136984	2734.896538
838.452935	2727.221381
838.768842	2724.791545
839.084706	2744.147055
839.400526	2823.172183
839.716303	2957.473562
840.032037	3039.173022
840.347727	3025.345137
840.663373	2963.951445
840.978977	2889.397821
841.294537	2812.353867
841.610054	2764.503234
841.925527	2742.697723
842.240957	2722.099569
842.556344	2695.409180
842.871687	2683.940555
843.186987	2671.798936
843.502244	2668.842299
843.817458	2662.966834
844.132629	2649.668270
844.447756	2643.964205
844.762840	2632.304016
845.077881	2638.096302
845.392879	2635.653862
845.707833	2633.339973
846.022745	2621.979733
846.337613	2626.781432
846.652438	2624.306225
846.967221	2627.346041
847.281960	2623.166924
847.596656	2622.035185
847.911309	2623.287912
848.225919	2620.328755
848.540485	2618.042592
848.855009	2615.897581
849.169490	2614.314658
849.483928	2615.935389
849.798323	2614.319699
850.112675	2612.260388
850.426984	2612.033536
850.741251	2614.496140
851.055474	2615.078393
851.369654	2616.812550
851.683792	2616.684001
851.997887	2615.287601
852.311938	2612.933382
852.625947	2614.349946
852.939914	2617.069649
853.253837	2618.183744
853.567718	2610.218721
853.881555	2612.817436
854.195350	2614.372632
854.509103	2615.418671
854.822812	2613.893722
855.136479	2612.799792
855.450103	2614.659977
855.763685	2616.817591
856.077224	2615.663167
856.390720	2611.771396
856.704173	2614.019751
857.017584	2616.547889
857.330953	2619.262551
857.644278	2623.950824
857.957561	2623.234980
858.270802	2615.935389
858.584000	2614.952364
858.897155	2622.007459
859.210268	2624.719600
859.523339	2614.574278
859.836367	2610.972373
860.149352	2611.804164
860.462295	2614.501181
860.775195	2610.503546
861.088054	2609.034050
861.400869	2607.287290
861.713642	2606.379882
862.026373	2606.921806
862.339062	2609.928854
862.651708	2615.002776
862.964312	2616.414299
863.276873	2615.113681
863.589392	2616.449587
863.901869	2623.494599
864.214303	2628.553397
864.526696	2633.145888
864.839045	2632.573717
865.151353	2631.981382
865.463619	2635.656383
865.775842	2632.760240
866.088023	2635.885756
866.400162	2632.888790
866.712258	2634.471712
867.024313	2632.122534
867.336325	2630.895013
867.648296	2630.469036
867.960224	2638.108904
868.272110	2635.348873
868.583954	2627.963582
868.895755	2631.749489
869.207515	2631.895682
869.519233	2642.424132
869.830909	2635.525313
870.142542	2630.985754
870.454134	2636.226033
870.765684	2640.422794
871.077191	2640.732825
871.388657	2646.444452
871.700081	2644.841365
872.011463	2643.752476
872.322803	2645.889925
872.634101	2648.410502
872.945357	2655.087511
873.256571	2663.639828
873.567744	2660.713438
873.878874	2654.265802
874.189963	2661.973727
874.501010	2664.849705
874.812015	2670.367248
875.122979	2667.997906
875.433900	2662.036741
875.744780	2660.874755
876.055618	2666.588903
876.366415	2670.795746
876.677169	2668.519665
876.987882	2663.672596
877.298554	2663.970024
877.609183	2674.818587
877.919771	2680.066428
878.230317	2689.924404
878.540822	2700.402443
878.851285	2714.918445
879.161707	2736.701271
879.472087	2777.514452
879.782425	2827.081597
880.092722	2944.043928
880.402977	3135.106180
880.713191	3400.797673
881.023363	3702.634239
881.333494	3900.943149
881.643583	4076.982762
881.953631	4068.780804
882.263637	3890.434863
882.573602	3668.392201
882.883526	3537.259187
883.193408	3417.844334
883.503248	3314.445228
883.813048	3194.339737
884.122806	3077.407653
884.432522	2988.978253
884.742197	2924.660692
885.051831	2885.478324
885.361424	2847.112622
885.670975	2811.494350
885.980485	2781.118877
886.289954	2763.457195
886.599382	2747.305338
886.908768	2732.875035
887.218113	2714.779813
887.527417	2701.884542
887.836680	2691.590506
888.145901	2687.580268
888.455082	2680.789833
888.764221	2666.314160
889.073319	2658.490289
889.382376	2663.735610
889.691392	2662.296361
890.000366	2658.954076
890.309300	2659.765701
890.618193	2661.991371
890.927044	2666.339366
891.235855	2664.920281
891.544625	2661.393994
891.853353	2664.358192
892.162041	2673.059224
892.470687	2691.025896
892.779293	2701.380426
893.087858	2716.009855
893.396381	2736.282855
893.704864	2780.231634
894.013306	2851.276615
894.321707	2947.129115
894.630068	3000.840088
894.938387	3023.454704
895.246665	3016.225690
895.554903	2969.395891
895.863100	2924.638007
896.171256	2865.038965
896.479371	2803.234419
896.787446	2763.273193
897.095480	2742.939699
897.403473	2734.319326
897.711425	2719.636965
898.019336	2701.057792
898.327207	2685.944413
898.635038	2684.500123
898.942827	2682.758404
899.250576	2672.305572
899.558284	2661.714107
899.865952	2655.493323
900.173579	2651.447798
900.481165	2652.410658
900.788711	2643.669297
901.096216	2638.983545
901.403681	2633.713018
901.711105	2632.296454
902.018489	2630.310239
902.325832	2635.608492
902.633135	2639.815335
902.940397	2654.492654
903.247619	2690.095803
903.554800	2761.405445
903.861941	2894.260014
904.169041	3026.872607
904.476101	3091.371650
904.783121	3085.922162
905.090100	3026.295395
905.397039	2948.611214
905.703938	2869.243288
906.010796	2804.653504
906.317614	2752.243148
906.624391	2714.805019
906.931129	2686.398117
907.237826	2664.151505
907.544483	2644.889256
907.851099	2632.795528
908.157675	2619.242386
908.464211	2614.518825
908.770707	2602.548605
909.077163	2597.998964
909.383578	2596.751278
909.689954	2593.436720
909.996289	2590.278437
910.302584	2590.706935
910.608839	2588.592171
910.915054	2587.011769
911.221229	2588.498909
911.527363	2593.378746
911.833458	2591.180803
912.139513	2590.548138
912.445527	2594.364292
912.751502	2600.950559
913.057436	2603.897114
913.363331	2612.605707
913.669186	2622.993005
913.975000	2637.478760
914.280775	2655.256389
914.586510	2675.002589
914.892205	2713.161603
915.197859	2785.234979
915.503475	2868.688761
915.809050	2939.809359
916.114585	2954.133798
916.420081	2966.414049
916.725536	2977.318064
917.030952	2949.644650
917.336328	2901.310067
917.641665	2852.093282
917.946961	2799.463636
918.252218	2766.108842
918.557435	2736.706312
918.862612	2711.130018
919.167750	2696.026721
919.472848	2677.447548
919.777906	2660.181597
920.082925	2648.760862
920.387904	2641.168885
920.692843	2633.062709
920.997743	2628.092132
921.302603	2620.341358
921.607423	2616.293311
921.912204	2607.690582
922.216946	2603.922320
922.521647	2603.002309
922.826310	2596.042996
923.130932	2595.082656
923.435516	2583.498085
923.740059	2585.368353
924.044564	2584.516398
924.349028	2582.802406
924.653454	2575.611200
924.957840	2571.701785
925.262186	2568.104922
925.566493	2572.377299
925.870761	2566.274983
926.174989	2568.493090
926.479178	2565.304561
926.783328	2562.403377
927.087438	2562.214333
927.391509	2561.241391
927.695541	2560.528067
927.999533	2559.144271
928.303486	2558.998077
928.607400	2557.024465
928.911275	2557.165618
929.215110	2557.228632
929.518906	2556.971533
929.822663	2554.728220
930.126381	2553.112530
930.430060	2557.838612
930.733699	2555.607901
931.037299	2557.246276
931.340861	2558.594785
931.644383	2558.178890
931.947866	2559.834909
932.251309	2556.185113
932.554714	2556.280895
932.858080	2559.187120
933.161407	2555.134033
933.464694	2554.609753
933.767943	2553.956923
934.071153	2554.009855
934.374323	2553.238559
934.677455	2551.327962
934.980548	2554.246790
935.283602	2553.757798
935.586617	2551.653116
935.889593	2555.325597
936.192530	2551.895091
936.495428	2552.903322
936.798287	2555.590257
937.101108	2554.347613
937.403890	2559.996226
937.706632	2561.259035
938.009336	2566.542164
938.312002	2572.047104
938.614628	2570.890159
938.917216	2578.217476
939.219765	2576.989955
939.522275	2576.294276
939.824747	2576.763103
940.127179	2573.057855
940.429573	2568.535940
940.731929	2570.887638
941.034246	2567.560477
941.336524	2568.203224
941.638763	2567.676423
941.940964	2566.395970
942.243126	2564.719787
942.545250	2563.991340
942.847335	2560.308777
943.149381	2561.213664
943.451389	2561.679971
943.753359	2559.683674
944.055290	2558.597305
944.357182	2556.462377
944.659036	2558.017573
944.960851	2559.265258
945.262628	2554.642520
945.564367	2559.262738
945.866067	2557.016904
946.167729	2560.422203
946.469352	2554.884496
946.770937	2556.167469
947.072484	2555.769218
947.373992	2559.184600
947.675462	2555.726368
947.976893	2557.377346
948.278286	2554.584547
948.579641	2556.958930
948.880958	2552.326110
949.182236	2553.556152
949.483476	2551.758980
949.784678	2553.987170
950.085841	2554.410627
950.386967	2553.117571
950.688054	2555.975905
950.989103	2556.258210
951.290114	2556.114537
951.591087	2555.116389
951.892021	2556.621173
952.192917	2561.349775
952.493776	2561.203582
952.794596	2560.379353
953.095378	2563.187276
953.396122	2565.370096
953.696828	2558.894733
953.997496	2560.497820
954.298126	2555.045812
954.598718	2554.866852
954.899272	2553.205791
955.199788	2554.445915
955.500266	2551.585060
955.800706	2546.901828
956.101108	2547.347971
956.401472	2548.522559
956.701798	2542.382434
957.002087	2542.674821
957.302337	2542.120294
957.602550	2544.605583
957.902724	2544.504760
958.202861	2542.004348
958.502960	2541.432177
958.803022	2540.547454
959.103045	2543.229348
959.403031	2540.905376
959.702979	2542.311858
960.002889	2540.492001
960.302762	2538.571322
960.602596	2541.313709
960.902393	2539.743390
961.202153	2540.237423
961.501875	2541.439738
961.801559	2539.894625
962.101205	2537.237937
962.400814	2539.140972
962.700385	2538.291538
962.999918	2537.926054
963.299414	2538.611651
963.598873	2541.059131
963.898293	2538.478060
964.197677	2536.764068
964.497022	2537.747093
964.796331	2539.082999
965.095601	2538.213400
965.394835	2540.060983
965.694030	2537.469830
965.993189	2540.391178
966.292309	2536.789274
966.591393	2536.537216
966.890439	2538.533513
967.189447	2537.520241
967.488419	2536.766589
967.787353	2538.495704
968.086249	2536.658204
968.385108	2537.726928
968.683930	2535.009747
968.982714	2538.503266
969.281462	2537.878163
969.580172	2536.902700
969.878844	2536.673327
970.177480	2537.580735
970.476078	2536.045704
970.774639	2538.939326
971.073162	2536.638039
971.371649	2536.098636
971.670098	2535.914634
971.968510	2534.858512
972.266885	2533.678882
972.565223	2539.264480
972.863524	2538.321785
973.161788	2537.631147
973.460014	2537.971424
973.758204	2540.373534
974.056356	2540.834800
974.354471	2538.203318
974.652550	2538.906558
974.950591	2534.976979
975.248595	2539.292207
975.546563	2538.760365
975.844493	2538.089892
976.142386	2538.520910
976.440243	2538.861188
976.738062	2537.449665
977.035845	2538.377237
977.333590	2538.571322
977.631299	2536.118800
977.928971	2537.225334
978.226606	2535.080323
978.524204	2535.544109
978.821765	2536.219623
979.119290	2537.124511
979.416777	2536.118800
979.714228	2536.643080
980.011642	2536.937988
980.309020	2539.561908
980.606360	2535.506300
980.903664	2537.127031
981.200931	2536.406146
981.498162	2541.069213
981.795356	2540.212217
982.092513	2547.148845
982.389633	2546.022147
982.686717	2551.030533
982.983764	2553.838456
983.280775	2552.411810
983.577749	2553.452808
983.874686	2552.585729
984.171587	2549.679504
984.468451	2545.507949
984.765279	2540.255067
985.062070	2540.348328
985.358824	2537.316074
985.655543	2539.695499
985.952224	2536.814480
986.248869	2537.852957
986.545478	2532.156453
986.842050	2537.787422
987.138586	2532.572349
987.435086	2535.173584
987.731549	2529.570342
988.027975	2535.753317
988.324366	2534.777853
988.620719	2531.465815
988.917037	2533.812473
989.213318	2534.369520
989.509563	2533.653676
989.805772	2535.057638
990.101944	2533.449509
990.398080	2533.338604
990.694180	2533.003367
990.990244	2533.643594
991.286271	2536.552340
991.582262	2532.670651
991.878217	2534.556043
992.174136	2533.063861
992.470019	2534.389685
992.765865	2533.131917
993.061676	2534.145189
993.357450	2534.707277
993.653188	2532.577390
993.948890	2530.555887
994.244556	2529.948428
994.540186	2533.149561
994.835780	2536.932947
995.131337	2533.678882
995.426859	2537.258101
995.722345	2532.635363
996.017795	2537.883204
996.313208	2538.846065
996.608586	2539.045190
996.903928	2537.941178
997.199234	2537.532844
997.494504	2537.895807
997.789738	2538.394881
998.084936	2536.859850
998.380099	2535.655014
998.675225	2535.024870
998.970316	2534.787936
999.265371	2537.053934
999.560390	2534.845909
999.855373	2537.071578
1000.150320	2535.725590
1000.445232	2533.230219
1000.740108	2532.544622
1001.034948	2533.494880
1001.329752	2534.470343
1001.624521	2532.776515
1001.919254	2528.748633
1002.213951	2529.003212
1002.508613	2528.002543
1002.803239	2533.688964
1003.097829	2527.783252
1003.392384	2532.511855
1003.686903	2533.010929
1003.981386	2529.898017
1004.275834	2530.064375
1004.570246	2532.037986
1004.864623	2531.377595
1005.158964	2528.746113
1005.453270	2533.452030
1005.747540	2533.540250
1006.041775	2529.945907
1006.335974	2530.492873
1006.630138	2532.471526
1006.924266	2532.269879
1007.218359	2528.773839
1007.512416	2532.043028
1007.806438	2532.761392
1008.100425	2531.223840
1008.394376	2528.993129
1008.688292	2530.586134
1008.982172	2532.514375
1009.276017	2533.961187
1009.569827	2531.707791
1009.863602	2533.066382
1010.157341	2530.495393
1010.451045	2530.434899
1010.744714	2531.251566
1011.038347	2531.556556
1011.331945	2529.794673
1011.625508	2532.390867
1011.919036	2530.535722
1012.212528	2530.739889
1012.505986	2531.531350
1012.799408	2532.403470
1013.092795	2528.662934
1013.386147	2530.654190
1013.679464	2530.654190
1013.972745	2531.133099
1014.265992	2530.187883
1014.559204	2533.149561
1014.852380	2531.435568
1015.145521	2530.979344
1015.438628	2529.282996
1015.731699	2531.664941
1016.024736	2530.767616
1016.317737	2531.785929
1016.610703	2531.533871
1016.903635	2528.771319
1017.196531	2524.483817
1017.489393	2529.562780
1017.782219	2524.302336
1018.075011	2528.360465
1018.367768	2532.456402
1018.660490	2532.617719
1018.953177	2532.617719
1019.245829	2532.617719
