Dividing Wavelength (nm)	Counts (n)	Blue Motor Position (mm): 35.200000	Red Motor Position (mm): 0.000000	
326.493990	2129.771553
326.888308	2129.771553
327.282561	2129.771553
327.676750	2097.291399
328.070874	2097.528333
328.464933	2099.693509
328.858929	2105.841196
329.252859	2115.537856
329.646726	2128.680144
330.040528	2140.413429
330.434265	2158.901861
330.827938	2175.252843
331.221547	2192.758250
331.615091	2210.500591
332.008571	2232.716956
332.401986	2252.430388
332.795338	2268.236926
333.188625	2289.351799
333.581847	2308.561116
333.975006	2328.405618
334.368100	2344.844821
334.761129	2362.836699
335.154095	2378.940665
335.546996	2402.011505
335.939833	2425.122675
336.332606	2438.622885
336.725315	2452.057560
337.117960	2460.572069
337.510540	2470.361990
337.903056	2482.443115
338.295508	2488.787407
338.687896	2500.714777
339.080220	2506.864985
339.472480	2511.288597
339.864676	2515.024092
340.256807	2523.120185
340.648875	2523.349558
341.040879	2528.733510
341.432818	2527.185876
341.824694	2529.295599
342.216506	2530.681916
342.608253	2530.011443
342.999937	2528.617563
343.391557	2530.626463
343.783113	2530.283665
344.174605	2528.032790
344.566033	2527.349713
344.957397	2523.677233
345.348697	2524.294774
345.739934	2518.419309
346.131106	2523.011800
346.522215	2516.052487
346.913260	2516.423012
347.304241	2512.344719
347.695159	2512.155676
348.086012	2510.991169
348.476802	2507.618637
348.867528	2507.472444
349.258191	2503.353821
349.648789	2505.798781
350.039324	2501.690240
350.429796	2503.121928
350.820203	2499.547750
351.210548	2501.256701
351.600828	2498.726042
351.991045	2498.083295
352.381198	2495.668582
352.771288	2497.634632
353.161314	2498.355517
353.551276	2498.504231
353.941175	2499.492297
354.331010	2496.528099
354.720782	2497.443068
355.110490	2497.342245
355.500135	2498.516834
355.889717	2498.637822
356.279235	2497.543891
356.668689	2497.047337
357.058080	2496.472646
357.447408	2492.946359
357.836672	2494.710763
358.225873	2496.979282
358.615010	2493.173211
359.004084	2500.528254
359.393095	2500.064468
359.782043	2504.475478
360.170927	2499.716628
360.559748	2501.599499
360.948505	2501.876763
361.337199	2503.721825
361.725830	2504.535972
362.114398	2504.881291
362.502903	2503.837772
362.891344	2504.936743
363.279722	2504.699809
363.668037	2504.750221
364.056289	2503.923471
364.444478	2506.522186
364.832603	2507.061590
365.220665	2505.425735
365.608665	2507.905983
365.996601	2508.876405
366.384474	2508.425222
366.772284	2511.959071
367.160031	2509.113339
367.547715	2510.600480
367.935336	2512.475789
368.322893	2509.919924
368.710388	2510.353463
369.097820	2511.928824
369.485189	2514.449401
369.872495	2509.292300
370.259738	2511.515449
370.646918	2510.514780
371.034035	2510.585356
371.421090	2515.855883
371.808081	2512.606859
372.195010	2510.136693
372.581875	2509.476302
372.968678	2511.686848
373.355418	2515.452590
373.742096	2517.204391
374.128710	2513.753721
374.515262	2515.268588
374.901751	2515.792868
375.288177	2516.055008
375.674540	2514.633403
376.060841	2514.545183
376.447079	2514.111643
376.833254	2516.428053
377.219367	2512.934534
377.605417	2516.697755
377.991404	2514.106602
378.377329	2516.153311
378.763191	2513.685666
379.148991	2521.759074
379.534727	2519.147756
379.920402	2519.785462
380.306013	2516.745646
380.691563	2517.960564
381.077049	2520.226563
381.462474	2520.342509
381.847835	2520.196316
382.233134	2520.224042
382.618371	2518.237828
383.003545	2519.460308
383.388657	2521.096162
383.773706	2521.683456
384.158693	2522.048940
384.543618	2522.646317
384.928480	2526.462470
385.313280	2525.648324
385.698017	2522.878210
386.082692	2521.827129
386.467305	2523.029444
386.851856	2524.829136
387.236344	2524.284692
387.620770	2526.041534
388.005133	2524.877027
388.389435	2524.534229
388.773674	2526.356606
389.157851	2525.958355
389.541965	2525.287881
389.926018	2526.351565
390.310008	2526.467511
390.693936	2528.191586
391.077802	2526.477594
391.461606	2526.565814
391.845348	2528.647810
392.229027	2531.831299
392.612645	2527.390043
392.996200	2529.068747
393.379694	2529.293078
393.763125	2532.952956
394.146494	2530.835671
394.529801	2533.136958
394.913047	2530.465146
395.296230	2532.605116
395.679351	2532.995806
396.062410	2532.915147
396.445408	2531.891793
396.828343	2534.770292
397.211217	2530.162677
397.594028	2530.404653
397.976778	2530.334076
398.359466	2535.312216
398.742092	2531.491021
399.124656	2535.523944
399.507158	2536.506969
399.889598	2539.337577
400.271977	2538.984696
400.654294	2540.141641
401.036549	2538.505787
401.418742	2542.669780
401.800874	2544.625747
402.182944	2545.891077
402.564952	2548.401572
402.946898	2548.986346
403.328783	2553.704866
403.710606	2558.501523
404.092367	2564.127451
404.474067	2570.136507
404.855705	2575.825449
405.237282	2583.606470
405.618797	2592.589806
406.000250	2603.892073
406.381642	2617.266254
406.762972	2627.804786
407.144240	2639.031436
407.525447	2652.390493
407.906593	2667.829027
408.287677	2688.656554
408.668700	2698.421269
409.049661	2718.684187
409.430560	2741.434914
409.811399	2757.924528
410.192176	2796.698563
410.572891	2807.867240
410.953545	2843.205728
411.334138	2853.600587
411.714669	2887.673746
412.095139	2894.779253
412.475547	2945.916717
412.855894	2973.547281
413.236180	3005.437621
413.616405	3026.723893
413.996568	3076.711974
414.376670	3096.364912
414.756711	3112.045422
415.136691	3157.861948
415.516609	3213.980073
415.896466	3263.610232
416.276262	3310.109836
416.655997	3343.862881
417.035670	3442.916513
417.415283	3521.981970
417.794834	3541.024929
418.174324	3566.129875
418.553753	3574.563725
418.933121	3696.451263
419.312428	3770.561266
419.691674	3792.507929
420.070859	3901.540525
420.449983	3902.727717
420.829045	4010.603368
421.208047	4005.123634
421.586988	4095.514043
421.965867	4148.781395
422.344686	4280.421046
422.723444	4235.159046
423.102141	4172.880631
423.480777	4398.535280
423.859352	4300.910815
424.237866	4515.953836
424.616319	4551.612437
424.994712	4669.693904
425.373044	4633.085045
425.751314	4779.086943
426.129524	4673.893186
426.507673	4865.058781
426.885762	4965.735664
427.263789	4955.819714
427.641756	4895.436774
428.019662	5025.672463
428.397508	5069.464966
428.775292	5060.448863
429.153016	5178.646276
429.530679	5152.041587
429.908282	5248.957769
430.285824	5163.341333
430.663305	5426.887815
431.040726	5226.209563
431.418086	5251.851392
431.795385	5367.538311
432.172624	5400.779679
432.549802	5419.772226
432.926920	5447.125527
433.303977	5469.946831
433.680974	5528.799781
434.057910	5561.312703
434.434786	5579.140743
434.811601	5565.408640
435.188355	5804.324045
435.565050	5694.608372
435.941683	5686.492115
436.318257	5907.256844
436.694770	5898.147479
437.071222	5939.835301
437.447614	5886.015943
437.823946	5808.304036
438.200218	5965.298169
438.576429	5839.970043
438.952580	5941.733296
439.328670	5989.145348
439.704700	5907.942441
440.080670	5898.301235
440.456580	6166.455331
440.832429	6053.987189
441.208218	5898.313838
441.583947	6058.093209
441.959616	6060.729732
442.335224	5991.113918
442.710773	6133.891998
443.086261	6161.479712
443.461689	5957.123938
443.837057	6107.882165
444.212365	6264.682214
444.587612	6161.719167
444.962800	6309.636703
445.337927	6293.351256
445.712995	5905.598305
446.088002	6480.801520
446.462949	6312.789945
446.837837	6240.005766
447.212664	6417.156953
447.587431	6562.117852
447.962139	7104.354442
448.336786	8025.010287
448.711374	7767.069568
449.085901	6839.164544
449.460369	6769.460510
449.834776	6701.616662
450.209124	7090.017401
450.583412	7244.478355
450.957640	7387.185858
451.331808	7150.707852
451.705917	6708.210491
452.079965	6626.180836
452.453954	6843.109247
452.827883	6717.166101
453.201752	6816.060936
453.575562	6611.841273
453.949311	6813.850390
454.323001	6701.667073
454.696632	6778.839577
455.070202	6914.650782
455.443713	7070.001500
455.817164	7172.314237
456.190556	7253.587720
456.563888	7327.269224
456.937160	7370.721450
457.310373	7034.058073
457.683526	7049.080711
458.056619	6943.982736
458.429653	6930.351456
458.802628	6868.819132
459.175542	6973.531459
459.548398	7327.513720
459.921194	7492.334245
460.293930	7492.694688
460.666607	8022.015842
461.039224	8330.882297
461.411782	8454.236811
461.784280	8474.159451
462.156719	8368.022998
462.529099	8241.938699
462.901419	7837.814601
463.273680	7729.558342
463.645882	7737.412460
464.018024	7607.118798
464.390106	7776.781351
464.762130	8157.900144
465.134094	8623.733006
465.505999	9646.023553
465.877845	10862.433812
466.249631	11502.582212
466.621358	11119.152051
466.993026	10497.658440
467.364634	10246.505635
467.736184	9882.330160
468.107674	9554.367815
468.479105	9578.721629
468.850477	9349.845682
469.221790	9124.778328
469.593043	8792.057133
469.964238	8653.561513
470.335373	8663.154829
470.706449	8726.146567
471.077467	8707.524545
471.448425	10012.510397
471.819324	11079.198386
472.190164	11102.513723
472.560945	9858.437612
472.931667	9068.108197
473.302330	8933.464019
473.672934	8586.010052
474.043479	8936.226571
474.413965	8882.419816
474.784393	8760.736444
475.154761	8920.294004
475.525070	9008.559567
475.895321	8835.090943
476.265513	9015.004682
476.635645	9180.165485
477.005719	9181.945013
477.375734	9292.517681
477.745691	9529.799751
478.115588	9662.636676
478.485427	9905.408563
478.855207	10436.647876
479.224928	11249.332287
479.594591	11877.659182
479.964194	11691.769154
480.333739	11624.691561
480.703226	11542.861032
481.072653	11638.252265
481.442022	11881.190510
481.811333	12065.991648
482.180584	11864.496729
482.549777	11579.497617
482.918912	11402.888354
483.287988	11423.826786
483.657005	11437.889085
484.025964	11117.274221
484.394864	11255.084244
484.763706	11219.143337
485.132489	10982.009981
485.501213	10943.324166
485.869879	11019.362410
486.238487	10860.634120
486.607036	10969.966664
486.975527	10754.807698
487.343959	10941.635380
487.712333	10990.849644
488.080648	10920.807853
488.448905	10966.505912
488.817104	10908.436861
489.185244	11172.709269
489.553326	11318.625467
489.921350	11862.092099
490.289315	12921.054520
490.657222	13260.528340
491.025070	13163.390347
491.392861	13039.264536
491.760593	12665.210921
492.128267	12315.017087
492.495883	11994.296358
492.863440	11656.725573
493.230939	11319.825262
493.598380	11252.525858
493.965763	11123.936106
494.333088	11022.200580
494.700354	10942.641090
495.067563	11000.957158
495.434713	10830.707310
495.801805	10953.043511
496.168839	10885.378623
496.535815	10819.326905
496.902733	10824.042905
497.269593	10748.627243
497.636395	10852.137255
498.003139	10844.071409
498.369825	10705.250635
498.736453	10861.559172
499.103023	10793.236413
499.469535	10820.080558
499.835989	10813.998406
500.202385	10781.694692
500.568723	10627.556372
500.935003	10848.570639
501.301226	10652.973869
501.667390	10911.028014
502.033497	11007.419917
502.399546	10865.450942
502.765537	10774.679926
503.131470	10854.723367
503.497345	11023.218893
503.863163	10634.251024
504.228923	10938.386356
504.594625	11004.155770
504.960269	10761.020920
505.325856	10975.025462
505.691385	10770.145408
506.056856	10920.076885
506.422270	10951.153078
506.787625	10829.084058
507.152924	10954.190373
507.518164	10928.382186
507.883347	10855.295538
508.248472	10775.942735
508.613540	11005.532005
508.978550	10883.901565
509.343503	10869.685512
509.708398	10984.278500
510.073236	11097.286046
510.438016	11103.501789
510.802738	11052.820548
511.167403	11109.664599
511.532010	11000.432878
511.896561	11234.017262
512.261053	11309.591720
512.625488	11169.303970
512.989866	11154.046918
513.354186	11142.059054
513.718449	11051.514890
514.082655	11241.775597
514.446803	11130.567744
514.810894	11256.641960
515.174927	11122.615323
515.538904	11146.182718
515.902822	11301.498147
516.266684	11182.128665
516.630488	11118.486618
516.994235	11183.383912
517.357925	11241.291647
517.721558	11328.339771
518.085133	11352.665859
518.448651	11354.828514
518.812112	11241.382388
519.175516	11255.542989
519.538863	11371.005576
519.902152	11295.463886
520.265385	11456.990017
520.628560	11360.651046
520.991678	11343.269148
521.354739	11407.959755
521.717743	11343.899292
522.080690	11323.795171
522.443580	11453.277207
522.806413	11409.630897
523.169189	11438.940166
523.531908	11496.026192
523.894569	11318.494397
524.257174	11322.686117
524.619722	11442.562235
524.982213	11386.963349
525.344647	11443.172214
525.707025	11395.427446
526.069345	11488.930768
526.431608	11400.216542
526.793815	11511.815086
527.155964	11303.103755
527.518057	11349.366423
527.880093	11305.735237
528.242072	11375.698891
528.603995	11276.219281
528.965860	11199.119874
529.327669	11250.353121
529.689421	11196.634585
530.051117	11166.352374
530.412755	11274.835484
530.774337	11165.137456
531.135862	11144.907306
531.497331	11172.220277
531.858743	11016.289827
532.220098	11186.874912
532.581396	11055.726774
532.942638	11039.305215
533.303824	11009.564928
533.664953	11014.608602
534.026025	10932.125243
534.387040	11031.153669
534.747999	11032.108968
535.108902	11092.464182
535.469748	10849.561225
535.830537	10956.083327
536.191270	10933.025089
536.551947	10957.094078
536.912567	10960.022988
537.273131	10879.966945
537.633638	10861.115550
537.994089	10847.887562
538.354483	10794.731116
538.714821	10943.014135
539.075103	10951.115270
539.435328	10914.831565
539.795497	10743.709597
540.155609	10893.323482
540.515665	10985.266566
540.875665	10724.059180
541.235609	10789.821032
541.595496	10786.236771
541.955328	10934.479462
542.315102	10824.579788
542.674821	10777.172777
543.034483	10773.515420
543.394090	10778.092787
543.753640	10711.191635
544.113134	10935.374267
544.472571	10785.483119
544.831953	10926.789182
545.191278	10738.807075
545.550548	10763.407906
545.909761	10905.482745
546.268918	10871.586027
546.628019	10959.801178
546.987064	10822.021402
547.346053	10742.658517
547.704986	10839.194093
548.063863	10834.523463
548.422684	10823.523666
548.781449	10742.356048
549.140158	10841.250883
549.498811	10722.720753
549.857408	10576.751623
550.215949	10801.599688
550.574434	10650.450772
550.932864	10754.132183
551.291237	10814.497480
551.649555	10761.333471
552.007817	10772.323187
552.366022	10733.846580
552.724173	10729.654861
553.082267	10713.336646
553.440305	10849.374703
553.798288	10651.884980
554.156215	10807.210492
554.514086	10784.666452
554.871902	10627.195929
555.229661	10668.755202
555.587365	10643.436006
555.945014	10536.117403
556.302606	10661.269088
556.660143	10558.643799
557.017625	10716.683972
557.375050	10616.387695
557.732421	10740.957128
558.089735	10654.919755
558.446994	10660.442339
558.804197	10690.716988
559.161345	10701.923473
559.518437	10549.484022
559.875474	10635.249173
560.232455	10664.876034
560.589381	10618.152099
560.946251	10610.696233
561.303065	10721.989786
561.659825	10658.975363
562.016528	10587.937944
562.373177	10468.555859
562.729770	10581.722201
563.086307	10495.883954
563.442789	10587.978273
563.799216	10465.445467
564.155587	10516.159475
564.511904	10474.801848
564.868164	10461.485641
565.224370	10482.469443
565.580520	10402.894830
565.936615	10409.382795
566.292654	10276.462692
566.648638	10407.109235
567.004567	10364.118275
567.360441	10349.158651
567.716260	10257.951575
568.072023	10351.086892
568.427732	10304.524274
568.783385	10211.666221
569.138982	10281.229103
569.494525	10299.223501
569.850013	10176.317650
570.205445	10256.126677
570.560823	10150.083485
570.916145	10069.495600
571.271412	10138.897165
571.626625	10085.914638
571.981782	10061.704497
572.336884	10041.633143
572.691931	10041.950735
573.046923	9986.485440
573.401860	9945.596641
573.756743	9878.546774
574.111570	9920.249720
574.466342	9906.321012
574.821059	9933.931411
575.175722	9824.112395
575.530330	9838.119241
575.884882	9830.154218
576.239380	9753.216128
576.593823	9734.389939
576.948211	9749.175643
577.302544	9632.210792
577.656823	9649.423812
578.011047	9647.329212
578.365216	9623.424061
578.719330	9542.909272
579.073389	9556.618690
579.427394	9503.512655
579.781344	9473.459816
580.135239	9427.960882
580.489080	9436.808107
580.842866	9342.800670
581.196597	9351.126136
581.550273	9387.818174
581.903895	9353.785344
582.257463	9420.837732
582.610975	9293.898957
582.964434	9328.012445
583.317837	9249.887163
583.671186	9223.365653
584.024481	9228.585768
584.377721	9143.269280
584.730906	9120.508471
585.084037	9150.236155
585.437113	9084.091175
585.790135	9110.196790
586.143103	9005.280297
586.496016	8980.291297
586.848874	9041.868991
587.201679	9025.971713
587.554428	8914.673118
587.907124	8962.513668
588.259765	8925.756095
588.612352	8935.901417
588.964884	8809.202097
589.317362	8822.856062
589.669786	8825.880755
590.022155	8870.673927
590.374470	8892.870127
590.726731	8828.902926
591.078937	8675.306530
591.431090	8791.472359
591.783188	8663.595930
592.135232	8656.818099
592.487222	8657.044951
592.839157	8708.462199
593.191038	8633.938822
593.542866	8581.619207
593.894639	8478.940985
594.246358	8541.063124
594.598022	8549.328096
594.949633	8448.043753
595.301190	8430.797966
595.652692	8456.190258
596.004141	8564.665806
596.355535	8341.627516
596.706876	8327.971030
597.058162	8261.190865
597.409395	8337.632402
597.760573	8398.900065
598.111698	8303.382803
598.462768	8293.577758
598.813785	8254.675174
599.164748	8228.317501
599.515657	8218.141932
599.866511	8121.245914
600.217312	8250.982529
600.568060	8113.580840
600.918753	8214.603042
601.269392	8176.076024
601.619978	8099.200948
601.970510	8162.371647
602.320988	8159.246132
602.671412	8213.773772
603.021783	8152.221284
603.372100	8121.316490
603.722363	8123.834547
604.072572	8103.143131
604.422728	8110.291487
604.772830	8042.840848
605.122878	8044.423771
605.472872	8038.845734
605.822813	8069.473264
606.172701	8015.011158
606.522534	8092.254238
606.872314	8092.980164
607.222041	8068.064262
607.571714	8116.993701
607.921333	8078.847290
608.270899	8081.335099
608.620411	8170.525713
608.969870	8080.047084
609.319276	8067.991165
609.668627	8089.095955
610.017926	8122.314639
610.367171	8171.163419
610.716362	8141.425653
611.065500	8134.426011
611.414585	8163.175711
611.763616	8146.507136
612.112594	8132.616237
612.461518	8149.557034
612.810389	8204.392185
613.159207	8150.439236
613.507971	8099.112728
613.856682	8216.730409
614.205340	8170.109818
614.553945	8251.264833
614.902496	8146.066035
615.250994	8202.554684
615.599439	8181.144904
615.947830	8194.473715
616.296169	8167.143099
616.644454	8181.701952
616.992686	8175.380345
617.340864	8237.240343
617.688990	8141.213924
618.037063	8231.100218
618.385082	8179.592229
618.733048	8265.745548
619.080961	8206.799336
619.428821	8226.543015
619.776628	8230.006288
620.124382	8175.922269
620.472083	8160.294692
620.819731	8188.424330
621.167326	8080.059687
621.514868	8096.629960
621.862357	7975.700241
622.209793	7993.898806
622.557176	7932.036287
622.904506	7906.878408
623.251783	7836.889549
623.599007	7796.373796
623.946179	7791.877086
624.293297	7749.712876
624.640363	7669.452665
624.987376	7652.612691
625.334336	7599.920030
625.681243	7552.107207
626.028097	7535.741101
626.374899	7510.260588
626.721647	7506.603231
627.068343	7439.414733
627.414987	7410.554127
627.761577	7362.353135
628.108115	7400.658342
628.454600	7296.271169
628.801032	7349.654468
629.147412	7308.402706
629.493739	7294.410984
629.840014	7234.249854
630.186236	7287.557535
630.532405	7175.427150
630.878521	7227.494707
631.224585	7180.261617
631.570597	7100.356807
631.916556	7138.656974
632.262462	7133.656149
632.608316	7091.837257
632.954117	7069.033598
633.299866	7055.777884
633.645562	7052.435599
633.991206	6972.563557
634.336797	6917.826709
634.682336	6869.479523
635.027823	6845.138312
635.373257	6827.302709
635.718639	6765.586383
636.063968	6779.726820
636.409245	6671.210942
636.754470	6671.596591
637.099642	6622.462985
637.444762	6568.605818
637.789829	6584.210709
638.134845	6518.305184
638.479808	6506.808833
638.824719	6513.286716
639.169577	6441.447753
639.514383	6463.654036
639.859137	6388.019084
640.203839	6395.333798
640.548489	6385.619495
640.893086	6359.740731
641.237632	6329.667728
641.582125	6352.027766
641.926566	6319.575338
642.270955	6331.288459
642.615292	6328.956925
642.959576	6340.954872
643.303809	6332.858778
643.647990	6339.379511
643.992118	6330.456669
644.336195	6275.961796
644.680219	6307.713503
645.024192	6292.985772
645.368112	6385.264093
645.711981	6414.452374
646.055797	6488.829558
646.399562	6441.924142
646.743274	6571.068421
647.086935	6621.764785
647.430544	6616.912674
647.774101	6639.363453
648.117606	6644.923846
648.461059	6639.106354
648.804460	6604.329954
649.147810	6515.058681
649.491108	6481.020811
649.834354	6454.675741
650.177548	6370.795982
650.520690	6283.631911
650.863781	6262.365804
651.206820	6282.238032
651.549807	6208.319593
651.892742	6146.792311
652.235626	6149.953114
652.578458	6135.366535
652.921238	6049.041817
653.263967	6084.060192
653.606644	6023.367220
653.949269	6028.688158
654.291843	5969.701617
654.634365	6017.620305
654.976836	5969.406710
655.319255	5972.554910
655.661622	5946.323266
656.003938	5943.311177
656.346203	5907.014869
656.688416	5935.595691
657.030577	5885.889914
657.372687	5858.760944
657.714746	5848.096383
658.056753	5892.566922
658.398708	5828.183826
658.740612	5820.037321
659.082465	5870.441298
659.424266	5863.764290
659.766016	5862.549372
660.107715	5842.009190
660.449362	5851.259708
660.790958	5845.404407
661.132503	5829.776830
661.473996	5866.650350
661.815438	5852.275500
662.156829	5852.608216
662.498168	5844.534808
662.839456	5822.457075
663.180693	5862.771182
663.521879	5857.349421
663.863013	5846.200910
664.204097	5867.348550
664.545129	5906.712400
664.886110	5897.661008
665.227040	5936.911432
665.567918	5902.145114
665.908746	5931.046049
666.249522	5933.654847
666.590248	5921.898876
666.930922	5948.107835
667.271545	5961.194670
667.612118	5962.389423
667.952639	5935.452018
668.293109	5958.311130
668.633528	5915.035345
668.973896	5915.294964
669.314213	5907.415641
669.654480	5893.270163
669.994695	5884.629625
670.334859	5875.343820
670.674973	5867.570361
671.015035	5869.601946
671.355047	5865.589187
671.695008	5854.811200
672.034918	5827.442776
672.374777	5838.871072
672.714585	5827.548640
673.054342	5826.832797
673.394049	5818.809800
673.733705	5854.246591
674.073310	5841.767215
674.412864	5801.064939
674.752368	5791.716119
675.091820	5796.943795
675.431223	5727.862344
675.770574	5735.527418
676.109875	5684.886507
676.449125	5686.378689
676.788324	5656.335932
677.127473	5596.373928
677.466571	5592.131797
677.805619	5578.918933
678.144616	5568.972736
678.483562	5548.510693
678.822458	5512.935270
679.161303	5511.054920
679.500098	5501.900184
679.838842	5482.234643
680.177535	5488.178163
680.516179	5503.099979
680.854771	5512.680692
681.193314	5593.013999
681.531805	5702.994332
681.870247	5854.160892
682.208638	5960.035205
682.546978	5967.685156
682.885268	5946.524912
683.223508	5857.503177
683.561697	5802.083252
683.899836	5772.302635
684.237925	5730.410647
684.575963	5696.463517
684.913951	5655.143699
685.251889	5721.760027
685.589776	5685.007495
685.927614	5655.771323
686.265401	5728.888218
686.603137	5709.580599
686.940824	5788.348628
687.278460	5809.249252
687.616046	5817.385674
687.953582	5889.816973
688.291068	5866.756214
688.628504	5931.441780
688.965889	5898.404578
689.303224	5839.080280
689.640510	5790.360048
689.977745	5717.752310
690.314930	5622.545078
690.652065	5557.957815
690.989150	5470.065298
691.326185	5395.370521
691.663170	5340.563097
692.000105	5266.294298
692.336990	5186.064334
692.673825	5162.741436
693.010610	5093.221404
693.347345	5021.717678
693.684030	5005.643958
694.020665	4970.560048
694.357251	4877.165112
694.693786	4886.355135
695.030272	4853.854816
695.366707	4820.401719
695.703093	4787.964415
696.039429	4806.725069
696.375716	4789.668325
696.711952	4767.832567
697.048139	4749.830607
697.384276	4732.607504
697.720363	4747.549484
698.056400	4757.054580
698.392388	4704.016600
698.728326	4682.319474
699.064214	4664.892205
699.400053	4661.093696
699.735842	4622.009630
700.071581	4598.812761
700.407270	4570.315118
700.742910	4553.412129
701.078501	4499.849870
701.414042	4496.356350
701.749533	4470.033965
702.084974	4402.510230
702.420366	4461.136329
702.755709	4401.159201
703.091002	4346.994523
703.426246	4390.809712
703.761440	4351.526521
704.096584	4313.944719
704.431679	4333.148994
704.766725	4318.121315
705.101721	4309.639573
705.436668	4333.431299
705.771565	4284.993372
706.106413	4310.305006
706.441212	4345.121735
706.775961	4352.842262
707.110661	4328.488448
707.445311	4355.370400
707.779913	4384.288979
708.114465	4394.613262
708.448967	4415.667642
708.783421	4478.576200
709.117825	4519.301162
709.452180	4520.054814
709.786485	4570.126075
710.120742	4653.279907
710.454949	4641.337414
710.789107	4705.208833
711.123216	4782.025936
711.457275	4766.940283
711.791286	4846.938353
712.125247	4862.825549
712.459159	4768.482876
712.793023	4839.396787
713.126837	4799.251558
713.460602	4793.255106
713.794318	4709.597158
714.127985	4723.172985
714.461602	4634.609994
714.795171	4605.275520
715.128691	4542.119945
715.462162	4484.555009
715.795584	4430.407975
716.128957	4418.538579
716.462281	4362.352398
716.795556	4339.994881
717.128782	4301.820744
717.461960	4232.275506
717.795088	4242.698091
718.128167	4203.687122
718.461198	4142.391733
718.794180	4135.805465
719.127113	4118.655460
719.459997	4096.038323
719.792833	4053.682548
720.125619	4045.581414
720.458357	4007.692102
720.791046	4014.658977
721.123686	3986.035305
721.456278	3945.209521
721.788821	3960.859783
722.121315	3937.534364
722.453761	3911.159047
722.786158	3926.171603
723.118506	3947.697330
723.450805	3897.540370
723.783056	3919.018206
724.115259	3933.864404
724.447412	3940.725414
724.779518	3932.105041
725.111574	3939.150054
725.443582	3964.375987
725.775542	3951.095068
726.107453	4003.376874
726.439315	4002.971061
726.771129	4019.816077
727.102895	4054.416036
727.434612	4103.557204
727.766281	4115.870222
728.097901	4110.869398
728.429473	4119.071355
728.760996	4123.762149
729.092471	4121.637302
729.423897	4106.176083
729.755276	4112.343935
730.086606	4108.610961
730.417887	4147.347187
730.749120	4213.383782
731.080305	4278.099594
731.411442	4303.421310
731.742530	4274.835447
732.073570	4278.765027
732.404562	4334.663861
732.735506	4325.514167
733.066401	4289.774907
733.397249	4222.321748
733.728048	4141.978358
734.058798	4060.346954
734.389501	3990.383300
734.720156	3929.231583
735.050762	3886.200294
735.381320	3880.571846
735.711831	3824.035306
736.042293	3799.268117
736.372707	3821.270233
736.703073	3794.310142
737.033391	3780.023512
737.363661	3795.872900
737.693883	3826.412210
738.024056	3833.575689
738.354182	3830.162828
738.684260	3890.565933
739.014290	3911.320364
739.344272	3909.228285
739.674207	3953.093885
740.004093	3956.892395
740.333931	3952.133545
740.663722	3950.641364
740.993464	3951.984831
741.323159	3926.348043
741.652806	3897.104310
741.982405	3866.615412
742.311956	3834.654496
742.641460	3830.324145
742.970915	3805.962769
743.300323	3762.255965
743.629683	3729.639700
743.958996	3716.452041
744.288260	3693.731561
744.617477	3660.094462
744.946647	3646.891680
745.275768	3618.751959
745.604842	3617.451342
745.933869	3571.939805
746.262847	3562.366653
746.591778	3600.755040
746.920662	3569.260431
747.249498	3540.966955
747.578286	3584.300714
747.907027	3607.371554
748.235720	3601.503651
748.564365	3628.002477
748.892963	3627.478197
749.221514	3611.454889
749.550017	3585.530755
749.878473	3585.455138
750.206881	3557.111251
750.535242	3552.322154
750.863555	3553.960529
751.191821	3548.085065
751.520039	3528.076725
751.848210	3505.086543
752.176334	3543.837892
752.504411	3547.512894
752.832440	3503.743075
753.160421	3486.557782
753.488356	3497.305522
753.816243	3511.627440
754.144082	3468.457519
754.471875	3455.428657
754.799620	3473.168477
755.127318	3463.670943
755.454969	3463.991057
755.782572	3470.844505
756.110129	3446.357101
756.437638	3436.473918
756.765100	3448.860033
757.092515	3458.781024
757.419882	3467.618167
757.747203	3436.501645
758.074477	3438.921399
758.401703	3459.045685
758.728882	3478.474292
759.056014	3486.527535
759.383099	3491.273781
759.710138	3484.412771
760.037129	3499.450533
760.364073	3532.545708
760.690970	3515.516690
761.017820	3496.135974
761.344623	3512.406298
761.671379	3559.175603
761.998088	3607.177470
762.324751	3737.130854
762.651366	3981.737721
762.977935	4452.402530
763.304456	4897.090272
763.630931	4993.835056
763.957359	4635.371208
764.283740	4289.505205
764.610074	4097.691822
764.936362	3901.356523
765.262602	3741.415835
765.588796	3631.836274
765.914943	3543.053993
766.241044	3459.000314
766.567097	3423.659305
766.893104	3383.451062
767.219064	3349.400589
767.544978	3320.850014
767.870845	3267.121396
768.196665	3250.064652
768.522438	3257.850714
768.848165	3248.945516
769.173846	3216.679611
769.499479	3200.739482
769.825066	3179.095288
770.150607	3164.387722
770.476101	3178.845751
770.801548	3176.667973
771.126949	3129.346662
771.452303	3113.225052
771.777611	3120.335599
772.102872	3122.664612
772.428087	3099.689553
772.753256	3090.587750
773.078378	3087.285794
773.403453	3047.382541
773.728482	3037.958104
774.053465	3055.660116
774.378401	3044.272149
774.703291	3013.773168
775.028135	3015.920700
775.352932	3011.373579
775.677683	2998.185921
776.002388	2995.738441
776.327046	2997.795231
776.651658	2989.111844
776.976224	2973.338073
777.300743	2975.062148
777.625216	2964.722742
777.949643	2959.043882
778.274024	2961.924901
778.598359	2953.082717
778.922647	2958.625466
779.246889	2956.427523
779.571086	2941.049483
779.895236	2934.198555
780.219339	2947.628189
780.543397	2959.227884
780.867409	2962.408852
781.191374	2954.043057
781.515294	2950.904939
781.839167	2955.016000
782.162995	2942.944957
782.486776	2951.761935
782.810511	2947.492078
783.134201	2937.815583
783.457844	2941.586366
783.781441	2934.677465
784.104993	2917.051070
784.428498	2916.864548
784.751958	2929.076743
785.075372	2921.169693
785.398739	2905.095974
785.722061	2922.729930
786.045337	2933.240736
786.368568	2920.040474
786.691752	2911.604103
787.014891	2955.837708
787.337983	2987.763335
787.661030	3016.792820
787.984031	3081.072572
788.306987	3128.305663
788.629897	3121.235445
788.952760	3103.341869
789.275579	3089.216556
789.598351	3029.819161
789.921078	2987.183603
790.243759	2977.020636
790.566395	2963.182669
790.888984	2934.793411
791.211529	2924.882503
791.534027	2908.886922
791.856480	2897.569531
792.178888	2887.376318
792.501249	2878.592107
792.823566	2876.149668
793.145836	2873.187991
793.468062	2868.056096
793.790241	2869.414687
794.112375	2871.831920
794.434464	2884.850700
794.756507	2886.116030
795.078505	2895.172463
795.400457	2906.058834
795.722364	2942.511418
796.044226	2970.310861
796.366042	2971.588793
796.687812	2959.666464
797.009538	2982.603714
797.331218	2971.190542
797.652852	2954.426185
797.974442	2934.085129
798.295986	2930.253852
798.617484	2928.514654
798.938938	2910.953795
799.260346	2897.614902
799.581709	2893.362688
799.903026	2886.221894
800.224299	2881.465565
800.545526	2869.087012
800.866708	2856.539580
801.187845	2846.719412
801.508936	2843.697241
801.829983	2849.451718
802.150984	2841.128773
802.471940	2824.971875
802.792851	2826.070846
803.113717	2828.389777
803.434538	2832.452947
803.755314	2826.126299
804.076045	2817.185812
804.396731	2819.028354
804.717372	2817.780669
805.037967	2810.954946
805.358518	2820.618838
805.679024	2830.985971
805.999485	2828.538491
806.319901	2831.699294
806.640272	2822.481545
806.960598	2830.980930
807.280879	2835.601147
807.601115	2845.774196
807.921306	2830.728872
808.241453	2830.030672
808.561554	2832.833554
808.881611	2833.390602
809.201623	2832.100066
809.521590	2828.422544
809.841513	2823.948520
810.161390	2828.117555
810.481223	2821.770742
810.801011	2815.096254
811.120755	2809.921510
811.440453	2814.476192
811.760107	2813.319247
812.079716	2812.232879
812.399281	2798.775519
812.718801	2796.149077
813.038276	2789.623304
813.357707	2794.644293
813.677093	2802.437917
813.996434	2794.903912
814.315731	2792.486679
814.634983	2788.884775
814.954191	2790.692028
815.273354	2804.686272
815.592473	2810.186170
815.911547	2812.449648
816.230577	2822.468942
816.549562	2829.816423
816.868502	2829.670230
817.187399	2837.821776
817.506250	2856.658047
817.825058	2850.832994
818.143821	2860.852287
818.462539	2878.776110
818.781213	2904.160840
819.099843	2939.862291
819.418429	2997.699449
819.736970	3059.798903
820.055466	3131.312712
820.373919	3234.658886
820.692327	3374.858416
821.010691	3542.088612
821.329011	3988.984380
821.647286	4881.881111
821.965517	6255.852633
822.283704	6998.089440
822.601847	6989.436299
822.919945	6353.230081
823.237999	5850.770716
823.556010	5272.537767
823.873976	4712.112693
824.191897	4305.294099
824.509775	4012.080426
824.827609	3742.698809
825.145398	3618.260447
825.463144	3604.649331
825.780845	3698.308929
826.098502	3800.354485
826.416116	4084.577260
826.733685	4394.577974
827.051210	4459.442501
827.368692	4350.031818
827.686129	4083.760593
828.003522	3759.130450
828.320872	3501.623270
828.638177	3303.286634
828.955439	3169.408711
829.272656	3085.614652
829.589830	3016.994466
829.906960	2966.751806
830.224046	2925.540373
830.541088	2887.913201
830.858086	2875.600183
831.175041	2857.285671
831.491952	2857.701566
831.808819	2871.305120
832.125642	2892.180538
832.442421	2939.239709
832.759157	3019.588139
833.075849	3199.708566
833.392497	3478.774240
833.709101	3683.152700
834.025662	3630.364257
834.342179	3474.617809
834.658653	3297.968217
834.975083	3146.940288
835.291469	3052.280022
835.607811	2965.315077
835.924110	2907.684606
836.240366	2858.770291
836.556578	2814.879485
836.872746	2791.662451
837.188871	2769.425921
837.504952	2752.260792
837.820990	2747.703589
838.136984	2728.375805
838.452935	2723.800958
838.768842	2720.075545
839.084706	2740.789647
839.400526	2818.995587
839.716303	2950.453756
840.032037	3032.548946
840.347727	3011.963394
840.663373	2955.545321
840.978977	2882.617469
841.294537	2809.014102
841.610054	2759.961155
841.925527	2740.025912
842.240957	2718.477500
842.556344	2695.260466
842.871687	2680.973836
843.186987	2671.085612
843.502244	2667.574449
843.817458	2661.275527
844.132629	2649.771614
844.447756	2641.587301
844.762840	2632.278810
845.077881	2638.640746
845.392879	2635.870632
845.707833	2632.452730
846.022745	2623.867645
846.337613	2628.334107
846.652438	2625.153139
846.967221	2625.238839
847.281960	2623.045937
847.596656	2620.916049
847.911309	2619.996039
848.225919	2617.682149
848.540485	2616.386572
848.855009	2616.815071
849.169490	2615.206943
849.483928	2617.919083
849.798323	2614.322220
850.112675	2614.337343
850.426984	2613.984463
850.741251	2612.852724
851.055474	2610.773248
851.369654	2616.172323
851.683792	2614.927158
851.997887	2611.786520
852.311938	2610.954729
852.625947	2613.326592
852.939914	2617.127622
853.253837	2617.417488
853.567718	2611.383227
853.881555	2613.873557
854.195350	2615.022940
854.509103	2616.366408
854.822812	2608.040942
855.136479	2610.359873
855.450103	2613.719802
855.763685	2615.123763
856.077224	2611.418515
856.390720	2607.753597
856.704173	2610.080089
857.017584	2617.087293
857.330953	2614.869185
857.644278	2620.757253
857.957561	2620.689197
858.270802	2616.827673
858.584000	2614.778444
858.897155	2621.586523
859.210268	2621.147942
859.523339	2615.605194
859.836367	2611.491612
860.149352	2610.843824
860.462295	2614.334823
860.775195	2609.903649
861.088054	2609.891046
861.400869	2606.863833
861.713642	2605.429625
862.026373	2604.507093
862.339062	2610.465737
862.651708	2614.423043
862.964312	2615.748867
863.276873	2613.412292
863.589392	2616.966305
863.901869	2623.297994
864.214303	2626.983078
864.526696	2630.156484
864.839045	2631.389046
865.151353	2635.089253
865.463619	2634.965745
865.775842	2633.282000
866.088023	2633.463481
866.400162	2634.038173
866.712258	2634.131434
867.024313	2630.862246
867.336325	2627.711525
867.648296	2632.137658
867.960224	2636.331898
868.272110	2634.703605
868.583954	2625.919394
868.895755	2628.674385
869.207515	2634.096146
869.519233	2641.055459
869.830909	2635.061527
870.142542	2634.086064
870.454134	2634.907772
870.765684	2641.748617
871.077191	2642.955974
871.388657	2644.107877
871.700081	2642.361118
872.011463	2643.777682
872.322803	2642.451858
872.634101	2646.971253
872.945357	2654.825371
873.256571	2659.516164
873.567744	2656.630104
873.878874	2656.501554
874.189963	2657.691267
874.501010	2661.797286
874.812015	2669.235509
875.122979	2669.043945
875.433900	2657.517347
875.744780	2658.109682
876.055618	2665.361382
876.366415	2665.563028
876.677169	2667.834068
876.987882	2660.912564
877.298554	2659.029693
877.609183	2670.165602
877.919771	2676.814884
878.230317	2684.757222
878.540822	2695.588141
878.851285	2710.804863
879.161707	2732.000395
879.472087	2769.975407
879.782425	2819.111533
880.092722	2932.035900
880.402977	3119.239148
880.713191	3379.753376
881.023363	3671.507634
881.333494	3864.422510
881.643583	4037.843243
881.953631	4035.368037
882.263637	3858.615100
882.573602	3636.869866
882.883526	3508.156606
883.193408	3393.800551
883.503248	3288.873975
883.813048	3180.123684
884.122806	3066.629667
884.432522	2976.279587
884.742197	2910.542941
885.051831	2874.866695
885.361424	2842.353773
885.670975	2805.419759
885.980485	2773.040428
886.289954	2756.870927
886.599382	2740.595562
886.908768	2729.167266
887.218113	2710.358721
887.527417	2697.662575
887.836680	2689.788293
888.145901	2684.530370
888.455082	2676.003258
888.764221	2666.477998
889.073319	2659.203613
889.382376	2659.813592
889.691392	2656.146153
890.000366	2660.030362
890.309300	2655.417706
890.618193	2658.679333
890.927044	2662.182935
891.235855	2661.530105
891.544625	2659.264107
891.853353	2659.443067
892.162041	2667.836589
892.470687	2688.366688
892.779293	2698.328008
893.087858	2707.850747
893.396381	2731.569376
893.704864	2771.323915
894.013306	2845.975842
894.321707	2936.182249
894.630068	2985.056236
894.938387	3006.360152
895.246665	3001.535768
895.554903	2958.950620
895.863100	2914.124680
896.171256	2854.787779
896.479371	2795.544139
896.787446	2753.926893
897.095480	2736.171950
897.403473	2729.515106
897.711425	2717.610421
898.019336	2696.530836
898.327207	2684.207736
898.635038	2682.057684
898.942827	2678.435615
899.250576	2670.208452
899.558284	2658.102121
899.865952	2656.085659
900.173579	2651.571306
900.481165	2650.517705
900.788711	2639.439769
901.096216	2637.488842
901.403681	2632.982051
901.711105	2630.776546
902.018489	2630.862246
902.325832	2634.403656
902.633135	2633.697895
902.940397	2650.280770
903.247619	2687.759229
903.554800	2757.470825
903.861941	2884.666698
904.169041	3010.814011
904.476101	3072.069072
904.783121	3065.901220
905.090100	3009.112622
905.397039	2933.419697
905.703938	2860.060826
906.010796	2794.795528
906.317614	2746.773496
906.624391	2709.743701
906.931129	2682.765966
907.237826	2658.102121
907.544483	2642.386323
907.851099	2628.223202
908.157675	2615.373301
908.464211	2611.098402
908.770707	2599.896958
909.077163	2595.967379
909.383578	2592.899837
909.689954	2591.717686
909.996289	2590.527974
910.302584	2589.633169
910.608839	2586.275761
910.915054	2586.840370
911.221229	2587.639393
911.527363	2592.146184
911.833458	2589.290371
912.139513	2589.295412
912.445527	2591.798345
912.751502	2601.242946
913.057436	2601.036259
913.363331	2610.032198
913.669186	2621.798251
913.975000	2633.350055
914.280775	2648.322282
914.586510	2668.980931
914.892205	2704.347145
915.197859	2770.741662
915.503475	2857.129395
915.809050	2918.679363
916.114585	2937.984462
916.420081	2951.804785
916.725536	2959.973975
917.030952	2932.610592
917.336328	2888.926473
917.641665	2836.957218
917.946961	2789.106586
918.252218	2755.542583
918.557435	2728.947976
918.862612	2707.565922
919.167750	2690.705783
919.472848	2673.223062
919.777906	2654.928714
920.082925	2644.392703
920.387904	2633.516413
920.692843	2629.617081
920.997743	2624.049126
921.302603	2618.604680
921.607423	2612.499843
921.912204	2607.708226
922.216946	2602.573811
922.521647	2599.685230
922.826310	2596.196751
923.130932	2593.540063
923.435516	2586.895823
923.740059	2588.682912
924.044564	2583.324165
924.349028	2584.042529
924.653454	2571.868143
924.957840	2573.987948
925.262186	2568.631722
925.566493	2571.558112
925.870761	2568.051989
926.174989	2569.834037
926.479178	2565.516289
926.783328	2564.077040
927.087438	2564.523182
927.391509	2561.284240
927.695541	2559.361040
927.999533	2558.708211
928.303486	2557.858776
928.607400	2554.219063
928.911275	2558.284754
929.215110	2557.931873
929.518906	2556.074208
929.822663	2557.140412
930.126381	2555.446584
930.430060	2558.972871
930.733699	2555.010524
931.037299	2556.550597
931.340861	2558.105793
931.644383	2559.000598
931.947866	2555.789383
932.251309	2559.855073
932.554714	2557.208468
932.858080	2557.571431
933.161407	2557.188303
933.464694	2557.344579
933.767943	2556.497665
934.071153	2554.299722
934.374323	2553.790565
934.677455	2552.802499
934.980548	2553.805689
935.283602	2554.035061
935.586617	2552.709238
935.889593	2554.214022
936.192530	2553.843497
936.495428	2554.579506
936.798287	2556.217881
937.101108	2554.408107
937.403890	2557.556307
937.706632	2563.235167
938.009336	2564.278686
938.312002	2571.742114
938.614628	2573.403174
938.917216	2573.962742
939.219765	2577.670511
939.522275	2577.226889
939.824747	2575.923751
940.127179	2570.474264
940.429573	2568.851012
940.731929	2570.030642
941.034246	2564.601320
941.336524	2567.242884
941.638763	2567.878070
941.940964	2567.336146
942.243126	2566.458985
942.545250	2564.238357
942.847335	2560.981771
943.149381	2561.783315
943.451389	2557.505896
943.753359	2560.497820
944.055290	2556.916081
944.357182	2557.836091
944.659036	2555.265103
944.960851	2556.268292
945.262628	2554.670247
945.564367	2554.120761
945.866067	2555.023127
946.167729	2557.284085
946.469352	2559.439178
946.770937	2557.601678
947.072484	2556.028837
947.373992	2553.848538
947.675462	2555.118909
947.976893	2554.771070
948.278286	2554.473642
948.579641	2556.512788
948.880958	2551.789227
949.182236	2553.586398
949.483476	2556.462377
949.784678	2552.752087
950.085841	2552.308466
950.386967	2552.583209
950.688054	2553.795606
950.989103	2555.726368
951.290114	2553.954403
951.591087	2557.969682
951.892021	2558.078067
952.192917	2561.753068
952.493776	2559.645865
952.794596	2562.879766
953.095378	2561.818603
953.396122	2564.160219
953.696828	2558.844322
953.997496	2555.491955
954.298126	2557.778118
954.598718	2559.083777
954.899272	2551.811912
955.199788	2553.921635
955.500266	2554.178734
955.800706	2548.308310
956.101108	2544.174564
956.401472	2544.960984
956.701798	2541.938813
957.002087	2543.380583
957.302337	2546.735470
957.602550	2545.419729
957.902724	2542.687424
958.202861	2543.020140
958.502960	2541.611137
958.803022	2541.527958
959.103045	2543.597352
959.403031	2542.261446
959.702979	2542.334543
960.002889	2542.856302
960.302762	2541.137269
960.602596	2541.608617
960.902393	2540.691127
961.202153	2542.337064
961.501875	2540.313040
961.801559	2541.472506
962.101205	2540.892773
962.400814	2541.265818
962.700385	2540.980993
962.999918	2538.420087
963.299414	2540.819676
963.598873	2541.323792
963.898293	2538.982176
964.197677	2536.353214
964.497022	2536.948070
964.796331	2539.229192
965.095601	2539.801363
965.394835	2539.899666
965.694030	2537.613503
965.993189	2538.624254
966.292309	2537.812628
966.591393	2540.282793
966.890439	2538.629295
967.189447	2538.669624
967.488419	2537.905889
967.787353	2535.463450
968.086249	2536.829603
968.385108	2539.158616
968.683930	2539.937474
968.982714	2540.207176
969.281462	2538.026877
969.580172	2537.981507
969.878844	2536.096115
970.177480	2536.249870
970.476078	2540.174409
970.774639	2537.726928
971.073162	2538.977135
971.371649	2536.522093
971.670098	2534.298944
971.968510	2539.050231
972.266885	2537.114428
972.565223	2539.957639
972.863524	2537.807587
973.161788	2540.239944
973.460014	2536.970755
973.758204	2539.319933
974.056356	2541.742208
974.354471	2540.998637
974.652550	2538.624254
974.950591	2540.960829
975.248595	2539.080478
975.546563	2539.945036
975.844493	2540.532331
976.142386	2539.143493
976.440243	2541.575849
976.738062	2538.994779
977.035845	2539.461085
977.333590	2536.524613
977.631299	2538.145344
977.928971	2537.573173
978.226606	2537.807587
978.524204	2536.474202
978.821765	2537.074099
979.119290	2535.581917
979.416777	2541.303627
979.714228	2538.780530
980.011642	2537.311033
980.309020	2536.259953
980.606360	2537.086702
980.903664	2538.750283
981.200931	2538.583925
981.498162	2542.032074
981.795356	2539.866898
982.092513	2545.051725
982.389633	2544.461910
982.686717	2551.269988
982.983764	2551.859803
983.280775	2553.798127
983.577749	2554.216543
983.874686	2551.242262
984.171587	2551.214536
984.468451	2546.914431
984.765279	2542.311858
985.062070	2543.597352
985.358824	2543.191539
985.655543	2542.100129
985.952224	2540.489481
986.248869	2537.507638
986.545478	2533.477236
986.842050	2534.855991
987.138586	2530.744930
987.435086	2535.370189
987.731549	2533.073943
988.027975	2535.483615
988.324366	2534.624098
988.620719	2535.503780
988.917037	2534.394726
989.213318	2536.834644
989.509563	2531.876669
989.805772	2535.171063
990.101944	2533.515044
990.398080	2534.165353
990.694180	2533.625950
990.990244	2534.997144
991.286271	2535.944881
991.582262	2535.836496
991.878217	2533.424304
992.174136	2534.984541
992.470019	2530.853315
992.765865	2534.765251
993.061676	2535.788605
993.357450	2533.328522
993.653188	2533.867925
993.948890	2536.927906
994.244556	2536.282638
994.540186	2536.905220
994.835780	2533.462112
995.131337	2534.631660
995.426859	2538.306661
995.722345	2537.235416
996.017795	2536.398584
996.313208	2539.022505
996.608586	2537.976466
996.903928	2537.742052
997.199234	2537.583256
997.494504	2539.844213
997.789738	2537.505118
998.084936	2536.544778
998.380099	2537.666435
998.675225	2538.919161
998.970316	2535.818852
999.265371	2534.813142
999.560390	2532.390867
999.855373	2534.979500
1000.150320	2532.504293
1000.445232	2535.256763
1000.740108	2533.275590
1001.034948	2534.442617
1001.329752	2533.933460
1001.624521	2531.160826
1001.919254	2528.546987
1002.213951	2530.893644
1002.508613	2530.505476
1002.803239	2536.224665
1003.097829	2530.528161
1003.392384	2531.821217
1003.686903	2533.555374
1003.981386	2535.244160
1004.275834	2531.117976
1004.570246	2533.331042
1004.864623	2531.259128
1005.158964	2531.896834
1005.453270	2533.462112
1005.747540	2534.344314
1006.041775	2531.954807
1006.335974	2535.506300
1006.630138	2531.440610
1006.924266	2534.835827
1007.218359	2532.509334
1007.512416	2535.168543
1007.806438	2531.901875
1008.100425	2534.503111
1008.394376	2533.091588
1008.688292	2533.336083
1008.982172	2533.371372
1009.276017	2531.390198
1009.569827	2530.697039
1009.863602	2532.292565
1010.157341	2531.422966
1010.451045	2533.031094
1010.744714	2531.559077
1011.038347	2534.069571
1011.331945	2532.113604
1011.625508	2534.518234
1011.919036	2532.126207
1012.212528	2533.673841
1012.505986	2531.417924
1012.799408	2531.861546
1013.092795	2531.707791
1013.386147	2530.923891
1013.679464	2534.366999
1013.972745	2532.683254
1014.265992	2531.748120
1014.559204	2532.254756
1014.852380	2533.260466
1015.145521	2534.109901
1015.438628	2532.602596
1015.731699	2532.552184
1016.024736	2529.376257
1016.317737	2531.687626
1016.610703	2531.468336
1016.903635	2528.360465
1017.196531	2526.941380
1017.489393	2528.935156
1017.782219	2527.200999
1018.075011	2530.260980
1018.367768	2530.858356
1018.660490	2531.599406
1018.953177	2531.599406
1019.245829	2531.599406
