Dividing Wavelength (nm)	Counts (n)	Blue Motor Position (mm): 37.800000	Red Motor Position (mm): 0.000000	
326.493990	2130.401698
326.888308	2130.401698
327.282561	2130.401698
327.676750	2096.827613
328.070874	2097.344331
328.464933	2097.382140
328.858929	2105.100147
329.252859	2114.816971
329.646726	2127.132509
330.040528	2138.170116
330.434265	2154.609318
330.827938	2173.281752
331.221547	2194.384022
331.615091	2209.532690
332.008571	2230.531616
332.401986	2250.013155
332.795338	2269.038470
333.188625	2290.173507
333.581847	2305.183543
333.975006	2325.864876
334.368100	2342.483040
334.761129	2362.380474
335.154095	2378.113915
335.546996	2400.161402
335.939833	2423.985895
336.332606	2439.283276
336.725315	2454.167283
337.117960	2461.091308
337.510540	2468.340487
337.903056	2480.061170
338.295508	2489.435195
338.687896	2496.954076
339.080220	2504.735097
339.472480	2511.707013
339.864676	2516.266737
340.256807	2520.208919
340.648875	2523.911646
341.040879	2527.871473
341.432818	2527.357275
341.824694	2527.765608
342.216506	2530.381967
342.608253	2529.421627
342.999937	2530.555887
343.391557	2526.490197
343.783113	2526.049096
344.174605	2528.161339
344.566033	2523.820906
344.957397	2525.179497
345.348697	2520.929804
345.739934	2521.713703
346.131106	2517.239679
346.522215	2518.638599
346.913260	2514.071314
347.304241	2513.322703
347.695159	2511.535614
348.086012	2510.625685
348.476802	2506.396157
348.867528	2504.775426
349.258191	2505.524038
349.648789	2503.774757
350.039324	2502.343070
350.429796	2503.081599
350.820203	2498.632780
351.210548	2499.341063
351.600828	2497.773264
351.991045	2495.335866
352.381198	2498.688233
352.771288	2496.817965
353.161314	2498.327791
353.551276	2495.782008
353.941175	2493.256390
354.331010	2494.972903
354.720782	2494.428458
355.110490	2497.990033
355.500135	2497.584220
355.889717	2495.366113
356.279235	2494.806545
356.668689	2498.630260
357.058080	2496.565907
357.447408	2494.035248
357.836672	2493.410145
358.225873	2495.361072
358.615010	2493.952069
359.004084	2498.685713
359.393095	2498.289982
359.782043	2500.581186
360.170927	2500.377020
360.559748	2501.581855
360.948505	2502.219561
361.337199	2502.078409
361.725830	2502.869870
362.114398	2504.064624
362.502903	2505.138389
362.891344	2504.835920
363.279722	2504.150323
363.668037	2506.164264
364.056289	2504.495642
364.444478	2505.448420
364.832603	2505.803822
365.220665	2506.620489
365.608665	2508.805829
365.996601	2505.962618
366.384474	2509.161230
366.772284	2508.468072
367.160031	2506.151661
367.547715	2508.021929
367.935336	2508.861282
368.322893	2510.106447
368.710388	2507.351456
369.097820	2513.211797
369.485189	2510.116529
369.872495	2512.861437
370.259738	2509.831704
370.646918	2510.706344
371.034035	2511.638957
371.421090	2513.942765
371.808081	2510.812208
372.195010	2514.519977
372.581875	2514.146931
372.968678	2513.768845
373.355418	2513.642816
373.742096	2515.876047
374.128710	2514.482168
374.515262	2516.672549
374.901751	2514.482168
375.288177	2515.414782
375.674540	2514.419154
376.060841	2517.380832
376.447079	2517.663136
376.833254	2518.860410
377.219367	2511.805315
377.605417	2515.954185
377.991404	2514.154493
378.377329	2513.993176
378.763191	2513.819256
379.148991	2519.508198
379.534727	2519.228414
379.920402	2519.354443
380.306013	2520.193795
380.691563	2521.481810
381.077049	2520.029958
381.462474	2517.242200
381.847835	2519.503157
382.233134	2523.601615
382.618371	2520.428209
383.003545	2524.630011
383.388657	2522.802592
383.773706	2523.788138
384.158693	2525.073632
384.543618	2521.383508
384.928480	2525.350896
385.313280	2523.657068
385.698017	2525.673530
386.082692	2525.255114
386.467305	2526.896009
386.851856	2526.071781
387.236344	2526.709487
387.620770	2529.640918
388.005133	2526.497758
388.389435	2527.901720
388.773674	2528.945238
389.157851	2529.867770
389.541965	2528.925074
389.926018	2530.666793
390.310008	2533.036135
390.693936	2529.194776
391.077802	2531.783408
391.461606	2531.516227
391.845348	2532.007739
392.229027	2535.234078
392.612645	2533.981351
392.996200	2534.976979
393.379694	2536.138965
393.763125	2540.050900
394.146494	2542.072403
394.529801	2548.247817
394.913047	2548.557847
395.296230	2558.365412
395.679351	2561.488407
396.062410	2571.575756
396.445408	2574.812177
396.828343	2585.781727
397.211217	2591.490834
397.594028	2602.079778
397.976778	2617.972015
398.359466	2634.847278
398.742092	2650.923517
399.124656	2659.927018
399.507158	2683.781758
399.889598	2703.482587
400.271977	2730.682133
400.654294	2747.476737
401.036549	2769.196548
401.418742	2786.885957
401.800874	2825.629745
402.182944	2853.923221
402.564952	2894.315466
402.946898	2918.712130
403.328783	2945.427725
403.710606	2958.209571
404.092367	3033.612629
404.474067	3061.780077
404.855705	3094.923143
405.237282	3104.382868
405.618797	3173.429031
406.000250	3222.325703
406.381642	3288.700055
406.762972	3312.610248
407.144240	3357.211857
407.525447	3395.718710
407.906593	3457.208184
408.287677	3517.364273
408.668700	3524.610932
409.049661	3590.425716
409.430560	3653.825787
409.811399	3659.907939
410.192176	3789.047177
410.572891	3792.737302
410.953545	3895.564237
411.334138	3864.828322
411.714669	3947.639357
412.095139	3922.332764
412.475547	4051.053587
412.855894	4078.694233
413.236180	4125.592088
413.616405	4131.167604
413.996568	4229.757449
414.376670	4221.731933
414.756711	4220.733784
415.136691	4279.969862
415.516609	4373.402608
415.896466	4432.474848
416.276262	4491.806709
416.655997	4505.269110
417.035670	4685.964228
417.415283	4789.822080
417.794834	4772.699801
418.174324	4761.321917
418.553753	4704.460222
418.933121	4891.640785
419.312428	4977.093384
419.691674	4946.352428
420.070859	5084.167491
420.449983	5016.684085
420.829045	5144.149660
421.208047	5077.082150
421.586988	5161.929810
421.965867	5182.966545
422.344686	5329.185212
422.723444	5201.407086
423.102141	5038.103948
423.480777	5337.258620
423.859352	5125.711640
424.237866	5385.986413
424.616319	5383.526330
424.994712	5499.470348
425.373044	5381.280496
425.751314	5534.145925
426.129524	5347.945866
426.507673	5536.444691
426.885762	5623.432321
427.263789	5560.695162
427.641756	5451.518893
428.019662	5572.725875
428.397508	5583.919757
428.775292	5532.179875
429.153016	5634.056553
429.530679	5562.436880
429.908282	5651.219161
430.285824	5521.459861
430.663305	5789.765192
431.040726	5527.771386
431.418086	5532.978898
431.795385	5638.528056
432.172624	5652.935674
432.549802	5644.421165
432.926920	5658.024719
433.303977	5669.052243
433.680974	5708.907605
434.057910	5726.256736
434.434786	5727.363269
434.811601	5700.776224
435.188355	5934.111071
435.565050	5807.426875
435.941683	5792.676459
436.318257	6008.301732
436.694770	5993.417725
437.071222	6026.051635
437.447614	5952.740655
437.823946	5868.424836
438.200218	6023.596593
438.576429	5887.823196
438.952580	5982.385160
439.328670	6031.428025
439.704700	5939.673984
440.080670	5924.416932
440.456580	6200.989756
440.832429	6082.961221
441.208218	5927.229896
441.583947	6080.876703
441.959616	6083.977013
442.335224	6015.235839
442.710773	6151.382281
443.086261	6171.844325
443.461689	5972.973326
443.837057	6117.631756
444.212365	6276.836436
444.587612	6164.907697
444.962800	6316.901006
445.337927	6300.338295
445.712995	5909.948821
446.088002	6491.692933
446.462949	6320.901162
446.837837	6252.374237
447.212664	6420.867242
447.587431	6564.023409
447.962139	7110.711337
448.336786	8038.129890
448.711374	7777.570292
449.085901	6841.942220
449.460369	6768.268277
449.834776	6704.530449
450.209124	7095.829851
450.583412	7244.594301
450.957640	7390.447485
451.331808	7159.769326
451.705917	6709.924483
452.079965	6632.444469
452.453954	6845.226532
452.827883	6720.465536
453.201752	6816.439023
453.575562	6613.373784
453.949311	6815.687891
454.323001	6707.063628
454.696632	6780.079701
455.070202	6918.771925
455.443713	7081.422234
455.817164	7174.340781
456.190556	7253.479335
456.563888	7330.251067
456.937160	7380.677729
457.310373	7030.756117
457.683526	7053.592544
458.056619	6948.812161
458.429653	6933.804646
458.802628	6873.293156
459.175542	6978.844835
459.548398	7331.796181
459.921194	7491.578072
460.293930	7500.475709
460.666607	8028.692850
461.039224	8330.199220
461.411782	8456.049106
461.784280	8475.187846
462.156719	8368.083492
462.529099	8243.877023
462.901419	7835.415012
463.273680	7724.244966
463.645882	7741.601659
464.018024	7609.210877
464.390106	7768.302130
464.762130	8164.998088
465.134094	8633.165005
465.505999	9652.508998
465.877845	10870.900430
466.249631	11525.857220
466.621358	11137.476645
466.993026	10511.408187
467.364634	10244.872301
467.736184	9888.130008
468.107674	9551.970746
468.479105	9591.221170
468.850477	9353.233338
469.221790	9122.794634
469.593043	8796.140467
469.964238	8659.547883
470.335373	8667.744800
470.706449	8733.229388
471.077467	8706.521355
471.448425	10017.803608
471.819324	11085.956053
472.190164	11107.161666
472.560945	9857.999031
472.931667	9075.800998
473.302330	8942.785112
473.672934	8589.228828
474.043479	8948.902552
474.413965	8881.456955
474.784393	8764.101414
475.154761	8925.935056
475.525070	9013.459569
475.895321	8835.617743
476.265513	9013.572995
476.635645	9185.436012
477.005719	9180.515845
477.375734	9301.924474
477.745691	9532.645483
478.115588	9669.127161
478.485427	9910.323688
478.855207	10445.001067
479.224928	11262.083886
479.594591	11893.480843
479.964194	11699.414064
480.333739	11643.419448
480.703226	11552.706405
481.072653	11646.577731
481.442022	11886.725697
481.811333	12065.026268
482.180584	11875.231866
482.549777	11581.241856
482.918912	11408.907492
483.287988	11434.083014
483.657005	11446.932915
484.025964	11130.330809
484.394864	11262.257806
484.763706	11225.280942
485.132489	10988.019036
485.501213	10955.685076
485.869879	11024.075889
486.238487	10872.773218
486.607036	10985.261525
486.975527	10768.431416
487.343959	10951.168202
487.712333	11002.189720
488.080648	10932.500809
488.448905	10973.409772
488.817104	10914.176215
489.185244	11179.782008
489.553326	11330.013434
489.921350	11872.262627
490.289315	12931.893001
490.657222	13270.721553
491.025070	13180.346268
491.392861	13053.556208
491.760593	12674.002693
492.128267	12321.182418
492.495883	11995.745690
492.863440	11654.131900
493.230939	11321.670324
493.598380	11263.581108
493.965763	11126.181940
494.333088	11028.134018
494.700354	10943.709815
495.067563	11008.334886
495.434713	10839.967910
495.801805	10968.960954
496.168839	10893.051260
496.535815	10827.475930
496.902733	10825.419140
497.269593	10761.172154
497.636395	10856.686896
498.003139	10846.687768
498.369825	10716.275638
498.736453	10879.505679
499.103023	10801.408124
499.469535	10825.605662
499.835989	10821.913017
500.202385	10782.831472
500.568723	10636.784204
500.935003	10852.555671
501.301226	10655.983438
501.667390	10918.375496
502.033497	11014.749755
502.399546	10875.311439
502.765537	10788.396906
503.131470	10856.104643
503.497345	11031.183916
503.863163	10641.517847
504.228923	10953.219951
504.594625	11016.342759
504.960269	10764.582495
505.325856	10985.548871
505.691385	10777.656728
506.056856	10928.505695
506.422270	10950.838006
506.787625	10850.314878
507.152924	10959.876795
507.518164	10945.985896
507.883347	10868.221056
508.248472	10781.309043
508.613540	11018.984324
508.978550	10901.306149
509.343503	10872.188444
509.708398	10995.308545
510.073236	11110.027562
510.438016	11117.228851
510.802738	11060.752804
511.167403	11115.386309
511.532010	11016.045331
511.896561	11246.224416
512.261053	11312.200517
512.625488	11183.441886
512.989866	11164.905563
513.354186	11153.784778
513.718449	11054.688296
514.082655	11243.537481
514.446803	11146.739765
514.810894	11265.915163
515.174927	11135.001438
515.538904	11159.569502
515.902822	11305.831019
516.266684	11190.126456
516.630488	11138.512602
516.994235	11195.999400
517.357925	11256.999882
517.721558	11347.070178
518.085133	11361.382014
518.448651	11370.277130
518.812112	11249.591907
519.175516	11269.454053
519.538863	11381.203831
519.902152	11305.894033
520.265385	11469.751698
520.628560	11372.081863
520.991678	11357.160047
521.354739	11418.039542
521.717743	11348.804335
522.080690	11336.864362
522.443580	11461.605193
522.806413	11424.184708
523.169189	11450.991044
523.531908	11510.491783
523.894569	11328.032260
524.257174	11331.465286
524.619722	11449.090529
524.982213	11395.785368
525.344647	11453.176384
525.707025	11398.673949
526.069345	11488.035963
526.431608	11410.235836
526.793815	11520.127948
527.155964	11312.190434
527.518057	11369.800741
527.880093	11308.631380
528.242072	11382.615354
528.603995	11286.873760
528.965860	11204.521471
529.327669	11260.420305
529.689421	11214.407173
530.051117	11176.333859
530.412755	11277.857656
530.774337	11168.484782
531.135862	11158.886425
531.497331	11175.449136
531.858743	11031.347754
532.220098	11197.980573
532.581396	11068.962323
532.942638	11048.686802
533.303824	11011.107521
533.664953	11024.756445
534.026025	10938.187231
534.387040	11041.679598
534.747999	11047.640763
535.108902	11104.734351
535.469748	10858.559685
535.830537	10964.726385
536.191270	10946.411873
536.551947	10965.059101
536.912567	10966.515995
537.273131	10889.192256
537.633638	10871.596109
537.994089	10854.786381
538.354483	10804.382405
538.714821	10954.404623
539.075103	10956.075765
539.435328	10925.861609
539.795497	10751.079764
540.155609	10907.947869
540.515665	11000.289205
540.875665	10733.672660
541.235609	10798.980808
541.595496	10801.009873
541.955328	10950.114601
542.315102	10833.421971
542.674821	10788.868254
543.034483	10786.246854
543.394090	10796.351847
543.753640	10713.744979
544.113134	10938.693867
544.472571	10793.175920
544.831953	10939.001377
545.191278	10747.964331
545.550548	10774.478280
545.909761	10909.553477
546.268918	10880.647501
546.628019	10967.183948
546.987064	10830.987094
547.346053	10753.439024
547.704986	10858.448780
548.063863	10845.513179
548.422684	10836.101345
548.781449	10746.474670
549.140158	10850.667759
549.498811	10731.464635
549.857408	10586.523900
550.215949	10818.200207
550.574434	10661.276650
550.932864	10761.416650
551.291237	10816.544188
551.649555	10770.425192
552.007817	10785.253746
552.366022	10742.724052
552.724173	10738.733979
553.082267	10728.243338
553.440305	10853.100115
553.798288	10660.212966
554.156215	10811.767695
554.514086	10789.936978
554.871902	10638.321756
555.229661	10677.592344
555.587365	10653.654425
555.945014	10551.293796
556.302606	10669.554224
556.660143	10569.474718
557.017625	10715.902593
557.375050	10617.085895
557.732421	10755.311813
558.089735	10663.207412
558.446994	10668.281333
558.804197	10700.988339
559.161345	10709.606192
559.518437	10554.943592
559.875474	10639.665223
560.232455	10670.456591
560.589381	10618.341143
560.946251	10617.950453
561.303065	10725.367359
561.659825	10662.085755
562.016528	10598.025292
562.373177	10464.369181
562.729770	10581.681872
563.086307	10503.435602
563.442789	10595.567730
563.799216	10479.190173
564.155587	10524.056442
564.511904	10476.301592
564.868164	10471.973761
565.224370	10483.230658
565.580520	10411.817672
565.936615	10410.244832
566.292654	10286.643302
566.648638	10411.358927
567.004567	10372.007680
567.360441	10354.910607
567.716260	10264.487431
568.072023	10354.000679
568.427732	10311.392847
568.783385	10213.783505
569.138982	10285.050297
569.494525	10301.590323
569.850013	10179.604482
570.205445	10263.988356
570.560823	10160.049846
570.916145	10078.045397
571.271412	10149.564246
571.626625	10088.346995
571.981782	10064.968644
572.336884	10041.305468
572.691931	10043.785715
573.046923	9992.592798
573.401860	9949.183422
573.756743	9886.786540
574.111570	9926.941851
574.466342	9906.290765
574.821059	9939.915261
575.175722	9830.809568
575.530330	9844.135858
575.884882	9831.318725
576.239380	9756.167724
576.593823	9742.216330
576.948211	9760.966902
577.302544	9634.474270
577.656823	9647.971959
578.011047	9649.317947
578.365216	9624.056725
578.719330	9545.727277
579.073389	9554.025016
579.427394	9508.127831
579.781344	9483.030447
580.135239	9435.744423
580.489080	9447.029046
580.842866	9346.364766
581.196597	9350.483388
581.550273	9391.989729
581.903895	9359.335655
582.257463	9429.793341
582.610975	9303.620822
582.964434	9326.923556
583.317837	9248.775589
583.671186	9237.289320
584.024481	9223.418585
584.377721	9149.454776
584.730906	9128.806210
585.084037	9152.033326
585.437113	9093.092155
585.790135	9105.843754
586.143103	9011.387654
586.496016	8983.079055
586.848874	9042.504177
587.201679	9027.458853
587.554428	8916.051873
587.907124	8962.324625
588.259765	8935.016694
588.612352	8939.084905
588.964884	8809.219741
589.317362	8826.284047
589.669786	8827.171290
590.022155	8879.385041
590.374470	8889.537925
590.726731	8827.234304
591.078937	8684.219290
591.431090	8796.647103
591.783188	8666.262700
592.135232	8653.185947
592.487222	8656.949169
592.839157	8710.355152
593.191038	8640.096591
593.542866	8586.647758
593.894639	8485.106316
594.246358	8540.269142
594.598022	8550.046460
594.949633	8457.095145
595.301190	8426.732275
595.652692	8463.194941
596.004141	8573.245850
596.355535	8344.516097
596.706876	8326.831730
597.058162	8255.988395
597.409395	8339.883277
597.760573	8404.226044
598.111698	8302.853481
598.462768	8298.644118
598.813785	8258.970237
599.164748	8224.771049
599.515657	8217.869710
599.866511	8129.410063
600.217312	8258.098118
600.568060	8111.829039
600.918753	8215.500368
601.269392	8187.335441
601.619978	8100.801515
601.970510	8160.571955
602.320988	8155.203126
602.671412	8215.908701
603.021783	8153.587437
603.372100	8127.522151
603.722363	8123.736244
604.072572	8100.413346
604.422728	8113.570757
604.772830	8041.197432
605.122878	8052.204792
605.472872	8043.909573
605.822813	8076.742608
606.172701	8016.354626
606.522534	8088.682581
606.872314	8087.649144
607.222041	8062.574445
607.571714	8117.172662
607.921333	8075.167247
608.270899	8086.721572
608.620411	8168.794077
608.969870	8074.330416
609.319276	8067.507214
609.668627	8086.267868
610.017926	8123.431254
610.367171	8169.232657
610.716362	8142.217114
611.065500	8135.232595
611.414585	8165.822317
611.763616	8151.167683
612.112594	8131.131617
612.461518	8150.144328
612.810389	8210.915438
613.159207	8149.819174
613.507971	8102.424766
613.856682	8210.781848
614.205340	8172.791712
614.553945	8254.004701
614.902496	8147.500243
615.250994	8201.541412
615.599439	8186.647323
615.947830	8197.914302
616.296169	8169.381372
616.644454	8182.493413
616.992686	8177.943771
617.340864	8240.580108
617.688990	8144.473030
618.037063	8236.378306
618.385082	8182.248917
618.733048	8262.380578
619.080961	8200.966721
619.428821	8225.980926
619.776628	8222.658806
620.124382	8179.624996
620.472083	8160.317377
620.819731	8189.833333
621.167326	8085.425995
621.514868	8097.139116
621.862357	7977.394068
622.209793	7999.144127
622.557176	7929.382119
622.904506	7903.541165
623.251783	7833.411153
623.599007	7790.647045
623.946179	7795.501676
624.293297	7751.444512
624.640363	7666.528796
624.987376	7654.515726
625.334336	7602.085206
625.681243	7545.510857
626.028097	7538.980042
626.374899	7514.051536
626.721647	7503.487798
627.068343	7435.706964
627.414987	7411.194354
627.761577	7363.126952
628.108115	7403.345277
628.454600	7292.228164
628.801032	7342.460742
629.147412	7305.869526
629.493739	7295.290665
629.840014	7231.855306
630.186236	7288.593492
630.532405	7171.343815
630.878521	7226.206693
631.224585	7172.112591
631.570597	7104.692200
631.916556	7136.164123
632.262462	7129.628267
632.608316	7088.754592
632.954117	7068.650470
633.299866	7060.009933
633.645562	7048.281688
633.991206	6969.969884
634.336797	6918.640855
634.682336	6869.822322
635.027823	6837.662281
635.373257	6832.835376
635.718639	6762.251660
636.063968	6774.100892
636.409245	6665.471589
636.754470	6665.927813
637.099642	6627.829293
637.444762	6567.224541
637.789829	6578.942703
638.134845	6519.194948
638.479808	6507.895202
638.824719	6508.961406
639.169577	6437.843328
639.514383	6457.629857
639.859137	6384.094546
640.203839	6397.665332
640.548489	6382.400718
640.893086	6359.571853
641.237632	6328.142779
641.582125	6347.059709
641.926566	6322.665565
642.270955	6334.998748
642.615292	6326.761503
642.959576	6343.263720
643.303809	6335.028995
643.647990	6338.613256
643.992118	6332.962122
644.336195	6277.645541
644.680219	6302.266536
645.024192	6296.340660
645.368112	6387.520010
645.711981	6414.623773
646.055797	6485.353682
646.399562	6441.389780
646.743274	6569.235962
647.086935	6622.094980
647.430544	6619.682788
647.774101	6640.585933
648.117606	6642.057950
648.461059	6639.822198
648.804460	6602.827690
649.147810	6503.665674
649.491108	6478.916129
649.834354	6454.002747
650.177548	6368.678697
650.520690	6282.936232
650.863781	6262.423777
651.206820	6276.896930
651.549807	6203.515374
651.892742	6145.393390
652.235626	6149.945552
652.578458	6137.733357
652.921238	6045.772629
653.263967	6083.059523
653.606644	6025.570205
653.949269	6029.603128
654.291843	5968.630372
654.634365	6015.341703
654.976836	5968.945444
655.319255	5970.054498
655.661622	5951.314008
656.003938	5946.363595
656.346203	5903.912039
656.688416	5939.384118
657.030577	5890.041304
657.372687	5860.926120
657.714746	5845.802658
658.056753	5892.050204
658.398708	5828.778682
658.740612	5821.713505
659.082465	5867.033478
659.424266	5860.754721
659.766016	5862.130956
660.107715	5838.629097
660.449362	5845.951373
660.790958	5842.082287
661.132503	5829.093754
661.473996	5871.716710
661.815438	5854.165933
662.156829	5854.559143
662.498168	5843.415672
662.839456	5817.428524
663.180693	5854.695254
663.521879	5862.078024
663.863013	5844.504561
664.204097	5862.738415
664.545129	5905.356329
664.886110	5902.243417
665.227040	5938.184323
665.567918	5900.652933
665.908746	5928.462458
666.249522	5932.775165
666.590248	5918.896869
666.930922	5949.468946
667.271545	5956.791222
667.612118	5965.628365
667.952639	5935.149549
668.293109	5957.514628
668.633528	5916.512403
668.973896	5917.886117
669.314213	5906.770373
669.654480	5891.190687
669.994695	5885.945367
670.334859	5875.820209
670.674973	5869.233942
671.015035	5874.617894
671.355047	5873.644951
671.695008	5854.571746
672.034918	5832.141132
672.374777	5843.072874
672.714585	5826.757179
673.054342	5826.873126
673.394049	5824.458413
673.733705	5852.976220
674.073310	5841.497513
674.412864	5802.373118
674.752368	5789.366941
675.091820	5798.793899
675.431223	5727.499381
675.770574	5734.214198
676.109875	5682.055899
676.449125	5690.194842
676.788324	5656.346015
677.127473	5602.556903
677.466571	5593.109781
677.805619	5581.578141
678.144616	5563.808074
678.483562	5546.292585
678.822458	5515.811248
679.161303	5508.617522
679.500098	5502.873127
679.838842	5482.332946
680.177535	5487.500128
680.516179	5504.007387
680.854771	5509.494683
681.193314	5593.003917
681.531805	5699.261357
681.870247	5856.454617
682.208638	5955.563701
682.546978	5970.062060
682.885268	5950.590603
683.223508	5857.480491
683.561697	5802.801616
683.899836	5775.856649
684.237925	5731.759156
684.575963	5695.304052
684.913951	5656.101519
685.251889	5718.536209
685.589776	5685.718297
685.927614	5657.939019
686.265401	5727.718671
686.603137	5712.398604
686.940824	5788.872908
687.278460	5810.721269
687.616046	5821.448844
687.953582	5889.786726
688.291068	5870.121185
688.628504	5932.921359
688.965889	5899.122943
689.303224	5841.036248
689.640510	5793.334329
689.977745	5713.164860
690.314930	5615.288337
690.652065	5560.637188
690.989150	5468.719310
691.326185	5392.943206
691.663170	5338.647458
692.000105	5264.451756
692.336990	5188.791598
692.673825	5160.735057
693.010610	5092.414819
693.347345	5023.527452
693.684030	5012.779712
694.020665	4970.202126
694.357251	4880.850195
694.693786	4892.066762
695.030272	4854.414384
695.366707	4819.020443
695.703093	4787.790495
696.039429	4809.036438
696.375716	4790.558088
696.711952	4763.918111
697.048139	4755.322944
697.384276	4731.697576
697.720363	4742.389863
698.056400	4752.535186
698.392388	4702.216908
698.728326	4680.363507
699.064214	4662.908511
699.400053	4658.111853
699.735842	4623.101040
700.071581	4597.623048
700.407270	4567.993667
700.742910	4553.412129
701.078501	4501.107638
701.414042	4499.496989
701.749533	4469.943224
702.084974	4402.059047
702.420366	4458.560299
702.755709	4402.721958
703.091002	4345.973690
703.426246	4396.034868
703.761440	4348.705995
704.096584	4312.578566
704.431679	4333.426258
704.766725	4317.662570
705.101721	4307.270231
705.436668	4339.153008
705.771565	4281.920789
706.106413	4309.873987
706.441212	4343.669882
706.775961	4353.046428
707.110661	4329.927697
707.445311	4365.586299
707.779913	4387.722005
708.114465	4398.048809
708.448967	4420.519752
708.783421	4477.701560
709.117825	4523.359291
709.452180	4526.668808
709.786485	4571.401487
710.120742	4658.820136
710.454949	4644.120131
710.789107	4707.469791
711.123216	4781.322695
711.457275	4774.539822
711.791286	4845.332746
712.125247	4864.426116
712.459159	4763.497175
712.793023	4839.225388
713.126837	4801.063853
713.460602	4797.421619
713.794318	4713.685533
714.127985	4722.890680
714.461602	4635.023369
714.795171	4606.538329
715.128691	4540.010222
715.462162	4483.561902
715.795584	4439.688740
716.128957	4417.921037
716.462281	4362.425495
716.795556	4340.199048
717.128782	4298.783448
717.461960	4232.456987
717.795088	4244.462495
718.128167	4200.301988
718.461198	4139.944253
718.794180	4137.471567
719.127113	4117.611941
719.459997	4096.567644
719.792833	4054.350501
720.125619	4047.459244
720.458357	4007.631608
720.791046	4013.033204
721.123686	3988.465141
721.456278	3945.912762
721.788821	3962.707366
722.121315	3940.375054
722.453761	3909.190476
722.786158	3922.753701
723.118506	3947.346970
723.450805	3900.181934
723.783056	3916.908483
724.115259	3936.316925
724.447412	3944.329839
724.779518	3931.724434
725.111574	3940.170887
725.443582	3967.385556
725.775542	3954.263433
726.107453	4003.308819
726.439315	4004.440558
726.771129	4020.635264
727.102895	4054.844534
727.434612	4104.204992
727.766281	4112.759830
728.097901	4116.207980
728.429473	4122.229638
728.760996	4128.962099
729.092471	4125.080410
729.423897	4109.536013
729.755276	4116.654122
730.086606	4110.680354
730.417887	4153.300790
730.749120	4214.923854
731.080305	4276.514151
731.411442	4307.323163
731.742530	4277.103966
732.073570	4275.614305
732.404562	4333.842153
732.735506	4326.991225
733.066401	4290.994866
733.397249	4224.423909
733.728048	4147.037156
734.058798	4065.367943
734.389501	3993.143332
734.720156	3931.106893
735.050762	3884.725757
735.381320	3877.653018
735.711831	3829.162159
736.042293	3799.189979
736.372707	3820.115808
736.703073	3790.902322
737.033391	3784.502577
737.363661	3801.037562
737.693883	3826.157631
738.024056	3833.729444
738.354182	3830.354392
738.684260	3896.479207
739.014290	3915.033174
739.344272	3913.142741
739.674207	3954.414667
740.004093	3958.777786
740.333931	3955.178402
740.663722	3954.255871
740.993464	3950.646405
741.323159	3928.167900
741.652806	3895.554155
741.982405	3871.643962
742.311956	3838.120289
742.641460	3829.777180
742.970915	3804.384888
743.300323	3762.860904
743.629683	3729.498547
743.958996	3718.342474
744.288260	3693.313145
744.617477	3663.121675
744.946647	3647.090806
745.275768	3622.124491
745.604842	3618.638533
745.933869	3572.622881
746.262847	3562.154925
746.591778	3601.846450
746.920662	3570.656831
747.249498	3544.417625
747.578286	3586.758276
747.907027	3605.723097
748.235720	3603.794856
748.564365	3628.330152
748.892963	3627.722692
749.221514	3612.090074
749.550017	3588.371446
749.878473	3587.461517
750.206881	3552.561609
750.535242	3555.424985
750.863555	3556.876837
751.191821	3552.082700
751.520039	3530.405738
751.848210	3506.989578
752.176334	3539.978889
752.504411	3549.262174
752.832440	3508.854805
753.160421	3493.207064
753.488356	3498.575893
753.816243	3512.494518
754.144082	3469.211172
754.471875	3451.806588
754.799620	3471.893065
755.127318	3465.334524
755.454969	3462.619863
755.782572	3470.902479
756.110129	3445.805094
756.437638	3434.701953
756.765100	3451.383131
757.092515	3461.409986
757.419882	3467.116572
757.747203	3438.044238
758.074477	3443.355093
758.401703	3458.332362
758.728882	3481.037718
759.056014	3485.998214
759.383099	3490.484841
759.710138	3483.449911
760.037129	3503.551512
760.364073	3532.417158
760.690970	3517.160106
761.017820	3497.073629
761.344623	3515.433511
761.671379	3557.922876
761.998088	3613.151237
762.324751	3739.709405
762.651366	3989.039833
762.977935	4463.026761
763.304456	4903.621087
763.630931	4996.927803
763.957359	4639.172238
764.283740	4291.950164
764.610074	4100.691308
764.936362	3905.008839
765.262602	3746.285590
765.588796	3637.477325
765.914943	3545.728325
766.241044	3459.945531
766.567097	3427.304060
766.893104	3380.665825
767.219064	3350.628110
767.544978	3321.107113
767.870845	3267.776746
768.196665	3251.004827
768.522438	3258.223760
768.848165	3250.702358
769.173846	3217.012327
769.499479	3198.082794
769.825066	3182.775331
770.150607	3164.980057
770.476101	3180.075793
770.801548	3177.590504
771.126949	3131.088380
771.452303	3112.763786
771.777611	3118.387193
772.102872	3122.470528
772.428087	3100.717949
772.753256	3090.295363
773.078378	3083.464600
773.403453	3051.972512
773.728482	3036.849050
774.053465	3058.725137
774.378401	3044.372972
774.703291	3013.299300
775.028135	3013.357273
775.352932	3010.657735
775.677683	3000.076353
776.002388	2994.692401
776.327046	2998.443020
776.651658	2987.322234
776.976224	2974.021150
777.300743	2974.681541
777.625216	2968.075109
777.949643	2961.836681
778.274024	2961.728296
778.598359	2950.751184
778.922647	2957.221505
779.246889	2955.565486
779.571086	2945.503343
779.895236	2934.574121
780.219339	2942.221551
780.543397	2957.198819
780.867409	2963.255766
781.191374	2953.533901
781.515294	2953.291925
781.839167	2952.036678
782.162995	2942.221551
782.486776	2953.617080
782.810511	2949.029630
783.134201	2933.424738
783.457844	2942.949998
783.781441	2935.176539
784.104993	2915.715164
784.428498	2914.419588
784.751958	2928.683533
785.075372	2919.206163
785.398739	2906.772158
785.722061	2920.620207
786.045337	2933.505396
786.368568	2918.260947
786.691752	2911.533527
787.014891	2959.255610
787.337983	2992.781804
787.661030	3019.086545
787.984031	3081.468303
788.306987	3130.269193
788.629897	3121.200157
788.952760	3104.718104
789.275579	3091.558172
789.598351	3029.892258
789.921078	2987.153356
790.243759	2979.064824
790.566395	2960.709983
790.888984	2937.424893
791.211529	2920.768921
791.534027	2911.132756
791.856480	2905.035480
792.178888	2883.416492
792.501249	2876.678990
792.823566	2875.738814
793.145836	2874.886859
793.468062	2866.813452
793.790241	2867.733462
794.112375	2871.678165
794.434464	2885.437994
794.756507	2891.515105
795.078505	2894.494427
795.400457	2910.253074
795.722364	2946.826645
796.044226	2971.089719
796.366042	2973.237250
796.687812	2959.356433
797.009538	2982.936430
797.331218	2971.235912
797.652852	2953.654888
797.974442	2936.943463
798.295986	2933.286106
798.617484	2926.543563
798.938938	2911.846079
799.260346	2896.538615
799.581709	2892.132647
799.903026	2882.383055
800.224299	2879.466748
800.545526	2869.243288
800.866708	2855.133098
801.187845	2845.018023
801.508936	2846.051459
801.829983	2851.379959
802.150984	2839.717250
802.471940	2827.126968
802.792851	2825.874241
803.113717	2825.894406
803.434538	2830.663337
803.755314	2823.134374
804.076045	2817.324444
804.396731	2818.927531
804.717372	2818.443580
805.037967	2813.409988
805.358518	2818.549445
805.679024	2827.764674
805.999485	2827.177379
806.319901	2831.099397
806.640272	2822.058088
806.960598	2829.239211
807.280879	2839.114832
807.601115	2845.007941
807.921306	2831.275837
808.241453	2830.605364
808.561554	2836.110304
808.881611	2836.090139
809.201623	2829.854232
809.521590	2830.743996
809.841513	2824.339210
810.161390	2829.529078
810.481223	2822.181596
810.801011	2813.677169
811.120755	2812.787406
811.440453	2810.155923
811.760107	2811.872436
812.079716	2811.827066
812.399281	2803.173925
812.718801	2794.109931
813.038276	2790.036678
813.357707	2796.209571
813.677093	2803.068061
813.996434	2799.130920
814.315731	2794.094807
814.634983	2787.332099
814.954191	2789.396452
815.273354	2805.881025
815.592473	2813.881336
815.911547	2812.842858
816.230577	2820.046667
816.549562	2829.617298
816.868502	2828.299036
817.187399	2838.167095
817.506250	2855.513705
817.825058	2849.895339
818.143821	2862.236084
818.462539	2880.043960
818.781213	2901.244532
819.099843	2943.023095
819.418429	3001.129955
819.736970	3060.003070
820.055466	3135.590131
820.373919	3238.399422
820.692327	3379.997872
821.010691	3549.073131
821.329011	3992.823219
821.647286	4894.756218
821.965517	6280.400532
822.283704	7030.851899
822.601847	7014.505958
822.919945	6374.241610
823.237999	5866.758735
823.556010	5283.792142
823.873976	4724.433273
824.191897	4310.985561
824.509775	4019.906818
824.827609	3749.005292
825.145398	3623.236066
825.463144	3613.650312
825.780845	3703.287068
826.098502	3808.024601
826.416116	4091.670163
826.733685	4409.993823
827.051210	4477.830110
827.368692	4360.056153
827.686129	4092.542283
828.003522	3761.595574
828.320872	3503.818693
828.638177	3309.565391
828.955439	3170.936181
829.272656	3086.741350
829.589830	3020.629138
829.906960	2967.172742
830.224046	2923.864190
830.541088	2890.350599
830.858086	2873.044318
831.175041	2855.831298
831.491952	2862.893954
831.808819	2872.399050
832.125642	2893.299674
832.442421	2939.148968
832.759157	3021.425640
833.075849	3201.762837
833.392497	3482.703820
833.709101	3688.478679
834.025662	3637.179897
834.342179	3480.785661
834.658653	3302.817807
834.975083	3151.479847
835.291469	3057.043913
835.607811	2966.708956
835.924110	2909.580080
836.240366	2856.164014
836.556578	2816.026347
836.872746	2793.918367
837.188871	2771.270983
837.504952	2752.051584
837.820990	2746.365163
838.136984	2731.647514
838.452935	2724.226936
838.768842	2723.750547
839.084706	2742.218814
839.400526	2821.213694
839.716303	2953.012141
840.032037	3032.737989
840.347727	3021.140815
840.663373	2956.518264
840.978977	2880.583363
841.294537	2810.687765
841.610054	2760.593819
841.925527	2738.072465
842.240957	2717.481872
842.556344	2694.567307
842.871687	2680.799916
843.186987	2669.790036
843.502244	2665.557987
843.817458	2661.318377
844.132629	2649.534680
844.447756	2640.543782
844.762840	2635.036321
845.077881	2636.891466
845.392879	2634.116311
845.707833	2627.827471
846.022745	2623.522326
846.337613	2625.987450
846.652438	2626.355454
846.967221	2624.724641
847.281960	2626.284878
847.596656	2619.890174
847.911309	2623.746657
848.225919	2619.086110
848.540485	2615.728702
848.855009	2612.459514
849.169490	2613.611417
849.483928	2615.020420
849.798323	2612.058742
850.112675	2612.978752
850.426984	2612.837600
850.741251	2610.059924
851.055474	2612.356170
851.369654	2616.671398
851.683792	2614.304576
851.997887	2609.911210
852.311938	2609.886005
852.625947	2614.770883
852.939914	2616.172323
853.253837	2619.214660
853.567718	2609.563371
853.881555	2613.135028
854.195350	2614.942282
854.509103	2614.380193
854.822812	2609.906169
855.136479	2611.489092
855.450103	2613.296345
855.763685	2615.330451
856.077224	2610.667383
856.390720	2608.371138
856.704173	2613.366921
857.017584	2613.074534
857.330953	2618.587036
857.644278	2617.883795
857.957561	2619.743981
858.270802	2614.924638
858.584000	2615.950513
858.897155	2618.077880
859.210268	2622.614918
859.523339	2616.704165
859.836367	2610.969853
860.149352	2611.698299
860.462295	2611.499174
860.775195	2610.024636
861.088054	2607.821652
861.400869	2609.530603
861.713642	2604.015581
862.026373	2608.177053
862.339062	2607.612444
862.651708	2613.918928
862.964312	2617.236007
863.276873	2615.738784
863.589392	2615.363218
863.901869	2622.007459
864.214303	2627.436782
864.526696	2628.104735
864.839045	2631.134468
865.151353	2629.962400
865.463619	2636.359624
865.775842	2635.270735
866.088023	2632.125055
866.400162	2634.353245
866.712258	2631.492390
867.024313	2630.148922
867.336325	2629.286885
867.648296	2627.401494
867.960224	2636.886425
868.272110	2633.017339
868.583954	2626.950310
868.895755	2630.088429
869.207515	2634.519603
869.519233	2639.510345
869.830909	2633.987761
870.142542	2632.384674
870.454134	2630.375774
870.765684	2636.747793
871.077191	2640.140489
871.388657	2644.359935
871.700081	2641.602424
872.011463	2641.015130
872.322803	2643.003865
872.634101	2645.947899
872.945357	2654.535504
873.256571	2659.007008
873.567744	2657.789569
873.878874	2656.662871
874.189963	2658.860814
874.501010	2663.712925
874.812015	2666.601506
875.122979	2667.486228
875.433900	2657.713952
875.744780	2658.787717
876.055618	2661.275527
876.366415	2668.033194
876.677169	2665.406752
876.987882	2660.416010
877.298554	2661.028510
877.609183	2668.950684
877.919771	2676.739266
878.230317	2685.992304
878.540822	2697.491176
878.851285	2708.014585
879.161707	2735.284707
879.472087	2773.133690
879.782425	2818.534321
880.092722	2932.214861
880.402977	3127.345323
880.713191	3387.035323
881.023363	3683.787885
881.333494	3874.943398
881.643583	4048.406981
881.953631	4047.698699
882.263637	3868.712532
882.573602	3647.723470
882.883526	3522.057587
883.193408	3402.022673
883.503248	3299.783032
883.813048	3183.919672
884.122806	3067.655541
884.432522	2982.013899
884.742197	2914.664084
885.051831	2876.396685
885.361424	2841.660614
885.670975	2807.963022
885.980485	2776.612086
886.289954	2757.455701
886.599382	2740.651015
886.908768	2733.669017
887.218113	2710.446942
887.527417	2697.108048
887.836680	2691.182172
888.145901	2685.901563
888.455082	2678.332271
888.764221	2666.462874
889.073319	2658.124806
889.382376	2657.734116
889.691392	2659.203613
890.000366	2658.205464
890.309300	2657.585402
890.618193	2657.270330
890.927044	2659.221257
891.235855	2661.174704
891.544625	2661.273006
891.853353	2659.730413
892.162041	2668.068482
892.470687	2686.874506
892.779293	2698.998481
893.087858	2707.586087
893.396381	2732.212123
893.704864	2771.573452
894.013306	2847.707478
894.321707	2938.082764
894.630068	2991.924808
894.938387	3013.042201
895.246665	3004.147085
895.554903	2960.783080
895.863100	2914.291038
896.171256	2857.164683
896.479371	2796.267545
896.787446	2756.719693
897.095480	2738.629512
897.403473	2731.576938
897.711425	2714.346274
898.019336	2697.183666
898.327207	2684.298477
898.635038	2679.554751
898.942827	2681.059535
899.250576	2669.671569
899.558284	2656.463746
899.865952	2651.036943
900.173579	2652.022489
900.481165	2648.266829
900.788711	2642.782054
901.096216	2635.182515
901.403681	2633.435755
901.711105	2633.019860
902.018489	2629.601957
902.325832	2632.956845
902.633135	2635.283338
902.940397	2649.244813
903.247619	2689.019517
903.554800	2756.709610
903.861941	2886.728530
904.169041	3015.635875
904.476101	3079.008220
904.783121	3071.028073
905.090100	3013.579084
905.397039	2938.319698
905.703938	2861.547966
906.010796	2798.921712
906.317614	2746.402971
906.624391	2708.911910
906.931129	2684.167407
907.237826	2656.153715
907.544483	2640.584111
907.851099	2631.983902
908.157675	2617.004114
908.464211	2612.116715
908.770707	2599.143306
909.077163	2597.167173
909.383578	2589.544949
909.689954	2589.799527
909.996289	2589.444126
910.302584	2590.038982
910.608839	2589.171903
910.915054	2586.263158
911.221229	2587.495720
911.527363	2592.156267
911.833458	2589.751636
912.139513	2589.227356
912.445527	2593.134250
912.751502	2595.095259
913.057436	2604.562546
913.363331	2607.753597
913.669186	2620.248096
913.975000	2635.190076
914.280775	2651.450318
914.586510	2670.100067
914.892205	2707.114739
915.197859	2774.933382
915.503475	2857.933459
915.809050	2927.660178
916.114585	2943.996038
916.420081	2956.719910
916.725536	2964.763071
917.030952	2940.777261
917.336328	2892.218346
917.641665	2841.819411
917.946961	2790.245886
918.252218	2756.538211
918.557435	2729.280692
918.862612	2707.656663
919.167750	2690.473890
919.472848	2670.717608
919.777906	2658.260917
920.082925	2645.542086
920.387904	2633.108080
920.692843	2628.500465
920.997743	2622.907305
921.302603	2618.203908
921.607423	2609.828031
921.912204	2604.275200
922.216946	2600.645570
922.521647	2604.189501
922.826310	2597.507451
923.130932	2592.070567
923.435516	2586.661409
923.740059	2586.366501
924.044564	2582.794844
924.349028	2579.931468
924.653454	2571.006106
924.957840	2568.379664
925.262186	2568.099880
925.566493	2568.543502
925.870761	2562.685681
926.174989	2566.910168
926.479178	2563.172152
926.783328	2561.737944
927.087438	2560.449929
927.391509	2563.908161
927.695541	2559.081256
927.999533	2556.951369
928.303486	2558.098231
928.607400	2555.940617
928.911275	2556.122099
929.215110	2553.084804
929.518906	2556.855587
929.822663	2553.304094
930.126381	2554.493806
930.430060	2557.644527
930.733699	2556.570762
931.037299	2556.732078
931.340861	2555.870041
931.644383	2557.561348
931.947866	2557.417675
932.251309	2558.856925
932.554714	2555.015566
932.858080	2558.017573
933.161407	2554.183775
933.464694	2553.460370
933.767943	2553.170503
934.071153	2550.465924
934.374323	2552.356357
934.677455	2552.598332
934.980548	2548.794782
935.283602	2553.742674
935.586617	2552.374001
935.889593	2553.568754
936.192530	2549.157745
936.495428	2555.083621
936.798287	2554.803837
937.101108	2554.798796
937.403890	2556.762325
937.706632	2561.833726
938.009336	2562.967986
938.312002	2570.471743
938.614628	2572.213462
938.917216	2573.178843
939.219765	2574.557598
939.522275	2576.412743
939.824747	2577.224369
940.127179	2566.307750
940.429573	2567.164746
940.731929	2568.031825
941.034246	2563.315825
941.336524	2566.559808
941.638763	2564.719787
941.940964	2563.099056
942.243126	2564.039231
942.545250	2564.833213
942.847335	2561.276679
943.149381	2562.385732
943.451389	2560.447409
943.753359	2556.918601
944.055290	2556.595967
944.357182	2556.517829
944.659036	2553.669578
944.960851	2555.076059
945.262628	2554.115720
945.564367	2555.181924
945.866067	2556.457336
946.167729	2556.908519
946.469352	2555.922973
946.770937	2554.450956
947.072484	2556.633776
947.373992	2554.571944
947.675462	2556.497665
947.976893	2556.036399
948.278286	2552.391645
948.579641	2553.722510
948.880958	2552.220246
949.182236	2554.445915
949.483476	2552.757129
949.784678	2555.073539
950.085841	2550.062632
950.386967	2555.050854
950.688054	2552.338713
950.989103	2554.576985
951.290114	2555.413817
951.591087	2557.490772
951.892021	2556.124619
952.192917	2559.645865
952.493776	2558.642676
952.794596	2558.400700
953.095378	2561.032183
953.396122	2558.854404
953.696828	2559.139229
953.997496	2558.118396
954.298126	2555.607901
954.598718	2555.141594
954.899272	2552.873075
955.199788	2551.869886
955.500266	2554.786193
955.800706	2547.821839
956.101108	2542.155582
956.401472	2544.623227
956.701798	2543.889739
957.002087	2544.144317
957.302337	2544.923176
957.602550	2545.023999
957.902724	2542.410160
958.202861	2544.739173
958.502960	2541.134748
958.803022	2545.069369
959.103045	2540.663401
959.403031	2540.502084
959.702979	2538.649460
960.002889	2542.768082
960.302762	2538.440252
960.602596	2538.473019
960.902393	2540.988555
961.202153	2539.728267
961.501875	2539.554347
961.801559	2539.957639
962.101205	2537.114428
962.400814	2534.777853
962.700385	2538.326826
962.999918	2536.733821
963.299414	2537.278266
963.598873	2537.895807
963.898293	2534.024201
964.197677	2540.817156
964.497022	2538.488143
964.796331	2538.677186
965.095601	2534.301464
965.394835	2536.212062
965.694030	2536.116280
965.993189	2538.258770
966.292309	2535.521424
966.591393	2534.891279
966.890439	2536.491846
967.189447	2539.128369
967.488419	2535.382792
967.787353	2537.104346
968.086249	2534.291382
968.385108	2537.285827
968.683930	2536.343132
968.982714	2538.294058
969.281462	2537.452186
969.580172	2535.934798
969.878844	2538.099974
970.177480	2538.006713
970.476078	2537.926054
970.774639	2538.094933
971.073162	2535.975128
971.371649	2534.112421
971.670098	2533.691485
971.968510	2539.251877
972.266885	2533.527647
972.565223	2536.915303
972.863524	2535.226516
973.161788	2537.782381
973.460014	2537.537885
973.758204	2539.196425
974.056356	2538.087371
974.354471	2539.070396
974.652550	2538.475540
974.950591	2536.998482
975.248595	2538.568801
975.546563	2538.094933
975.844493	2537.600900
976.142386	2536.693492
976.440243	2537.099305
976.738062	2538.205838
977.035845	2536.330529
977.333590	2538.145344
977.631299	2534.465302
977.928971	2536.519572
978.226606	2535.682741
978.524204	2534.465302
978.821765	2534.435055
979.119290	2534.568646
979.416777	2535.249201
979.714228	2534.641742
980.011642	2536.993441
980.309020	2539.025026
980.606360	2537.326157
980.903664	2537.212731
981.200931	2537.938657
981.498162	2537.873122
981.795356	2542.261446
982.092513	2540.461754
982.389633	2544.202291
982.686717	2550.818805
982.983764	2552.494989
983.280775	2551.821995
983.577749	2552.920966
983.874686	2551.108671
984.171587	2546.790923
984.468451	2545.578526
984.765279	2542.473175
985.062070	2540.953267
985.358824	2541.480068
985.655543	2538.795653
985.952224	2536.847247
986.248869	2537.767258
986.545478	2530.452543
986.842050	2532.131248
987.138586	2529.366175
987.435086	2534.790456
987.731549	2530.525640
988.027975	2535.213913
988.324366	2534.049407
988.620719	2535.430683
988.917037	2531.770805
989.213318	2535.385312
989.509563	2532.806762
989.805772	2533.762061
990.101944	2534.394726
990.398080	2534.767771
990.694180	2532.262318
990.990244	2531.720394
991.286271	2534.556043
991.582262	2532.947915
991.878217	2534.475384
992.174136	2532.894983
992.470019	2535.314736
992.765865	2535.289531
993.061676	2534.712318
993.357450	2532.572349
993.653188	2533.303316
993.948890	2533.757020
994.244556	2532.910106
994.540186	2533.215096
994.835780	2531.662420
995.131337	2534.994623
995.426859	2535.770961
995.722345	2534.913965
996.017795	2537.205169
996.313208	2536.965714
996.608586	2536.096115
996.903928	2533.719211
997.199234	2535.476053
997.494504	2538.354552
997.789738	2536.164171
998.084936	2536.950591
998.380099	2538.556198
998.675225	2533.147040
998.970316	2536.615354
999.265371	2535.909593
999.560390	2534.185518
999.855373	2533.789787
1000.150320	2534.344314
1000.445232	2535.516382
1000.740108	2530.830630
1001.034948	2532.758871
1001.329752	2532.164015
1001.624521	2532.098480
1001.919254	2527.947090
1002.213951	2532.766433
1002.508613	2531.458254
1002.803239	2530.286185
1003.097829	2527.848788
1003.392384	2534.644263
1003.686903	2531.488501
1003.981386	2533.895652
1004.275834	2533.265507
1004.570246	2532.758871
1004.864623	2531.022194
1005.158964	2531.831299
1005.453270	2532.113604
1005.747540	2530.412214
1006.041775	2531.309540
1006.335974	2528.746113
1006.630138	2531.201155
1006.924266	2531.052441
1007.218359	2530.845753
1007.512416	2530.460105
1007.806438	2529.000691
1008.100425	2530.339118
1008.394376	2530.702081
1008.688292	2531.322142
1008.982172	2531.687626
1009.276017	2528.597399
1009.569827	2529.492204
1009.863602	2531.485980
1010.157341	2532.693336
1010.451045	2531.937163
1010.744714	2528.544467
1011.038347	2528.864580
1011.331945	2529.867770
1011.625508	2530.797862
1011.919036	2532.151412
1012.212528	2530.694519
1012.505986	2531.412883
1012.799408	2531.017153
1013.092795	2529.335928
1013.386147	2531.289375
1013.679464	2529.461957
1013.972745	2532.993285
1014.265992	2530.452543
1014.559204	2530.555887
1014.852380	2532.206865
1015.145521	2531.060002
1015.438628	2532.436238
1015.731699	2529.950949
1016.024736	2529.005732
1016.317737	2532.171577
1016.610703	2532.658048
1016.903635	2529.126720
1017.196531	2529.708973
1017.489393	2528.206709
1017.782219	2525.398787
1018.075011	2528.909950
1018.367768	2527.841226
1018.660490	2530.422297
1018.953177	2530.422297
1019.245829	2530.422297
