Dividing Wavelength (nm)	Counts (n)	Blue Motor Position (mm): 20.400000	Red Motor Position (mm): 0.000000	
326.493990	2132.367748
326.888308	2132.367748
327.282561	2132.367748
327.676750	2101.130238
328.070874	2100.081678
328.464933	2103.464292
328.858929	2108.974273
329.252859	2118.945676
329.646726	2130.469753
330.040528	2143.158338
330.434265	2160.625936
330.827938	2177.710406
331.221547	2194.797397
331.615091	2214.213401
332.008571	2236.207955
332.401986	2252.833681
332.795338	2272.741197
333.188625	2292.663837
333.581847	2312.130253
333.975006	2329.731441
334.368100	2346.468072
334.761129	2365.163191
335.154095	2383.235728
335.546996	2402.992010
335.939833	2424.210226
336.332606	2439.023657
336.725315	2451.112344
337.117960	2460.582151
337.510540	2467.538943
337.903056	2479.567137
338.295508	2485.792962
338.687896	2494.972903
339.080220	2505.196363
339.472480	2510.091323
339.864676	2512.624503
340.256807	2518.797396
340.648875	2523.460463
341.040879	2525.071112
341.432818	2525.502130
341.824694	2528.950280
342.216506	2526.195289
342.608253	2527.387522
342.999937	2527.236287
343.391557	2529.252749
343.783113	2526.175124
344.174605	2525.746626
344.566033	2522.643796
344.957397	2524.531708
345.348697	2522.711852
345.739934	2521.222191
346.131106	2516.833866
346.522215	2520.559279
346.913260	2512.833711
347.304241	2512.203567
347.695159	2509.894718
348.086012	2510.892867
348.476802	2509.060407
348.867528	2509.350273
349.258191	2505.534120
349.648789	2503.552947
350.039324	2501.849037
350.429796	2501.561691
350.820203	2498.889879
351.210548	2498.612616
351.600828	2496.969200
351.991045	2497.642194
352.381198	2494.773777
352.771288	2494.521719
353.161314	2496.702018
353.551276	2494.428458
353.941175	2496.056751
354.331010	2492.134733
354.720782	2495.804693
355.110490	2495.411483
355.500135	2496.202944
355.889717	2493.266472
356.279235	2495.555156
356.668689	2497.664879
357.058080	2496.644045
357.447408	2496.051710
357.836672	2492.805207
358.225873	2493.992398
358.615010	2491.802017
359.004084	2499.953563
359.393095	2498.657986
359.782043	2497.639673
360.170927	2500.694612
360.559748	2502.340549
360.948505	2499.144457
361.337199	2501.150837
361.725830	2499.336021
362.114398	2502.547236
362.502903	2502.123779
362.891344	2502.146465
363.279722	2502.912720
363.668037	2504.994717
364.056289	2499.832575
364.444478	2504.926661
364.832603	2505.345077
365.220665	2505.564367
365.608665	2505.660149
365.996601	2506.837258
366.384474	2506.169305
366.772284	2506.270128
367.160031	2504.546054
367.547715	2504.304078
367.935336	2508.379851
368.322893	2507.434635
368.710388	2508.105108
369.097820	2509.675428
369.485189	2510.315654
369.872495	2509.161230
370.259738	2510.040912
370.646918	2510.000582
371.034035	2509.052845
371.421090	2509.473782
371.808081	2511.091992
372.195010	2512.790861
372.581875	2510.464368
372.968678	2509.282218
373.355418	2512.377486
373.742096	2513.685666
374.128710	2512.362363
374.515262	2509.461179
374.901751	2511.341529
375.288177	2514.845131
375.674540	2509.206601
376.060841	2512.576612
376.447079	2511.545696
376.833254	2509.778772
377.219367	2511.346570
377.605417	2513.892353
377.991404	2507.401867
378.377329	2513.088289
378.763191	2508.606703
379.148991	2513.814215
379.534727	2514.877899
379.920402	2516.239010
380.306013	2515.210615
380.691563	2514.020902
381.077049	2514.046108
381.462474	2515.661798
381.847835	2515.984432
382.233134	2514.209946
382.618371	2516.271778
383.003545	2515.593743
383.388657	2516.775893
383.773706	2516.697755
384.158693	2517.090965
384.543618	2518.973836
384.928480	2515.044257
385.313280	2518.774711
385.698017	2518.827643
386.082692	2518.875534
386.467305	2519.102386
386.851856	2520.150946
387.236344	2517.942920
387.620770	2519.533404
388.005133	2517.925276
388.389435	2521.050792
388.773674	2521.146573
389.157851	2519.977026
389.541965	2518.540297
389.926018	2520.211439
390.310008	2517.579957
390.693936	2522.222860
391.077802	2519.906450
391.461606	2523.911646
391.845348	2520.955010
392.229027	2521.819568
392.612645	2518.031140
392.996200	2521.953158
393.379694	2519.336799
393.763125	2522.391738
394.146494	2521.736388
394.529801	2523.324352
394.913047	2524.509023
395.296230	2524.163704
395.679351	2521.075997
396.062410	2522.570699
396.445408	2523.624301
396.828343	2526.749816
397.211217	2519.614063
397.594028	2521.166738
397.976778	2519.850997
398.359466	2523.367202
398.742092	2520.609691
399.124656	2525.902902
399.507158	2525.005577
399.889598	2525.960875
400.271977	2527.783253
400.654294	2526.215454
401.036549	2522.853004
401.418742	2527.921884
401.800874	2521.869979
402.182944	2527.674868
402.564952	2524.710669
402.946898	2525.728982
403.328783	2526.354085
403.710606	2527.465660
404.092367	2526.631349
404.474067	2527.198479
404.855705	2525.698735
405.237282	2531.060002
405.618797	2526.442306
406.000250	2527.914323
406.381642	2527.783253
406.762972	2528.211751
407.144240	2529.915661
407.525447	2530.177801
407.906593	2527.135464
408.287677	2528.176463
408.668700	2529.872811
409.049661	2530.195445
409.430560	2528.872142
409.811399	2528.564631
410.192176	2530.886083
410.572891	2530.626463
410.953545	2532.484128
411.334138	2531.488501
411.714669	2529.051103
412.095139	2532.642925
412.475547	2530.301309
412.855894	2533.237781
413.236180	2531.770805
413.616405	2531.458254
413.996568	2532.095960
414.376670	2529.532533
414.756711	2530.230733
415.136691	2531.954807
415.516609	2530.200486
415.896466	2533.194931
416.276262	2535.052596
416.655997	2528.874662
417.035670	2530.203006
417.415283	2530.497914
417.794834	2527.105217
418.174324	2533.212575
418.553753	2534.883718
418.933121	2535.105528
419.312428	2529.487162
419.691674	2535.062679
420.070859	2533.842719
420.449983	2536.292720
420.829045	2534.377082
421.208047	2534.130065
421.586988	2532.635363
421.965867	2535.450847
422.344686	2534.896321
422.723444	2536.028060
423.102141	2534.926567
423.480777	2536.012936
423.859352	2537.432021
424.237866	2535.508821
424.616319	2533.817514
424.994712	2536.703574
425.373044	2532.501773
425.751314	2535.546629
426.129524	2536.930426
426.507673	2538.210879
426.885762	2535.876825
427.263789	2535.740714
427.641756	2536.597710
428.019662	2536.806918
428.397508	2538.989737
428.775292	2534.344314
429.153016	2538.402443
429.530679	2538.684748
429.908282	2537.996630
430.285824	2535.690302
430.663305	2535.120652
431.040726	2537.056455
431.418086	2536.542257
431.795385	2539.191384
432.172624	2536.171732
432.549802	2535.965045
432.926920	2538.878832
433.303977	2538.193235
433.680974	2537.245498
434.057910	2538.215920
434.434786	2540.187012
434.811601	2537.845396
435.188355	2539.125849
435.565050	2539.899666
435.941683	2540.232382
436.318257	2538.626774
436.694770	2531.740558
437.071222	2536.451517
437.447614	2534.886238
437.823946	2536.469161
438.200218	2539.997968
438.576429	2543.710778
438.952580	2540.035777
439.328670	2539.080478
439.704700	2539.067875
440.080670	2541.626261
440.456580	2540.476878
440.832429	2539.387989
441.208218	2540.645757
441.583947	2539.748431
441.959616	2543.262115
442.335224	2544.172044
442.710773	2537.971424
443.086261	2542.047197
443.461689	2542.619368
443.837057	2544.451828
444.212365	2541.863195
444.587612	2545.545758
444.962800	2540.486960
445.337927	2541.598535
445.712995	2541.321271
446.088002	2542.072403
446.462949	2543.521735
446.837837	2542.931920
447.212664	2544.015768
447.587431	2544.839997
447.962139	2542.919317
448.336786	2545.639019
448.711374	2542.173226
449.085901	2543.950233
449.460369	2542.886549
449.834776	2545.865871
450.209124	2545.104657
450.583412	2543.723381
450.957640	2546.763197
451.331808	2543.791437
451.705917	2545.812939
452.079965	2545.034081
452.453954	2544.565254
452.827883	2544.963505
453.201752	2545.134904
453.575562	2544.610624
453.949311	2545.071890
454.323001	2545.392003
454.696632	2543.970397
455.070202	2547.736139
455.443713	2549.621531
455.817164	2544.666077
456.190556	2543.980480
456.563888	2545.989380
456.937160	2539.365303
457.310373	2546.485933
457.683526	2544.915614
458.056619	2546.223793
458.429653	2548.590615
458.802628	2544.845038
459.175542	2550.299566
459.548398	2546.858979
459.921194	2545.059287
460.293930	2547.153886
460.666607	2548.164637
461.039224	2549.777807
461.411782	2550.228990
461.784280	2548.560368
462.156719	2549.218239
462.529099	2548.434339
462.901419	2546.967363
463.273680	2549.319062
463.645882	2548.983825
464.018024	2548.787220
464.390106	2547.416026
464.762130	2549.838301
465.134094	2548.784699
465.505999	2549.452652
465.877845	2552.174875
466.249631	2552.968857
466.621358	2549.500543
466.993026	2553.621687
467.364634	2555.897768
467.736184	2552.878116
468.107674	2551.295194
468.479105	2553.389793
468.850477	2550.813764
469.221790	2551.937941
469.593043	2550.198743
469.964238	2551.199412
470.335373	2551.297715
470.706449	2553.702345
471.077467	2554.403065
471.448425	2555.481872
471.819324	2558.022614
472.190164	2556.167469
472.560945	2556.563200
472.931667	2552.565565
473.302330	2556.275854
473.672934	2553.384752
474.043479	2552.061449
474.413965	2554.655123
474.784393	2552.968857
475.154761	2554.140925
475.525070	2552.885678
475.895321	2552.749567
476.265513	2550.649926
476.635645	2556.583364
477.005719	2557.858776
477.375734	2560.036555
477.745691	2560.291133
478.115588	2559.345917
478.485427	2558.965310
478.855207	2564.782801
479.224928	2563.550239
479.594591	2565.861608
479.964194	2565.004612
480.333739	2566.859757
480.703226	2567.603327
481.072653	2568.818245
481.442022	2572.538616
481.811333	2571.288410
482.180584	2571.674058
482.549777	2576.319482
482.918912	2576.858885
483.287988	2580.024730
483.657005	2581.912642
484.025964	2585.998497
484.394864	2585.010431
484.763706	2588.635021
485.132489	2591.619384
485.501213	2592.962851
485.869879	2597.099118
486.238487	2599.712956
486.607036	2604.081116
486.975527	2605.137238
487.343959	2612.814915
487.712333	2618.375308
488.080648	2618.622324
488.448905	2623.061060
488.817104	2631.005919
489.185244	2639.021353
489.553326	2651.004176
489.921350	2666.916578
490.289315	2689.483303
490.657222	2699.391691
491.025070	2709.191694
491.392861	2715.420040
491.760593	2719.337016
492.128267	2720.378015
492.495883	2725.434292
492.863440	2730.155332
493.230939	2732.239850
493.598380	2744.144534
493.965763	2750.181316
494.333088	2760.901330
494.700354	2769.713267
495.067563	2782.674073
495.434713	2792.103552
495.801805	2810.702889
496.168839	2825.244097
496.535815	2839.437466
496.902733	2849.469362
497.269593	2866.221116
497.636395	2879.451624
498.003139	2904.135634
498.369825	2913.217273
498.736453	2943.058383
499.103023	2955.804940
499.469535	2979.054742
499.835989	2995.073008
500.202385	3017.801050
500.568723	3031.268493
500.935003	3063.247052
501.301226	3086.451483
501.667390	3118.298973
502.033497	3155.285919
502.399546	3166.492404
502.765537	3184.506967
503.131470	3218.320506
503.497345	3258.463214
503.863163	3259.514295
504.228923	3312.650577
504.594625	3346.169209
504.960269	3356.128008
505.325856	3406.204310
505.691385	3427.351951
506.056856	3468.989361
506.422270	3509.048890
506.787625	3530.841798
507.152924	3579.352821
507.518164	3614.759365
507.883347	3640.151657
508.248472	3668.286337
508.613540	3741.471288
508.978550	3769.671502
509.343503	3805.032676
509.708398	3865.834033
510.073236	3926.133794
510.438016	3967.748519
510.802738	4006.227647
511.167403	4066.759302
511.532010	4101.447481
511.896561	4180.694420
512.261053	4248.210593
512.625488	4275.241260
512.989866	4322.870082
513.354186	4375.918143
513.718449	4406.028955
514.082655	4496.774766
514.446803	4536.035272
514.810894	4620.782109
515.174927	4652.921986
515.538904	4701.997618
515.902822	4798.636537
516.266684	4826.433460
516.630488	4872.373495
516.994235	4935.060243
517.357925	5024.271022
517.721558	5099.623669
518.085133	5178.031255
518.448651	5227.482454
518.812112	5258.480509
519.175516	5330.866437
519.538863	5428.347229
519.902152	5453.759686
520.265385	5584.267597
520.628560	5600.545483
520.991678	5675.315877
521.354739	5748.004274
521.717743	5790.198732
522.080690	5847.718297
522.443580	5975.143543
522.806413	6019.057034
523.169189	6095.125525
523.531908	6188.638929
523.894569	6183.254976
524.257174	6251.025728
524.619722	6371.998297
524.982213	6400.798409
525.344647	6503.438822
525.707025	6538.482403
526.069345	6644.399566
526.431608	6691.085691
526.793815	6798.631147
527.155964	6768.951354
527.518057	6849.763570
527.880093	6900.462455
528.242072	6997.053483
528.603995	7021.422421
528.965860	7043.966461
529.327669	7139.145966
529.689421	7167.225193
530.051117	7219.113789
530.412755	7349.518357
530.774337	7343.746236
531.135862	7404.686224
531.497331	7459.397867
531.858743	7460.708567
532.220098	7613.284129
532.581396	7603.877336
532.942638	7650.618914
533.303824	7684.440016
533.664953	7764.112932
534.026025	7764.644773
534.387040	7885.261941
534.747999	7943.719161
535.108902	8043.039974
535.469748	7945.496167
535.830537	8068.175167
536.191270	8108.675797
536.551947	8184.320831
536.912567	8233.492246
537.273131	8234.278666
537.633638	8272.374665
537.994089	8323.804517
538.354483	8343.764965
538.714821	8488.546904
539.075103	8546.542858
539.435328	8583.524763
539.795497	8493.550249
540.155609	8665.259511
540.515665	8772.016026
540.875665	8632.986044
541.235609	8734.429183
541.595496	8770.768340
541.955328	8947.115463
542.315102	8898.047392
542.674821	8899.461436
543.034483	8946.820556
543.394090	8996.995160
543.753640	8982.383376
544.113134	9201.915543
544.472571	9119.895970
544.831953	9280.504611
545.191278	9169.780708
545.550548	9227.862362
545.909761	9375.694199
546.268918	9393.633145
546.628019	9501.332356
546.987064	9437.871790
547.346053	9392.171210
547.704986	9523.387404
548.063863	9550.841527
548.422684	9573.113345
548.781449	9534.906440
549.140158	9658.991922
549.498811	9586.719419
549.857408	9486.176127
550.215949	9718.560716
550.574434	9616.774779
550.932864	9737.686854
551.291237	9816.895983
551.649555	9799.811513
552.007817	9830.867541
552.366022	9820.679369
552.724173	9845.532258
553.082267	9854.913845
553.440305	10014.383185
553.798288	9856.038023
554.156215	10009.150468
554.514086	10023.555565
554.871902	9901.410928
555.229661	9959.520308
555.587365	9953.430594
555.945014	9879.544923
556.302606	10021.995328
556.660143	9940.323594
557.017625	10107.495817
557.375050	10028.266523
557.732421	10174.623822
558.089735	10106.578328
558.446994	10125.701945
558.804197	10181.923413
559.161345	10202.501403
559.518437	10069.914016
559.875474	10174.712042
560.232455	10208.707063
560.589381	10172.410756
560.946251	10191.267192
561.303065	10299.402462
561.659825	10256.948385
562.016528	10202.203975
562.373177	10095.639024
562.729770	10221.960257
563.086307	10156.367283
563.442789	10255.554506
563.799216	10150.224638
564.155587	10205.256393
564.511904	10177.227578
564.868164	10172.438482
565.224370	10196.933448
565.580520	10131.905084
565.936615	10142.055448
566.292654	10026.900370
566.648638	10162.678808
567.004567	10131.181679
567.360441	10119.902097
567.716260	10038.608450
568.072023	10141.561415
568.427732	10092.717675
568.783385	10015.749338
569.138982	10090.403785
569.494525	10109.981106
569.850013	10002.932204
570.205445	10085.559237
570.560823	9984.234565
570.916145	9911.394933
571.271412	9987.327313
571.626625	9931.158777
571.981782	9916.262167
572.336884	9896.841122
572.691931	9901.473942
573.046923	9853.918217
573.401860	9810.224016
573.756743	9753.417774
574.111570	9799.297315
574.466342	9780.612279
574.821059	9815.257608
575.175722	9712.163492
575.530330	9726.984484
575.884882	9723.463238
576.239380	9652.556889
576.593823	9629.997725
576.948211	9647.558585
577.302544	9526.780100
577.656823	9547.514366
578.011047	9552.779851
578.365216	9528.279843
578.719330	9458.031365
579.073389	9467.796080
579.427394	9415.733563
579.781344	9397.111541
580.135239	9344.643212
580.489080	9351.332823
580.842866	9257.267413
581.196597	9265.575234
581.550273	9308.951843
581.903895	9277.880691
582.257463	9342.341925
582.610975	9218.803409
582.964434	9248.972194
583.317837	9178.600207
583.671186	9162.221498
584.024481	9151.418305
584.377721	9077.020957
584.730906	9048.533397
585.084037	9077.474661
585.437113	9021.880816
585.790135	9036.873208
586.143103	8938.104401
586.496016	8918.196884
586.848874	8976.712078
587.201679	8959.337741
587.554428	8851.492337
587.907124	8896.338441
588.259765	8869.073361
588.612352	8868.475984
588.964884	8744.549299
589.317362	8762.901620
589.669786	8759.453470
590.022155	8812.718302
590.374470	8832.890479
590.726731	8765.359182
591.078937	8617.504660
591.431090	8734.343483
591.783188	8609.285059
592.135232	8602.557639
592.487222	8595.439530
592.839157	8657.032348
593.191038	8589.163293
593.542866	8534.295375
593.894639	8432.189324
594.246358	8481.703537
594.598022	8502.788163
594.949633	8400.840909
595.301190	8375.136066
595.652692	8409.070593
596.004141	8513.644288
596.355535	8294.089435
596.706876	8274.736446
597.058162	8208.112557
597.409395	8283.641644
597.760573	8343.727157
598.111698	8257.049558
598.462768	8237.999037
598.813785	8201.533851
599.164748	8176.794388
599.515657	8167.168305
599.866511	8080.949451
600.217312	8207.154737
600.568060	8062.738282
600.918753	8166.452461
601.269392	8139.068913
601.619978	8051.919966
601.970510	8111.924821
602.320988	8109.406764
602.671412	8163.788211
603.021783	8105.966177
603.372100	8076.500632
603.722363	8080.412568
604.072572	8049.583392
604.422728	8065.273983
604.772830	8000.747214
605.122878	8001.896597
605.472872	7997.969538
605.822813	8028.287037
606.172701	7972.262174
606.522534	8044.080972
606.872314	8049.522898
607.222041	8019.994339
607.571714	8073.160868
607.921333	8032.708129
608.270899	8038.626444
608.620411	8126.213971
608.969870	8031.757872
609.319276	8026.812500
609.668627	8043.657515
610.017926	8076.346877
610.367171	8121.566027
610.716362	8097.620547
611.065500	8088.816171
611.414585	8120.502344
611.763616	8106.893749
612.112594	8084.896674
612.461518	8100.720856
612.810389	8169.424221
613.159207	8100.070547
613.507971	8049.003659
613.856682	8169.933378
614.205340	8120.290615
614.553945	8203.144499
614.902496	8100.118438
615.250994	8154.643558
615.599439	8141.410529
615.947830	8140.591342
616.296169	8122.811192
616.644454	8140.009089
616.992686	8134.050445
617.340864	8188.086573
617.688990	8096.082995
618.037063	8187.080863
618.385082	8131.131617
618.733048	8224.594609
619.080961	8167.248963
619.428821	8178.125253
619.776628	8182.208587
620.124382	8130.781257
620.472083	8120.371274
620.819731	8143.973956
621.167326	8034.984210
621.514868	8044.506950
621.862357	7938.960312
622.209793	7952.891540
622.557176	7890.126654
622.904506	7858.586675
623.251783	7791.773743
623.599007	7749.843946
623.946179	7744.928821
624.293297	7711.321968
624.640363	7626.486911
624.987376	7609.881350
625.334336	7561.335039
625.681243	7501.103333
626.028097	7493.881880
626.374899	7470.221224
626.721647	7464.617982
627.068343	7396.895121
627.414987	7369.103240
627.761577	7327.659914
628.108115	7360.283741
628.454600	7256.345231
628.801032	7309.390772
629.147412	7268.648167
629.493739	7253.358347
629.840014	7193.477001
630.186236	7250.696618
630.532405	7136.118753
630.878521	7184.402924
631.224585	7141.422047
631.570597	7065.439255
631.916556	7098.625171
632.262462	7099.159533
632.608316	7060.216620
632.954117	7036.349277
633.299866	7021.485435
633.645562	7008.653178
633.991206	6935.120387
634.336797	6877.547890
634.682336	6835.169430
635.027823	6806.770090
635.373257	6794.925899
635.718639	6725.400826
636.063968	6738.527990
636.409245	6635.000334
636.754470	6630.153265
637.099642	6587.051399
637.444762	6538.051384
637.789829	6542.893412
638.134845	6486.848384
638.479808	6473.522094
638.824719	6482.119782
639.169577	6405.963071
639.514383	6429.333860
639.859137	6359.559250
640.203839	6368.141814
640.548489	6345.383525
640.893086	6327.807542
641.237632	6301.616227
641.582125	6314.879503
641.926566	6288.685668
642.270955	6300.517256
642.615292	6295.037522
642.959576	6312.096786
643.303809	6304.081352
643.647990	6311.529657
643.992118	6300.398789
644.336195	6246.579430
644.680219	6272.354850
645.024192	6266.968377
645.368112	6357.396595
645.711981	6380.260748
646.055797	6457.221523
646.399562	6410.011117
646.743274	6540.226642
647.086935	6587.888231
647.430544	6585.360092
647.774101	6604.715603
648.117606	6612.562158
648.461059	6606.182578
648.804460	6562.264046
649.147810	6472.660057
649.491108	6445.606705
649.834354	6417.656027
650.177548	6337.693245
650.520690	6252.734679
650.863781	6227.549075
651.206820	6250.302322
651.549807	6170.546227
651.892742	6111.196723
652.235626	6123.449248
652.578458	6103.347647
652.921238	6017.269945
653.263967	6057.274021
653.606644	5996.331512
653.949269	5996.069372
654.291843	5939.517708
654.634365	5985.674513
654.976836	5943.996774
655.319255	5938.426299
655.661622	5921.498104
656.003938	5914.823616
656.346203	5874.743923
656.688416	5910.158028
657.030577	5860.658939
657.372687	5830.233055
657.714746	5816.982382
658.056753	5864.059197
658.398708	5803.099044
658.740612	5791.295183
659.082465	5840.486762
659.424266	5831.251368
659.766016	5833.202294
660.107715	5808.472914
660.449362	5825.002858
660.790958	5821.499256
661.132503	5801.664836
661.473996	5842.472976
661.815438	5824.851623
662.156829	5824.760882
662.498168	5816.768133
662.839456	5791.718639
663.180693	5828.478733
663.521879	5827.669628
663.863013	5818.477084
664.204097	5839.881823
664.545129	5872.079673
664.886110	5878.532350
665.227040	5909.381691
665.567918	5874.050764
665.908746	5896.937603
666.249522	5903.990177
666.590248	5891.168002
666.930922	5918.614564
667.271545	5930.907418
667.612118	5934.998314
667.952639	5904.106123
668.293109	5928.288538
668.633528	5883.003853
668.973896	5890.560543
669.314213	5880.092587
669.654480	5858.009813
669.994695	5855.431262
670.334859	5847.998081
670.674973	5837.905691
671.015035	5845.815261
671.355047	5840.343089
671.695008	5826.500080
672.034918	5798.267098
672.374777	5812.581455
672.714585	5795.670904
673.054342	5797.871368
673.394049	5793.157889
673.733705	5823.009081
674.073310	5808.969468
674.412864	5769.328355
674.752368	5760.307210
675.091820	5764.360298
675.431223	5701.534918
675.770574	5702.701945
676.109875	5651.940046
676.449125	5663.378424
676.788324	5628.032374
677.127473	5569.476852
677.466571	5563.803033
677.805619	5550.474222
678.144616	5537.399990
678.483562	5517.494994
678.822458	5485.060210
679.161303	5482.882431
679.500098	5471.330627
679.838842	5458.637002
680.177535	5459.657836
680.516179	5476.580989
680.854771	5492.130428
681.193314	5567.122633
681.531805	5677.153377
681.870247	5829.096275
682.208638	5927.277787
682.546978	5934.249703
682.885268	5914.937042
683.223508	5836.209343
683.561697	5775.743223
683.899836	5741.833902
684.237925	5703.626997
684.575963	5669.614332
684.913951	5629.302745
685.251889	5685.322567
685.589776	5654.284183
685.927614	5630.585718
686.265401	5695.803126
686.603137	5683.263256
686.940824	5755.855871
687.278460	5781.696826
687.616046	5794.261902
687.953582	5856.452096
688.291068	5842.626732
688.628504	5901.474641
688.965889	5862.569536
689.303224	5809.239170
689.640510	5759.291417
689.977745	5687.371796
690.314930	5592.202373
690.652065	5532.308424
690.989150	5438.918529
691.326185	5364.574112
691.663170	5317.071320
692.000105	5243.175566
692.336990	5160.974511
692.673825	5136.880317
693.010610	5065.694183
693.347345	4997.464686
693.684030	4986.507738
694.020665	4947.839568
694.357251	4856.695506
694.693786	4864.831929
695.030272	4833.133153
695.366707	4799.133091
695.703093	4767.744347
696.039429	4786.991472
696.375716	4769.927166
696.711952	4746.695009
697.048139	4731.437957
697.384276	4709.745872
697.720363	4726.878233
698.056400	4735.342330
698.392388	4681.916182
698.728326	4665.658461
699.064214	4640.427486
699.400053	4636.460098
699.735842	4603.594295
700.071581	4574.882403
700.407270	4551.151172
700.742910	4533.716341
701.078501	4480.189370
701.414042	4476.053103
701.749533	4451.626192
702.084974	4386.164289
702.420366	4444.427424
702.755709	4381.702868
703.091002	4329.196730
703.426246	4375.933267
703.761440	4333.010363
704.096584	4300.207574
704.431679	4315.520079
704.766725	4299.317811
705.101721	4290.878919
705.436668	4319.399247
705.771565	4267.006535
706.106413	4292.814722
706.441212	4328.117923
706.775961	4338.638811
707.110661	4313.601920
707.445311	4342.339018
707.779913	4366.045044
708.114465	4379.782188
708.448967	4398.537801
708.783421	4460.901915
709.117825	4502.657792
709.452180	4504.938914
709.786485	4552.466913
710.120742	4637.894306
710.454949	4619.231954
710.789107	4686.463303
711.123216	4760.648923
711.457275	4753.049383
711.791286	4826.536803
712.125247	4840.110110
712.459159	4745.119648
712.793023	4820.434487
713.126837	4778.723980
713.460602	4770.398514
713.794318	4688.759548
714.127985	4700.157597
714.461602	4616.061069
714.795171	4584.934464
715.128691	4520.818549
715.462162	4463.639262
715.795584	4416.060852
716.128957	4400.647524
716.462281	4349.162219
716.795556	4318.970749
717.128782	4285.941109
717.461960	4214.865881
717.795088	4226.639496
718.128167	4184.432435
718.461198	4126.358343
718.794180	4123.749546
719.127113	4100.908078
719.459997	4079.203390
719.792833	4039.158984
720.125619	4028.136501
720.458357	3997.246831
720.791046	3999.860669
721.123686	3972.898058
721.456278	3930.839712
721.788821	3949.151703
722.121315	3920.709513
722.453761	3896.670771
722.786158	3910.213831
723.118506	3930.602777
723.450805	3883.392372
723.783056	3903.372985
724.115259	3919.716406
724.447412	3926.791665
724.779518	3918.892177
725.111574	3927.000873
725.443582	3954.034060
725.775542	3937.408335
726.107453	3987.507322
726.439315	3988.961695
726.771129	4002.610619
727.102895	4042.672668
727.434612	4086.145059
727.766281	4094.427674
728.097901	4098.284157
728.429473	4103.915126
728.760996	4108.333697
729.092471	4101.084518
729.423897	4091.927262
729.755276	4096.562603
730.086606	4098.231225
730.417887	4133.637769
730.749120	4196.236297
731.080305	4259.180144
731.411442	4284.398516
731.742530	4254.149072
732.073570	4257.700565
732.404562	4313.322136
732.735506	4304.263183
733.066401	4270.255559
733.397249	4206.048903
733.728048	4127.144763
734.058798	4044.880694
734.389501	3975.353100
734.720156	3915.277670
735.050762	3869.430896
735.381320	3862.574927
735.711831	3816.284532
736.042293	3783.141466
736.372707	3807.767502
736.703073	3778.299437
737.033391	3769.658900
737.363661	3786.945016
737.693883	3811.757575
738.024056	3822.112105
738.354182	3818.815191
738.684260	3879.157802
739.014290	3896.630442
739.344272	3892.090883
739.674207	3938.489662
740.004093	3942.610806
740.333931	3935.233077
740.663722	3933.100669
740.993464	3934.769291
741.323159	3912.620982
741.652806	3883.112587
741.982405	3855.653422
742.311956	3822.023885
742.641460	3813.292607
742.970915	3791.729071
743.300323	3750.058893
743.629683	3714.332236
743.958996	3705.394270
744.288260	3680.130528
744.617477	3648.164571
744.946647	3633.830050
745.275768	3609.819035
745.604842	3606.486832
745.933869	3557.900191
746.262847	3551.371897
746.591778	3590.670212
746.920662	3558.074111
747.249498	3529.578989
747.578286	3572.549784
747.907027	3594.544338
748.235720	3592.217846
748.564365	3616.420426
748.892963	3617.022843
749.221514	3597.725307
749.550017	3578.848706
749.878473	3572.675813
750.206881	3542.411246
750.535242	3538.479146
750.863555	3541.357645
751.191821	3534.806665
751.520039	3521.021630
751.848210	3492.206395
752.176334	3530.345244
752.504411	3535.373795
752.832440	3495.533556
753.160421	3479.303562
753.488356	3486.189778
753.816243	3499.788290
754.144082	3457.452680
754.471875	3442.044393
754.799620	3464.994246
755.127318	3457.830767
755.454969	3450.269036
755.782572	3458.838998
756.110129	3435.309412
756.437638	3425.325407
756.765100	3439.322170
757.092515	3449.676700
757.419882	3456.772124
757.747203	3426.774738
758.074477	3434.666665
758.401703	3448.514714
758.728882	3465.878969
759.056014	3472.901296
759.383099	3475.326091
759.710138	3475.895742
760.037129	3489.663133
760.364073	3521.064480
760.690970	3506.069568
761.017820	3482.177019
761.344623	3501.653517
761.671379	3546.819735
761.998088	3599.676233
762.324751	3721.742732
762.651366	3967.612408
762.977935	4440.036579
763.304456	4871.667733
763.630931	4962.249706
763.957359	4607.138226
764.283740	4266.308335
764.610074	4078.606013
764.936362	3883.210890
765.262602	3728.777663
765.588796	3617.063173
765.914943	3531.524874
766.241044	3443.236626
766.567097	3413.231679
766.893104	3371.120400
767.219064	3339.819876
767.544978	3310.339208
767.870845	3254.521032
768.196665	3238.306161
768.522438	3248.612800
768.848165	3243.410329
769.173846	3206.990513
769.499479	3190.916794
769.825066	3174.810307
770.150607	3157.309942
770.476101	3173.877694
770.801548	3171.135306
771.126949	3120.607821
771.452303	3106.618619
771.777611	3112.655401
772.102872	3117.235289
772.428087	3095.976744
772.753256	3081.879157
773.078378	3078.678024
773.403453	3045.527397
773.728482	3031.354193
774.053465	3052.630382
774.378401	3039.485574
774.703291	3010.635050
775.028135	3007.948115
775.352932	3003.595079
775.677683	2995.350272
776.002388	2989.762153
776.327046	2988.945486
776.651658	2981.832418
776.976224	2969.542085
777.300743	2970.555357
777.625216	2959.752164
777.949643	2956.223356
778.274024	2958.761577
778.598359	2948.943930
778.922647	2956.251083
779.246889	2952.760083
779.571086	2936.577980
779.895236	2929.026331
780.219339	2941.732559
780.543397	2953.564148
780.867409	2956.442646
781.191374	2950.244548
781.515294	2944.696758
781.839167	2950.269753
782.162995	2939.161571
782.486776	2946.395627
782.810511	2944.447221
783.134201	2931.947680
783.457844	2939.849688
783.781441	2931.473811
784.104993	2909.880029
784.428498	2911.125194
784.751958	2925.628593
785.075372	2919.579209
785.398739	2903.656724
785.722061	2919.085176
786.045337	2929.074222
786.368568	2915.231214
786.691752	2906.900707
787.014891	2955.903243
787.337983	2982.233189
787.661030	3012.379289
787.984031	3074.531675
788.306987	3124.514716
788.629897	3111.899228
788.952760	3097.559666
789.275579	3084.336719
789.598351	3025.403110
789.921078	2977.628095
790.243759	2971.956797
790.566395	2954.688325
790.888984	2930.621856
791.211529	2913.607962
791.534027	2906.603279
791.856480	2895.767319
792.178888	2882.365411
792.501249	2873.707229
792.823566	2871.385778
793.145836	2870.712784
793.468062	2865.119624
793.790241	2860.481762
794.112375	2868.966024
794.434464	2877.964484
794.756507	2883.829866
795.078505	2888.409755
795.400457	2902.177146
795.722364	2941.057045
796.044226	2962.529840
796.366042	2966.280458
796.687812	2955.048767
797.009538	2973.456541
797.331218	2962.456743
797.652852	2947.797068
797.974442	2930.470622
798.295986	2926.215888
798.617484	2921.381421
798.938938	2906.840213
799.260346	2891.905795
799.581709	2885.382542
799.903026	2876.182436
800.224299	2875.542209
800.545526	2864.663399
800.866708	2851.044722
801.187845	2838.434276
801.508936	2843.296469
801.829983	2847.241172
802.150984	2835.165088
802.471940	2825.087821
802.792851	2824.921463
803.113717	2819.829898
803.434538	2829.014880
803.755314	2821.390135
804.076045	2813.954433
804.396731	2812.245482
804.717372	2816.459886
805.037967	2807.660552
805.358518	2818.614980
805.679024	2828.656958
805.999485	2824.954231
806.319901	2828.909016
806.640272	2818.196564
806.960598	2826.990857
807.280879	2834.106445
807.601115	2838.517455
807.921306	2826.673264
808.241453	2823.202430
808.561554	2831.457319
808.881611	2833.569562
809.201623	2827.681495
809.521590	2826.821978
809.841513	2821.969867
810.161390	2828.117555
810.481223	2821.226297
810.801011	2809.639205
811.120755	2805.818011
811.440453	2810.617189
811.760107	2807.524441
812.079716	2805.737352
812.399281	2797.172432
812.718801	2790.881072
813.038276	2785.522325
813.357707	2793.026083
813.677093	2800.607978
813.996434	2792.632873
814.315731	2790.661782
814.634983	2785.348405
814.954191	2787.969805
815.273354	2799.221661
815.592473	2809.498053
815.911547	2811.980821
816.230577	2817.715134
816.549562	2827.736947
816.868502	2827.351299
817.187399	2833.141064
817.506250	2853.610670
817.825058	2843.755214
818.143821	2860.146526
818.462539	2872.814945
818.781213	2898.373595
819.099843	2936.194852
819.418429	2990.699807
819.736970	3050.928993
820.055466	3122.455404
820.373919	3226.542628
820.692327	3365.386088
821.010691	3528.447250
821.329011	3965.190134
821.647286	4844.261500
821.965517	6203.099478
822.283704	6921.352996
822.601847	6890.886783
822.919945	6268.730260
823.237999	5779.196413
823.556010	5209.694743
823.873976	4666.611239
824.191897	4270.084160
824.509775	3982.836693
824.827609	3714.599417
825.145398	3593.228597
825.463144	3585.986980
825.780845	3679.132379
826.098502	3781.850930
826.416116	4061.014907
826.733685	4365.624107
827.051210	4423.950257
827.368692	4311.882887
827.686129	4045.364645
828.003522	3730.673136
828.320872	3480.299189
828.638177	3290.187196
828.955439	3154.484375
829.272656	3073.273907
829.589830	3009.193280
829.906960	2963.069243
830.224046	2917.862696
830.541088	2885.327089
830.858086	2870.513658
831.175041	2850.890967
831.491952	2853.582943
831.808819	2864.479397
832.125642	2889.181051
832.442421	2934.546395
832.759157	3011.527334
833.075849	3186.757842
833.392497	3463.519709
833.709101	3659.446674
834.025662	3612.952112
834.342179	3452.938327
834.658653	3281.791154
834.975083	3133.745068
835.291469	3039.004143
835.607811	2960.838533
835.924110	2901.587331
836.240366	2851.057325
836.556578	2811.476706
836.872746	2786.424692
837.188871	2764.384767
837.504952	2747.827097
837.820990	2742.120511
838.136984	2726.558469
838.452935	2720.161245
838.768842	2717.902808
839.084706	2737.959039
839.400526	2812.900832
839.716303	2945.629371
840.032037	3018.882378
840.347727	3008.232940
840.663373	2951.262861
840.978977	2872.328474
841.294537	2804.182156
841.610054	2758.290012
841.925527	2734.563822
842.240957	2714.631099
842.556344	2694.055630
842.871687	2679.622806
843.186987	2669.863132
843.502244	2666.611588
843.817458	2658.828047
844.132629	2649.181799
844.447756	2640.707619
844.762840	2631.701598
845.077881	2635.689151
845.392879	2635.742083
845.707833	2629.107924
846.022745	2622.849332
846.337613	2628.253449
846.652438	2624.618777
846.967221	2625.861421
847.281960	2624.906123
847.596656	2623.318159
847.911309	2622.072994
848.225919	2616.792385
848.540485	2613.654267
848.855009	2614.725512
849.169490	2613.959257
849.483928	2613.208125
849.798323	2613.351798
850.112675	2610.075048
850.426984	2612.124277
850.741251	2611.216869
851.055474	2612.116715
851.369654	2616.875564
851.683792	2616.928497
851.997887	2614.037395
852.311938	2613.152672
852.625947	2613.271139
852.939914	2617.483023
853.253837	2618.478651
853.567718	2610.039760
853.881555	2611.758793
854.195350	2615.920266
854.509103	2613.344236
854.822812	2611.254678
855.136479	2611.289966
855.450103	2612.925820
855.763685	2614.435646
856.077224	2612.492281
856.390720	2610.518669
856.704173	2609.681838
857.017584	2617.944289
857.330953	2618.002262
857.644278	2618.302211
857.957561	2619.353292
858.270802	2614.652416
858.584000	2615.466562
858.897155	2619.302880
859.210268	2618.856738
859.523339	2612.247785
859.836367	2609.223093
860.149352	2612.383896
860.462295	2614.579319
860.775195	2610.886674
861.088054	2607.594800
861.400869	2609.374327
861.713642	2604.517176
862.026373	2607.438524
862.339062	2610.243927
862.651708	2614.906994
862.964312	2615.242231
863.276873	2613.795419
863.589392	2616.837756
863.901869	2623.040896
864.214303	2624.815382
864.526696	2625.609363
864.839045	2629.145733
865.151353	2632.619088
865.463619	2633.617236
865.775842	2633.055148
866.088023	2634.007926
866.400162	2633.350055
866.712258	2630.668161
867.024313	2632.908954
867.336325	2623.388735
867.648296	2630.973151
867.960224	2633.710498
868.272110	2629.886783
868.583954	2623.751698
868.895755	2626.884775
869.207515	2632.674541
869.519233	2639.074285
869.830909	2635.490025
870.142542	2629.917029
870.454134	2631.240332
870.765684	2640.042187
871.077191	2639.407002
871.388657	2644.296921
871.700081	2642.930768
872.011463	2641.594862
872.322803	2641.572177
872.634101	2646.557878
872.945357	2654.598519
873.256571	2657.489620
873.567744	2656.574651
873.878874	2653.658343
874.189963	2657.529950
874.501010	2660.168994
874.812015	2666.498162
875.122979	2664.678306
875.433900	2656.630104
875.744780	2655.654640
876.055618	2661.638490
876.366415	2663.828871
876.677169	2661.819972
876.987882	2657.736637
877.298554	2657.126657
877.609183	2668.953204
877.919771	2672.691220
878.230317	2681.354443
878.540822	2693.049920
878.851285	2705.874615
879.161707	2725.789693
879.472087	2764.631784
879.782425	2808.797332
880.092722	2922.041813
880.402977	3102.119390
880.713191	3353.998121
881.023363	3635.927170
881.333494	3819.420129
881.643583	3988.944051
881.953631	3989.397755
882.263637	3814.999037
882.573602	3597.427878
882.883526	3473.753251
883.193408	3363.840974
883.503248	3264.767177
883.813048	3156.246258
884.122806	3045.726522
884.432522	2962.550004
884.742197	2899.795201
885.051831	2866.510982
885.361424	2828.808193
885.670975	2797.732000
885.980485	2764.505755
886.289954	2750.713158
886.599382	2737.485170
886.908768	2725.414127
887.218113	2706.083823
887.527417	2696.427493
887.836680	2687.320648
888.145901	2681.989628
888.455082	2675.584842
888.764221	2662.006494
889.073319	2653.950730
889.382376	2657.111534
889.691392	2654.469969
890.000366	2657.771925
890.309300	2653.839825
890.618193	2658.578510
890.927044	2659.876607
891.235855	2658.049188
891.544625	2657.910557
891.853353	2655.742861
892.162041	2666.709891
892.470687	2685.226049
892.779293	2696.596371
893.087858	2704.107691
893.396381	2726.155177
893.704864	2766.214706
894.013306	2835.129800
894.321707	2923.619694
894.630068	2972.493680
894.938387	2989.588233
895.246665	2982.444918
895.554903	2941.435131
895.863100	2899.646487
896.171256	2840.642301
896.479371	2782.797582
896.787446	2744.232755
897.095480	2730.813203
897.403473	2724.612584
897.711425	2709.915100
898.019336	2692.535722
898.327207	2675.010151
898.635038	2678.848989
898.942827	2674.765655
899.250576	2665.673934
899.558284	2657.272851
899.865952	2651.331851
900.173579	2649.413692
900.481165	2645.955460
900.788711	2641.652836
901.096216	2634.030611
901.403681	2628.598768
901.711105	2630.713532
902.018489	2627.600619
902.325832	2630.206896
902.633135	2633.440796
902.940397	2648.077786
903.247619	2683.832170
903.554800	2750.004876
903.861941	2871.171529
904.169041	2991.314828
904.476101	3049.890515
904.783121	3045.451779
905.090100	2990.253665
905.397039	2917.076276
905.703938	2848.100688
906.010796	2786.875875
906.317614	2736.328225
906.624391	2703.432176
906.931129	2675.841941
907.237826	2658.417193
907.544483	2638.141672
907.851099	2627.361164
908.157675	2618.818929
908.464211	2610.828700
908.770707	2596.862184
909.077163	2595.770774
909.383578	2590.583427
909.689954	2591.495875
909.996289	2590.273396
910.302584	2590.364136
910.608839	2586.079156
910.915054	2586.830288
911.221229	2589.970926
911.527363	2592.325145
911.833458	2589.769280
912.139513	2592.367995
912.445527	2592.282295
912.751502	2597.613316
913.057436	2603.793770
913.363331	2608.366097
913.669186	2620.323714
913.975000	2631.956176
914.280775	2647.661891
914.586510	2663.503717
914.892205	2699.643749
915.197859	2763.293357
915.503475	2843.745132
915.809050	2909.033115
916.114585	2919.851431
916.420081	2931.030190
916.725536	2941.132662
917.030952	2917.847573
917.336328	2872.698999
917.641665	2824.266113
917.946961	2775.986983
918.252218	2745.815677
918.557435	2721.678632
918.862612	2699.948739
919.167750	2682.390400
919.472848	2667.793739
919.777906	2653.549959
920.082925	2641.451189
920.387904	2632.021711
920.692843	2628.409724
920.997743	2623.204733
921.302603	2614.778444
921.607423	2610.213680
921.912204	2602.029366
922.216946	2601.905858
922.521647	2598.966865
922.826310	2595.826227
923.130932	2591.352202
923.435516	2583.155286
923.740059	2585.201995
924.044564	2584.599577
924.349028	2583.089751
924.653454	2571.258163
924.957840	2572.488205
925.262186	2569.607185
925.566493	2570.028122
925.870761	2566.393450
926.174989	2567.202555
926.479178	2565.750703
926.783328	2564.167780
927.087438	2564.465208
927.391509	2563.835064
927.695541	2558.569579
927.999533	2562.022769
928.303486	2557.883982
928.607400	2556.361554
928.911275	2561.417831
929.215110	2558.879610
929.518906	2558.650237
929.822663	2557.662171
930.126381	2558.226781
930.430060	2558.776266
930.733699	2557.294167
931.037299	2558.889692
931.340861	2560.346586
931.644383	2560.510423
931.947866	2559.920608
932.251309	2558.178890
932.554714	2556.732078
932.858080	2559.151832
933.161407	2559.003118
933.464694	2558.362892
933.767943	2555.633107
934.071153	2553.793086
934.374323	2554.551779
934.677455	2554.541697
934.980548	2557.838612
935.283602	2555.572613
935.586617	2553.420040
935.889593	2557.510937
936.192530	2555.376008
936.495428	2553.707386
936.798287	2555.338199
937.101108	2556.958930
937.403890	2561.596792
937.706632	2559.744168
938.009336	2563.676268
938.312002	2567.999057
938.614628	2570.814542
938.917216	2577.975501
939.219765	2574.514749
939.522275	2577.020202
939.824747	2577.972980
940.127179	2571.187587
940.429573	2569.521486
940.731929	2567.754561
941.034246	2564.782801
941.336524	2565.380178
941.638763	2567.714232
941.940964	2566.746331
942.243126	2566.005281
942.545250	2565.493604
942.847335	2562.846998
943.149381	2561.248952
943.451389	2560.633932
943.753359	2562.519323
944.055290	2560.528067
944.357182	2557.175700
944.659036	2557.621842
944.960851	2561.551422
945.262628	2557.019424
945.564367	2558.630073
945.866067	2558.700649
946.167729	2560.598643
946.469352	2558.211657
946.770937	2558.385577
947.072484	2558.539332
947.373992	2558.602347
947.675462	2556.971533
947.976893	2556.401883
948.278286	2555.562531
948.579641	2556.532953
948.880958	2553.077242
949.182236	2557.485731
949.483476	2554.193858
949.784678	2554.546738
950.085841	2556.233004
950.386967	2555.350802
950.688054	2554.887016
950.989103	2557.760474
951.290114	2557.768036
951.591087	2556.706873
951.892021	2559.650907
952.192917	2562.196689
952.493776	2561.120403
952.794596	2562.141237
953.095378	2561.440516
953.396122	2565.420507
953.696828	2560.918757
953.997496	2558.892213
954.298126	2557.163097
954.598718	2557.205947
954.899272	2555.592778
955.199788	2557.684857
955.500266	2551.617828
955.800706	2551.164124
956.101108	2546.332178
956.401472	2546.793444
956.701798	2544.308155
957.002087	2544.298072
957.302337	2546.702703
957.602550	2550.012220
957.902724	2547.504246
958.202861	2544.280428
958.502960	2545.500388
958.803022	2545.765048
959.103045	2546.117929
959.403031	2543.937630
959.702979	2543.645243
960.002889	2544.058618
960.302762	2543.622558
960.602596	2543.647764
960.902393	2543.932589
961.202153	2541.359080
961.501875	2542.367311
961.801559	2543.516694
962.101205	2540.759182
962.400814	2542.589121
962.700385	2542.389996
962.999918	2543.499050
963.299414	2543.166333
963.598873	2542.427804
963.898293	2540.585263
964.197677	2542.236241
964.497022	2539.274563
964.796331	2542.034594
965.095601	2540.529810
965.394835	2541.119625
965.694030	2539.226672
965.993189	2543.977959
966.292309	2538.994779
966.591393	2542.100129
966.890439	2542.236241
967.189447	2541.414532
967.488419	2539.577032
967.787353	2542.132897
968.086249	2541.124666
968.385108	2542.861344
968.683930	2539.748431
968.982714	2542.637012
969.281462	2537.416898
969.580172	2541.273380
969.878844	2540.900335
970.177480	2539.287166
970.476078	2541.260777
970.774639	2543.567105
971.073162	2540.517207
971.371649	2538.001671
971.670098	2537.749614
971.968510	2539.824048
972.266885	2537.464788
972.565223	2541.190201
972.863524	2538.263811
973.161788	2542.959646
973.460014	2540.592824
973.758204	2541.855633
974.056356	2540.517207
974.354471	2540.360931
974.652550	2541.626261
974.950591	2542.276570
975.248595	2543.841848
975.546563	2543.766231
975.844493	2541.714481
976.142386	2542.326981
976.440243	2541.439738
976.738062	2540.151723
977.035845	2541.742208
977.333590	2543.483926
977.631299	2539.713143
977.928971	2540.023174
978.226606	2541.164995
978.524204	2539.720705
978.821765	2540.164326
979.119290	2538.435211
979.416777	2541.086857
979.714228	2540.166847
980.011642	2537.079140
980.309020	2542.594162
980.606360	2539.478729
980.903664	2541.437218
981.200931	2541.590973
981.498162	2544.386293
981.795356	2545.225645
982.092513	2548.134391
982.389633	2550.085317
982.686717	2550.211346
982.983764	2553.392314
983.280775	2556.827860
983.577749	2553.097407
983.874686	2555.459187
984.171587	2550.012220
984.468451	2549.009031
984.765279	2545.722198
985.062070	2546.148176
985.358824	2546.180943
985.655543	2543.143648
985.952224	2538.649460
986.248869	2540.890252
986.545478	2535.070240
986.842050	2535.876825
987.138586	2537.653832
987.435086	2536.580066
987.731549	2534.843388
988.027975	2539.382947
988.324366	2540.073586
988.620719	2539.405633
988.917037	2539.488812
989.213318	2536.471681
989.509563	2540.620551
989.805772	2536.166691
990.101944	2539.982845
990.398080	2538.352032
990.694180	2536.486805
990.990244	2538.220962
991.286271	2538.878832
991.582262	2538.289017
991.878217	2537.676517
992.174136	2536.277597
992.470019	2535.712987
992.765865	2539.221631
993.061676	2540.179450
993.357450	2538.180632
993.653188	2537.111908
993.948890	2537.406815
994.244556	2538.352032
994.540186	2538.064686
994.835780	2540.297917
995.131337	2538.992258
995.426859	2541.296065
995.722345	2537.628626
996.017795	2542.495860
996.313208	2542.798329
996.608586	2541.722043
996.903928	2542.773123
997.199234	2542.760521
997.494504	2538.843544
997.789738	2540.028215
998.084936	2540.633154
998.380099	2539.239275
998.675225	2538.765406
998.970316	2539.849254
999.265371	2539.539223
999.560390	2537.510159
999.855373	2538.374717
1000.150320	2535.864222
1000.445232	2539.803884
1000.740108	2539.612320
1001.034948	2537.404295
1001.329752	2536.368338
1001.624521	2537.076620
1001.919254	2531.102852
1002.213951	2534.044366
1002.508613	2532.237112
1002.803239	2536.466640
1003.097829	2530.820548
1003.392384	2535.539068
1003.686903	2535.894469
1003.981386	2536.456558
1004.275834	2538.682227
1004.570246	2536.144006
1004.864623	2537.144675
1005.158964	2532.214427
1005.453270	2536.932947
1005.747540	2536.685930
1006.041775	2536.738862
1006.335974	2536.736342
1006.630138	2533.714170
1006.924266	2537.121990
1007.218359	2535.899510
1007.512416	2535.491177
1007.806438	2536.307844
1008.100425	2536.441434
1008.394376	2533.139478
1008.688292	2539.405633
1008.982172	2534.818183
1009.276017	2532.307688
1009.569827	2533.313398
1009.863602	2536.834644
1010.157341	2535.612164
1010.451045	2536.748945
1010.744714	2534.059489
1011.038347	2535.602082
1011.331945	2534.150230
1011.625508	2533.845240
1011.919036	2536.539737
1012.212528	2534.324150
1012.505986	2534.840868
1012.799408	2536.713657
1013.092795	2535.223996
1013.386147	2535.750796
1013.679464	2536.774150
1013.972745	2536.489325
1014.265992	2538.278935
1014.559204	2534.397246
1014.852380	2531.710311
1015.145521	2535.082843
1015.438628	2534.757689
1015.731699	2536.164171
1016.024736	2536.726259
1016.317737	2535.070240
1016.610703	2535.390354
1016.903635	2533.913296
1017.196531	2529.391381
1017.489393	2532.786598
1017.782219	2531.019673
1018.075011	2533.993954
1018.367768	2534.324150
1018.660490	2535.445806
1018.953177	2535.445806
1019.245829	2535.445806
