Dividing Wavelength (nm)	Counts (n)	Blue Motor Position (mm): 28.200000	Red Motor Position (mm): 0.000000	
326.493990	2134.454785
326.888308	2134.454785
327.282561	2134.454785
327.676750	2102.277100
328.070874	2098.594538
328.464933	2103.038315
328.858929	2109.730446
329.252859	2118.197064
329.646726	2129.015380
330.040528	2143.342340
330.434265	2158.475883
330.827938	2176.802998
331.221547	2194.593230
331.615091	2213.394213
332.008571	2231.718808
332.401986	2252.468197
332.795338	2268.516710
333.188625	2290.506223
333.581847	2312.152938
333.975006	2327.099959
334.368100	2347.453618
334.761129	2363.814682
335.154095	2381.231869
335.546996	2400.899931
335.939833	2425.684764
336.332606	2440.089861
336.725315	2455.296501
337.117960	2461.318160
337.510540	2469.129428
337.903056	2482.886736
338.295508	2490.007366
338.687896	2499.063799
339.080220	2505.634943
339.472480	2510.885305
339.864676	2516.964936
340.256807	2519.437622
340.648875	2526.139836
341.040879	2526.255783
341.432818	2526.412059
341.824694	2529.955990
342.216506	2530.989426
342.608253	2529.061185
342.999937	2528.710825
343.391557	2528.501617
343.783113	2529.116638
344.174605	2527.029600
344.566033	2525.134126
344.957397	2525.262676
345.348697	2525.025741
345.739934	2519.964423
346.131106	2521.018024
346.522215	2518.792355
346.913260	2516.231448
347.304241	2512.385048
347.695159	2513.284894
348.086012	2512.921931
348.476802	2512.581653
348.867528	2510.182064
349.258191	2506.759120
349.648789	2502.726197
350.039324	2505.385406
350.429796	2502.070847
350.820203	2501.022287
351.210548	2499.719149
351.600828	2498.708398
351.991045	2498.146309
352.381198	2496.344097
352.771288	2497.107831
353.161314	2497.296875
353.551276	2497.541371
353.941175	2495.625732
354.331010	2496.694457
354.720782	2496.182780
355.110490	2495.736638
355.500135	2497.939622
355.889717	2495.696308
356.279235	2496.704539
356.668689	2499.562873
357.058080	2500.785353
357.447408	2494.622542
357.836672	2495.550115
358.225873	2496.439878
358.615010	2493.790752
359.004084	2503.774757
359.393095	2498.995743
359.782043	2502.494304
360.170927	2499.893069
360.559748	2497.954745
360.948505	2503.898266
361.337199	2503.807525
361.725830	2502.476660
362.114398	2505.319871
362.502903	2505.927330
362.891344	2504.069665
363.279722	2505.360200
363.668037	2505.342556
364.056289	2507.288442
364.444478	2509.367918
364.832603	2510.141735
365.220665	2506.305417
365.608665	2509.105778
365.996601	2508.977228
366.384474	2508.725170
366.772284	2511.467558
367.160031	2510.640809
367.547715	2510.129132
367.935336	2509.052845
368.322893	2508.137876
368.710388	2509.234327
369.097820	2514.580471
369.485189	2510.623165
369.872495	2509.998062
370.259738	2511.971673
370.646918	2513.499143
371.034035	2512.795902
371.421090	2513.867147
371.808081	2512.516118
372.195010	2507.878257
372.581875	2511.606190
372.968678	2513.786489
373.355418	2512.475789
373.742096	2512.586694
374.128710	2513.796571
374.515262	2517.521984
374.901751	2517.537107
375.288177	2515.039216
375.674540	2515.949144
376.060841	2518.497447
376.447079	2514.588032
376.833254	2515.830677
377.219367	2512.684997
377.605417	2515.245903
377.991404	2512.823628
378.377329	2514.494771
378.763191	2513.426046
379.148991	2515.981911
379.534727	2515.066942
379.920402	2516.327230
380.306013	2519.614063
380.691563	2516.768331
381.077049	2517.877385
381.462474	2516.029802
381.847835	2516.785975
382.233134	2518.013496
382.618371	2518.434433
383.003545	2519.820750
383.388657	2522.386697
383.773706	2521.512057
384.158693	2518.696573
384.543618	2518.794875
384.928480	2517.806809
385.313280	2520.624814
385.698017	2520.471059
386.082692	2520.155987
386.467305	2520.171110
386.851856	2522.709331
387.236344	2523.062212
387.620770	2524.198992
388.005133	2522.651358
388.389435	2523.004239
388.773674	2521.930473
389.157851	2522.762263
389.541965	2524.027593
389.926018	2522.905936
390.310008	2524.924918
390.693936	2524.821575
391.077802	2525.335772
391.461606	2521.917870
391.845348	2525.489528
392.229027	2525.842408
392.612645	2525.900382
392.996200	2525.071112
393.379694	2526.086904
393.763125	2526.956503
394.146494	2526.623787
394.529801	2525.295443
394.913047	2525.774353
395.296230	2527.034641
395.679351	2525.560104
396.062410	2529.217461
396.445408	2527.087573
396.828343	2527.753006
397.211217	2522.064063
397.594028	2527.992460
397.976778	2523.510875
398.359466	2526.916174
398.742092	2525.320649
399.124656	2529.915661
399.507158	2530.195445
399.889598	2531.352389
400.271977	2528.872142
400.654294	2531.438089
401.036549	2529.913140
401.418742	2529.862728
401.800874	2530.323994
402.182944	2531.493542
402.564952	2531.869108
402.946898	2532.237112
403.328783	2530.500434
403.710606	2532.335414
404.092367	2530.565969
404.474067	2533.946063
404.855705	2529.562780
405.237282	2531.773326
405.618797	2532.584952
406.000250	2537.144675
406.381642	2532.219468
406.762972	2535.128214
407.144240	2531.914478
407.525447	2536.383461
407.906593	2532.340456
408.287677	2535.052596
408.668700	2533.487318
409.049661	2536.393543
409.430560	2534.477905
409.811399	2535.097967
410.192176	2535.483615
410.572891	2534.699716
410.953545	2537.661393
411.334138	2533.071423
411.714669	2534.354397
412.095139	2535.965045
412.475547	2535.914634
412.855894	2537.739531
413.236180	2535.907072
413.616405	2538.198276
413.996568	2537.721887
414.376670	2537.948739
414.756711	2534.059489
415.136691	2539.629964
415.516609	2537.709284
415.896466	2540.676003
416.276262	2540.469316
416.655997	2537.220293
417.035670	2536.343132
417.415283	2536.426311
417.794834	2536.506969
418.174324	2541.061652
418.553753	2541.404450
418.933121	2536.950591
419.312428	2541.691796
419.691674	2540.739018
420.070859	2543.012578
420.449983	2542.876467
420.829045	2544.870243
421.208047	2539.836651
421.586988	2543.763710
421.965867	2543.735984
422.344686	2541.722043
422.723444	2544.804708
423.102141	2542.359749
423.480777	2544.701365
423.859352	2542.558874
424.237866	2543.930068
424.616319	2543.667928
424.994712	2545.989380
425.373044	2543.683052
425.751314	2545.681869
426.129524	2545.734801
426.507673	2545.938968
426.885762	2549.021634
427.263789	2548.852755
427.641756	2548.368804
428.019662	2547.325285
428.397508	2548.073897
428.775292	2549.422405
429.153016	2550.019782
429.530679	2552.371480
429.908282	2551.953065
430.285824	2553.026830
430.663305	2552.699155
431.040726	2556.769887
431.418086	2554.453477
431.795385	2559.771894
432.172624	2558.257027
432.549802	2558.514126
432.926920	2564.107287
433.303977	2570.103739
433.680974	2570.368400
434.057910	2574.161868
434.434786	2575.613720
434.811601	2579.863413
435.188355	2587.021851
435.565050	2591.135433
435.941683	2597.247832
436.318257	2605.109511
436.694770	2609.359204
437.071222	2621.944445
437.447614	2622.763632
437.823946	2631.363841
438.200218	2649.212046
438.576429	2653.776811
438.952580	2666.004129
439.328670	2680.651202
439.704700	2687.862572
440.080670	2699.971424
440.456580	2722.701987
440.832429	2732.509551
441.208218	2740.643453
441.583947	2763.237905
441.959616	2780.007303
442.335224	2791.843932
442.710773	2814.955102
443.086261	2838.837568
443.461689	2841.637929
443.837057	2876.386603
444.212365	2914.238106
444.587612	2923.223963
444.962800	2963.084367
445.337927	2983.112871
445.712995	2969.552167
446.088002	3062.405180
446.462949	3069.084708
446.837837	3090.711258
447.212664	3139.048362
447.587431	3203.459185
447.962139	3332.048937
448.336786	3531.560162
448.711374	3524.288298
449.085901	3393.177969
449.460369	3419.449942
449.834776	3445.220320
450.209124	3575.125814
450.583412	3673.173736
450.957640	3737.042634
451.331808	3729.858990
451.705917	3664.875996
452.079965	3688.879450
452.453954	3792.812919
452.827883	3807.361689
453.201752	3877.937843
453.575562	3868.483159
453.949311	3990.637878
454.323001	3996.551152
454.696632	4069.663006
455.070202	4179.353473
455.443713	4288.653250
455.817164	4385.392992
456.190556	4479.198783
456.563888	4565.059715
456.937160	4639.918329
457.310373	4555.796595
457.683526	4620.580463
458.056619	4630.851814
458.429653	4682.679917
458.802628	4706.675809
459.175542	4811.166325
459.548398	5056.615065
459.921194	5197.132187
460.293930	5252.418522
460.666607	5607.204847
461.039224	5841.137071
461.411782	5979.307536
461.784280	6068.644344
462.156719	6070.381021
462.529099	6074.756743
462.901419	5894.976594
463.273680	5893.532303
463.645882	5958.031346
464.018024	5943.805210
464.390106	6105.202791
464.762130	6422.702222
465.134094	6798.502598
465.505999	7543.257461
465.877845	8466.978327
466.249631	9007.057303
466.621358	8850.736164
466.993026	8497.270621
467.364634	8397.440651
467.736184	8200.608799
468.107674	8016.762959
468.479105	8110.858617
468.850477	7970.381823
469.221790	7854.846139
469.593043	7651.861559
469.964238	7593.386695
470.335373	7653.275603
470.706449	7752.795541
471.077467	7780.562217
471.448425	8931.044265
471.819324	9896.326924
472.190164	9961.511564
472.560945	8942.449876
472.931667	8307.778689
473.302330	8227.616781
473.672934	7947.444573
474.043479	8304.915313
474.413965	8287.868652
474.784393	8214.166982
475.154761	8389.205926
475.525070	8499.571907
475.895321	8362.996967
476.265513	8563.624808
476.635645	8741.917817
477.005719	8773.667004
477.375734	8905.435203
477.745691	9149.588367
478.115588	9300.250811
478.485427	9561.279237
478.855207	10083.905738
479.224928	10880.375278
479.594591	11503.139260
479.964194	11347.100425
480.333739	11313.670013
480.703226	11256.490726
481.072653	11362.705317
481.442022	11608.224632
481.811333	11809.802731
482.180584	11636.833180
482.549777	11368.154804
482.918912	11214.944056
483.287988	11238.478683
483.657005	11258.187074
484.025964	10965.336365
484.394864	11099.552045
484.763706	11078.427089
485.132489	10846.357572
485.501213	10826.714716
485.869879	10908.762016
486.238487	10757.514797
486.607036	10870.265244
486.975527	10667.313432
487.343959	10855.293017
487.712333	10896.950592
488.080648	10838.357261
488.448905	10885.441638
488.817104	10826.775210
489.185244	11098.722775
489.553326	11252.475447
489.921350	11795.155658
490.289315	12841.406810
490.657222	13175.700845
491.025070	13083.026793
491.392861	12964.373155
491.760593	12582.447778
492.128267	12243.883885
492.495883	11924.055441
492.863440	11596.501429
493.230939	11257.272104
493.598380	11190.917917
493.965763	11065.075593
494.333088	10966.216046
494.700354	10890.283666
495.067563	10956.345467
495.434713	10785.523448
495.801805	10915.592779
496.168839	10830.518267
496.535815	10774.203537
496.902733	10779.209403
497.269593	10709.336490
497.636395	10809.491614
498.003139	10800.772938
498.369825	10673.249390
498.736453	10830.072125
499.103023	10753.615465
499.469535	10780.444486
499.835989	10770.934349
500.202385	10734.771632
500.568723	10584.830072
500.935003	10808.438013
501.301226	10611.838054
501.667390	10874.497293
502.033497	10970.788373
502.399546	10834.538587
502.765537	10741.675492
503.131470	10808.301902
503.497345	10989.188584
503.863163	10599.552762
504.228923	10907.166490
504.594625	10975.900103
504.960269	10723.234951
505.325856	10941.045565
505.691385	10734.290202
506.056856	10892.620241
506.422270	10916.006154
506.787625	10803.326283
507.152924	10921.919427
507.518164	10903.073073
507.883347	10824.607514
508.248472	10743.843188
508.613540	10974.448250
508.978550	10864.898936
509.343503	10839.090749
509.708398	10959.803698
510.073236	11070.565410
510.438016	11074.479866
510.802738	11022.056907
511.167403	11073.343086
511.532010	10974.876748
511.896561	11196.158196
512.261053	11272.324990
512.625488	11138.666357
512.989866	11127.149841
513.354186	11114.950249
513.718449	11017.484581
514.082655	11213.030938
514.446803	11109.805752
514.810894	11229.802857
515.174927	11098.543814
515.538904	11122.557350
515.902822	11272.849270
516.266684	11147.253963
516.630488	11097.916190
516.994235	11147.596761
517.357925	11220.575025
517.721558	11308.714559
518.085133	11315.436938
518.448651	11328.327168
518.812112	11216.819365
519.175516	11228.847558
519.538863	11348.065806
519.902152	11262.421643
520.265385	11424.885429
520.628560	11336.514002
520.991678	11318.721249
521.354739	11379.935980
521.717743	11303.025617
522.080690	11295.723505
522.443580	11416.088615
522.806413	11382.355734
523.169189	11412.368244
523.531908	11461.186778
523.894569	11290.173195
524.257174	11297.989504
524.619722	11410.495455
524.982213	11361.823115
525.344647	11413.739438
525.707025	11360.499812
526.069345	11456.319543
526.431608	11373.248890
526.793815	11486.016981
527.155964	11276.055444
527.518057	11324.465644
527.880093	11274.853128
528.242072	11343.087666
528.603995	11250.083419
528.965860	11168.938486
529.327669	11228.406457
529.689421	11168.318424
530.051117	11137.809361
530.412755	11243.726524
530.774337	11129.967846
531.135862	11112.611154
531.497331	11144.282203
531.858743	10994.827115
532.220098	11158.437763
532.581396	11024.632937
532.942638	11013.928047
533.303824	10973.371964
533.664953	10993.660088
534.026025	10904.716490
534.387040	10996.707465
534.747999	10998.353402
535.108902	11063.212887
535.469748	10817.171812
535.830537	10926.973184
536.191270	10898.198278
536.551947	10918.771227
536.912567	10919.996227
537.273131	10852.071720
537.633638	10827.972484
537.994089	10816.874384
538.354483	10768.171797
538.714821	10905.394525
539.075103	10925.518811
539.435328	10882.437110
539.795497	10714.833868
540.155609	10872.400173
540.515665	10955.044849
540.875665	10691.979797
541.235609	10761.462021
541.595496	10762.248441
541.955328	10913.135217
542.315102	10799.184975
542.674821	10744.997612
543.034483	10742.635832
543.394090	10753.360887
543.753640	10685.050731
544.113134	10899.919832
544.472571	10749.574980
544.831953	10888.010106
545.191278	10707.481345
545.550548	10732.125026
545.909761	10866.736437
546.268918	10840.769453
546.628019	10928.903946
546.987064	10792.155086
547.346053	10713.129958
547.704986	10810.048662
548.063863	10797.818822
548.422684	10790.821701
548.781449	10712.106604
549.140158	10810.716614
549.498811	10687.772954
549.857408	10551.240864
550.215949	10772.124061
550.574434	10626.958995
550.932864	10722.264529
551.291237	10775.662951
551.649555	10725.944571
552.007817	10742.230019
552.366022	10708.948321
552.724173	10700.335510
553.082267	10682.298261
553.440305	10818.742131
553.798288	10619.906421
554.156215	10778.344845
554.514086	10754.154868
554.871902	10600.359347
555.229661	10633.323452
555.587365	10616.181008
555.945014	10509.275779
556.302606	10627.168203
556.660143	10526.481237
557.017625	10684.102994
557.375050	10572.073432
557.732421	10718.166071
558.089735	10623.488161
558.446994	10628.211722
558.804197	10661.881588
559.161345	10665.478452
559.518437	10510.223516
559.875474	10596.422206
560.232455	10634.762701
560.589381	10578.110214
560.946251	10577.195245
561.303065	10681.148878
561.659825	10614.656059
562.016528	10546.368589
562.373177	10434.699470
562.729770	10550.668693
563.086307	10459.333068
563.442789	10557.927955
563.799216	10429.895250
564.155587	10484.954732
564.511904	10436.874727
564.868164	10425.363253
565.224370	10435.027145
565.580520	10369.063647
565.936615	10377.754596
566.292654	10238.084387
566.648638	10369.845025
567.004567	10333.067287
567.360441	10312.239760
567.716260	10222.799609
568.072023	10315.224123
568.427732	10266.231670
568.783385	10176.884780
569.138982	10251.254402
569.494525	10260.525084
569.850013	10140.664089
570.205445	10217.665194
570.560823	10124.134146
570.916145	10036.912102
571.271412	10103.447771
571.626625	10050.671931
571.981782	10028.626966
572.336884	10003.191824
572.691931	10013.314461
573.046923	9951.696437
573.401860	9911.031970
573.756743	9846.845478
574.111570	9888.737467
574.466342	9873.034273
574.821059	9900.924456
575.175722	9801.132295
575.530330	9802.165732
575.884882	9796.582654
576.239380	9719.997445
576.593823	9699.744609
576.948211	9720.017609
577.302544	9595.886758
577.656823	9610.087688
578.011047	9611.721022
578.365216	9584.259336
578.719330	9514.693934
579.073389	9523.768011
579.427394	9470.228436
579.781344	9447.800343
580.135239	9398.785204
580.489080	9407.355166
580.842866	9314.219848
581.196597	9315.959046
581.550273	9352.736784
581.903895	9318.708996
582.257463	9385.330364
582.610975	9270.623950
582.964434	9289.409810
583.317837	9223.214418
583.671186	9194.726858
584.024481	9193.494296
584.377721	9114.476730
584.730906	9090.838760
585.084037	9115.416905
585.437113	9055.016320
585.790135	9073.182118
586.143103	8973.584042
586.496016	8948.879867
586.848874	9007.750462
587.201679	9000.592023
587.554428	8878.548209
587.907124	8926.439171
588.259765	8900.061333
588.612352	8903.388495
588.964884	8780.172613
589.317362	8795.207854
589.669786	8796.074932
590.022155	8841.377262
590.374470	8853.160959
590.726731	8799.949059
591.078937	8646.801326
591.431090	8761.109489
591.783188	8636.184656
592.135232	8627.047565
592.487222	8627.712997
592.839157	8678.079165
593.191038	8611.238506
593.542866	8552.042757
593.894639	8458.279816
594.246358	8508.036005
594.598022	8522.340279
594.949633	8423.674816
595.301190	8400.813183
595.652692	8422.737161
596.004141	8534.502062
596.355535	8314.352353
596.706876	8296.965414
597.058162	8227.589054
597.409395	8306.800705
597.760573	8360.088222
598.111698	8274.786857
598.462768	8269.476002
598.813785	8221.907674
599.164748	8195.403808
599.515657	8190.002211
599.866511	8095.853622
600.217312	8227.568890
600.568060	8080.483144
600.918753	8176.575098
601.269392	8153.801686
601.619978	8068.578459
601.970510	8132.238150
602.320988	8128.089280
602.671412	8181.805295
603.021783	8118.805996
603.372100	8095.881348
603.722363	8097.643232
604.072572	8071.537617
604.422728	8084.054802
604.772830	8007.951022
605.122878	8011.850355
605.472872	8016.596601
605.822813	8045.860499
606.172701	7992.325966
606.522534	8063.449085
606.872314	8061.505720
607.222041	8030.437089
607.571714	8088.475893
607.921333	8046.641878
608.270899	8049.734626
608.620411	8135.744273
608.969870	8045.222793
609.319276	8039.417905
609.668627	8058.687715
610.017926	8091.639217
610.367171	8137.276783
610.716362	8112.570088
611.065500	8101.860157
611.414585	8130.141030
611.763616	8118.458156
612.112594	8097.802028
612.461518	8119.549566
612.810389	8175.319851
613.159207	8121.039227
613.507971	8063.844816
613.856682	8181.097013
614.205340	8143.081672
614.553945	8217.899957
614.902496	8115.123433
615.250994	8166.525558
615.599439	8147.953947
615.947830	8166.018922
616.296169	8135.467009
616.644454	8156.367633
616.992686	8145.201477
617.340864	8207.928554
617.688990	8112.146631
618.037063	8203.938481
618.385082	8145.151066
618.733048	8232.700784
619.080961	8169.368769
619.428821	8193.402470
619.776628	8198.191566
620.124382	8145.279615
620.472083	8132.215465
620.819731	8164.977924
621.167326	8054.463228
621.514868	8059.549753
621.862357	7947.129501
622.209793	7964.546688
622.557176	7899.407418
622.904506	7871.834827
623.251783	7804.764796
623.599007	7755.028772
623.946179	7765.358097
624.293297	7721.374029
624.640363	7638.258005
624.987376	7625.884493
625.334336	7572.826349
625.681243	7518.318873
626.028097	7507.644230
626.374899	7486.410890
626.721647	7478.382852
627.068343	7406.133035
627.414987	7385.282823
627.761577	7334.357087
628.108115	7376.203705
628.454600	7269.366531
628.801032	7320.108265
629.147412	7280.341123
629.493739	7269.051459
629.840014	7203.125770
630.186236	7262.694564
630.532405	7151.239694
630.878521	7198.301386
631.224585	7153.508213
631.570597	7076.693631
631.916556	7114.887933
632.262462	7106.643126
632.608316	7065.595531
632.954117	7046.111472
633.299866	7035.504884
633.645562	7019.121134
633.991206	6950.339631
634.336797	6889.518110
634.682336	6849.554363
635.027823	6813.716800
635.373257	6807.120450
635.718639	6740.047898
636.063968	6752.197079
636.409245	6647.000801
636.754470	6637.737681
637.099642	6600.208811
637.444762	6546.596140
637.789829	6555.529064
638.134845	6498.863975
638.479808	6485.555328
638.824719	6490.067161
639.169577	6414.250728
639.514383	6442.229132
639.859137	6366.122832
640.203839	6373.553493
640.548489	6361.633685
640.893086	6337.761301
641.237632	6311.217105
641.582125	6331.149827
641.926566	6300.479447
642.270955	6314.093083
642.615292	6310.831457
642.959576	6322.705895
643.303809	6310.851621
643.647990	6316.255738
643.992118	6308.840201
644.336195	6260.452686
644.680219	6283.629391
645.024192	6272.213698
645.368112	6368.774479
645.711981	6390.088477
646.055797	6465.972966
646.399562	6421.908241
646.743274	6554.132665
647.086935	6603.440191
647.430544	6601.166630
647.774101	6619.483663
648.117606	6625.666638
648.461059	6609.613083
648.804460	6575.839873
649.147810	6484.768908
649.491108	6459.293437
649.834354	6436.462052
650.177548	6347.031982
650.520690	6264.324292
650.863781	6239.592391
651.206820	6261.324805
651.549807	6184.948804
651.892742	6122.025122
652.235626	6131.550382
652.578458	6117.987157
652.921238	6026.404516
653.263967	6062.456327
653.606644	6002.272512
653.949269	6009.110837
654.291843	5950.048679
654.634365	5996.946533
654.976836	5952.881807
655.319255	5954.084123
655.661622	5928.099495
656.003938	5926.524134
656.346203	5886.497373
656.688416	5919.713536
657.030577	5873.551690
657.372687	5845.863152
657.714746	5829.184495
658.056753	5870.804261
658.398708	5814.892824
658.740612	5805.561648
659.082465	5847.811558
659.424266	5845.195199
659.766016	5847.108317
660.107715	5821.700902
660.449362	5836.148849
660.790958	5828.471172
661.132503	5814.779398
661.473996	5849.419686
661.815438	5835.745557
662.156829	5836.247151
662.498168	5830.608621
662.839456	5807.295805
663.180693	5835.120453
663.521879	5843.420713
663.863013	5830.729608
664.204097	5855.635429
664.545129	5889.595162
664.886110	5887.424945
665.227040	5920.280665
665.567918	5883.238267
665.908746	5913.023924
666.249522	5913.253297
666.590248	5902.041771
666.930922	5933.392707
667.271545	5943.023831
667.612118	5948.856446
667.952639	5916.245222
668.293109	5941.992915
668.633528	5895.261419
668.973896	5901.393983
669.314213	5894.545575
669.654480	5874.479262
669.994695	5869.957347
670.334859	5855.816911
670.674973	5844.771743
671.015035	5855.625347
671.355047	5855.998392
671.695008	5841.081618
672.034918	5815.190252
672.374777	5821.824410
672.714585	5811.681609
673.054342	5812.072298
673.394049	5804.818078
673.733705	5838.760167
674.073310	5827.997303
674.412864	5785.215551
674.752368	5774.109889
675.091820	5779.912257
675.431223	5714.956990
675.770574	5719.206682
676.109875	5669.808416
676.449125	5674.978119
676.788324	5640.300022
677.127473	5581.991516
677.466571	5572.380556
677.805619	5566.610956
678.144616	5553.652670
678.483562	5534.324886
678.822458	5502.580740
679.161303	5496.334750
679.500098	5482.244725
679.838842	5469.611594
680.177535	5477.374971
680.516179	5488.407536
680.854771	5499.084700
681.193314	5578.634107
681.531805	5693.464030
681.870247	5842.654458
682.208638	5943.265806
682.546978	5956.478671
682.885268	5934.138797
683.223508	5841.416855
683.561697	5795.446573
683.899836	5763.775524
684.237925	5722.236416
684.575963	5682.212175
684.913951	5642.956710
685.251889	5705.550197
685.589776	5671.749260
685.927614	5644.060723
686.265401	5714.891455
686.603137	5703.274116
686.940824	5772.680722
687.278460	5801.591739
687.616046	5811.462318
687.953582	5875.825250
688.291068	5852.817424
688.628504	5919.431231
688.965889	5883.502928
689.303224	5827.674669
689.640510	5784.935767
689.977745	5704.047933
690.314930	5608.018993
690.652065	5550.575045
690.989150	5458.170695
691.326185	5387.105549
691.663170	5331.506664
692.000105	5248.723356
692.336990	5176.279454
692.673825	5152.941433
693.010610	5083.194549
693.347345	5013.916492
693.684030	5000.970809
694.020665	4952.180001
694.357251	4872.552456
694.693786	4881.135020
695.030272	4849.741235
695.366707	4811.259587
695.703093	4774.968320
696.039429	4798.182834
696.375716	4781.312612
696.711952	4758.377883
697.048139	4743.269545
697.384276	4727.221032
697.720363	4738.682095
698.056400	4745.154936
698.392388	4694.050239
698.728326	4676.819575
699.064214	4657.083458
699.400053	4649.539371
699.735842	4616.885297
700.071581	4591.671966
700.407270	4565.684818
700.742910	4543.271848
701.078501	4492.046163
701.414042	4490.463241
701.749533	4463.654385
702.084974	4398.933531
702.420366	4456.574084
702.755709	4396.160897
703.091002	4342.641487
703.426246	4388.543713
703.761440	4345.063761
704.096584	4308.971620
704.431679	4329.111030
704.766725	4311.366168
705.101721	4303.033141
705.436668	4329.675639
705.771565	4278.618833
706.106413	4306.680416
706.441212	4340.597299
706.775961	4350.966953
707.110661	4326.701358
707.445311	4354.520966
707.779913	4377.163308
708.114465	4390.187129
708.448967	4415.332405
708.783421	4471.521106
709.117825	4517.017519
709.452180	4519.341491
709.786485	4565.921752
710.120742	4650.124145
710.454949	4635.625787
710.789107	4701.153225
711.123216	4778.469402
711.457275	4768.442547
711.791286	4842.368547
712.125247	4856.539231
712.459159	4761.687400
712.793023	4836.014173
713.126837	4794.338954
713.460602	4785.065751
713.794318	4706.822002
714.127985	4715.664186
714.461602	4629.556237
714.795171	4598.278398
715.128691	4535.195920
715.462162	4478.114935
715.795584	4429.046864
716.128957	4413.199997
716.462281	4359.443653
716.795556	4337.403728
717.128782	4295.173982
717.461960	4229.679312
717.795088	4238.133327
718.128167	4198.068756
718.461198	4137.312770
718.794180	4131.817913
719.127113	4116.059266
719.459997	4092.547324
719.792833	4053.112898
720.125619	4045.583935
720.458357	4006.318387
720.791046	4008.042462
721.123686	3982.498936
721.456278	3942.179787
721.788821	3959.523877
722.121315	3935.540587
722.453761	3906.869025
722.786158	3922.002569
723.118506	3941.345476
723.450805	3894.513157
723.783056	3918.738422
724.115259	3935.613684
724.447412	3936.352213
724.779518	3929.720575
725.111574	3936.435392
725.443582	3965.490082
725.775542	3950.558185
726.107453	4000.001822
726.439315	4002.575331
726.771129	4016.751055
727.102895	4051.043504
727.434612	4100.635855
727.766281	4107.632977
728.097901	4112.822845
728.429473	4120.392137
728.760996	4121.395327
729.092471	4119.260398
729.423897	4098.422789
729.755276	4110.156074
730.086606	4109.049541
730.417887	4146.280983
730.749120	4212.156261
731.080305	4274.210344
731.411442	4304.505158
731.742530	4269.834623
732.073570	4275.601703
732.404562	4328.637162
732.735506	4319.915965
733.066401	4281.983803
733.397249	4218.495512
733.728048	4140.261845
734.058798	4061.024989
734.389501	3983.660922
734.720156	3928.505657
735.050762	3881.053276
735.381320	3874.837533
735.711831	3823.967250
736.042293	3794.652940
736.372707	3816.546672
736.703073	3789.304276
737.033391	3778.044859
737.363661	3799.505051
737.693883	3825.809792
738.024056	3830.266172
738.354182	3826.293742
738.684260	3890.245820
739.014290	3912.900766
739.344272	3905.180238
739.674207	3949.814615
740.004093	3954.076910
740.333931	3948.513997
740.663722	3950.810242
740.993464	3945.315385
741.323159	3922.713372
741.652806	3896.834608
741.982405	3866.078529
742.311956	3836.733972
742.641460	3829.033610
742.970915	3803.691729
743.300323	3764.325359
743.629683	3725.447980
743.958996	3718.365159
744.288260	3689.880119
744.617477	3656.174965
744.946647	3646.132986
745.275768	3618.308338
745.604842	3618.716671
745.933869	3568.471491
746.262847	3561.408834
746.591778	3599.935853
746.920662	3568.262283
747.249498	3538.426214
747.578286	3586.241558
747.907027	3601.412911
748.235720	3603.260493
748.564365	3622.920993
748.892963	3627.548773
749.221514	3605.786112
749.550017	3586.294490
749.878473	3581.071855
750.206881	3555.598904
750.535242	3548.556413
750.863555	3552.359963
751.191821	3545.866957
751.520039	3527.338196
751.848210	3506.457737
752.176334	3538.121224
752.504411	3548.334602
752.832440	3508.302799
753.160421	3488.667505
753.488356	3495.062208
753.816243	3511.781195
754.144082	3467.056078
754.471875	3451.380610
754.799620	3470.499186
755.127318	3462.173721
755.454969	3462.647589
755.782572	3470.174032
756.110129	3446.019343
756.437638	3436.141202
756.765100	3449.265846
757.092515	3462.236735
757.419882	3465.609267
757.747203	3435.843774
758.074477	3440.045576
758.401703	3455.894964
758.728882	3477.619816
759.056014	3486.393944
759.383099	3485.194150
759.710138	3484.969818
760.037129	3501.625791
760.364073	3531.978578
760.690970	3517.835621
761.017820	3496.831653
761.344623	3512.867564
761.671379	3559.241138
761.998088	3608.074795
762.324751	3738.139085
762.651366	3984.538082
762.977935	4459.578612
763.304456	4901.728134
763.630931	4990.001258
763.957359	4630.715703
764.283740	4289.306079
764.610074	4099.161318
764.936362	3900.625556
765.262602	3739.583376
765.588796	3632.141264
765.914943	3541.939898
766.241044	3458.105510
766.567097	3425.781631
766.893104	3381.293448
767.219064	3345.402954
767.544978	3320.837411
767.870845	3267.108793
768.196665	3246.366966
768.522438	3256.161928
768.848165	3250.498191
769.173846	3212.692058
769.499479	3197.651776
769.825066	3183.549148
770.150607	3165.867301
770.476101	3181.683921
770.801548	3178.321471
771.126949	3132.885552
771.452303	3113.267901
771.777611	3123.592184
772.102872	3125.832977
772.428087	3099.765171
772.753256	3093.057916
773.078378	3083.721699
773.403453	3049.207439
773.728482	3037.083464
774.053465	3060.615570
774.378401	3046.825494
774.703291	3017.848941
775.028135	3017.465814
775.352932	3009.329391
775.677683	2995.375478
776.002388	2998.558966
776.327046	2997.364213
776.651658	2986.896257
776.976224	2977.907879
777.300743	2977.025678
777.625216	2963.772484
777.949643	2961.168728
778.274024	2962.169397
778.598359	2952.167748
778.922647	2959.295939
779.246889	2958.436423
779.571086	2942.140893
779.895236	2935.196703
780.219339	2945.584001
780.543397	2959.147225
780.867409	2962.834829
781.191374	2955.147070
781.515294	2952.455094
781.839167	2952.999538
782.162995	2944.399330
782.486776	2954.595063
782.810511	2950.042902
783.134201	2939.206941
783.457844	2941.994699
783.781441	2932.570262
784.104993	2914.394382
784.428498	2915.952099
784.751958	2928.930549
785.075372	2922.641710
785.398739	2908.841551
785.722061	2922.482913
786.045337	2933.328956
786.368568	2920.000145
786.691752	2912.098137
787.014891	2957.622276
787.337983	2987.571771
787.661030	3014.451204
787.984031	3087.799992
788.306987	3130.480921
788.629897	3123.708131
788.952760	3106.459823
789.275579	3089.556834
789.598351	3031.964172
789.921078	2984.789054
790.243759	2980.622541
790.566395	2961.282154
790.888984	2938.014708
791.211529	2919.518715
791.534027	2910.605955
791.856480	2903.326529
792.178888	2885.208622
792.501249	2877.291490
792.823566	2875.640512
793.145836	2872.595655
793.468062	2869.628936
793.790241	2866.218595
794.112375	2873.019112
794.434464	2886.872203
794.756507	2889.102913
795.078505	2896.767988
795.400457	2908.808784
795.722364	2946.458641
796.044226	2970.583083
796.366042	2973.272538
796.687812	2962.247535
797.009538	2980.090699
797.331218	2969.582414
797.652852	2956.404838
797.974442	2939.700974
798.295986	2932.751744
798.617484	2929.094387
798.938938	2914.800195
799.260346	2898.557597
799.581709	2892.813203
799.903026	2884.245762
800.224299	2878.670245
800.545526	2870.236395
800.866708	2854.059332
801.187845	2844.309741
801.508936	2845.678414
801.829983	2851.848786
802.150984	2840.579287
802.471940	2825.649910
802.792851	2827.268120
803.113717	2825.821309
803.434538	2833.352793
803.755314	2826.272492
804.076045	2819.290494
804.396731	2818.690597
804.717372	2818.635144
805.037967	2812.883188
805.358518	2822.637820
805.679024	2834.330777
805.999485	2827.928511
806.319901	2831.227947
806.640272	2826.050682
806.960598	2830.053358
807.280879	2835.951508
807.601115	2847.094978
807.921306	2832.624346
808.241453	2829.488748
808.561554	2837.289934
808.881611	2840.728001
809.201623	2833.158708
809.521590	2829.503872
809.841513	2828.430106
810.161390	2829.859273
810.481223	2823.197388
810.801011	2816.328816
811.120755	2812.159782
811.440453	2815.194557
811.760107	2814.718168
812.079716	2812.731953
812.399281	2801.616209
812.718801	2797.837864
813.038276	2790.886113
813.357707	2795.975158
813.677093	2803.368010
813.996434	2799.345169
814.315731	2796.207051
814.634983	2788.940227
814.954191	2788.932666
815.273354	2804.978658
815.592473	2814.526604
815.911547	2815.673466
816.230577	2824.891216
816.549562	2831.109479
816.868502	2830.514623
817.187399	2839.674400
817.506250	2857.497399
817.825058	2852.373066
818.143821	2864.005529
818.462539	2878.657643
818.781213	2907.714853
819.099843	2942.161057
819.418429	2998.485869
819.736970	3063.022721
820.055466	3133.180459
820.373919	3241.527458
820.692327	3376.882439
821.010691	3546.134138
821.329011	3986.040346
821.647286	4889.531062
821.965517	6263.958808
822.283704	6998.865778
822.601847	6976.631769
822.919945	6340.685170
823.237999	5843.070353
823.556010	5260.365901
823.873976	4712.652097
824.191897	4301.412410
824.509775	4010.250487
824.827609	3740.384919
825.145398	3618.608286
825.463144	3609.115794
825.780845	3697.545194
826.098502	3801.924805
826.416116	4086.928958
826.733685	4401.018048
827.051210	4463.876196
827.368692	4349.474771
827.686129	4081.335798
828.003522	3757.446704
828.320872	3498.928773
828.638177	3306.628919
828.955439	3169.960717
829.272656	3086.930393
829.589830	3018.882378
829.906960	2970.439410
830.224046	2923.743202
830.541088	2892.664488
830.858086	2873.772764
831.175041	2857.575537
831.491952	2860.819520
831.808819	2870.211189
832.125642	2894.146588
832.442421	2941.286417
832.759157	3023.185003
833.075849	3202.534133
833.392497	3481.105774
833.709101	3686.273174
834.025662	3629.386273
834.342179	3471.144454
834.658653	3298.142136
834.975083	3149.816267
835.291469	3052.859755
835.607811	2964.609316
835.924110	2911.523445
836.240366	2855.188551
836.556578	2816.051553
836.872746	2795.266876
837.188871	2769.191507
837.504952	2754.070566
837.820990	2744.457086
838.136984	2731.697926
838.452935	2724.446226
838.768842	2723.667368
839.084706	2742.617065
839.400526	2819.729075
839.716303	2953.450722
840.032037	3033.544574
840.347727	3017.153262
840.663373	2958.048254
840.978977	2881.495812
841.294537	2807.267342
841.610054	2761.712956
841.925527	2738.042218
842.240957	2717.807026
842.556344	2699.719366
842.871687	2682.471058
843.186987	2672.303051
843.502244	2669.190138
843.817458	2662.518171
844.132629	2652.463590
844.447756	2641.998155
844.762840	2635.409367
845.077881	2637.438431
845.392879	2635.835344
845.707833	2633.413070
846.022745	2625.710187
846.337613	2627.837553
846.652438	2626.252111
846.967221	2625.662296
847.281960	2623.923097
847.596656	2622.952675
847.911309	2624.210443
848.225919	2620.479989
848.540485	2616.986470
848.855009	2616.699124
849.169490	2615.068311
849.483928	2619.708693
849.798323	2614.743156
850.112675	2613.256016
850.426984	2614.634772
850.741251	2613.490430
851.055474	2612.303238
851.369654	2616.857920
851.683792	2616.391614
851.997887	2614.627210
852.311938	2611.748711
852.625947	2616.525204
852.939914	2617.198198
853.253837	2618.886985
853.567718	2613.195522
853.881555	2615.332971
854.195350	2617.646861
854.509103	2619.557458
854.822812	2614.518825
855.136479	2610.228803
855.450103	2616.628548
855.763685	2616.333640
856.077224	2616.114350
856.390720	2612.043618
856.704173	2614.372632
857.017584	2617.339351
857.330953	2618.468569
857.644278	2622.657768
857.957561	2621.949486
858.270802	2617.815740
858.584000	2617.984618
858.897155	2619.711213
859.210268	2619.885133
859.523339	2615.832046
859.836367	2609.462548
860.149352	2613.374483
860.462295	2615.317848
860.775195	2613.198043
861.088054	2612.295676
861.400869	2606.226127
861.713642	2606.914244
862.026373	2606.747886
862.339062	2611.090840
862.651708	2615.678290
862.964312	2617.077211
863.276873	2614.773403
863.589392	2617.755246
863.901869	2620.603498
864.214303	2626.680609
864.526696	2631.031124
864.839045	2634.277627
865.151353	2633.566825
865.463619	2633.347535
865.775842	2634.310395
866.088023	2631.237812
866.400162	2634.512041
866.712258	2635.318626
867.024313	2631.535240
867.336325	2628.034158
867.648296	2631.447020
867.960224	2635.545478
868.272110	2635.346352
868.583954	2628.560959
868.895755	2629.791001
869.207515	2635.686630
869.519233	2643.432363
869.830909	2636.185704
870.142542	2632.709829
870.454134	2634.607823
870.765684	2641.778864
871.077191	2642.779533
871.388657	2646.971253
871.700081	2643.845737
872.011463	2643.152579
872.322803	2642.025881
872.634101	2649.900163
872.945357	2658.185300
873.256571	2662.061947
873.567744	2658.679333
873.878874	2658.452481
874.189963	2657.514826
874.501010	2664.164108
874.812015	2669.243071
875.122979	2667.665189
875.433900	2658.066833
875.744780	2658.661689
876.055618	2663.062616
876.366415	2667.798780
876.677169	2668.275169
876.987882	2663.329797
877.298554	2660.799138
877.609183	2672.630726
877.919771	2679.274967
878.230317	2685.213446
878.540822	2696.548480
878.851285	2709.327805
879.161707	2733.686661
879.472087	2772.790891
879.782425	2821.619507
880.092722	2933.888524
880.402977	3119.796196
880.713191	3378.979559
881.023363	3669.985206
881.333494	3860.545862
881.643583	4032.698746
881.953631	4028.892674
882.263637	3852.860623
882.573602	3633.406593
882.883526	3500.385667
883.193408	3390.647309
883.503248	3286.968419
883.813048	3176.451203
884.122806	3060.668502
884.432522	2977.149186
884.742197	2911.115112
885.051831	2875.942981
885.361424	2840.591890
885.670975	2806.236426
885.980485	2775.228289
886.289954	2755.308170
886.599382	2741.994482
886.908768	2731.723131
887.218113	2712.334854
887.527417	2700.621733
887.836680	2691.711493
888.145901	2684.432067
888.455082	2679.400996
888.764221	2665.063954
889.073319	2658.989364
889.382376	2656.504075
889.691392	2659.367450
890.000366	2659.334683
890.309300	2658.235711
890.618193	2660.111020
890.927044	2661.789725
891.235855	2663.241577
891.544625	2659.329642
891.853353	2661.691422
892.162041	2669.585869
892.470687	2688.197809
892.779293	2700.609130
893.087858	2711.543392
893.396381	2735.337639
893.704864	2774.041097
894.013306	2844.211438
894.321707	2933.901127
894.630068	2988.224601
894.938387	3007.537261
895.246665	2996.197186
895.554903	2955.210084
895.863100	2913.368507
896.171256	2852.436081
896.479371	2792.214457
896.787446	2754.806575
897.095480	2737.918709
897.403473	2730.271279
897.711425	2713.043136
898.019336	2699.179963
898.327207	2682.216480
898.635038	2680.263033
898.942827	2680.721778
899.250576	2670.084943
899.558284	2658.820485
899.865952	2653.224804
900.173579	2650.190030
900.481165	2648.690286
900.788711	2641.252064
901.096216	2635.069089
901.403681	2631.532719
901.711105	2634.696043
902.018489	2632.230919
902.325832	2635.111938
902.633135	2638.670993
902.940397	2653.519712
903.247619	2687.907943
903.554800	2758.032913
903.861941	2884.207953
904.169041	3008.316119
904.476101	3070.155954
904.783121	3064.555232
905.090100	3005.503156
905.397039	2930.843667
905.703938	2857.893130
906.010796	2796.365847
906.317614	2743.937847
906.624391	2709.486602
906.931129	2684.890812
907.237826	2660.899961
907.544483	2640.238792
907.851099	2629.342338
908.157675	2617.263733
908.464211	2613.341716
908.770707	2603.145982
909.077163	2597.358737
909.383578	2593.212388
909.689954	2594.202975
909.996289	2590.719538
910.302584	2588.035123
910.608839	2588.077973
910.915054	2588.539239
911.221229	2591.783221
911.527363	2593.371185
911.833458	2589.872624
912.139513	2592.161308
912.445527	2593.502255
912.751502	2596.174066
913.057436	2604.224789
913.363331	2607.536827
913.669186	2622.993005
913.975000	2635.636218
914.280775	2652.319917
914.586510	2667.934891
914.892205	2704.740355
915.197859	2771.260901
915.503475	2855.317100
915.809050	2922.989549
916.114585	2937.208124
916.420081	2948.903601
916.725536	2958.643110
917.030952	2933.281065
917.336328	2887.159548
917.641665	2838.756910
917.946961	2790.109775
918.252218	2755.449322
918.557435	2727.170969
918.862612	2704.427804
919.167750	2690.877182
919.472848	2672.734070
919.777906	2658.659168
920.082925	2642.764410
920.387904	2634.512041
920.692843	2629.324694
920.997743	2625.460649
921.302603	2618.188785
921.607423	2614.165944
921.912204	2605.943822
922.216946	2602.548605
922.521647	2602.901486
922.826310	2599.705394
923.130932	2594.079467
923.435516	2586.714341
923.740059	2587.407500
924.044564	2581.297621
924.349028	2580.906932
924.653454	2575.462486
924.957840	2570.575087
925.262186	2568.911506
925.566493	2571.096846
925.870761	2565.579303
926.174989	2570.169274
926.479178	2566.814386
926.783328	2565.670044
927.087438	2561.349775
927.391509	2564.198027
927.695541	2561.150650
927.999533	2559.625701
928.303486	2561.097718
928.607400	2559.482028
928.911275	2561.009497
929.215110	2556.507747
929.518906	2557.400031
929.822663	2559.081256
930.126381	2558.390618
930.430060	2558.766184
930.733699	2558.141081
931.037299	2555.859959
931.340861	2557.631924
931.644383	2559.686195
931.947866	2556.749722
932.251309	2557.024465
932.554714	2556.122099
932.858080	2560.510423
933.161407	2558.136040
933.464694	2557.150494
933.767943	2558.176369
934.071153	2557.800803
934.374323	2556.316183
934.677455	2556.243087
934.980548	2555.083621
935.283602	2555.794424
935.586617	2553.412479
935.889593	2556.669064
936.192530	2553.798127
936.495428	2557.657130
936.798287	2554.082952
937.101108	2557.200906
937.403890	2557.228632
937.706632	2563.013356
938.009336	2564.742472
938.312002	2566.968141
938.614628	2571.384192
938.917216	2576.143041
939.219765	2576.362332
939.522275	2578.570357
939.824747	2578.119174
940.127179	2572.349573
940.429573	2568.447720
940.731929	2569.287072
941.034246	2566.141392
941.336524	2566.721125
941.638763	2567.459654
941.940964	2565.385219
942.243126	2566.247256
942.545250	2565.022256
942.847335	2565.206258
943.149381	2564.641649
943.451389	2561.077553
943.753359	2560.906154
944.055290	2559.902964
944.357182	2560.651576
944.659036	2559.474466
944.960851	2558.078067
945.262628	2557.954558
945.564367	2559.658468
945.866067	2559.829868
946.167729	2559.154353
946.469352	2556.691749
946.770937	2558.809034
947.072484	2560.296174
947.373992	2558.365412
947.675462	2556.023796
947.976893	2558.720814
948.278286	2555.050854
948.579641	2554.806358
948.880958	2553.248641
949.182236	2556.941286
949.483476	2553.810730
949.784678	2558.030176
950.085841	2555.368446
950.386967	2552.114382
950.688054	2555.305432
950.989103	2557.183262
951.290114	2558.073025
951.591087	2557.669733
951.892021	2555.315514
952.192917	2562.940259
952.493776	2558.493962
952.794596	2563.769529
953.095378	2563.172152
953.396122	2564.876062
953.696828	2564.266083
953.997496	2560.321380
954.298126	2556.522871
954.598718	2555.534804
954.899272	2555.630586
955.199788	2555.292829
955.500266	2553.049516
955.800706	2550.995245
956.101108	2549.374514
956.401472	2545.608773
956.701798	2545.681869
957.002087	2545.427291
957.302337	2547.085831
957.602550	2546.710265
957.902724	2546.019627
958.202861	2546.377548
958.502960	2547.287477
958.803022	2544.131714
959.103045	2545.593649
959.403031	2542.788247
959.702979	2545.384441
960.002889	2542.016950
960.302762	2543.622558
960.602596	2542.972249
960.902393	2543.267157
961.202153	2542.667259
961.501875	2541.616179
961.801559	2542.803370
962.101205	2541.422094
962.400814	2542.674821
962.700385	2541.346477
962.999918	2541.996786
963.299414	2540.005530
963.598873	2541.190201
963.898293	2539.929913
964.197677	2542.410160
964.497022	2539.110725
964.796331	2541.797660
965.095601	2538.858667
965.394835	2537.079140
965.694030	2541.782537
965.993189	2543.375541
966.292309	2536.670807
966.591393	2540.129038
966.890439	2538.959491
967.189447	2540.355890
967.488419	2540.434028
967.787353	2537.915972
968.086249	2538.810777
968.385108	2540.701209
968.683930	2538.770447
968.982714	2539.340098
969.281462	2537.631147
969.580172	2541.477547
969.878844	2538.788091
970.177480	2539.718184
970.476078	2539.178781
970.774639	2544.028371
971.073162	2540.965870
971.371649	2536.953111
971.670098	2537.185004
971.968510	2537.222813
972.266885	2536.416228
972.565223	2541.190201
972.863524	2541.285983
973.161788	2540.524769
973.460014	2539.617361
973.758204	2541.628782
974.056356	2539.912269
974.354471	2539.294727
974.652550	2539.357742
974.950591	2542.692465
975.248595	2540.335726
975.546563	2539.108205
975.844493	2538.049562
976.142386	2541.593493
976.440243	2539.559388
976.738062	2540.716333
977.035845	2542.843700
977.333590	2537.477391
977.631299	2539.287166
977.928971	2539.292207
978.226606	2538.223482
978.524204	2539.876981
978.821765	2538.621733
979.119290	2538.954449
979.416777	2539.380427
979.714228	2539.193904
980.011642	2539.330015
980.309020	2540.484440
980.606360	2537.673996
980.903664	2540.227341
981.200931	2539.680376
981.498162	2543.259595
981.795356	2541.686755
982.092513	2542.755479
982.389633	2548.837632
982.686717	2551.123795
982.983764	2551.295194
983.280775	2556.686708
983.577749	2553.873744
983.874686	2553.228477
984.171587	2547.141283
984.468451	2547.045501
984.765279	2545.616334
985.062070	2542.132897
985.358824	2541.502753
985.655543	2539.521579
985.952224	2539.695499
986.248869	2541.777496
986.545478	2534.114942
986.842050	2536.743903
987.138586	2534.850950
987.435086	2535.574356
987.731549	2532.285003
988.027975	2539.904707
988.324366	2536.731301
988.620719	2537.086702
988.917037	2535.622247
989.213318	2539.955118
989.509563	2537.222813
989.805772	2536.219623
990.101944	2537.805066
990.398080	2535.052596
990.694180	2534.815662
990.990244	2537.537885
991.286271	2536.199459
991.582262	2534.472864
991.878217	2535.022349
992.174136	2537.147196
992.470019	2535.390354
992.765865	2537.341280
993.061676	2536.736342
993.357450	2539.635005
993.653188	2537.363965
993.948890	2535.828934
994.244556	2535.213913
994.540186	2535.062679
994.835780	2536.670807
995.131337	2540.754141
995.426859	2537.855478
995.722345	2541.807742
996.017795	2539.400592
996.313208	2537.850437
996.608586	2541.091899
996.903928	2537.895807
997.199234	2540.612989
997.494504	2539.365303
997.789738	2542.221117
998.084936	2539.763555
998.380099	2537.721887
998.675225	2536.229706
998.970316	2536.154088
999.265371	2536.708615
999.560390	2536.564942
999.855373	2538.982176
1000.150320	2536.993441
1000.445232	2536.935467
1000.740108	2533.598223
1001.034948	2536.252391
1001.329752	2535.730632
1001.624521	2536.280117
1001.919254	2533.124355
1002.213951	2530.618902
1002.508613	2532.779036
1002.803239	2533.467153
1003.097829	2528.476411
1003.392384	2534.331711
1003.686903	2536.103677
1003.981386	2537.033770
1004.275834	2531.057482
1004.570246	2534.578728
1004.864623	2532.771474
1005.158964	2535.808769
1005.453270	2532.736186
1005.747540	2534.334232
1006.041775	2532.098480
1006.335974	2533.925898
1006.630138	2536.005374
1006.924266	2531.780888
1007.218359	2532.837009
1007.512416	2535.755837
1007.806438	2535.166022
1008.100425	2533.709129
1008.394376	2532.390867
1008.688292	2535.024870
1008.982172	2532.587472
1009.276017	2535.105528
1009.569827	2534.344314
1009.863602	2534.823224
1010.157341	2534.757689
1010.451045	2534.099818
1010.744714	2535.526465
1011.038347	2537.396733
1011.331945	2533.973789
1011.625508	2535.864222
1011.919036	2535.617206
1012.212528	2531.173428
1012.505986	2532.161495
1012.799408	2535.045035
1013.092795	2533.126876
1013.386147	2536.002854
1013.679464	2533.008408
1013.972745	2534.251053
1014.265992	2534.346835
1014.559204	2534.641742
1014.852380	2533.131917
1015.145521	2534.808100
1015.438628	2534.911444
1015.731699	2534.109901
1016.024736	2535.150899
1016.317737	2531.317101
1016.610703	2534.828265
1016.903635	2531.322142
1017.196531	2529.159488
1017.489393	2531.291896
1017.782219	2530.482790
1018.075011	2533.633512
1018.367768	2533.381454
1018.660490	2533.010929
1018.953177	2533.010929
1019.245829	2533.010929
