Dividing Wavelength (nm)	Counts (n)	Blue Motor Position (mm): 21.600000	Red Motor Position (mm): 0.000000	
326.493990	2134.485032
326.888308	2134.485032
327.282561	2134.485032
327.676750	2099.610330
328.070874	2099.955649
328.464933	2101.891452
328.858929	2109.715323
329.252859	2119.003649
329.646726	2131.001595
330.040528	2143.924593
330.434265	2159.403456
330.827938	2174.592452
331.221547	2193.960565
331.615091	2211.592001
332.008571	2233.803325
332.401986	2250.832343
332.795338	2273.273039
333.188625	2291.489248
333.581847	2311.323668
333.975006	2329.250011
334.368100	2349.399503
334.761129	2365.687471
335.154095	2384.521222
335.546996	2401.272976
335.939833	2422.609660
336.332606	2437.080292
336.725315	2452.236521
337.117960	2459.631894
337.510540	2469.381485
337.903056	2477.981694
338.295508	2489.228508
338.687896	2497.034735
339.080220	2503.563029
339.472480	2511.089472
339.864676	2514.313289
340.256807	2517.524504
340.648875	2522.545494
341.040879	2522.923580
341.432818	2524.103210
341.824694	2527.296781
342.216506	2530.656710
342.608253	2525.648324
342.999937	2528.524302
343.391557	2526.001205
343.783113	2527.826102
344.174605	2525.779394
344.566033	2523.760412
344.957397	2522.558097
345.348697	2519.883764
345.739934	2518.676408
346.131106	2517.252282
346.522215	2518.288239
346.913260	2513.408402
347.304241	2511.505367
347.695159	2511.833042
348.086012	2510.063597
348.476802	2507.452279
348.867528	2508.243740
349.258191	2504.694768
349.648789	2503.754593
350.039324	2502.912720
350.429796	2501.544047
350.820203	2497.246463
351.210548	2496.810403
351.600828	2496.271000
351.991045	2495.983654
352.381198	2496.434837
352.771288	2497.007008
353.161314	2493.795793
353.551276	2495.003150
353.941175	2491.602891
354.331010	2494.002481
354.720782	2494.259579
355.110490	2494.461226
355.500135	2496.117245
355.889717	2491.741523
356.279235	2493.730258
356.668689	2494.995588
357.058080	2497.574138
357.447408	2493.299240
357.836672	2494.423417
358.225873	2495.126658
358.615010	2490.488796
359.004084	2496.545743
359.393095	2496.525578
359.782043	2499.764519
360.170927	2497.165805
360.559748	2498.589931
360.948505	2502.285096
361.337199	2501.259222
361.725830	2502.322905
362.114398	2503.507576
362.502903	2501.758296
362.891344	2503.144613
363.279722	2504.316681
363.668037	2503.991527
364.056289	2503.399191
364.444478	2505.249295
364.832603	2503.931033
365.220665	2505.471106
365.608665	2503.643687
365.996601	2504.286434
366.384474	2504.946826
366.772284	2507.613596
367.160031	2506.968328
367.547715	2506.945643
367.935336	2504.341887
368.322893	2506.204593
368.710388	2507.807680
369.097820	2511.717095
369.485189	2507.853051
369.872495	2506.617968
370.259738	2508.505880
370.646918	2506.786847
371.034035	2509.057887
371.421090	2511.371776
371.808081	2508.510921
372.195010	2510.590397
372.581875	2509.851868
372.968678	2511.427229
373.355418	2510.882784
373.742096	2512.526200
374.128710	2511.152486
374.515262	2511.278515
374.901751	2511.674245
375.288177	2513.199194
375.674540	2512.223731
376.060841	2510.633247
376.447079	2512.364883
376.833254	2510.955881
377.219367	2509.350273
377.605417	2508.518483
377.991404	2510.393792
378.377329	2509.350273
378.763191	2508.105108
379.148991	2515.266068
379.534727	2513.786489
379.920402	2516.511232
380.306013	2517.375790
380.691563	2514.653567
381.077049	2514.862775
381.462474	2517.282529
381.847835	2512.742970
382.233134	2518.729340
382.618371	2513.693227
383.003545	2517.640451
383.388657	2519.140194
383.773706	2516.428053
384.158693	2517.927797
384.543618	2516.329751
384.928480	2517.272447
385.313280	2518.220184
385.698017	2517.307735
386.082692	2517.995852
386.467305	2519.062056
386.851856	2517.511902
387.236344	2517.577437
387.620770	2520.337468
388.005133	2516.453259
388.389435	2515.649195
388.773674	2519.964423
389.157851	2520.763446
389.541965	2521.711183
389.926018	2520.433250
390.310008	2517.708507
390.693936	2521.000380
391.077802	2523.596574
391.461606	2522.298477
391.845348	2519.278826
392.229027	2522.958868
392.612645	2520.592047
392.996200	2520.362674
393.379694	2519.561131
393.763125	2521.867458
394.146494	2523.223529
394.529801	2522.923580
394.913047	2521.691018
395.296230	2525.005577
395.679351	2522.376615
396.062410	2522.996677
396.445408	2521.348220
396.828343	2527.052285
397.211217	2518.741943
397.594028	2521.822088
397.976778	2519.188085
398.359466	2521.423837
398.742092	2520.350071
399.124656	2524.771163
399.507158	2522.737058
399.889598	2523.236132
400.271977	2526.084384
400.654294	2526.865763
401.036549	2524.249404
401.418742	2525.562624
401.800874	2526.021369
402.182944	2526.202851
402.564952	2524.163704
402.946898	2526.631349
403.328783	2530.019004
403.710606	2527.707635
404.092367	2528.912471
404.474067	2526.414579
404.855705	2526.840557
405.237282	2527.097656
405.618797	2525.673530
406.000250	2527.135464
406.381642	2525.129085
406.762972	2527.190917
407.144240	2530.573531
407.525447	2529.280475
407.906593	2527.848787
408.287677	2530.102183
408.668700	2529.794673
409.049661	2530.281144
409.430560	2527.871473
409.811399	2531.337266
410.192176	2528.816689
410.572891	2532.179139
410.953545	2530.263500
411.334138	2533.784746
411.714669	2533.557894
412.095139	2529.424148
412.475547	2529.346010
412.855894	2531.168387
413.236180	2528.627646
413.616405	2533.240302
413.996568	2533.951104
414.376670	2534.356917
414.756711	2531.201155
415.136691	2529.136802
415.516609	2531.692667
415.896466	2532.673172
416.276262	2532.471526
416.655997	2529.971113
417.035670	2530.064375
417.415283	2528.937677
417.794834	2527.027079
418.174324	2530.114786
418.553753	2534.044366
418.933121	2535.118131
419.312428	2532.877338
419.691674	2537.028729
420.070859	2531.932122
420.449983	2532.219468
420.829045	2531.644776
421.208047	2534.152750
421.586988	2533.976310
421.965867	2534.815662
422.344686	2537.121990
422.723444	2532.259797
423.102141	2534.034283
423.480777	2535.992772
423.859352	2536.716177
424.237866	2535.221475
424.616319	2535.980169
424.994712	2536.882535
425.373044	2535.037473
425.751314	2536.658204
426.129524	2534.213244
426.507673	2537.232895
426.885762	2534.062010
427.263789	2534.631660
427.641756	2537.616023
428.019662	2534.803059
428.397508	2534.450178
428.775292	2537.926054
429.153016	2539.082999
429.530679	2538.228523
429.908282	2537.205169
430.285824	2540.575180
430.663305	2536.300282
431.040726	2539.105684
431.418086	2540.796991
431.795385	2539.133410
432.172624	2537.711805
432.549802	2538.919161
432.926920	2537.915972
433.303977	2539.284645
433.680974	2536.454037
434.057910	2539.387989
434.434786	2539.660211
434.811601	2537.336239
435.188355	2537.484953
435.565050	2539.309851
435.941683	2539.173740
436.318257	2539.032587
436.694770	2535.115611
437.071222	2540.920499
437.447614	2537.197607
437.823946	2538.238606
438.200218	2540.408822
438.576429	2540.292876
438.952580	2543.244471
439.328670	2540.297917
439.704700	2540.277752
440.080670	2540.771785
440.456580	2540.396219
440.832429	2542.110212
441.208218	2539.720705
441.583947	2542.279090
441.959616	2540.580222
442.335224	2542.616848
442.710773	2542.059800
443.086261	2543.801519
443.461689	2541.475026
443.837057	2544.545089
444.212365	2541.792619
444.587612	2542.939482
444.962800	2542.263967
445.337927	2541.979142
445.712995	2541.790098
446.088002	2542.306817
446.462949	2543.834286
446.837837	2545.147507
447.212664	2544.940820
447.587431	2545.490305
447.962139	2545.117260
448.336786	2548.361243
448.711374	2546.990049
449.085901	2541.918648
449.460369	2545.704554
449.834776	2545.165151
450.209124	2544.061138
450.583412	2544.338402
450.957640	2544.842517
451.331808	2546.049873
451.705917	2545.402085
452.079965	2544.451828
452.453954	2545.260933
452.827883	2546.410316
453.201752	2545.074410
453.575562	2545.273536
453.949311	2545.974256
454.323001	2548.215049
454.696632	2547.007693
455.070202	2547.254709
455.443713	2546.007024
455.817164	2544.257743
456.190556	2544.340922
456.563888	2547.811757
456.937160	2541.414533
457.310373	2549.082128
457.683526	2548.958619
458.056619	2548.701520
458.429653	2547.405944
458.802628	2551.857283
459.175542	2547.748742
459.548398	2549.757642
459.921194	2549.815615
460.293930	2550.261757
460.666607	2550.055070
461.039224	2551.605225
461.411782	2553.654454
461.784280	2550.549103
462.156719	2552.041285
462.529099	2552.915925
462.901419	2551.403579
463.273680	2552.709238
463.645882	2550.632282
464.018024	2552.368960
464.390106	2552.744526
464.762130	2553.414999
465.134094	2553.067160
465.505999	2553.941800
465.877845	2559.114024
466.249631	2558.882131
466.621358	2556.790052
466.993026	2557.901626
467.364634	2562.720969
467.736184	2558.675443
468.107674	2555.285267
468.479105	2558.342727
468.850477	2557.936914
469.221790	2556.994218
469.593043	2558.607388
469.964238	2559.323232
470.335373	2557.394990
470.706449	2559.844991
471.077467	2559.955896
471.448425	2562.305074
471.819324	2570.696075
472.190164	2569.362689
472.560945	2567.111814
472.931667	2568.447720
473.302330	2567.925961
473.672934	2569.408060
474.043479	2573.173802
474.413965	2576.168247
474.784393	2572.016857
475.154761	2577.277301
475.525070	2577.640264
475.895321	2581.539597
476.265513	2583.374577
476.635645	2591.775659
477.005719	2595.677512
477.375734	2602.888883
477.745691	2606.203442
478.115588	2615.481685
478.485427	2619.577623
478.855207	2633.259314
479.224928	2652.088024
479.594591	2666.357010
479.964194	2671.889676
480.333739	2673.560819
480.703226	2684.069104
481.072653	2696.084694
481.442022	2713.995914
481.811333	2726.077039
482.180584	2731.939901
482.549777	2738.596745
482.918912	2745.777868
483.287988	2758.584920
483.657005	2772.271652
484.025964	2779.601490
484.394864	2795.579427
484.763706	2808.704071
485.132489	2813.742704
485.501213	2828.021773
485.869879	2844.234123
486.238487	2860.348172
486.607036	2878.203939
486.975527	2893.067781
487.343959	2913.678538
487.712333	2939.277518
488.080648	2952.422326
488.448905	2981.250164
488.817104	2998.914368
489.185244	3033.184131
489.553326	3071.302816
489.921350	3135.310347
490.289315	3243.213724
490.657222	3291.828091
491.025070	3325.573575
491.392861	3346.380938
491.760593	3352.362267
492.128267	3351.462421
492.495883	3357.022813
492.863440	3360.085314
493.230939	3369.807179
493.598380	3397.175604
493.965763	3422.913215
494.333088	3438.923919
494.700354	3474.189311
495.067563	3513.477543
495.434713	3541.501318
495.801805	3594.937548
496.168839	3627.326962
496.535815	3671.477387
496.902733	3700.025442
497.269593	3746.870364
497.636395	3793.143115
498.003139	3849.760314
498.369825	3867.280844
498.736453	3950.853092
499.103023	3979.133965
499.469535	4036.441802
499.835989	4076.942432
500.202385	4135.034169
500.568723	4156.683404
500.935003	4242.811517
501.301226	4280.156385
501.667390	4373.629460
502.033497	4456.727840
502.399546	4479.995285
502.765537	4514.701109
503.131470	4591.926545
503.497345	4694.453532
503.863163	4657.897604
504.228923	4795.689983
504.594625	4872.033217
504.960269	4867.168503
505.325856	4989.000589
505.691385	4999.098020
506.056856	5102.421509
506.422270	5179.102501
506.787625	5200.028330
507.152924	5309.456657
507.518164	5358.282752
507.883347	5402.740688
508.248472	5443.016987
508.613540	5593.003917
508.978550	5627.162775
509.343503	5675.635990
509.708398	5793.747704
510.073236	5905.868007
510.438016	5977.626311
510.802738	6027.939547
511.167403	6117.641838
511.532010	6156.385626
511.896561	6307.020344
512.261053	6413.633187
512.625488	6434.397699
512.989866	6500.025961
513.354186	6564.774541
513.718449	6594.023315
514.082655	6747.536532
514.446803	6780.437623
514.810894	6902.115953
515.174927	6923.520692
515.538904	6988.881773
515.902822	7147.042933
516.266684	7150.841443
516.630488	7201.918413
516.994235	7290.012577
517.357925	7411.741319
517.721558	7522.298864
518.085133	7616.669264
518.448651	7680.369284
518.812112	7688.823299
519.175516	7776.816639
519.538863	7914.838390
519.902152	7920.819719
520.265385	8103.276721
520.628560	8103.823686
520.991678	8168.509252
521.354739	8264.308819
521.717743	8286.958723
522.080690	8331.046134
522.443580	8500.194490
522.806413	8535.895941
523.169189	8615.878888
523.531908	8723.507523
523.894569	8660.614088
524.257174	8728.868790
524.619722	8870.321046
524.982213	8878.104588
525.344647	8989.763625
525.707025	9011.853961
526.069345	9140.458837
526.431608	9148.287749
526.793815	9282.337071
527.155964	9177.138272
527.518057	9268.695708
527.880093	9283.877143
528.242072	9385.247185
528.603995	9370.801759
528.965860	9358.576961
529.327669	9452.841497
529.689421	9451.760169
530.051117	9482.808636
530.412755	9619.141600
530.774337	9567.232839
531.135862	9606.425290
531.497331	9658.553341
531.858743	9586.716899
532.220098	9766.325649
532.581396	9703.303664
532.942638	9721.461900
533.303824	9727.707890
533.664953	9786.086972
534.026025	9753.591694
534.387040	9869.933963
534.747999	9908.841588
535.108902	9989.742025
535.469748	9822.819339
535.830537	9937.926526
536.191270	9955.799937
536.551947	10008.376651
536.912567	10033.645434
537.273131	10003.905147
537.633638	10007.600313
537.994089	10034.938490
538.354483	10020.177992
538.714821	10169.469242
539.075103	10208.132372
539.435328	10201.319252
539.795497	10059.657788
540.155609	10231.919056
540.515665	10336.598616
540.875665	10117.837745
541.235609	10201.956958
541.595496	10218.612931
541.955328	10384.900431
542.315102	10290.093972
542.674821	10273.894224
543.034483	10282.055852
543.394090	10304.995622
543.753640	10252.050904
544.113134	10487.792902
544.472571	10358.625937
544.831953	10516.298106
545.191278	10347.308547
545.550548	10383.204083
545.909761	10531.406444
546.268918	10517.470175
546.628019	10609.937539
546.987064	10495.112657
547.346053	10431.021948
547.704986	10545.307426
548.063863	10539.608402
548.422684	10540.261231
548.781449	10472.356889
549.140158	10582.286810
549.498811	10468.669285
549.857408	10342.267393
550.215949	10568.756353
550.574434	10441.363875
550.932864	10541.375326
551.291237	10597.926990
551.649555	10557.083562
552.007817	10578.324463
552.366022	10548.727849
552.724173	10552.627182
553.082267	10536.427434
553.440305	10680.801039
553.798288	10489.718623
554.156215	10637.326128
554.514086	10626.739705
554.871902	10482.824845
555.229661	10526.521566
555.587365	10502.122382
555.945014	10407.459595
556.302606	10537.254183
556.660143	10427.294015
557.017625	10590.471123
557.375050	10489.605197
557.732421	10621.350711
558.089735	10529.679849
558.446994	10543.157374
558.804197	10585.225803
559.161345	10584.141955
559.518437	10439.982599
559.875474	10529.747905
560.232455	10564.259644
560.589381	10512.701243
560.946251	10509.933650
561.303065	10619.820721
561.659825	10561.262678
562.016528	10489.910187
562.373177	10371.422907
562.729770	10486.575463
563.086307	10408.490511
563.442789	10496.070477
563.799216	10378.324246
564.155587	10423.175392
564.511904	10386.261543
564.868164	10376.501869
565.224370	10384.736594
565.580520	10318.745369
565.936615	10321.520525
566.292654	10193.046719
566.648638	10325.770217
567.004567	10292.097830
567.360441	10273.899265
567.716260	10178.261015
568.072023	10274.864646
568.427732	10231.782945
568.783385	10140.706939
569.138982	10210.395850
569.494525	10226.943437
569.850013	10102.961300
570.205445	10187.597232
570.560823	10081.856509
570.916145	9997.515485
571.271412	10077.816024
571.626625	10021.317292
571.981782	9995.136060
572.336884	9969.539601
572.691931	9976.113266
573.046923	9923.017313
573.401860	9882.430983
573.756743	9817.125356
574.111570	9861.142191
574.466342	9842.396660
574.821059	9874.372699
575.175722	9764.077294
575.530330	9779.898955
575.884882	9771.271021
576.239380	9696.127581
576.593823	9676.109159
576.948211	9697.166059
577.302544	9570.146626
577.656823	9591.770656
578.011047	9592.667981
578.365216	9558.710769
578.719330	9491.423968
579.073389	9502.811934
579.427394	9451.669428
579.781344	9421.200695
580.135239	9376.281493
580.489080	9378.950784
580.842866	9281.782544
581.196597	9286.584243
581.550273	9336.221964
581.903895	9302.476480
582.257463	9368.563487
582.610975	9245.733253
582.964434	9271.390205
583.317837	9191.094707
583.671186	9175.938478
584.024481	9173.049897
584.377721	9091.108461
584.730906	9066.489987
585.084037	9098.443340
585.437113	9041.092653
585.790135	9055.520436
586.143103	8952.547307
586.496016	8926.686187
586.848874	8988.762956
587.201679	8977.506059
587.554428	8867.445068
587.907124	8909.979804
588.259765	8877.003096
588.612352	8883.909477
588.964884	8756.181762
589.317362	8770.906972
589.669786	8774.259339
590.022155	8823.546700
590.374470	8834.022218
590.726731	8777.397457
591.078937	8632.890262
591.431090	8740.584432
591.783188	8612.682797
592.135232	8604.700130
592.487222	8600.168132
592.839157	8657.801124
593.191038	8588.918798
593.542866	8534.996095
593.894639	8435.715612
594.246358	8488.982964
594.598022	8508.613217
594.949633	8404.132783
595.301190	8379.509267
595.652692	8404.047083
596.004141	8519.476903
596.355535	8295.626987
596.706876	8281.413454
597.058162	8216.435502
597.409395	8290.671533
597.760573	8344.868978
598.111698	8259.739013
598.462768	8243.972804
598.813785	8213.713278
599.164748	8182.311931
599.515657	8167.566556
599.866511	8082.804595
600.217312	8198.927574
600.568060	8067.852533
600.918753	8166.167636
601.269392	8140.394737
601.619978	8054.087662
601.970510	8116.968495
602.320988	8114.667208
602.671412	8168.403388
603.021783	8102.369313
603.372100	8075.835200
603.722363	8076.737567
604.072572	8055.332827
604.422728	8071.817401
604.772830	7995.272521
605.122878	8002.050352
605.472872	8001.649580
605.822813	8028.481122
606.172701	7974.205539
606.522534	8047.713123
606.872314	8048.005510
607.222041	8021.567179
607.571714	8073.523831
607.921333	8030.900875
608.270899	8037.192235
608.620411	8124.925956
608.969870	8026.973817
609.319276	8021.859566
609.668627	8040.950416
610.017926	8076.677073
610.367171	8121.513095
610.716362	8104.935261
611.065500	8091.813137
611.414585	8117.575954
611.763616	8105.230168
612.112594	8090.552849
612.461518	8104.693285
612.810389	8163.389960
613.159207	8101.179601
613.507971	8046.248668
613.856682	8168.244591
614.205340	8124.058878
614.553945	8203.273049
614.902496	8105.580528
615.250994	8159.087335
615.599439	8139.598235
615.947830	8148.019482
616.296169	8124.638611
616.644454	8135.988768
616.992686	8131.635732
617.340864	8194.738375
617.688990	8096.337573
618.037063	8191.144033
618.385082	8138.789129
618.733048	8215.127322
619.080961	8162.550608
619.428821	8180.242537
619.776628	8182.014503
620.124382	8134.756206
620.472083	8116.681149
620.819731	8143.701734
621.167326	8038.974283
621.514868	8045.837814
621.862357	7933.004188
622.209793	7953.662837
622.557176	7887.664051
622.904506	7857.296140
623.251783	7797.107283
623.599007	7746.693224
623.946179	7750.756394
624.293297	7706.900877
624.640363	7626.544884
624.987376	7611.630631
625.334336	7559.006026
625.681243	7501.693147
626.028097	7492.528330
626.374899	7472.411605
626.721647	7462.893907
627.068343	7394.848412
627.414987	7373.138683
627.761577	7331.549164
628.108115	7362.103598
628.454600	7251.261227
628.801032	7307.933879
629.147412	7269.374093
629.493739	7254.389263
629.840014	7190.041455
630.186236	7253.169304
630.532405	7131.115408
630.878521	7185.930394
631.224585	7142.810885
631.570597	7073.237920
631.916556	7093.362207
632.262462	7095.703822
632.608316	7058.764768
632.954117	7036.616458
633.299866	7023.050713
633.645562	7011.246852
633.991206	6934.346570
634.336797	6877.053857
634.682336	6838.438618
635.027823	6801.305479
635.373257	6794.661238
635.718639	6727.538275
636.063968	6739.460604
636.409245	6633.203163
636.754470	6631.700899
637.099642	6590.555001
637.444762	6534.474685
637.789829	6549.590585
638.134845	6489.545402
638.479808	6472.919676
638.824719	6480.617518
639.169577	6401.862092
639.514383	6426.021822
639.859137	6357.678899
640.203839	6369.659202
640.548489	6352.622622
640.893086	6327.126987
641.237632	6295.811339
641.582125	6317.785728
641.926566	6292.705988
642.270955	6297.941226
642.615292	6298.125228
642.959576	6309.437578
643.303809	6295.771010
643.647990	6307.360622
643.992118	6296.401154
644.336195	6244.048771
644.680219	6271.946517
645.024192	6259.315906
645.368112	6356.012798
645.711981	6375.658175
646.055797	6453.349917
646.399562	6412.735861
646.743274	6536.891919
647.086935	6588.919147
647.430544	6585.602068
647.774101	6605.212156
648.117606	6615.924608
648.461059	6605.522187
648.804460	6563.486526
649.147810	6478.439740
649.491108	6445.977230
649.834354	6422.729949
650.177548	6333.801474
650.520690	6249.251242
650.863781	6232.547379
651.206820	6251.086222
651.549807	6169.716958
651.892742	6114.849039
652.235626	6117.329287
652.578458	6107.526763
652.921238	6016.838926
653.263967	6049.591303
653.606644	5992.732128
653.949269	5996.709599
654.291843	5937.518891
654.634365	5983.721066
654.976836	5938.736330
655.319255	5936.813129
655.661622	5915.350417
656.003938	5911.425879
656.346203	5878.988574
656.688416	5907.634931
657.030577	5857.742631
657.372687	5830.671635
657.714746	5818.905582
658.056753	5859.428897
658.398708	5804.429909
658.740612	5792.905831
659.082465	5838.866031
659.424266	5833.918138
659.766016	5828.516542
660.107715	5809.408048
660.449362	5818.202341
660.790958	5812.964582
661.132503	5805.596936
661.473996	5837.111709
661.815438	5824.380275
662.156829	5822.479760
662.498168	5812.611702
662.839456	5791.756448
663.180693	5825.418753
663.521879	5826.406819
663.863013	5813.481301
664.204097	5832.839331
664.545129	5877.582092
664.886110	5870.562286
665.227040	5905.076545
665.567918	5870.804261
665.908746	5898.550772
666.249522	5902.442543
666.590248	5890.179936
666.930922	5915.176497
667.271545	5929.450524
667.612118	5934.963026
667.952639	5902.815588
668.293109	5929.440442
668.633528	5883.727259
668.973896	5887.845882
669.314213	5879.787597
669.654480	5862.302355
669.994695	5857.785481
670.334859	5846.470611
670.674973	5838.508109
671.015035	5840.401062
671.355047	5841.303429
671.695008	5822.260470
672.034918	5801.105268
672.374777	5810.050795
672.714585	5796.033867
673.054342	5796.190143
673.394049	5792.053876
673.733705	5823.175439
674.073310	5811.464839
674.412864	5771.949755
674.752368	5762.016161
675.091820	5764.153610
675.431223	5706.147573
675.770574	5699.815884
676.109875	5655.920037
676.449125	5662.801212
676.788324	5626.993896
677.127473	5567.682201
677.466571	5564.793620
677.805619	5552.452875
678.144616	5538.932500
678.483562	5514.303943
678.822458	5487.835365
679.161303	5479.346062
679.500098	5472.787521
679.838842	5458.029543
680.177535	5457.298576
680.516179	5477.027131
680.854771	5486.685982
681.193314	5566.830246
681.531805	5674.922667
681.870247	5826.273228
682.208638	5917.523154
682.546978	5934.935300
682.885268	5915.128606
683.223508	5830.883364
683.561697	5780.060971
683.899836	5748.374799
684.237925	5704.592377
684.575963	5664.858003
684.913951	5627.785357
685.251889	5689.746179
685.589776	5653.538092
685.927614	5623.681858
686.265401	5699.659608
686.603137	5681.324932
686.940824	5756.470892
687.278460	5784.857629
687.616046	5789.727384
687.953582	5859.751531
688.291068	5840.658161
688.628504	5901.746863
688.965889	5866.738570
689.303224	5808.946783
689.640510	5763.712509
689.977745	5687.747362
690.314930	5589.964101
690.652065	5528.847672
690.989150	5441.870124
691.326185	5362.408937
691.663170	5314.918747
692.000105	5232.720213
692.336990	5160.518287
692.673825	5134.742867
693.010610	5071.579730
693.347345	4997.210108
693.684030	4987.367255
694.020665	4944.076347
694.357251	4855.105022
694.693786	4867.972568
695.030272	4833.395293
695.366707	4798.601249
695.703093	4765.337196
696.039429	4788.329898
696.375716	4773.438330
696.711952	4743.314915
697.048139	4731.972319
697.384276	4710.388619
697.720363	4727.881423
698.056400	4735.117999
698.392388	4681.916182
698.728326	4660.579498
699.064214	4641.569307
699.400053	4634.320128
699.735842	4600.302422
700.071581	4578.184359
700.407270	4552.212335
700.742910	4534.971588
701.078501	4479.712981
701.414042	4478.452692
701.749533	4450.769196
702.084974	4383.777302
702.420366	4441.969862
702.755709	4384.243609
703.091002	4330.121781
703.426246	4374.907392
703.761440	4329.597501
704.096584	4295.292449
704.431679	4314.494204
704.766725	4300.547852
705.101721	4289.414464
705.436668	4320.793126
705.771565	4265.325310
706.106413	4290.115184
706.441212	4328.506092
706.775961	4332.113037
707.110661	4318.186850
707.445311	4342.321374
707.779913	4367.627966
708.114465	4380.981983
708.448967	4399.351947
708.783421	4461.897543
709.117825	4504.069315
709.452180	4507.121734
709.786485	4553.961615
710.120742	4638.635356
710.454949	4621.767655
710.789107	4688.515052
711.123216	4764.127319
711.457275	4750.969907
711.791286	4826.637627
712.125247	4842.116489
712.459159	4741.663937
712.793023	4819.204445
713.126837	4780.652221
713.460602	4773.670223
713.794318	4689.074620
714.127985	4702.587433
714.461602	4614.372282
714.795171	4587.180298
715.128691	4520.382489
715.462162	4466.248059
715.795584	4418.778033
716.128957	4401.683481
716.462281	4345.194831
716.795556	4319.421932
717.128782	4285.255512
717.461960	4217.754462
717.795088	4224.749063
718.128167	4189.229093
718.461198	4127.023775
718.794180	4124.195688
719.127113	4103.700877
719.459997	4080.125921
719.792833	4038.664951
720.125619	4026.699772
720.458357	3996.992253
720.791046	4001.073067
721.123686	3971.146257
721.456278	3930.070936
721.788821	3944.957463
722.121315	3922.962909
722.453761	3897.126995
722.786158	3908.381371
723.118506	3933.927418
723.450805	3882.656363
723.783056	3905.754930
724.115259	3921.185902
724.447412	3925.135646
724.779518	3918.781272
725.111574	3925.788475
725.443582	3954.913742
725.775542	3941.284982
726.107453	3990.413547
726.439315	3990.098475
726.771129	4004.269158
727.102895	4040.880538
727.434612	4087.541458
727.766281	4100.187193
728.097901	4098.841205
728.429473	4100.887913
728.760996	4109.674644
729.092471	4103.123665
729.423897	4090.528342
729.755276	4094.909105
730.086606	4093.041357
730.417887	4132.858911
730.749120	4195.961554
731.080305	4259.588477
731.411442	4285.406747
731.742530	4256.606635
732.073570	4260.631996
732.404562	4314.779030
732.735506	4307.343328
733.066401	4267.351854
733.397249	4207.742731
733.728048	4130.809682
734.058798	4048.913617
734.389501	3977.480467
734.720156	3915.557454
735.050762	3868.198334
735.381320	3865.075339
735.711831	3813.050631
736.042293	3788.129687
736.372707	3809.531906
736.703073	3778.944705
737.033391	3768.716204
737.363661	3788.301087
737.693883	3815.039367
738.024056	3823.339626
738.354182	3817.769151
738.684260	3880.849109
739.014290	3900.396183
739.344272	3895.959968
739.674207	3938.303140
740.004093	3943.258594
740.333931	3938.517389
740.663722	3940.606947
740.993464	3934.270217
741.323159	3914.768513
741.652806	3881.136455
741.982405	3857.949668
742.311956	3824.168896
742.641460	3815.162875
742.970915	3790.136067
743.300323	3747.059407
743.629683	3717.760221
743.958996	3708.209755
744.288260	3680.490970
744.617477	3649.041732
744.946647	3633.547746
745.275768	3612.377420
745.604842	3608.556226
745.933869	3560.272054
746.262847	3553.451373
746.591778	3592.026282
746.920662	3557.980850
747.249498	3530.660316
747.578286	3574.006678
747.907027	3593.445367
748.235720	3587.960592
748.564365	3613.746093
748.892963	3616.513687
749.221514	3595.106427
749.550017	3575.206472
749.878473	3575.498859
750.206881	3544.243705
750.535242	3540.331770
750.863555	3540.248591
751.191821	3534.965462
751.520039	3517.283615
751.848210	3492.448370
752.176334	3528.527908
752.504411	3535.429248
752.832440	3496.423320
753.160421	3478.665856
753.488356	3489.143894
753.816243	3499.800893
754.144082	3456.358750
754.471875	3443.415587
754.799620	3462.009883
755.127318	3452.847586
755.454969	3454.120478
755.782572	3458.700366
756.110129	3435.027107
756.437638	3423.722320
756.765100	3439.775874
757.092515	3445.951288
757.419882	3457.044347
757.747203	3428.105603
758.074477	3433.401335
758.401703	3447.708130
758.728882	3466.433496
759.056014	3474.968169
759.383099	3480.851196
759.710138	3474.834579
760.037129	3489.408554
760.364073	3522.077752
760.690970	3508.070906
761.017820	3484.158193
761.344623	3500.153774
761.671379	3547.086916
761.998088	3599.346037
762.324751	3723.010583
762.651366	3969.941421
762.977935	4438.456178
763.304456	4879.247108
763.630931	4970.199606
763.957359	4609.474801
764.283740	4269.322945
764.610074	4076.972679
764.936362	3884.466137
765.262602	3726.872106
765.588796	3618.116774
765.914943	3531.328269
766.241044	3444.088581
766.567097	3415.308634
766.893104	3369.645863
767.219064	3340.492870
767.544978	3311.917089
767.870845	3255.350302
768.196665	3240.425966
768.522438	3245.802357
768.848165	3241.948394
769.173846	3207.512272
769.499479	3191.647761
769.825066	3175.505987
770.150607	3157.839263
770.476101	3174.366686
770.801548	3167.828309
771.126949	3122.599077
771.452303	3106.883280
771.777611	3115.654888
772.102872	3120.580095
772.428087	3095.084459
772.753256	3083.013417
773.078378	3077.463106
773.403453	3042.069165
773.728482	3033.809234
774.053465	3053.076524
774.378401	3040.879453
774.703291	3009.894001
775.028135	3008.916017
775.352932	3004.835203
775.677683	2992.983450
776.002388	2991.634941
776.327046	2993.366578
776.651658	2981.522387
776.976224	2966.643421
777.300743	2972.251705
777.625216	2962.862556
777.949643	2956.732513
778.274024	2959.300981
778.598359	2946.390586
778.922647	2951.315793
779.246889	2954.053139
779.571086	2935.032866
779.895236	2930.205961
780.219339	2943.035698
780.543397	2953.488530
780.867409	2955.515074
781.191374	2950.146245
781.515294	2948.621296
781.839167	2945.904114
782.162995	2940.878084
782.486776	2947.653395
782.810511	2946.425874
783.134201	2932.343410
783.457844	2935.458843
783.781441	2929.220416
784.104993	2911.420101
784.428498	2909.030594
784.751958	2921.789755
785.075372	2918.591143
785.398739	2902.111611
785.722061	2917.424116
786.045337	2930.460539
786.368568	2914.558220
786.691752	2908.690317
787.014891	2952.011472
787.337983	2980.549444
787.661030	3010.582118
787.984031	3077.999989
788.306987	3123.854324
788.629897	3113.162037
788.952760	3097.892382
789.275579	3084.659353
789.598351	3023.900847
789.921078	2982.949033
790.243759	2971.235912
790.566395	2955.154632
790.888984	2927.609767
791.211529	2914.575864
791.534027	2906.126890
791.856480	2897.302350
792.178888	2883.718961
792.501249	2873.384596
792.823566	2868.391333
793.145836	2867.052906
793.468062	2861.232894
793.790241	2863.297247
794.112375	2869.253370
794.434464	2876.857951
794.756507	2885.027140
795.078505	2888.681977
795.400457	2903.487846
795.722364	2939.428752
796.044226	2962.499593
796.366042	2965.524285
796.687812	2957.798717
797.009538	2976.387972
797.331218	2963.207875
797.652852	2949.170782
797.974442	2930.188317
798.295986	2925.051381
798.617484	2923.251689
798.938938	2908.040008
799.260346	2892.301525
799.581709	2883.666029
799.903026	2879.436501
800.224299	2873.548433
800.545526	2867.259594
800.866708	2847.639423
801.187845	2840.259174
801.508936	2838.550222
801.829983	2846.827797
802.150984	2832.906651
802.471940	2822.579847
802.792851	2822.836946
803.113717	2822.577327
803.434538	2827.542863
803.755314	2820.586071
804.076045	2816.164979
804.396731	2813.218424
804.717372	2815.043322
805.037967	2809.276242
805.358518	2817.783189
805.679024	2827.011021
805.999485	2823.139415
806.319901	2827.000939
806.640272	2820.175217
806.960598	2826.821978
807.280879	2834.625684
807.601115	2842.452076
807.921306	2829.702997
808.241453	2823.023469
808.561554	2828.425065
808.881611	2832.518482
809.201623	2824.787872
809.521590	2827.215188
809.841513	2823.378870
810.161390	2827.421875
810.481223	2818.773776
810.801011	2811.832107
811.120755	2806.324647
811.440453	2808.676345
811.760107	2809.230872
812.079716	2810.637354
812.399281	2798.276444
812.718801	2792.239663
813.038276	2786.775052
813.357707	2793.129426
813.677093	2799.811476
813.996434	2794.203192
814.315731	2790.129940
814.634983	2785.474434
814.954191	2787.276647
815.273354	2798.074798
815.592473	2810.914617
815.911547	2808.973773
816.230577	2817.793272
816.549562	2827.447081
816.868502	2824.145125
817.187399	2833.872032
817.506250	2850.482634
817.825058	2845.335616
818.143821	2855.359950
818.462539	2871.854605
818.781213	2899.303688
819.099843	2935.370623
819.418429	2991.062770
819.736970	3055.304714
820.055466	3121.197636
820.373919	3224.569017
820.692327	3363.528422
821.010691	3526.738299
821.329011	3962.498158
821.647286	4846.923230
821.965517	6200.830959
822.283704	6920.153202
822.601847	6896.522793
822.919945	6274.638493
823.237999	5779.856804
823.556010	5207.902613
823.873976	4667.798431
824.191897	4270.308491
824.509775	3983.003051
824.827609	3714.551526
825.145398	3596.074329
825.463144	3585.936568
825.780845	3678.799663
826.098502	3780.363790
826.416116	4060.664547
826.733685	4370.163666
827.051210	4422.543775
827.368692	4314.794153
827.686129	4053.826221
828.003522	3735.197572
828.320872	3482.292966
828.638177	3289.977988
828.955439	3156.994870
829.272656	3072.346335
829.589830	3007.912827
829.906960	2961.219140
830.224046	2917.005700
830.541088	2886.211812
830.858086	2868.988709
831.175041	2848.826615
831.491952	2853.398941
831.808819	2866.011908
832.125642	2887.572923
832.442421	2933.311312
832.759157	3013.495905
833.075849	3185.787420
833.392497	3464.843012
833.709101	3662.105882
834.025662	3609.841720
834.342179	3457.671970
834.658653	3281.392903
834.975083	3136.958804
835.291469	3042.664021
835.607811	2960.359623
835.924110	2900.541291
836.240366	2851.513550
836.556578	2809.256077
836.872746	2787.155659
837.188871	2764.319232
837.504952	2750.481265
837.820990	2743.761407
838.136984	2728.078377
838.452935	2719.768035
838.768842	2720.209136
839.084706	2737.578432
839.400526	2812.091727
839.716303	2944.396809
840.032037	3021.965043
840.347727	3006.753362
840.663373	2950.516770
840.978977	2875.249822
841.294537	2802.889100
841.610054	2756.190372
841.925527	2735.418297
842.240957	2714.494988
842.556344	2692.165197
842.871687	2679.970646
843.186987	2668.686023
843.502244	2664.537153
843.817458	2659.536329
844.132629	2645.831952
844.447756	2637.546816
844.762840	2634.754017
845.077881	2634.693523
845.392879	2633.360137
845.707833	2628.613891
846.022745	2621.704990
846.337613	2625.382512
846.652438	2621.740278
846.967221	2625.322018
847.281960	2622.753550
847.596656	2621.904115
847.911309	2620.822788
848.225919	2617.094855
848.540485	2617.679628
848.855009	2615.027982
849.169490	2612.777106
849.483928	2614.198712
849.798323	2614.362549
850.112675	2612.517487
850.426984	2612.565378
850.741251	2612.081427
851.055474	2611.874740
851.369654	2617.699793
851.683792	2611.675614
851.997887	2613.936572
852.311938	2611.960439
852.625947	2615.854731
852.939914	2616.189967
853.253837	2617.374639
853.567718	2613.044287
853.881555	2610.513628
854.195350	2617.283898
854.509103	2613.618979
854.822812	2609.822990
855.136479	2609.424739
855.450103	2613.344236
855.763685	2616.769700
856.077224	2611.622682
856.390720	2610.125459
856.704173	2612.709051
857.017584	2617.243569
857.330953	2615.779113
857.644278	2618.750874
857.957561	2619.502006
858.270802	2616.184926
858.584000	2617.631737
858.897155	2617.926645
859.210268	2618.019906
859.523339	2614.700307
859.836367	2612.603187
860.149352	2610.984976
860.462295	2611.279884
860.775195	2607.400716
861.088054	2605.359048
861.400869	2607.546909
861.713642	2606.216045
862.026373	2607.748555
862.339062	2609.908690
862.651708	2613.374483
862.964312	2615.254833
863.276873	2612.504884
863.589392	2616.820112
863.901869	2620.936214
864.214303	2625.536267
864.526696	2625.838736
864.839045	2629.531381
865.151353	2632.074643
865.463619	2632.919037
865.775842	2631.404170
866.088023	2631.073974
866.400162	2632.306536
866.712258	2631.633542
867.024313	2630.370733
867.336325	2625.138016
867.648296	2629.168418
867.960224	2634.214613
868.272110	2633.123203
868.583954	2626.380660
868.895755	2629.486011
869.207515	2632.160343
869.519233	2639.749800
869.830909	2634.754017
870.142542	2632.051958
870.454134	2631.142030
870.765684	2637.622433
871.077191	2638.973462
871.388657	2642.648463
871.700081	2642.593011
872.011463	2643.802888
872.322803	2641.536889
872.634101	2645.564771
872.945357	2653.479382
873.256571	2655.389980
873.567744	2653.968374
873.878874	2655.389980
874.189963	2655.725217
874.501010	2661.094045
874.812015	2664.111176
875.122979	2663.644869
875.433900	2654.338899
875.744780	2655.090031
876.055618	2660.136226
876.366415	2667.153512
876.677169	2664.663182
876.987882	2659.377532
877.298554	2655.208498
877.609183	2670.072340
877.919771	2674.770696
878.230317	2681.200687
878.540822	2690.166380
878.851285	2703.787577
879.161707	2728.229612
879.472087	2765.418204
879.782425	2810.723053
880.092722	2923.728078
880.402977	3105.214658
880.713191	3355.830580
881.023363	3639.271976
881.333494	3820.758556
881.643583	3990.617714
881.953631	3990.300121
882.263637	3816.334943
882.573602	3602.617746
882.883526	3473.168477
883.193408	3363.780480
883.503248	3267.338166
883.813048	3154.171824
884.122806	3046.265926
884.432522	2958.945579
884.742197	2898.413924
885.051831	2865.593492
885.361424	2831.555622
885.670975	2796.625467
885.980485	2766.484408
886.289954	2747.779206
886.599382	2736.446692
886.908768	2725.870352
887.218113	2706.764379
887.527417	2693.864066
887.836680	2684.926100
888.145901	2679.849658
888.455082	2672.844975
888.764221	2661.187307
889.073319	2654.805206
889.382376	2653.605411
889.691392	2656.672953
890.000366	2655.044661
890.309300	2652.143477
890.618193	2655.329486
890.927044	2658.092038
891.235855	2661.018428
891.544625	2659.919457
891.853353	2654.981646
892.162041	2665.651248
892.470687	2682.990297
892.779293	2697.828933
893.087858	2704.909234
893.396381	2726.782801
893.704864	2764.924171
894.013306	2831.923626
894.321707	2923.118099
894.630068	2970.978813
894.938387	2991.198882
895.246665	2982.828046
895.554903	2941.845985
895.863100	2900.841240
896.171256	2842.436952
896.479371	2785.376132
896.787446	2745.591346
897.095480	2729.255487
897.403473	2722.235680
897.711425	2711.079606
898.019336	2690.829291
898.327207	2676.396468
898.635038	2677.024092
898.942827	2675.103412
899.250576	2663.990188
899.558284	2654.966523
899.865952	2650.253044
900.173579	2649.529638
900.481165	2644.344812
900.788711	2639.152423
901.096216	2633.077833
901.403681	2629.917029
901.711105	2629.480970
902.018489	2626.554580
902.325832	2632.924078
902.633135	2634.577576
902.940397	2649.353198
903.247619	2683.484330
903.554800	2749.760380
903.861941	2870.783360
904.169041	2991.677791
904.476101	3047.261553
904.783121	3044.188970
905.090100	2989.157214
905.397039	2919.541400
905.703938	2849.121522
906.010796	2787.032151
906.317614	2738.074985
906.624391	2700.014274
906.931129	2674.768175
907.237826	2657.126657
907.544483	2638.655870
907.851099	2624.759929
908.157675	2617.714917
908.464211	2609.661673
908.770707	2596.658017
909.077163	2595.606936
909.383578	2591.521081
909.689954	2591.715166
909.996289	2589.164342
910.302584	2586.805082
910.608839	2587.747777
910.915054	2585.630493
911.221229	2588.448498
911.527363	2591.989908
911.833458	2588.622418
912.139513	2590.470001
912.445527	2590.800196
912.751502	2599.304623
913.057436	2601.452154
913.363331	2610.143103
913.669186	2619.602829
913.975000	2629.871659
914.280775	2645.952940
914.586510	2662.611433
914.892205	2697.360106
915.197859	2765.987854
915.503475	2844.004751
915.809050	2905.799215
916.114585	2919.909404
916.420081	2927.990374
916.725536	2940.631067
917.030952	2917.650968
917.336328	2873.820655
917.641665	2825.234015
917.946961	2777.620317
918.252218	2741.427352
918.557435	2721.978581
918.862612	2699.033769
919.167750	2684.419464
919.472848	2669.290962
919.777906	2652.577016
920.082925	2638.887763
920.387904	2630.794190
920.692843	2624.921246
920.997743	2622.637603
921.302603	2615.055708
921.607423	2606.667228
921.912204	2606.301744
922.216946	2601.923502
922.521647	2601.832761
922.826310	2594.994436
923.130932	2590.013776
923.435516	2584.385328
923.740059	2582.305852
924.044564	2581.557241
924.349028	2580.319637
924.653454	2573.496436
924.957840	2572.256312
925.262186	2566.443861
925.566493	2570.872515
925.870761	2566.322874
926.174989	2566.252298
926.479178	2564.074519
926.783328	2564.681978
927.087438	2564.392112
927.391509	2560.366750
927.695541	2561.679971
927.999533	2560.649055
928.303486	2559.171997
928.607400	2557.218550
928.911275	2556.575803
929.215110	2555.628066
929.518906	2557.306770
929.822663	2557.752912
930.126381	2557.412634
930.430060	2555.930535
930.733699	2557.929352
931.037299	2559.572769
931.340861	2558.236863
931.644383	2558.471277
931.947866	2559.678633
932.251309	2556.638817
932.554714	2556.893395
932.858080	2558.345248
933.161407	2557.611760
933.464694	2557.400031
933.767943	2555.935576
934.071153	2553.896429
934.374323	2554.566903
934.677455	2555.086142
934.980548	2555.673436
935.283602	2555.844835
935.586617	2553.490617
935.889593	2552.865513
936.192530	2552.399207
936.495428	2558.473797
936.798287	2555.134033
937.101108	2558.546894
937.403890	2559.953376
937.706632	2563.489745
938.009336	2564.296330
938.312002	2567.820096
938.614628	2568.845971
938.917216	2576.533731
939.219765	2574.366035
939.522275	2577.055490
939.824747	2576.175809
940.127179	2569.201373
940.429573	2565.861608
940.731929	2571.432083
941.034246	2563.083932
941.336524	2569.907134
941.638763	2567.754561
941.940964	2566.660631
942.243126	2566.796742
942.545250	2564.450085
942.847335	2558.660320
943.149381	2559.325752
943.451389	2561.984961
943.753359	2559.623180
944.055290	2555.227294
944.357182	2557.314332
944.659036	2557.672254
944.960851	2557.702501
945.262628	2558.619991
945.564367	2557.556307
945.866067	2556.023796
946.167729	2559.371123
946.469352	2558.602347
946.770937	2557.752912
947.072484	2557.279044
947.373992	2555.814588
947.675462	2556.144784
947.976893	2554.582026
948.278286	2557.667213
948.579641	2556.316183
948.880958	2553.152859
949.182236	2555.504558
949.483476	2551.358208
949.784678	2556.469938
950.085841	2557.321893
950.386967	2555.819630
950.688054	2555.819630
950.989103	2554.042623
951.290114	2555.496996
951.591087	2560.971689
951.892021	2559.015721
952.192917	2557.891544
952.493776	2559.222408
952.794596	2558.234342
953.095378	2565.067626
953.396122	2564.646690
953.696828	2559.318190
953.997496	2558.284754
954.298126	2558.108313
954.598718	2555.633107
954.899272	2558.267110
955.199788	2555.698642
955.500266	2548.578012
955.800706	2548.041129
956.101108	2547.796633
956.401472	2546.841335
956.701798	2545.906201
957.002087	2545.676828
957.302337	2548.605738
957.602550	2548.078938
957.902724	2547.234545
958.202861	2544.310675
958.502960	2545.840666
958.803022	2541.724563
959.103045	2545.636499
959.403031	2544.719009
959.702979	2546.037271
960.002889	2541.754810
960.302762	2544.114070
960.602596	2542.856302
960.902393	2542.662218
961.202153	2542.389996
961.501875	2538.687268
961.801559	2543.720860
962.101205	2541.969059
962.400814	2541.888401
962.700385	2541.419574
962.999918	2542.377393
963.299414	2538.757844
963.598873	2540.481919
963.898293	2540.363452
964.197677	2539.945036
964.497022	2541.386806
964.796331	2540.005530
965.095601	2540.847403
965.394835	2539.995448
965.694030	2539.929913
965.993189	2541.288504
966.292309	2540.754141
966.591393	2536.290200
966.890439	2539.410674
967.189447	2540.454193
967.488419	2535.488656
967.787353	2542.556354
968.086249	2538.987217
968.385108	2543.413350
968.683930	2540.451672
968.982714	2541.260777
969.281462	2538.404964
969.580172	2539.708102
969.878844	2540.277752
970.177480	2539.531662
970.476078	2540.451672
970.774639	2540.920499
971.073162	2538.858668
971.371649	2540.116435
971.670098	2537.318595
971.968510	2537.716846
972.266885	2536.728780
972.565223	2541.152393
972.863524	2543.128525
973.161788	2543.241951
973.460014	2538.868750
973.758204	2542.105171
974.056356	2542.717671
974.354471	2543.720860
974.652550	2543.529297
974.950591	2542.057280
975.248595	2540.915458
975.546563	2539.415715
975.844493	2539.337577
976.142386	2541.525438
976.440243	2538.367155
976.738062	2541.782537
977.035845	2540.683565
977.333590	2538.989737
977.631299	2539.377906
977.928971	2538.359593
978.226606	2541.439738
978.524204	2540.875129
978.821765	2537.056455
979.119290	2542.377393
979.416777	2539.776157
979.714228	2539.541744
980.011642	2539.163657
980.309020	2540.973432
980.606360	2540.267670
980.903664	2537.311033
981.200931	2537.704243
981.498162	2541.311189
981.795356	2538.692309
982.092513	2545.197918
982.389633	2545.729760
982.686717	2551.811912
982.983764	2551.912735
983.280775	2553.767880
983.577749	2553.309135
983.874686	2552.041285
984.171587	2552.764690
984.468451	2547.350491
984.765279	2544.446787
985.062070	2544.209852
985.358824	2543.506611
985.655543	2540.832279
985.952224	2538.296579
986.248869	2538.276414
986.545478	2535.067720
986.842050	2536.232226
987.138586	2534.853471
987.435086	2535.324819
987.731549	2531.347348
988.027975	2538.241126
988.324366	2539.128369
988.620719	2540.330684
988.917037	2537.522762
989.213318	2537.043852
989.509563	2539.098122
989.805772	2537.058976
990.101944	2538.311702
990.398080	2536.171732
990.694180	2538.704912
990.990244	2538.891435
991.286271	2535.586959
991.582262	2540.297917
991.878217	2537.421939
992.174136	2537.757175
992.470019	2537.258101
992.765865	2538.379758
993.061676	2535.334901
993.357450	2537.497556
993.653188	2536.194418
993.948890	2535.907072
994.244556	2537.207690
994.540186	2537.676517
994.835780	2536.696012
995.131337	2538.709953
995.426859	2537.235416
995.722345	2539.014943
996.017795	2540.371014
996.313208	2540.983514
996.608586	2539.710622
996.903928	2539.700540
997.199234	2540.179450
997.494504	2539.521579
997.789738	2539.808925
998.084936	2538.669624
998.380099	2540.416384
998.675225	2537.064017
998.970316	2539.234233
999.265371	2538.548637
999.560390	2535.929757
999.855373	2537.366486
1000.150320	2537.250539
1000.445232	2536.842206
1000.740108	2537.951260
1001.034948	2535.307175
1001.329752	2536.479243
1001.624521	2535.231557
1001.919254	2532.516896
1002.213951	2531.763243
1002.508613	2535.259284
1002.803239	2536.176774
1003.097829	2528.667975
1003.392384	2535.024870
1003.686903	2534.961856
1003.981386	2536.413708
1004.275834	2536.413708
1004.570246	2538.692309
1004.864623	2534.422452
1005.158964	2538.173071
1005.453270	2534.198121
1005.747540	2535.375230
1006.041775	2537.656352
1006.335974	2535.133255
1006.630138	2535.128214
1006.924266	2534.732483
1007.218359	2534.611495
1007.512416	2535.506300
1007.806438	2537.202648
1008.100425	2536.373379
1008.394376	2532.849612
1008.688292	2535.652494
1008.982172	2535.465971
1009.276017	2533.542771
1009.569827	2534.490508
1009.863602	2537.154758
1010.157341	2534.677030
1010.451045	2534.462781
1010.744714	2531.201155
1011.038347	2536.617875
1011.331945	2533.452030
1011.625508	2535.407998
1011.919036	2534.024201
1012.212528	2538.341949
1012.505986	2533.237781
1012.799408	2534.125024
1013.092795	2534.732483
1013.386147	2538.629295
1013.679464	2535.002185
1013.972745	2534.848430
1014.265992	2534.712318
1014.559204	2533.741896
1014.852380	2531.480939
1015.145521	2534.593851
1015.438628	2532.589993
1015.731699	2535.425642
1016.024736	2532.728624
1016.317737	2535.634850
1016.610703	2535.765920
1016.903635	2531.049920
1017.196531	2531.990095
1017.489393	2530.361803
1017.782219	2530.076977
1018.075011	2534.130065
1018.367768	2533.711649
1018.660490	2533.124355
1018.953177	2533.124355
1019.245829	2533.124355
