Dividing Wavelength (nm)	Counts (n)	Blue Motor Position (mm): 3.500000	Red Motor Position (mm): 0.000000	
326.493990	2143.596918
326.888308	2143.596918
327.282561	2143.596918
327.676750	2111.978801
328.070874	2108.651639
328.464933	2113.407968
328.858929	2119.152363
329.252859	2129.085957
329.646726	2141.189767
330.040528	2152.149235
330.434265	2172.933913
330.827938	2187.275995
331.221547	2204.816690
331.615091	2225.014073
332.008571	2245.027454
332.401986	2265.290372
332.795338	2282.828546
333.188625	2303.663635
333.581847	2321.080821
333.975006	2341.583194
334.368100	2359.091121
334.761129	2377.221631
335.154095	2393.449105
335.546996	2410.193298
335.939833	2424.512695
336.332606	2439.590787
336.725315	2451.271140
337.117960	2458.706842
337.510540	2471.022381
337.903056	2480.290542
338.295508	2486.957468
338.687896	2495.459374
339.080220	2502.368275
339.472480	2509.395644
339.864676	2515.145080
340.256807	2517.521984
340.648875	2523.198323
341.040879	2524.685463
341.432818	2527.183355
341.824694	2529.618233
342.216506	2529.015815
342.608253	2534.031763
342.999937	2528.975485
343.391557	2528.297450
343.783113	2528.000022
344.174605	2527.669827
344.566033	2522.951307
344.957397	2521.479290
345.348697	2520.912160
345.739934	2520.082890
346.131106	2518.923425
346.522215	2516.007117
346.913260	2516.407889
347.304241	2512.846314
347.695159	2511.409585
348.086012	2509.012516
348.476802	2506.683503
348.867528	2504.697288
349.258191	2507.868174
349.648789	2503.011022
350.039324	2502.365755
350.429796	2501.034890
350.820203	2499.913233
351.210548	2498.040445
351.600828	2497.969869
351.991045	2496.487769
352.381198	2496.845691
352.771288	2494.131030
353.161314	2497.869046
353.551276	2495.166987
353.941175	2494.189003
354.331010	2496.560866
354.720782	2495.608088
355.110490	2497.543891
355.500135	2495.305619
355.889717	2495.499703
356.279235	2495.159425
356.668689	2494.836792
357.058080	2497.193531
357.447408	2495.998778
357.836672	2491.192037
358.225873	2495.464415
358.615010	2491.491986
359.004084	2498.655466
359.393095	2498.413490
359.782043	2499.313336
360.170927	2499.595641
360.559748	2503.409274
360.948505	2502.025477
361.337199	2502.285096
361.725830	2502.040600
362.114398	2501.470950
362.502903	2500.898779
362.891344	2503.550426
363.279722	2504.362052
363.668037	2504.689727
364.056289	2504.293996
364.444478	2504.483039
364.832603	2506.431445
365.220665	2506.567557
365.608665	2506.829697
365.996601	2506.640653
366.384474	2508.684841
366.772284	2507.762310
367.160031	2503.971362
367.547715	2507.522855
367.935336	2508.881446
368.322893	2509.060407
368.710388	2511.449914
369.097820	2511.260871
369.485189	2509.793895
369.872495	2510.164420
370.259738	2508.556292
370.646918	2510.061076
371.034035	2511.023937
371.421090	2511.424708
371.808081	2509.993021
372.195010	2510.267763
372.581875	2510.043432
372.968678	2511.724657
373.355418	2512.311951
373.742096	2512.243896
374.128710	2514.146931
374.515262	2514.782117
374.901751	2512.511077
375.288177	2511.659122
375.674540	2511.510408
376.060841	2511.127280
376.447079	2511.820439
376.833254	2513.189112
377.219367	2508.684841
377.605417	2513.685666
377.991404	2509.302383
378.377329	2514.346057
378.763191	2510.834893
379.148991	2516.049967
379.534727	2517.010307
379.920402	2514.532580
380.306013	2515.397138
380.691563	2517.108609
381.077049	2518.162210
381.462474	2517.090965
381.847835	2515.124915
382.233134	2516.722961
382.618371	2520.418127
383.003545	2516.226407
383.388657	2518.414268
383.773706	2517.978208
384.158693	2517.567354
384.543618	2517.287570
384.928480	2519.004083
385.313280	2518.731861
385.698017	2519.934176
386.082692	2517.189268
386.467305	2516.952333
386.851856	2518.510050
387.236344	2519.959382
387.620770	2519.651871
388.005133	2519.888806
388.389435	2520.236645
388.773674	2520.937366
389.157851	2518.865451
389.541965	2518.651202
389.926018	2519.281347
390.310008	2518.013496
390.693936	2520.342509
391.077802	2522.779907
391.461606	2521.683456
391.845348	2521.144053
392.229027	2523.838550
392.612645	2524.125895
392.996200	2520.765966
393.379694	2522.157325
393.763125	2522.003570
394.146494	2522.850483
394.529801	2522.457273
394.913047	2520.511388
395.296230	2524.481297
395.679351	2524.052799
396.062410	2525.812161
396.445408	2520.786131
396.828343	2525.532377
397.211217	2523.057171
397.594028	2523.097500
397.976778	2523.432737
398.359466	2523.100021
398.742092	2519.886285
399.124656	2524.083046
399.507158	2523.888961
399.889598	2526.112110
400.271977	2524.060360
400.654294	2525.078673
401.036549	2524.511544
401.418742	2526.112110
401.800874	2526.719569
402.182944	2525.663447
402.564952	2526.422141
402.946898	2527.153108
403.328783	2527.488345
403.710606	2527.984899
404.092367	2527.556401
404.474067	2530.293747
404.855705	2527.463139
405.237282	2529.204858
405.618797	2525.015659
406.000250	2530.011442
406.381642	2528.937677
406.762972	2529.295599
407.144240	2527.478263
407.525447	2532.474046
407.906593	2527.848788
408.287677	2529.550177
408.668700	2527.022038
409.049661	2528.758716
409.430560	2531.165867
409.811399	2530.200486
410.192176	2528.670496
410.572891	2529.603109
410.953545	2531.090249
411.334138	2531.773326
411.714669	2530.034128
412.095139	2530.966741
412.475547	2532.116124
412.855894	2533.005888
413.236180	2530.238294
413.616405	2532.559746
413.996568	2530.205527
414.376670	2536.635519
414.756711	2532.015301
415.136691	2532.741227
415.516609	2533.227699
415.896466	2530.707122
416.276262	2533.356248
416.655997	2530.361803
417.035670	2527.480783
417.415283	2532.189221
417.794834	2529.230064
418.174324	2530.974303
418.553753	2530.535722
418.933121	2529.439272
419.312428	2535.400436
419.691674	2532.325332
420.070859	2533.817514
420.449983	2532.320291
420.829045	2535.362627
421.208047	2532.078316
421.586988	2533.625950
421.965867	2532.821886
422.344686	2532.098480
422.723444	2535.735673
423.102141	2534.858512
423.480777	2533.210055
423.859352	2534.122503
424.237866	2533.404139
424.616319	2534.016639
424.994712	2535.919675
425.373044	2533.532688
425.751314	2535.662576
426.129524	2534.674510
426.507673	2537.565612
426.885762	2534.203162
427.263789	2536.292720
427.641756	2537.011085
428.019662	2535.740714
428.397508	2539.125849
428.775292	2537.863040
429.153016	2537.749614
429.530679	2536.285158
429.908282	2536.174253
430.285824	2536.290200
430.663305	2536.990920
431.040726	2537.800025
431.418086	2533.754499
431.795385	2539.740869
432.172624	2537.726928
432.549802	2538.838503
432.926920	2540.822197
433.303977	2536.927906
433.680974	2537.356404
434.057910	2538.692309
434.434786	2536.975797
434.811601	2540.287835
435.188355	2534.382123
435.565050	2537.575694
435.941683	2541.089378
436.318257	2537.308513
436.694770	2536.814480
437.071222	2536.753986
437.447614	2536.499407
437.823946	2534.795497
438.200218	2540.035777
438.576429	2539.241795
438.952580	2539.355221
439.328670	2537.704243
439.704700	2539.395550
440.080670	2541.081816
440.456580	2542.039636
440.832429	2539.519059
441.208218	2538.717515
441.583947	2541.233051
441.959616	2541.714481
442.335224	2539.554347
442.710773	2538.959491
443.086261	2539.987886
443.461689	2538.775488
443.837057	2541.119625
444.212365	2539.783719
444.587612	2541.454862
444.962800	2542.914276
445.337927	2540.096271
445.712995	2540.003009
446.088002	2541.958977
446.462949	2542.027033
446.837837	2538.669624
447.212664	2542.105171
447.587431	2542.100129
447.962139	2542.211035
448.336786	2545.205480
448.711374	2541.820345
449.085901	2541.863195
449.460369	2540.776827
449.834776	2542.863864
450.209124	2541.031405
450.583412	2542.808412
450.957640	2543.120963
451.331808	2541.449821
451.705917	2544.262784
452.079965	2542.579039
452.453954	2547.282436
452.827883	2541.066693
453.201752	2542.379913
453.575562	2541.714481
453.949311	2541.643905
454.323001	2542.357228
454.696632	2543.241951
455.070202	2546.057435
455.443713	2543.816642
455.817164	2540.618030
456.190556	2539.796322
456.563888	2541.301107
456.937160	2536.932947
457.310373	2546.740512
457.683526	2543.965356
458.056619	2542.274049
458.429653	2541.991745
458.802628	2542.984852
459.175542	2545.434853
459.548398	2543.136087
459.921194	2542.427804
460.293930	2543.572146
460.666607	2542.667259
461.039224	2543.146169
461.411782	2544.262784
461.784280	2545.477702
462.156719	2542.629451
462.529099	2546.032229
462.901419	2544.270346
463.273680	2543.809081
463.645882	2544.832435
464.018024	2544.010727
464.390106	2544.240099
464.762130	2543.720860
465.134094	2544.633309
465.505999	2546.364946
465.877845	2545.341591
466.249631	2547.277394
466.621358	2545.954092
466.993026	2544.908052
467.364634	2550.203784
467.736184	2548.111705
468.107674	2545.185316
468.479105	2544.177085
468.850477	2543.635161
469.221790	2546.138094
469.593043	2548.152035
469.964238	2544.282949
470.335373	2548.053732
470.706449	2546.201108
471.077467	2544.348484
471.448425	2547.955430
471.819324	2548.237734
472.190164	2546.828732
472.560945	2545.155069
472.931667	2547.342929
473.302330	2547.463917
473.672934	2548.351160
474.043479	2546.793444
474.413965	2546.385110
474.784393	2539.730787
475.154761	2545.041643
475.525070	2542.916796
475.895321	2545.636499
476.265513	2542.616848
476.635645	2548.784699
477.005719	2546.478372
477.375734	2547.037940
477.745691	2545.709596
478.115588	2547.070707
478.485427	2545.772610
478.855207	2547.390820
479.224928	2549.190512
479.594591	2548.920811
479.964194	2545.787733
480.333739	2548.867878
480.703226	2548.063814
481.072653	2549.218239
481.442022	2547.940306
481.811333	2547.224462
482.180584	2545.283618
482.549777	2548.202446
482.918912	2549.956768
483.287988	2547.499205
483.657005	2548.681356
484.025964	2548.683876
484.394864	2546.201108
484.763706	2550.521377
485.132489	2548.252858
485.501213	2546.740512
485.869879	2548.278063
486.238487	2547.877292
486.607036	2549.200595
486.975527	2549.072045
487.343959	2548.613300
487.712333	2547.816798
488.080648	2549.009031
488.448905	2546.891746
488.817104	2545.495347
489.185244	2547.262271
489.553326	2547.743701
489.921350	2546.112888
490.289315	2548.693959
490.657222	2550.491130
491.025070	2549.119936
491.392861	2549.792930
491.760593	2548.605738
492.128267	2552.323589
492.495883	2549.510626
492.863440	2550.254196
493.230939	2548.421736
493.598380	2550.193702
493.965763	2542.999975
494.333088	2545.875954
494.700354	2545.404606
495.067563	2547.201777
495.434713	2543.005017
495.801805	2551.290153
496.168839	2551.673281
496.535815	2552.101779
496.902733	2550.186140
497.269593	2550.589432
497.636395	2548.031047
498.003139	2549.092210
498.369825	2546.624565
498.736453	2548.817467
499.103023	2550.760832
499.469535	2549.608928
499.835989	2547.340409
500.202385	2551.461552
500.568723	2549.442570
500.935003	2551.005328
501.301226	2550.551624
501.667390	2551.769062
502.033497	2550.259237
502.399546	2550.581871
502.765537	2550.082797
503.131470	2552.116902
503.497345	2551.174206
503.863163	2550.362581
504.228923	2549.124977
504.594625	2549.651778
504.960269	2550.536500
505.325856	2549.845862
505.691385	2549.107333
506.056856	2552.991542
506.422270	2553.588919
506.787625	2550.818805
507.152924	2548.852755
507.518164	2550.435677
507.883347	2548.414175
508.248472	2550.596994
508.613540	2551.776624
508.978550	2550.768393
509.343503	2550.342416
509.708398	2553.699824
510.073236	2550.213867
510.438016	2549.266130
510.802738	2550.498692
511.167403	2550.231511
511.532010	2550.201264
511.896561	2554.375339
512.261053	2551.975750
512.625488	2547.905018
512.989866	2548.744370
513.354186	2547.279915
513.718449	2547.446273
514.082655	2549.266130
514.446803	2549.339226
514.810894	2551.380894
515.174927	2549.124977
515.538904	2549.102292
515.902822	2548.832590
516.266684	2551.610266
516.630488	2550.319731
516.994235	2551.484237
517.357925	2550.402910
517.721558	2551.723692
518.085133	2551.363250
518.448651	2550.196223
518.812112	2552.179917
519.175516	2551.280071
519.538863	2550.448280
519.902152	2555.612942
520.265385	2552.794937
520.628560	2550.377704
520.991678	2554.357695
521.354739	2552.338713
521.717743	2548.817467
522.080690	2551.890050
522.443580	2548.875440
522.806413	2551.648075
523.169189	2551.816953
523.531908	2551.958106
523.894569	2551.068342
524.257174	2553.430123
524.619722	2554.455997
524.982213	2550.632282
525.344647	2552.157231
525.707025	2552.999104
526.069345	2551.312838
526.431608	2552.784855
526.793815	2550.140770
527.155964	2552.595812
527.518057	2549.987015
527.880093	2550.581871
528.242072	2550.176058
528.603995	2555.784342
528.965860	2550.612118
529.327669	2551.224618
529.689421	2551.007848
530.051117	2551.310317
530.412755	2553.092365
530.774337	2552.958775
531.135862	2552.374001
531.497331	2550.962478
531.858743	2547.315203
532.220098	2549.981973
532.581396	2546.606921
532.942638	2548.492312
533.303824	2551.461552
533.664953	2551.685883
534.026025	2550.481048
534.387040	2551.275029
534.747999	2552.089176
535.108902	2550.352498
535.469748	2551.786707
535.830537	2552.056408
536.191270	2552.431974
536.551947	2551.650595
536.912567	2551.206974
537.273131	2553.732592
537.633638	2552.338713
537.994089	2551.587581
538.354483	2551.259906
538.714821	2554.645041
539.075103	2549.351829
539.435328	2552.258054
539.795497	2552.545400
540.155609	2555.156718
540.515665	2552.250493
540.875665	2552.167314
541.235609	2552.000956
541.595496	2553.997252
541.955328	2553.593960
542.315102	2554.413148
542.674821	2549.392158
543.034483	2552.767211
543.394090	2553.835936
543.753640	2554.481203
544.113134	2552.888199
544.472571	2554.241748
544.831953	2552.520194
545.191278	2552.547921
545.550548	2551.814433
545.909761	2552.081614
546.268918	2552.005997
546.628019	2552.742005
546.987064	2553.407438
547.346053	2552.003476
547.704986	2552.676470
548.063863	2551.138918
548.422684	2555.156718
548.781449	2552.411810
549.140158	2552.583209
549.498811	2552.943651
549.857408	2552.951213
550.215949	2549.067004
550.574434	2547.973074
550.932864	2552.799978
551.291237	2549.329144
551.649555	2551.668239
552.007817	2551.645554
552.366022	2553.805689
552.724173	2553.294012
553.082267	2553.689742
553.440305	2550.644885
553.798288	2552.603373
554.156215	2552.822664
554.514086	2557.110165
554.871902	2551.766542
555.229661	2554.849208
555.587365	2553.057077
555.945014	2552.905843
556.302606	2555.398693
556.660143	2551.617828
557.017625	2551.390976
557.375050	2557.952038
557.732421	2554.473642
558.089735	2552.328631
558.446994	2552.063970
558.804197	2552.179917
559.161345	2552.497509
559.518437	2552.668908
559.875474	2554.529094
560.232455	2552.205122
560.589381	2553.120092
560.946251	2554.788714
561.303065	2551.327962
561.659825	2553.863662
562.016528	2553.959444
562.373177	2554.324927
562.729770	2553.510781
563.086307	2554.730740
563.442789	2553.031872
563.799216	2552.154711
564.155587	2554.508930
564.511904	2553.422561
564.868164	2551.587581
565.224370	2553.493137
565.580520	2553.351985
565.936615	2554.604712
566.292654	2555.023127
566.648638	2556.636297
567.004567	2551.703527
567.360441	2554.297201
567.716260	2554.513971
568.072023	2554.760987
568.427732	2550.518856
568.783385	2551.179248
569.138982	2548.903167
569.494525	2548.038609
569.850013	2550.770914
570.205445	2550.912066
570.560823	2555.214691
570.916145	2551.892571
571.271412	2552.631100
571.626625	2551.433826
571.981782	2554.730740
572.336884	2552.721841
572.691931	2553.215874
573.046923	2553.664536
573.401860	2552.260575
573.756743	2552.343754
574.111570	2552.958775
574.466342	2553.619166
574.821059	2553.493137
575.175722	2553.546069
575.530330	2551.428785
575.884882	2555.297870
576.239380	2552.651264
576.593823	2555.272664
576.948211	2554.024979
577.302544	2553.132695
577.656823	2552.673950
578.011047	2556.326266
578.365216	2554.168652
578.719330	2553.583878
579.073389	2553.389793
579.427394	2554.952551
579.781344	2552.265616
580.135239	2554.614794
580.489080	2552.096738
580.842866	2552.051367
581.196597	2553.684701
581.550273	2554.151008
581.903895	2552.053888
582.257463	2552.389124
582.610975	2552.346275
582.964434	2552.641182
583.317837	2554.743343
583.671186	2551.237221
584.024481	2555.015566
584.377721	2553.750236
584.730906	2554.783672
585.084037	2554.183775
585.437113	2552.983981
585.790135	2553.150339
586.143103	2551.733774
586.496016	2555.862479
586.848874	2551.365770
587.201679	2553.261244
587.554428	2549.399720
587.907124	2553.898950
588.259765	2548.940975
588.612352	2554.551779
588.964884	2555.938097
589.317362	2554.511450
589.669786	2553.130174
590.022155	2555.476831
590.374470	2550.980122
590.726731	2553.921635
591.078937	2553.783003
591.431090	2553.878785
591.783188	2553.828374
592.135232	2554.740823
592.487222	2553.498178
592.839157	2554.650082
593.191038	2553.299053
593.542866	2552.915925
593.894639	2555.214691
594.246358	2553.682180
594.598022	2552.941131
594.949633	2556.984136
595.301190	2553.651933
595.652692	2553.392314
596.004141	2552.220246
596.355535	2554.902140
596.706876	2555.867521
597.058162	2553.596481
597.409395	2553.883827
597.760573	2555.076059
598.111698	2554.007335
598.462768	2556.318704
598.813785	2553.122612
599.164748	2552.285781
599.515657	2553.593960
599.866511	2553.470452
600.217312	2553.024310
600.568060	2554.297201
600.918753	2554.004814
601.269392	2553.604042
601.619978	2554.292160
601.970510	2554.181255
602.320988	2552.648744
602.671412	2552.941131
603.021783	2553.783003
603.372100	2553.891388
603.722363	2554.912222
604.072572	2551.640513
604.422728	2554.040102
604.772830	2548.767055
605.122878	2551.358208
605.472872	2550.964998
605.822813	2552.404248
606.172701	2550.662529
606.522534	2554.718138
606.872314	2553.871224
607.222041	2555.590257
607.571714	2551.726213
607.921333	2553.175544
608.270899	2553.009186
608.620411	2554.186296
608.969870	2553.989691
609.319276	2555.517160
609.668627	2556.117058
610.017926	2561.135526
610.367171	2561.097718
610.716362	2559.015721
611.065500	2557.536142
611.414585	2554.614794
611.763616	2556.913560
612.112594	2554.632438
612.461518	2556.827860
612.810389	2555.839794
613.159207	2554.947510
613.507971	2558.226781
613.856682	2556.525391
614.205340	2554.466080
614.553945	2554.735782
614.902496	2554.743343
615.250994	2555.217212
615.599439	2552.396686
615.947830	2551.963147
616.296169	2551.040616
616.644454	2555.963302
616.992686	2554.430792
617.340864	2551.751418
617.688990	2551.239741
618.037063	2556.409445
618.385082	2553.520863
618.733048	2556.817778
619.080961	2552.996583
619.428821	2554.594629
619.776628	2556.893395
620.124382	2554.735782
620.472083	2553.798127
620.819731	2556.159908
621.167326	2552.253013
621.514868	2556.369115
621.862357	2551.456511
622.209793	2553.215874
622.557176	2554.622356
622.904506	2551.297715
623.251783	2552.633620
623.599007	2553.901471
623.946179	2552.091696
624.293297	2548.809905
624.640363	2552.419371
624.987376	2552.603373
625.334336	2556.858107
625.681243	2555.030689
626.028097	2553.767880
626.374899	2552.318548
626.721647	2550.773435
627.068343	2553.848538
627.414987	2553.510781
627.761577	2554.024979
628.108115	2551.660678
628.454600	2553.034392
628.801032	2554.486244
629.147412	2555.164280
629.493739	2552.724361
629.840014	2555.471790
630.186236	2553.205791
630.532405	2553.936759
630.878521	2552.817622
631.224585	2556.318704
631.570597	2551.572457
631.916556	2554.234187
632.262462	2554.065308
632.608316	2556.638817
632.954117	2551.965667
633.299866	2555.774259
633.645562	2551.327962
633.991206	2553.523384
634.336797	2553.422561
634.682336	2553.344423
635.027823	2552.540359
635.373257	2552.820143
635.718639	2554.040102
636.063968	2555.953220
636.409245	2553.326779
636.754470	2552.260575
637.099642	2554.576985
637.444762	2554.415668
637.789829	2557.006821
638.134845	2554.113199
638.479808	2554.239228
638.824719	2551.653116
639.169577	2554.614794
639.514383	2552.734443
639.859137	2552.275698
640.203839	2552.623538
640.548489	2551.751418
640.893086	2550.102961
641.237632	2550.428116
641.582125	2553.430123
641.926566	2547.882333
642.270955	2553.188147
642.615292	2552.416851
642.959576	2552.898281
643.303809	2554.332489
643.647990	2551.973229
643.992118	2553.291491
644.336195	2556.721996
644.680219	2550.299566
645.024192	2553.213353
645.368112	2551.486758
645.711981	2553.571275
646.055797	2552.169834
646.399562	2555.844835
646.743274	2553.135215
647.086935	2555.055895
647.430544	2556.018755
647.774101	2554.251831
648.117606	2554.614794
648.461059	2553.772921
648.804460	2556.653941
649.147810	2553.309135
649.491108	2555.126471
649.834354	2553.246121
650.177548	2553.062118
650.520690	2552.487427
650.863781	2553.762839
651.206820	2556.782490
651.549807	2550.874258
651.892742	2553.692263
652.235626	2554.463559
652.578458	2553.084804
652.921238	2552.701676
653.263967	2552.421892
653.606644	2550.687735
653.949269	2552.615976
654.291843	2550.675132
654.634365	2555.368446
654.976836	2553.951882
655.319255	2555.832233
655.661622	2552.454659
656.003938	2553.039433
656.346203	2553.160421
656.688416	2555.214691
657.030577	2552.202602
657.372687	2553.344423
657.714746	2553.662016
658.056753	2552.384083
658.398708	2549.944165
658.740612	2549.402241
659.082465	2551.751418
659.424266	2550.687735
659.766016	2547.244627
660.107715	2554.647561
660.449362	2552.202602
660.790958	2553.687222
661.132503	2553.387273
661.473996	2552.280740
661.815438	2553.296532
662.156829	2554.546738
662.498168	2554.816440
662.839456	2552.341233
663.180693	2553.535987
663.521879	2551.363250
663.863013	2554.619835
664.204097	2554.309804
664.545129	2552.063970
664.886110	2554.108158
665.227040	2549.598846
665.567918	2551.474155
665.908746	2551.753939
666.249522	2555.244938
666.590248	2551.350647
666.930922	2551.017931
667.271545	2552.164793
667.612118	2555.418858
667.952639	2550.569268
668.293109	2552.089176
668.633528	2550.113043
668.973896	2549.515667
669.314213	2552.278219
669.654480	2554.181255
669.994695	2553.425082
670.334859	2554.400545
670.674973	2553.972047
671.015035	2552.936090
671.355047	2552.805020
671.695008	2553.407438
672.034918	2551.751418
672.374777	2552.898281
672.714585	2552.232849
673.054342	2555.335679
673.394049	2553.551110
673.733705	2554.760987
674.073310	2555.444064
674.412864	2555.446584
674.752368	2551.706048
675.091820	2550.647406
675.431223	2554.090514
675.770574	2551.423743
676.109875	2547.932744
676.449125	2549.815615
676.788324	2546.889226
677.127473	2552.109340
677.466571	2546.622044
677.805619	2550.511295
678.144616	2553.709907
678.483562	2553.873744
678.822458	2551.597663
679.161303	2552.079093
679.500098	2551.539690
679.838842	2552.802499
680.177535	2549.311500
680.516179	2552.850390
680.854771	2551.078424
681.193314	2554.289639
681.531805	2550.952396
681.870247	2554.201419
682.208638	2551.580019
682.546978	2552.948692
682.885268	2550.410472
683.223508	2553.304094
683.561697	2551.441387
683.899836	2551.958106
684.237925	2551.325441
684.575963	2551.784186
684.913951	2553.851059
685.251889	2553.130174
685.589776	2553.442726
685.927614	2555.262582
686.265401	2552.399207
686.603137	2551.809392
686.940824	2552.850390
687.278460	2555.164280
687.616046	2552.235369
687.953582	2552.018600
688.291068	2553.873744
688.628504	2552.056408
688.965889	2552.948692
689.303224	2553.709907
689.640510	2551.567416
689.977745	2552.694114
690.314930	2551.065822
690.652065	2552.376522
690.989150	2550.118085
691.326185	2552.850390
691.663170	2551.456511
692.000105	2553.304094
692.336990	2552.958775
692.673825	2552.739485
693.010610	2552.386604
693.347345	2549.245965
693.684030	2547.708413
694.020665	2550.334854
694.357251	2547.877292
694.693786	2552.812581
695.030272	2549.747560
695.366707	2552.149670
695.703093	2553.803168
696.039429	2549.067004
696.375716	2552.343754
696.711952	2552.903322
697.048139	2551.902653
697.384276	2553.699824
697.720363	2550.322251
698.056400	2551.315359
698.392388	2551.968188
698.728326	2550.173537
699.064214	2552.106820
699.400053	2552.038764
699.735842	2554.087993
700.071581	2552.595812
700.407270	2551.801830
700.742910	2553.170503
701.078501	2551.942982
701.414042	2550.481048
701.749533	2552.071532
702.084974	2553.906512
702.420366	2550.942313
702.755709	2552.066491
703.091002	2550.705379
703.426246	2550.970040
703.761440	2551.169165
704.096584	2552.041285
704.431679	2552.510112
704.766725	2553.515822
705.101721	2550.808723
705.436668	2550.786038
705.771565	2551.254865
706.106413	2551.562375
706.441212	2553.853580
706.775961	2553.626728
707.110661	2553.165462
707.445311	2553.813250
707.779913	2554.322407
708.114465	2553.440205
708.448967	2552.358877
708.783421	2553.213353
709.117825	2551.630431
709.452180	2550.836449
709.786485	2549.374514
710.120742	2553.601522
710.454949	2553.747715
710.789107	2551.325441
711.123216	2545.455017
711.457275	2548.756973
711.791286	2547.171530
712.125247	2548.356201
712.459159	2552.479865
712.793023	2549.009031
713.126837	2549.132539
713.460602	2552.691594
713.794318	2552.121943
714.127985	2549.878630
714.461602	2551.685883
714.795171	2551.811912
715.128691	2549.402241
715.462162	2548.951057
715.795584	2550.654968
716.128957	2551.978270
716.462281	2549.412323
716.795556	2552.810061
717.128782	2551.522046
717.461960	2551.358208
717.795088	2550.891902
718.128167	2550.092879
718.461198	2553.283929
718.794180	2550.879299
719.127113	2552.109340
719.459997	2549.646737
719.792833	2551.527087
720.125619	2552.046326
720.458357	2551.988353
720.791046	2552.603373
721.123686	2552.792417
721.456278	2551.060780
721.788821	2550.518856
722.121315	2551.885009
722.453761	2552.505071
722.786158	2549.727395
723.118506	2553.498178
723.450805	2550.990204
723.783056	2550.977601
724.115259	2550.181099
724.447412	2553.573796
724.779518	2550.017262
725.111574	2553.548590
725.443582	2551.819474
725.775542	2551.438867
726.107453	2549.036757
726.439315	2551.569937
726.771129	2555.726368
727.102895	2550.130688
727.434612	2552.595812
727.766281	2550.564227
728.097901	2548.502395
728.429473	2546.740512
728.760996	2547.068187
729.092471	2545.321427
729.423897	2550.838970
729.755276	2550.458363
730.086606	2549.371994
730.417887	2550.324772
730.749120	2550.186140
731.080305	2548.918290
731.411442	2552.169834
731.742530	2549.102292
732.073570	2550.080276
732.404562	2555.088662
732.735506	2552.805020
733.066401	2550.869217
733.397249	2552.976419
733.728048	2554.098076
734.058798	2550.044988
734.389501	2551.832077
734.720156	2552.041285
735.050762	2549.976932
735.381320	2550.450801
735.711831	2550.372663
736.042293	2551.612787
736.372707	2550.526418
736.703073	2551.610266
737.033391	2551.678322
737.363661	2552.192519
737.693883	2549.835780
738.024056	2552.542880
738.354182	2552.305945
738.684260	2549.714792
739.014290	2551.751418
739.344272	2550.604556
739.674207	2551.106151
740.004093	2553.271326
740.333931	2551.325441
740.663722	2547.854607
740.993464	2549.924000
741.323159	2551.905174
741.652806	2551.902653
741.982405	2549.830739
742.311956	2550.604556
742.641460	2551.237221
742.970915	2550.465924
743.300323	2549.903836
743.629683	2550.087838
743.958996	2551.527087
744.288260	2549.321582
744.617477	2551.718651
744.946647	2547.683207
745.275768	2551.330482
745.604842	2546.788402
745.933869	2548.368804
746.262847	2542.894111
746.591778	2551.325441
746.920662	2548.928372
747.249498	2551.128836
747.578286	2551.438867
747.907027	2550.309648
748.235720	2549.583722
748.564365	2550.924669
748.892963	2548.908208
749.221514	2546.490974
749.550017	2550.486089
749.878473	2548.343598
750.206881	2551.872406
750.535242	2548.923331
750.863555	2550.163455
751.191821	2550.841490
751.520039	2551.315359
751.848210	2549.561037
752.176334	2550.120605
752.504411	2550.256716
752.832440	2549.538352
753.160421	2550.062632
753.488356	2549.092210
753.816243	2552.200081
754.144082	2551.025492
754.471875	2548.895605
754.799620	2550.428116
755.127318	2546.306972
755.454969	2550.312169
755.782572	2553.283929
756.110129	2548.630944
756.437638	2550.841490
756.765100	2550.234031
757.092515	2552.623538
757.419882	2549.712272
757.747203	2548.635985
758.074477	2550.733105
758.401703	2547.549617
758.728882	2548.734288
759.056014	2549.883671
759.383099	2548.474668
759.710138	2550.939793
760.037129	2550.196222
760.364073	2549.308979
760.690970	2548.202446
761.017820	2552.326110
761.344623	2552.552962
761.671379	2552.124464
761.998088	2545.825542
762.324751	2548.106664
762.651366	2546.715306
762.977935	2551.985832
763.304456	2545.026519
763.630931	2547.940306
763.957359	2547.990718
764.283740	2551.252344
764.610074	2549.245965
764.936362	2549.457693
765.262602	2548.363763
765.588796	2550.289484
765.914943	2549.611449
766.241044	2548.951057
766.567097	2549.601366
766.893104	2552.126984
767.219064	2550.128167
767.544978	2550.483568
767.870845	2551.348126
768.196665	2550.544062
768.522438	2548.754453
768.848165	2550.904505
769.173846	2547.554658
769.499479	2548.066335
769.825066	2547.884853
770.150607	2551.448949
770.476101	2547.068187
770.801548	2551.287632
771.126949	2549.283774
771.452303	2551.257385
771.777611	2546.327137
772.102872	2551.574978
772.428087	2548.036088
772.753256	2550.460883
773.078378	2549.555996
773.403453	2548.305790
773.728482	2548.648588
774.053465	2551.887530
774.378401	2547.842004
774.703291	2548.595656
775.028135	2549.989535
775.352932	2549.102292
775.677683	2551.191850
776.002388	2547.753783
776.327046	2549.966850
776.651658	2549.611449
776.976224	2547.416026
777.300743	2547.453835
777.625216	2549.714792
777.949643	2548.726726
778.274024	2550.644885
778.598359	2546.271684
778.922647	2545.853268
779.246889	2548.935934
779.571086	2543.967877
779.895236	2549.397200
780.219339	2547.393341
780.543397	2551.869886
780.867409	2550.201264
781.191374	2549.697148
781.515294	2550.828887
781.839167	2550.155893
782.162995	2548.396531
782.486776	2549.311500
782.810511	2550.647406
783.134201	2547.801674
783.457844	2551.874927
783.781441	2547.902498
784.104993	2547.582384
784.428498	2551.799309
784.751958	2549.913918
785.075372	2549.739998
785.398739	2550.344937
785.722061	2549.220759
786.045337	2549.064483
786.368568	2549.387117
786.691752	2548.872920
787.014891	2549.432488
787.337983	2547.789072
787.661030	2548.663712
787.984031	2549.682025
788.306987	2551.353167
788.629897	2550.841490
788.952760	2550.082797
789.275579	2551.212015
789.598351	2549.946685
789.921078	2548.920811
790.243759	2549.200595
790.566395	2548.502395
790.888984	2548.648588
791.211529	2548.315872
791.534027	2550.738147
791.856480	2547.073228
792.178888	2550.274360
792.501249	2549.228321
792.823566	2550.876778
793.145836	2549.659340
793.468062	2547.753783
793.790241	2549.165307
794.112375	2548.560368
794.434464	2549.835780
794.756507	2549.465255
795.078505	2552.469783
795.400457	2548.908208
795.722364	2545.303783
796.044226	2546.904349
796.366042	2543.494008
796.687812	2546.274205
797.009538	2547.710934
797.331218	2548.157076
797.652852	2549.621531
797.974442	2550.758311
798.295986	2547.957950
798.617484	2551.073383
798.938938	2550.967519
799.260346	2551.194371
799.581709	2548.890564
799.903026	2550.856614
800.224299	2549.064483
800.545526	2548.421736
800.866708	2550.402910
801.187845	2549.568599
801.508936	2548.545245
801.829983	2550.866696
802.150984	2547.751263
802.471940	2550.591953
802.792851	2547.630275
803.113717	2547.284956
803.434538	2547.778989
803.755314	2549.233362
804.076045	2548.414175
804.396731	2548.883002
804.717372	2547.864689
805.037967	2550.786037
805.358518	2553.341902
805.679024	2550.339895
805.999485	2547.998279
806.319901	2548.091541
806.640272	2546.609442
806.960598	2547.637837
807.280879	2546.748073
807.601115	2548.877961
807.921306	2549.765204
808.241453	2550.980122
808.561554	2546.072559
808.881611	2550.773435
809.201623	2548.527601
809.521590	2551.494320
809.841513	2548.807385
810.161390	2551.653116
810.481223	2544.240099
810.801011	2548.792261
811.120755	2550.531459
811.440453	2551.539690
811.760107	2549.994576
812.079716	2544.640871
812.399281	2546.395192
812.718801	2543.433515
813.038276	2541.482588
813.357707	2549.429967
813.677093	2550.148332
813.996434	2545.523073
814.315731	2550.176058
814.634983	2549.321582
814.954191	2547.375697
815.273354	2550.912066
815.592473	2547.801674
815.911547	2548.847714
816.230577	2546.057435
816.549562	2549.999617
816.868502	2550.929710
817.187399	2548.777138
817.506250	2549.130018
817.825058	2546.886705
818.143821	2550.155893
818.462539	2548.131870
818.781213	2548.739329
819.099843	2546.324616
819.418429	2547.433670
819.736970	2550.670091
820.055466	2547.312682
820.373919	2550.032385
820.692327	2547.093392
821.010691	2550.372663
821.329011	2549.770245
821.647286	2552.124464
821.965517	2549.450132
822.283704	2549.084648
822.601847	2546.314534
822.919945	2546.599359
823.237999	2548.716644
823.556010	2546.851417
823.873976	2548.293187
824.191897	2550.418033
824.509775	2548.396531
824.827609	2546.332178
825.145398	2547.988197
825.463144	2548.091541
825.780845	2547.559699
826.098502	2549.114895
826.416116	2550.821326
826.733685	2549.427447
827.051210	2547.738660
827.368692	2548.961140
827.686129	2550.831408
828.003522	2547.930224
828.320872	2543.831766
828.638177	2545.031560
828.955439	2546.009544
829.272656	2543.488967
829.589830	2543.037784
829.906960	2550.992725
830.224046	2546.125491
830.541088	2550.629762
830.858086	2548.409133
831.175041	2551.577499
831.491952	2547.675646
831.808819	2547.295038
832.125642	2547.355532
832.442421	2545.311344
832.759157	2548.099103
833.075849	2547.332847
833.392497	2547.715975
833.709101	2548.255378
834.025662	2549.286294
834.342179	2548.565409
834.658653	2547.675646
834.975083	2549.518187
835.291469	2553.634289
835.607811	2548.225131
835.924110	2550.506253
836.240366	2549.523228
836.556578	2548.401572
836.872746	2550.181099
837.188871	2549.886192
837.504952	2545.505429
837.820990	2547.307641
838.136984	2544.731612
838.452935	2548.051212
838.768842	2547.350491
839.084706	2549.545914
839.400526	2547.602549
839.716303	2546.914431
840.032037	2549.974412
840.347727	2548.172199
840.663373	2549.240924
840.978977	2549.510626
841.294537	2549.117416
841.610054	2544.693803
841.925527	2548.625903
842.240957	2551.401058
842.556344	2548.242775
842.871687	2549.422405
843.186987	2547.650440
843.502244	2547.194215
843.817458	2547.746222
844.132629	2547.209339
844.447756	2547.368135
844.762840	2544.028371
845.077881	2542.684903
845.392879	2544.290511
845.707833	2546.990049
846.022745	2542.778165
846.337613	2547.965512
846.652438	2546.289328
846.967221	2544.592980
847.281960	2548.630944
847.596656	2549.374514
847.911309	2548.146993
848.225919	2548.119267
848.540485	2546.947199
848.855009	2548.235214
849.169490	2545.707075
849.483928	2550.748229
849.798323	2546.700182
850.112675	2548.635985
850.426984	2547.688248
850.741251	2547.605069
851.055474	2547.852086
851.369654	2548.547765
851.683792	2542.851261
851.997887	2547.176571
852.311938	2546.964843
852.625947	2548.527601
852.939914	2545.452497
853.253837	2545.651622
853.567718	2546.160779
853.881555	2546.579195
854.195350	2545.550799
854.509103	2546.564071
854.822812	2548.056253
855.136479	2547.509288
855.450103	2546.682538
855.763685	2547.080789
856.077224	2547.398382
856.390720	2547.063145
856.704173	2546.138094
857.017584	2545.334030
857.330953	2547.809236
857.644278	2545.502908
857.957561	2551.522046
858.270802	2549.429967
858.584000	2547.753783
858.897155	2547.370656
859.210268	2546.392672
859.523339	2546.906870
859.836367	2547.017775
860.149352	2549.671942
860.462295	2545.099616
860.775195	2543.168854
861.088054	2542.122815
861.400869	2546.654812
861.713642	2542.425284
862.026373	2546.128011
862.339062	2546.410316
862.651708	2547.610111
862.964312	2545.434853
863.276873	2544.746735
863.589392	2547.899977
863.901869	2545.654143
864.214303	2548.993907
864.526696	2551.600184
864.839045	2546.153217
865.151353	2546.687579
865.463619	2546.914431
865.775842	2546.511139
866.088023	2547.221942
866.400162	2547.335368
866.712258	2547.773948
867.024313	2546.248999
867.336325	2549.122457
867.648296	2548.895605
867.960224	2544.666077
868.272110	2546.420398
868.583954	2545.260933
868.895755	2545.260933
869.207515	2547.620193
869.519233	2549.450132
869.830909	2546.334699
870.142542	2547.688248
870.454134	2546.153217
870.765684	2549.273691
871.077191	2547.826880
871.388657	2551.035575
871.700081	2547.920142
872.011463	2546.067517
872.322803	2545.084492
872.634101	2548.827549
872.945357	2546.322096
873.256571	2546.879143
873.567744	2548.986346
873.878874	2544.063659
874.189963	2545.608773
874.501010	2551.522046
874.812015	2545.500388
875.122979	2544.643392
875.433900	2545.288659
875.744780	2547.027857
876.055618	2545.394523
876.366415	2546.473330
876.677169	2548.187323
876.987882	2545.719678
877.298554	2540.439069
877.609183	2545.460058
877.919771	2541.500232
878.230317	2543.733463
878.540822	2546.274205
878.851285	2547.970553
879.161707	2544.852599
879.472087	2546.377548
879.782425	2546.254040
880.092722	2546.604400
880.402977	2545.371838
880.713191	2547.758825
881.023363	2547.899977
881.333494	2550.057591
881.643583	2545.288659
881.953631	2548.446942
882.263637	2545.346632
882.573602	2548.560368
882.883526	2548.252858
883.193408	2548.101623
883.503248	2542.395037
883.813048	2545.039122
884.122806	2545.359235
884.432522	2546.271684
884.742197	2547.254709
885.051831	2548.562889
885.361424	2547.000131
885.670975	2546.001983
885.980485	2545.051725
886.289954	2546.329657
886.599382	2543.557023
886.908768	2547.055584
887.218113	2542.977290
887.527417	2548.089020
887.836680	2545.429812
888.145901	2544.862682
888.455082	2546.715306
888.764221	2550.246634
889.073319	2547.927703
889.382376	2546.407795
889.691392	2545.432332
890.000366	2546.445604
890.309300	2544.124153
890.618193	2547.358053
890.927044	2545.223124
891.235855	2546.105326
891.544625	2545.321427
891.853353	2544.076262
892.162041	2545.407126
892.470687	2546.062476
892.779293	2544.998793
893.087858	2545.107178
893.396381	2541.139790
893.704864	2545.568443
894.013306	2543.327650
894.321707	2546.523742
894.630068	2547.302600
894.938387	2545.727240
895.246665	2547.721016
895.554903	2547.811757
895.863100	2545.974256
896.171256	2545.480223
896.479371	2546.427960
896.787446	2544.698844
897.095480	2548.172199
897.403473	2547.526932
897.711425	2545.210521
898.019336	2543.972918
898.327207	2546.080120
898.635038	2546.657333
898.942827	2547.337888
899.250576	2544.023330
899.558284	2546.352343
899.865952	2546.939637
900.173579	2544.998793
900.481165	2544.930737
900.788711	2546.160779
901.096216	2548.333516
901.403681	2546.105326
901.711105	2548.545245
902.018489	2547.499205
902.325832	2549.901315
902.633135	2544.824873
902.940397	2545.195398
903.247619	2545.669266
903.554800	2548.373845
903.861941	2545.429812
904.169041	2547.955430
904.476101	2544.535007
904.783121	2544.945861
905.090100	2545.404606
905.397039	2545.520552
905.703938	2545.175233
906.010796	2546.982487
906.317614	2544.832435
906.624391	2548.141952
906.931129	2545.886036
907.237826	2543.897301
907.544483	2545.618855
907.851099	2547.428629
908.157675	2547.194215
908.464211	2548.101623
908.770707	2540.965870
909.077163	2542.349667
909.383578	2539.637526
909.689954	2543.241951
909.996289	2541.293545
910.302584	2546.125491
910.608839	2545.013916
910.915054	2546.576674
911.221229	2545.674308
911.527363	2547.400903
911.833458	2544.976108
912.139513	2542.987373
912.445527	2543.461241
912.751502	2544.008206
913.057436	2546.990049
913.363331	2543.037784
913.669186	2546.778320
913.975000	2545.281097
914.280775	2543.798998
914.586510	2543.962836
914.892205	2548.862837
915.197859	2546.889226
915.503475	2545.182795
915.809050	2547.773948
916.114585	2545.122301
916.420081	2545.276056
916.725536	2546.460727
917.030952	2548.323434
917.336328	2546.344781
917.641665	2547.547096
917.946961	2544.903011
918.252218	2543.879657
918.557435	2545.966694
918.862612	2544.996272
919.167750	2546.400234
919.472848	2544.971067
919.777906	2543.226827
920.082925	2547.864689
920.387904	2546.546427
920.692843	2543.720860
920.997743	2545.656663
921.302603	2546.435522
921.607423	2544.595501
921.912204	2544.900490
922.216946	2546.185985
922.521647	2544.708927
922.826310	2544.439225
923.130932	2546.228834
923.435516	2545.492826
923.740059	2544.784544
924.044564	2544.638350
924.349028	2547.594987
924.653454	2541.379244
924.957840	2542.904193
925.262186	2540.920499
925.566493	2542.800850
925.870761	2542.430325
926.174989	2544.615665
926.479178	2542.732794
926.783328	2545.210521
927.087438	2545.654143
927.391509	2545.812939
927.695541	2545.550799
927.999533	2546.165820
928.303486	2546.647250
928.607400	2546.407795
928.911275	2548.210008
929.215110	2546.329658
929.518906	2543.007537
929.822663	2543.834286
930.126381	2543.869574
930.430060	2545.129863
930.733699	2545.039122
931.037299	2544.411498
931.340861	2541.903524
931.644383	2545.510470
931.947866	2544.189688
932.251309	2546.120450
932.554714	2543.105840
932.858080	2545.893598
933.161407	2546.617003
933.464694	2543.950233
933.767943	2542.742877
934.071153	2545.938968
934.374323	2544.771941
934.677455	2545.492826
934.980548	2543.551982
935.283602	2544.456869
935.586617	2548.159596
935.889593	2542.117773
936.192530	2543.229348
936.495428	2546.342260
936.798287	2546.024668
937.101108	2545.117260
937.403890	2544.698844
937.706632	2546.228834
938.009336	2546.110367
938.312002	2545.139945
938.614628	2543.690613
938.917216	2543.980480
939.219765	2545.303783
939.522275	2546.685059
939.824747	2545.281098
940.127179	2543.244471
940.429573	2541.719522
940.731929	2543.486447
941.034246	2540.630633
941.336524	2543.854451
941.638763	2547.564740
941.940964	2544.076262
942.243126	2543.917465
942.545250	2546.254040
942.847335	2545.734801
943.149381	2543.032743
943.451389	2545.112219
943.753359	2543.678011
944.055290	2545.379400
944.357182	2543.783875
944.659036	2544.562733
944.960851	2545.754966
945.262628	2546.601880
945.564367	2542.765562
945.866067	2543.995603
946.167729	2546.584236
946.469352	2547.970553
946.770937	2545.407126
947.072484	2541.028884
947.373992	2541.175078
947.675462	2543.370500
947.976893	2544.197249
948.278286	2542.954605
948.579641	2544.403937
948.880958	2542.372352
949.182236	2544.411498
949.483476	2541.870757
949.784678	2545.432332
950.085841	2545.165151
950.386967	2546.332178
950.688054	2543.829245
950.989103	2545.215562
951.290114	2543.249513
951.591087	2544.635830
951.892021	2544.230017
952.192917	2542.407640
952.493776	2545.838145
952.794596	2545.996941
953.095378	2543.420912
953.396122	2547.491643
953.696828	2541.795140
953.997496	2546.619524
954.298126	2544.093906
954.598718	2545.230686
954.899272	2544.875285
955.199788	2545.127342
955.500266	2544.759338
955.800706	2542.868905
956.101108	2540.638195
956.401472	2543.670449
956.701798	2539.952598
957.002087	2540.257588
957.302337	2542.768082
957.602550	2542.606765
957.902724	2540.492001
958.202861	2544.517363
958.502960	2544.585418
958.803022	2544.623227
959.103045	2543.693134
959.403031	2544.524924
959.702979	2543.856972
960.002889	2542.853782
960.302762	2540.728936
960.602596	2545.669266
960.902393	2544.295552
961.202153	2541.868236
961.501875	2544.285470
961.801559	2544.446787
962.101205	2544.217414
962.400814	2546.135573
962.700385	2542.604245
962.999918	2542.339584
963.299414	2543.572146
963.598873	2543.899821
963.898293	2543.166333
964.197677	2541.384286
964.497022	2544.771941
964.796331	2544.466951
965.095601	2542.745397
965.394835	2545.568443
965.694030	2543.516694
965.993189	2543.614996
966.292309	2542.823535
966.591393	2545.558361
966.890439	2545.903680
967.189447	2544.217414
967.488419	2539.864378
967.787353	2542.546272
968.086249	2543.456200
968.385108	2545.691952
968.683930	2544.340922
968.982714	2545.797816
969.281462	2543.002496
969.580172	2544.474513
969.878844	2544.116591
970.177480	2542.637012
970.476078	2542.420243
970.774639	2544.648433
971.073162	2546.286808
971.371649	2541.472506
971.670098	2537.762217
971.968510	2540.817156
972.266885	2539.347659
972.565223	2542.160623
972.863524	2543.068031
973.161788	2540.887732
973.460014	2546.503577
973.758204	2544.298073
974.056356	2543.410829
974.354471	2542.878988
974.652550	2542.551313
974.950591	2544.482075
975.248595	2544.950902
975.546563	2544.928217
975.844493	2542.846220
976.142386	2542.321940
976.440243	2543.279759
976.738062	2546.228834
977.035845	2542.846220
977.333590	2543.430994
977.631299	2543.766231
977.928971	2545.631458
978.226606	2542.349667
978.524204	2544.880326
978.821765	2544.524924
979.119290	2543.748587
979.416777	2545.951571
979.714228	2543.345294
980.011642	2545.770089
980.309020	2544.159441
980.606360	2547.559699
980.903664	2542.253885
981.200931	2543.173895
981.498162	2543.209183
981.795356	2543.630120
982.092513	2541.570808
982.389633	2542.407640
982.686717	2543.657846
982.983764	2539.566950
983.280775	2541.936292
983.577749	2544.184647
983.874686	2544.754297
984.171587	2542.563916
984.468451	2544.015768
984.765279	2541.958977
985.062070	2542.551313
985.358824	2544.010727
985.655543	2544.590459
985.952224	2542.412681
986.248869	2545.747404
986.545478	2540.146682
986.842050	2540.023174
987.138586	2540.423946
987.435086	2543.410829
987.731549	2539.952598
988.027975	2543.413350
988.324366	2545.006355
988.620719	2544.875285
988.917037	2545.752445
989.213318	2545.311344
989.509563	2543.168854
989.805772	2544.328319
990.101944	2543.869574
990.398080	2542.198432
990.694180	2542.674821
990.990244	2543.758669
991.286271	2542.453010
991.582262	2543.491488
991.878217	2542.878988
992.174136	2543.781354
992.470019	2544.872764
992.765865	2546.117929
993.061676	2543.214224
993.357450	2542.823535
993.653188	2543.594832
993.948890	2543.965356
994.244556	2543.665408
994.540186	2542.934440
994.835780	2542.039636
995.131337	2543.783875
995.426859	2543.211704
995.722345	2543.788916
996.017795	2544.126673
996.313208	2544.046015
996.608586	2541.543082
996.903928	2542.453010
997.199234	2545.535676
997.494504	2542.087527
997.789738	2543.173895
998.084936	2544.204811
998.380099	2540.255067
998.675225	2541.500232
998.970316	2545.646581
999.265371	2543.667928
999.560390	2542.478216
999.855373	2543.970397
1000.150320	2542.548792
1000.445232	2545.021478
1000.740108	2540.887732
1001.034948	2545.722198
1001.329752	2542.405119
1001.624521	2541.585932
1001.919254	2539.466127
1002.213951	2541.396888
1002.508613	2538.523431
1002.803239	2542.175747
1003.097829	2538.031918
1003.392384	2541.996786
1003.686903	2542.926879
1003.981386	2544.784544
1004.275834	2540.625592
1004.570246	2544.063659
1004.864623	2543.022661
1005.158964	2543.020140
1005.453270	2543.715819
1005.747540	2543.433515
1006.041775	2543.937630
1006.335974	2542.362269
1006.630138	2541.704399
1006.924266	2543.788916
1007.218359	2545.583567
1007.512416	2544.020809
1007.806438	2541.936292
1008.100425	2543.057949
1008.394376	2546.422919
1008.688292	2541.875798
1008.982172	2539.947557
1009.276017	2544.998793
1009.569827	2541.817825
1009.863602	2542.682383
1010.157341	2543.292362
1010.451045	2542.715150
1010.744714	2542.148020
1011.038347	2543.521735
1011.331945	2541.888401
1011.625508	2545.051725
1011.919036	2540.938143
1012.212528	2543.163813
1012.505986	2541.280942
1012.799408	2542.795809
1013.092795	2545.177754
1013.386147	2541.913607
1013.679464	2544.693803
1013.972745	2543.395706
1014.265992	2542.841179
1014.559204	2546.508618
1014.852380	2543.960315
1015.145521	2544.456869
1015.438628	2541.785057
1015.731699	2543.168854
1016.024736	2543.289842
1016.317737	2542.573998
1016.610703	2545.064328
1016.903635	2542.183308
1017.196531	2540.449152
1017.489393	2538.939326
1017.782219	2535.770961
1018.075011	2542.137938
1018.367768	2541.469985
1018.660490	2541.805222
1018.953177	2541.805222
1019.245829	2541.805222
