Dividing Wavelength (nm)	Counts (n)	Blue Motor Position (mm): 34.100000	Red Motor Position (mm): 0.000000	
326.493990	2131.782974
326.888308	2131.782974
327.282561	2131.782974
327.676750	2099.048241
328.070874	2099.759044
328.464933	2100.658890
328.858929	2106.191556
329.252859	2117.130860
329.646726	2128.458333
330.040528	2141.411578
330.434265	2157.956645
330.827938	2173.160765
331.221547	2193.166584
331.615091	2211.039995
332.008571	2230.087994
332.401986	2250.736561
332.795338	2270.475198
333.188625	2288.890533
333.581847	2308.593883
333.975006	2327.626760
334.368100	2345.318689
334.761129	2361.926770
335.154095	2378.552496
335.546996	2401.320867
335.939833	2424.535381
336.332606	2441.009871
336.725315	2452.596963
337.117960	2461.411421
337.510540	2466.747482
337.903056	2482.632158
338.295508	2487.247334
338.687896	2497.369971
339.080220	2507.124604
339.472480	2510.628206
339.864676	2516.763290
340.256807	2520.299660
340.648875	2526.114631
341.040879	2525.340813
341.432818	2528.778880
341.824694	2528.070598
342.216506	2529.973634
342.608253	2527.533715
342.999937	2530.233253
343.391557	2529.144364
343.783113	2529.167049
344.174605	2526.621267
344.566033	2524.128416
344.957397	2524.279651
345.348697	2523.689836
345.739934	2523.203364
346.131106	2519.954341
346.522215	2518.167252
346.913260	2515.409740
347.304241	2517.317817
347.695159	2511.218021
348.086012	2511.291118
348.476802	2509.375479
348.867528	2507.054028
349.258191	2505.821466
349.648789	2503.842813
350.039324	2503.779798
350.429796	2504.203255
350.820203	2500.059427
351.210548	2501.102946
351.600828	2501.833913
351.991045	2501.433141
352.381198	2496.732265
352.771288	2500.112359
353.161314	2494.695639
353.551276	2495.756802
353.941175	2497.475836
354.331010	2498.685713
354.720782	2497.100270
355.110490	2497.768223
355.500135	2498.153871
355.889717	2498.375682
356.279235	2498.816783
356.668689	2497.559015
357.058080	2496.039107
357.447408	2497.004488
357.836672	2494.564569
358.225873	2498.141268
358.615010	2491.940649
359.004084	2496.616319
359.393095	2500.782832
359.782043	2500.079592
360.170927	2499.711587
360.559748	2499.895589
360.948505	2502.297699
361.337199	2502.033039
361.725830	2503.096722
362.114398	2506.060921
362.502903	2504.999758
362.891344	2506.247443
363.279722	2503.812566
363.668037	2505.947495
364.056289	2504.790550
364.444478	2503.220230
364.832603	2507.258195
365.220665	2505.685355
365.608665	2508.294152
365.996601	2509.680469
366.384474	2507.721981
366.772284	2509.718278
367.160031	2509.811539
367.547715	2511.472599
367.935336	2509.188957
368.322893	2507.895901
368.710388	2511.709533
369.097820	2514.542662
369.485189	2510.555109
369.872495	2513.778927
370.259738	2511.230624
370.646918	2510.950840
371.034035	2510.426560
371.421090	2511.336488
371.808081	2511.845645
372.195010	2512.737929
372.581875	2514.129287
372.968678	2512.503515
373.355418	2512.556447
373.742096	2515.089627
374.128710	2515.840759
374.515262	2514.938392
374.901751	2515.999555
375.288177	2513.768845
375.674540	2513.529390
376.060841	2517.032992
376.447079	2514.754390
376.833254	2515.268588
377.219367	2510.933196
377.605417	2513.746160
377.991404	2513.763804
378.377329	2516.047446
378.763191	2510.963443
379.148991	2515.649195
379.534727	2516.659947
379.920402	2514.971160
380.306013	2516.722961
380.691563	2520.166069
381.077049	2516.992663
381.462474	2519.193126
381.847835	2519.583816
382.233134	2521.491893
382.618371	2516.322189
383.003545	2520.161028
383.388657	2517.852179
383.773706	2520.098013
384.158693	2520.544156
384.543618	2522.154804
384.928480	2522.595905
385.313280	2521.897705
385.698017	2518.474762
386.082692	2524.892151
386.467305	2522.479959
386.851856	2523.896523
387.236344	2523.873838
387.620770	2522.527850
388.005133	2522.888292
388.389435	2526.318797
388.773674	2520.546676
389.157851	2523.659589
389.541965	2523.616739
389.926018	2526.308715
390.310008	2525.761750
390.693936	2525.202182
391.077802	2525.303005
391.461606	2527.531195
391.845348	2527.891637
392.229027	2527.105217
392.612645	2525.330731
392.996200	2530.671834
393.379694	2528.272244
393.763125	2527.541277
394.146494	2527.846267
394.529801	2530.475229
394.913047	2530.596216
395.296230	2530.329035
395.679351	2531.032276
396.062410	2532.647966
396.445408	2530.896165
396.828343	2532.801721
397.211217	2528.128572
397.594028	2531.390198
397.976778	2528.688140
398.359466	2533.431865
398.742092	2530.371885
399.124656	2533.434386
399.507158	2536.040662
399.889598	2536.380940
400.271977	2536.902700
400.654294	2535.087884
401.036549	2537.351363
401.418742	2535.672658
401.800874	2536.519572
402.182944	2535.324819
402.564952	2537.492515
402.946898	2539.481250
403.328783	2539.168698
403.710606	2538.490663
404.092367	2540.229861
404.474067	2542.828576
404.855705	2543.562064
405.237282	2543.942671
405.618797	2545.780172
406.000250	2543.998124
406.381642	2548.469627
406.762972	2553.742674
407.144240	2555.930535
407.525447	2560.328942
407.906593	2563.414128
408.287677	2572.203380
408.668700	2577.587332
409.049661	2583.334247
409.430560	2590.268354
409.811399	2599.970055
410.192176	2613.757611
410.572891	2622.443519
410.953545	2633.650004
411.334138	2646.406644
411.714669	2660.748726
412.095139	2669.195180
412.475547	2691.303160
412.855894	2705.194059
413.236180	2722.152501
413.616405	2737.943915
413.996568	2760.296391
414.376670	2776.170985
414.756711	2791.856535
415.136691	2816.787561
415.516609	2848.796368
415.896466	2878.360214
416.276262	2907.810635
416.655997	2926.989705
417.035670	2984.274857
417.415283	3032.685057
417.794834	3051.070145
418.174324	3073.778023
418.553753	3088.059612
418.933121	3159.686846
419.312428	3213.715412
419.691674	3238.328846
420.070859	3307.473312
420.449983	3320.597956
420.829045	3397.097466
421.208047	3407.207500
421.586988	3473.541523
421.965867	3524.139584
422.344686	3620.765900
422.723444	3610.890280
423.102141	3578.042121
423.480777	3741.433479
423.859352	3699.927139
424.237866	3859.338506
424.616319	3898.425092
424.994712	3998.829753
425.373044	3988.258454
425.751314	4113.092547
426.129524	4061.135894
426.507673	4211.558884
426.885762	4305.757885
427.263789	4323.454855
427.641756	4294.281698
428.019662	4419.405657
428.397508	4471.226198
428.775292	4489.167665
429.153016	4599.389973
429.530679	4597.290332
429.908282	4704.117423
430.285824	4652.858971
430.663305	4889.707502
431.040726	4745.452364
431.418086	4784.380154
431.795385	4901.218977
432.172624	4953.336946
432.549802	4988.398171
432.926920	5032.992218
433.303977	5076.802366
433.680974	5137.860821
434.057910	5187.816135
434.434786	5229.524121
434.811601	5233.783896
435.188355	5463.700841
435.565050	5386.848451
435.941683	5399.219442
436.318257	5616.097442
436.694770	5627.288804
437.071222	5687.273493
437.447614	5651.451054
437.823946	5595.358135
438.200218	5758.898207
438.576429	5655.012629
438.952580	5766.001193
439.328670	5826.674000
439.704700	5759.374596
440.080670	5760.735708
440.456580	6038.185692
440.832429	5936.409837
441.208218	5801.710206
441.583947	5957.612930
441.959616	5978.100179
442.335224	5917.467702
442.710773	6059.406429
443.086261	6093.958498
443.461689	5900.234517
443.837057	6058.740997
444.212365	6214.134564
444.587612	6115.380881
444.962800	6268.289159
445.337927	6256.462612
445.712995	5873.897009
446.088002	6452.596265
446.462949	6288.713394
446.837837	6218.033897
447.212664	6395.989148
447.587431	6535.061980
447.962139	7075.788744
448.336786	7999.098756
448.711374	7739.975887
449.085901	6825.923954
449.460369	6747.730617
449.834776	6681.978847
450.209124	7077.704383
450.583412	7231.053762
450.957640	7374.182202
451.331808	7141.089331
451.705917	6696.520055
452.079965	6621.666482
452.453954	6836.475089
452.827883	6705.788217
453.201752	6804.224307
453.575562	6603.268791
453.949311	6807.501057
454.323001	6696.323450
454.696632	6770.977898
455.070202	6905.979998
455.443713	7062.142341
455.817164	7165.549009
456.190556	7246.081442
456.563888	7321.774367
456.937160	7368.405040
457.310373	7023.920312
457.683526	7048.397635
458.056619	6937.368742
458.429653	6930.074192
458.802628	6864.486260
459.175542	6970.133721
459.548398	7324.899882
459.921194	7483.844942
460.293930	7486.483986
460.666607	8014.242382
461.039224	8325.437851
461.411782	8445.563506
461.784280	8472.316909
462.156719	8358.114610
462.529099	8237.850323
462.901419	7827.656676
463.273680	7723.975265
463.645882	7738.461020
464.018024	7599.090760
464.390106	7768.261801
464.762130	8158.631111
465.134094	8624.905074
465.505999	9638.154312
465.877845	10858.504232
466.249631	11505.891730
466.621358	11119.015940
466.993026	10495.823460
467.364634	10243.995140
467.736184	9876.641218
468.107674	9541.817862
468.479105	9579.790353
468.850477	9345.739663
469.221790	9116.430177
469.593043	8785.274260
469.964238	8650.705700
470.335373	8664.926795
470.706449	8725.463491
471.077467	8708.278197
471.448425	10013.755562
471.819324	11077.277706
472.190164	11098.271592
472.560945	9849.915541
472.931667	9067.478053
473.302330	8930.983771
473.672934	8580.106861
474.043479	8939.591541
474.413965	8876.158703
474.784393	8755.947348
475.154761	8919.106813
475.525070	9008.783898
475.895321	8829.361671
476.265513	9006.210389
476.635645	9177.322274
477.005719	9173.712808
477.375734	9289.581209
477.745691	9526.147435
478.115588	9660.736161
478.485427	9907.054499
478.855207	10438.346744
479.224928	11249.407904
479.594591	11876.618184
479.964194	11690.299658
480.333739	11628.084258
480.703226	11543.755836
481.072653	11633.115329
481.442022	11874.468132
481.811333	12056.637787
482.180584	11862.089578
482.549777	11576.356978
482.918912	11403.049671
483.287988	11422.843761
483.657005	11433.369691
484.025964	11113.758016
484.394864	11248.142575
484.763706	11220.779192
485.132489	10972.116717
485.501213	10933.267064
485.869879	11016.259580
486.238487	10855.008192
486.607036	10965.969029
486.975527	10739.621222
487.343959	10937.239494
487.712333	10985.319498
488.080648	10914.922306
488.448905	10963.365273
488.817104	10902.947045
489.185244	11167.413537
489.553326	11327.051756
489.921350	11863.503622
490.289315	12913.999425
490.657222	13257.430551
491.025070	13167.914783
491.392861	13035.904607
491.760593	12660.348728
492.128267	12309.726396
492.495883	11978.492341
492.863440	11641.576906
493.230939	11317.990282
493.598380	11249.188614
493.965763	11121.652463
494.333088	11015.452996
494.700354	10935.200347
495.067563	10999.278453
495.434713	10829.114305
495.801805	10955.554006
496.168839	10874.701460
496.535815	10814.225258
496.902733	10816.738273
497.269593	10753.476833
497.636395	10849.281441
498.003139	10837.527991
498.369825	10704.756602
498.736453	10867.376663
499.103023	10789.543768
499.469535	10827.591877
499.835989	10816.055196
500.202385	10765.613411
500.568723	10620.516400
500.935003	10843.910092
501.301226	10647.410956
501.667390	10908.704042
502.033497	11008.110555
502.399546	10867.222908
502.765537	10775.305029
503.131470	10848.658859
503.497345	11021.129335
503.863163	10636.403597
504.228923	10942.086563
504.594625	10998.091262
504.960269	10752.904662
505.325856	10977.293982
505.691385	10767.103072
506.056856	10931.182547
506.422270	10948.652666
506.787625	10835.962713
507.152924	10949.076123
507.518164	10930.267578
507.883347	10851.746566
508.248472	10772.885275
508.613540	11011.725062
508.978550	10884.786288
509.343503	10872.057374
509.708398	10981.246246
510.073236	11093.759759
510.438016	11106.193765
510.802738	11050.279807
511.167403	11106.579413
511.532010	11005.726089
511.896561	11230.861499
512.261053	11302.871862
512.625488	11173.168014
512.989866	11158.079841
513.354186	11139.709876
513.718449	11043.239836
514.082655	11232.615821
514.446803	11137.796758
514.810894	11260.261509
515.174927	11123.323606
515.538904	11149.766978
515.902822	11296.731736
516.266684	11178.887203
516.630488	11122.779161
516.994235	11181.047338
517.357925	11243.812224
517.721558	11325.965387
518.085133	11341.161946
518.448651	11360.426715
518.812112	11243.673592
519.175516	11251.754562
519.538863	11378.093439
519.902152	11285.936105
520.265385	11448.309150
520.628560	11360.603155
520.991678	11340.289826
521.354739	11408.237018
521.717743	11338.943838
522.080690	11319.767289
522.443580	11452.873915
522.806413	11411.654920
523.169189	11438.488982
523.531908	11501.168169
523.894569	11310.728500
524.257174	11326.061169
524.619722	11444.440064
524.982213	11385.183822
525.344647	11436.099475
525.707025	11382.963193
526.069345	11475.906947
526.431608	11401.126471
526.793815	11504.094558
527.155964	11294.566561
527.518057	11356.245078
527.880093	11302.970164
528.242072	11370.635052
528.603995	11282.981989
528.965860	11199.074504
529.327669	11241.122768
529.689421	11193.859430
530.051117	11165.969247
530.412755	11269.219639
530.774337	11159.014975
531.135862	11137.358178
531.497331	11159.975315
531.858743	11016.108346
532.220098	11182.700836
532.581396	11051.010774
532.942638	11032.325737
533.303824	10996.788123
533.664953	11017.209838
534.026025	10930.958216
534.387040	11024.239727
534.747999	11028.565037
535.108902	11088.930333
535.469748	10840.245173
535.830537	10947.518406
536.191270	10932.778073
536.551947	10953.555188
536.912567	10947.901534
537.273131	10873.239525
537.633638	10851.295382
537.994089	10835.506488
538.354483	10798.169182
538.714821	10940.634711
539.075103	10947.004209
539.435328	10911.091029
539.795497	10734.310366
540.155609	10894.107381
540.515665	10978.327418
540.875665	10716.066430
541.235609	10788.074272
541.595496	10779.731162
541.955328	10938.371233
542.315102	10823.087606
542.674821	10769.535429
543.034483	10769.404359
543.394090	10778.614547
543.753640	10701.013545
544.113134	10931.023751
544.472571	10783.229723
544.831953	10922.047977
545.191278	10728.782741
545.550548	10755.614282
545.909761	10894.666949
546.268918	10870.368588
546.628019	10948.251894
546.987064	10814.971348
547.346053	10738.091232
547.704986	10839.247025
548.063863	10824.955353
548.422684	10817.859929
548.781449	10734.779193
549.140158	10835.191416
549.498811	10709.034021
549.857408	10571.380274
550.215949	10797.912084
550.574434	10652.439507
550.932864	10750.283262
551.291237	10807.482714
551.649555	10761.076372
552.007817	10761.562844
552.366022	10730.128729
552.724173	10720.699251
553.082267	10711.957890
553.440305	10841.596202
553.798288	10647.554629
554.156215	10797.062649
554.514086	10774.337128
554.871902	10627.442946
555.229661	10661.059880
555.587365	10644.043465
555.945014	10532.414675
556.302606	10658.267081
556.660143	10557.678418
557.017625	10706.359689
557.375050	10607.749678
557.732421	10740.475697
558.089735	10654.675259
558.446994	10657.339509
558.804197	10691.967194
559.161345	10695.647237
559.518437	10539.212671
559.875474	10629.345981
560.232455	10651.935392
560.589381	10606.791859
560.946251	10608.856212
561.303065	10711.955369
561.659825	10646.243929
562.016528	10575.705584
562.373177	10451.501635
562.729770	10576.807076
563.086307	10487.296348
563.442789	10578.417725
563.799216	10462.135949
564.155587	10505.522640
564.511904	10461.518408
564.868164	10452.398961
565.224370	10468.898657
565.580520	10390.488550
565.936615	10395.325537
566.292654	10272.197875
566.648638	10394.518953
567.004567	10365.542401
567.360441	10339.797228
567.716260	10245.983875
568.072023	10338.388225
568.427732	10298.706783
568.783385	10209.024656
569.138982	10278.428742
569.494525	10296.949941
569.850013	10172.090642
570.205445	10251.637529
570.560823	10146.264811
570.916145	10063.975536
571.271412	10136.490014
571.626625	10080.195449
571.981782	10051.397858
572.336884	10029.335248
572.691931	10030.487151
573.046923	9976.680396
573.401860	9941.719994
573.756743	9877.997289
574.111570	9909.426362
574.466342	9900.652234
574.821059	9929.495196
575.175722	9828.281429
575.530330	9831.250669
575.884882	9818.557044
576.239380	9744.933512
576.593823	9728.612777
576.948211	9746.052648
577.302544	9620.343916
577.656823	9641.657914
578.011047	9649.587649
578.365216	9615.511970
578.719330	9537.033807
579.073389	9544.424139
579.427394	9496.132405
579.781344	9474.440320
580.135239	9423.358308
580.489080	9429.107744
580.842866	9334.898661
581.196597	9339.186163
581.550273	9380.901711
581.903895	9348.098923
582.257463	9414.926979
582.610975	9291.428792
582.964434	9318.338471
583.317837	9239.583045
583.671186	9219.355415
584.024481	9217.883398
584.377721	9132.312332
584.730906	9119.364129
585.084037	9145.820104
585.437113	9082.541020
585.790135	9098.468546
586.143103	9002.767281
586.496016	8972.210327
586.848874	9030.869193
587.201679	9019.813943
587.554428	8900.885562
587.907124	8949.522614
588.259765	8921.710569
588.612352	8922.577647
588.964884	8800.937125
589.317362	8815.448087
589.669786	8819.682656
590.022155	8866.595634
590.374470	8881.925782
590.726731	8814.606214
591.078937	8671.689503
591.431090	8785.566647
591.783188	8659.079056
592.135232	8650.690576
592.487222	8645.160430
592.839157	8695.697998
593.191038	8633.328842
593.542866	8576.323475
593.894639	8479.850913
594.246358	8534.769243
594.598022	8548.483702
594.949633	8441.686858
595.301190	8418.099299
595.652692	8448.094165
596.004141	8553.822284
596.355535	8334.005292
596.706876	8323.370978
597.058162	8255.338086
597.409395	8329.584200
597.760573	8391.532419
598.111698	8299.090260
598.462768	8284.107951
598.813785	8251.421109
599.164748	8217.899957
599.515657	8209.450983
599.866511	8117.848176
600.217312	8253.745081
600.568060	8104.451310
600.918753	8205.284469
601.269392	8176.116353
601.619978	8088.294412
601.970510	8158.028693
602.320988	8147.389338
602.671412	8205.342443
603.021783	8145.640057
603.372100	8115.098227
603.722363	8118.380018
604.072572	8097.048376
604.422728	8104.894932
604.772830	8035.208541
605.122878	8040.186681
605.472872	8032.004888
605.822813	8062.292140
606.172701	8011.709203
606.522534	8081.929955
606.872314	8087.591171
607.222041	8055.786531
607.571714	8111.128318
607.921333	8067.255156
608.270899	8076.964419
608.620411	8166.938932
608.969870	8065.347080
609.319276	8060.769712
609.668627	8074.930313
610.017926	8111.697969
610.367171	8158.288313
610.716362	8135.930795
611.065500	8128.485011
611.414585	8154.835122
611.763616	8141.801219
612.112594	8125.513251
612.461518	8138.395919
612.810389	8200.976803
613.159207	8136.467678
613.507971	8087.344154
613.856682	8205.324798
614.205340	8160.506420
614.553945	8240.217145
614.902496	8140.659398
615.250994	8188.431892
615.599439	8176.388575
615.947830	8195.121503
616.296169	8163.367275
616.644454	8170.845827
616.992686	8170.175353
617.340864	8230.835558
617.688990	8132.865774
618.037063	8226.273313
618.385082	8175.645005
618.733048	8263.005681
619.080961	8195.716359
619.428821	8214.149338
619.776628	8220.823826
620.124382	8168.670569
620.472083	8150.908063
620.819731	8179.660284
621.167326	8073.543996
621.514868	8083.225532
621.862357	7969.033315
622.209793	7986.190882
622.557176	7924.746778
622.904506	7890.053557
623.251783	7825.975451
623.599007	7783.014738
623.946179	7784.786703
624.293297	7740.966474
624.640363	7660.066037
624.987376	7645.199674
625.334336	7587.032320
625.681243	7541.419960
626.028097	7532.124073
626.374899	7507.893767
626.721647	7499.071748
627.068343	7424.480315
627.414987	7403.899804
627.761577	7358.174018
628.108115	7395.534009
628.454600	7285.135261
628.801032	7340.923190
629.147412	7302.479350
629.493739	7283.905219
629.840014	7221.528502
630.186236	7280.172245
630.532405	7162.667990
630.878521	7214.458284
631.224585	7173.143507
631.570597	7096.394461
631.916556	7131.256560
632.262462	7127.737835
632.608316	7089.341886
632.954117	7063.722742
633.299866	7049.168931
633.645562	7038.209463
633.991206	6962.304809
634.336797	6912.397386
634.682336	6863.788060
635.027823	6832.517783
635.373257	6825.185425
635.718639	6757.389467
636.063968	6768.001096
636.409245	6666.058883
636.754470	6660.871536
637.099642	6618.793025
637.444762	6564.590538
637.789829	6573.457928
638.134845	6516.697056
638.479808	6499.526886
638.824719	6501.308934
639.169577	6434.178409
639.514383	6455.336132
639.859137	6387.963631
640.203839	6394.633078
640.548489	6376.391662
640.893086	6357.089084
641.237632	6323.421738
641.582125	6348.335121
641.926566	6311.166693
642.270955	6329.529096
642.615292	6325.213869
642.959576	6343.838412
643.303809	6331.517832
643.647990	6334.960940
643.992118	6327.784857
644.336195	6271.034068
644.680219	6296.809487
645.024192	6286.122241
645.368112	6383.144288
645.711981	6402.797226
646.055797	6482.392004
646.399562	6441.384738
646.743274	6561.505352
647.086935	6615.632221
647.430544	6612.158866
647.774101	6634.246682
648.117606	6639.668443
648.461059	6631.398430
648.804460	6593.481391
649.147810	6501.729871
649.491108	6472.395396
649.834354	6449.039731
650.177548	6366.984869
650.520690	6281.897754
650.863781	6256.271049
651.206820	6277.282578
651.549807	6201.261978
651.892742	6140.805940
652.235626	6146.986395
652.578458	6135.061546
652.921238	6040.199633
653.263967	6079.598771
653.606644	6017.920254
653.949269	6018.900758
654.291843	5964.388241
654.634365	6011.457494
654.976836	5969.290763
655.319255	5963.995031
655.661622	5942.436537
656.003938	5938.854797
656.346203	5899.609414
656.688416	5934.872285
657.030577	5882.935798
657.372687	5854.662486
657.714746	5841.275702
658.056753	5887.848402
658.398708	5823.732487
658.740612	5819.240819
659.082465	5862.572057
659.424266	5855.630388
659.766016	5854.460840
660.107715	5832.181461
660.449362	5849.129820
660.790958	5840.769066
661.132503	5825.617878
661.473996	5864.071800
661.815438	5849.558318
662.156829	5848.413976
662.498168	5845.182597
662.839456	5816.407690
663.180693	5849.797773
663.521879	5854.551581
663.863013	5840.927863
664.204097	5864.215473
664.545129	5897.729064
664.886110	5896.894753
665.227040	5934.040495
665.567918	5894.391820
665.908746	5924.759731
666.249522	5927.025729
666.590248	5918.042393
666.930922	5942.827226
667.271545	5950.696467
667.612118	5957.320543
667.952639	5937.266833
668.293109	5955.503207
668.633528	5909.971506
668.973896	5917.482825
669.314213	5904.690897
669.654480	5887.306478
669.994695	5881.075612
670.334859	5869.944744
670.674973	5859.481829
671.015035	5863.852510
671.355047	5863.749166
671.695008	5850.783318
672.034918	5826.928578
672.374777	5832.584753
672.714585	5821.620243
673.054342	5828.451007
673.394049	5815.175128
673.733705	5845.578327
674.073310	5838.077090
674.412864	5791.509432
674.752368	5783.894769
675.091820	5787.000119
675.431223	5724.522579
675.770574	5728.452159
676.109875	5675.026010
676.449125	5682.975910
676.788324	5655.355428
677.127473	5595.287559
677.466571	5584.585190
677.805619	5581.225261
678.144616	5559.684410
678.483562	5537.160535
678.822458	5510.036607
679.161303	5502.018651
679.500098	5499.649309
679.838842	5473.805834
680.177535	5484.543492
680.516179	5496.622096
680.854771	5510.543242
681.193314	5587.375468
681.531805	5700.236821
681.870247	5847.040262
682.208638	5952.418021
682.546978	5963.145597
682.885268	5944.095076
683.223508	5856.757086
683.561697	5805.453263
683.899836	5773.666267
684.237925	5725.616510
684.575963	5690.361200
684.913951	5648.943080
685.251889	5713.129572
685.589776	5678.988357
685.927614	5651.014994
686.265401	5726.511314
686.603137	5706.646648
686.940824	5783.040293
687.278460	5808.457791
687.616046	5817.105890
687.953582	5884.541405
688.291068	5866.514239
688.628504	5926.655204
688.965889	5890.817642
689.303224	5832.862017
689.640510	5787.710922
689.977745	5713.459767
690.314930	5613.508810
690.652065	5559.979318
690.989150	5464.716633
691.326185	5394.495881
691.663170	5343.723900
692.000105	5260.209625
692.336990	5178.167367
692.673825	5157.896887
693.010610	5090.416002
693.347345	5020.061658
693.684030	5007.960369
694.020665	4963.441939
694.357251	4873.331314
694.693786	4886.634919
695.030272	4853.091081
695.366707	4815.564732
695.703093	4783.921409
696.039429	4804.436385
696.375716	4784.332263
696.711952	4768.061939
697.048139	4748.333384
697.384276	4726.590887
697.720363	4742.538577
698.056400	4749.767592
698.392388	4700.747412
698.728326	4678.664638
699.064214	4659.664529
699.400053	4654.202439
699.735842	4618.546357
700.071581	4594.810085
700.407270	4570.635231
700.742910	4553.976738
701.078501	4498.017410
701.414042	4495.643027
701.749533	4464.443326
702.084974	4401.713728
702.420366	4459.450063
702.755709	4399.631731
703.091002	4344.360520
703.426246	4389.793919
703.761440	4352.111294
704.096584	4310.100839
704.431679	4335.367102
704.766725	4313.327177
705.101721	4306.163698
705.436668	4331.215712
705.771565	4279.937095
706.106413	4303.665806
706.441212	4342.407073
706.775961	4351.468547
707.110661	4332.314683
707.445311	4358.687480
707.779913	4377.375037
708.114465	4396.302049
708.448967	4415.776026
708.783421	4475.243998
709.117825	4517.415770
709.452180	4523.787789
709.786485	4569.531219
710.120742	4656.728057
710.454949	4636.036641
710.789107	4707.043813
711.123216	4778.376140
711.457275	4768.926497
711.791286	4846.008260
712.125247	4862.482751
712.459159	4765.100262
712.793023	4836.818237
713.126837	4796.277277
713.460602	4791.266371
713.794318	4708.568762
714.127985	4721.552254
714.461602	4637.584275
714.795171	4605.509934
715.128691	4540.960479
715.462162	4481.121983
715.795584	4438.083132
716.128957	4415.264349
716.462281	4365.982029
716.795556	4337.731403
717.128782	4303.287719
717.461960	4231.211822
717.795088	4239.486876
718.128167	4200.465825
718.461198	4139.467863
718.794180	4135.061895
719.127113	4116.389461
719.459997	4095.347685
719.792833	4052.361766
720.125619	4040.978841
720.458357	4004.425434
720.791046	4011.636805
721.123686	3984.722084
721.456278	3943.770271
721.788821	3960.534628
722.121315	3937.304991
722.453761	3907.985641
722.786158	3922.194133
723.118506	3942.651135
723.450805	3896.479207
723.783056	3918.337650
724.115259	3934.562604
724.447412	3940.450671
724.779518	3933.456070
725.111574	3938.393881
725.443582	3968.469404
725.775542	3953.156900
726.107453	4003.475177
726.439315	4003.114734
726.771129	4015.642002
727.102895	4050.370510
727.434612	4102.803552
727.766281	4114.962815
728.097901	4115.393833
728.429473	4117.788381
728.760996	4128.115185
729.092471	4120.432467
729.423897	4105.117441
729.755276	4111.370993
730.086606	4109.848564
730.417887	4146.694358
730.749120	4211.135427
731.080305	4279.143113
731.411442	4303.585147
731.742530	4272.229171
732.073570	4276.375520
732.404562	4329.156400
732.735506	4325.143642
733.066401	4282.631592
733.397249	4224.965833
733.728048	4143.941888
734.058798	4062.489444
734.389501	3991.179802
734.720156	3929.095472
735.050762	3885.529821
735.381320	3877.400960
735.711831	3825.814833
736.042293	3797.329793
736.372707	3816.811332
736.703073	3791.852579
737.033391	3783.998462
737.363661	3797.866676
737.693883	3826.157631
738.024056	3832.890092
738.354182	3831.259279
738.684260	3890.525604
739.014290	3913.684665
739.344272	3908.880445
739.674207	3950.538020
740.004093	3955.458186
740.333931	3950.933751
740.663722	3950.333853
740.993464	3949.035756
741.323159	3924.790327
741.652806	3896.698497
741.982405	3870.852501
742.311956	3836.353365
742.641460	3827.884227
742.970915	3803.875731
743.300323	3765.182355
743.629683	3729.904360
743.958996	3719.020509
744.288260	3690.666539
744.617477	3661.289215
744.946647	3646.054848
745.275768	3617.448821
745.604842	3619.029223
745.933869	3573.328643
746.262847	3563.626942
746.591778	3600.833178
746.920662	3575.188828
747.249498	3541.680279
747.578286	3589.830860
747.907027	3605.425669
748.235720	3601.939711
748.564365	3624.256899
748.892963	3628.867034
749.221514	3609.829117
749.550017	3587.920262
749.878473	3585.422371
750.206881	3555.576219
750.535242	3550.560271
750.863555	3555.697207
751.191821	3549.352915
751.520039	3532.994371
751.848210	3505.557891
752.176334	3540.891338
752.504411	3548.448028
752.832440	3505.593179
753.160421	3491.223370
753.488356	3499.042199
753.816243	3511.287162
754.144082	3470.088332
754.471875	3454.382618
754.799620	3470.796614
755.127318	3465.435347
755.454969	3464.117086
755.782572	3471.424238
756.110129	3444.968263
756.437638	3437.643466
756.765100	3449.343984
757.092515	3461.689770
757.419882	3469.932057
757.747203	3440.143878
758.074477	3441.084054
758.401703	3455.869758
758.728882	3477.748366
759.056014	3486.104078
759.383099	3488.405365
759.710138	3483.989314
760.037129	3503.501100
760.364073	3533.130482
760.690970	3519.090868
761.017820	3492.650016
761.344623	3513.742204
761.671379	3556.564285
761.998088	3610.681072
762.324751	3738.192017
762.651366	3984.149913
762.977935	4459.881081
763.304456	4896.644130
763.630931	4996.668184
763.957359	4633.516064
764.283740	4293.833035
764.610074	4101.644086
764.936362	3904.671082
765.262602	3744.410281
765.588796	3632.723517
765.914943	3542.108777
766.241044	3457.790437
766.567097	3427.092331
766.893104	3383.098182
767.219064	3348.536031
767.544978	3322.836228
767.870845	3266.037548
768.196665	3246.253540
768.522438	3257.780138
768.848165	3252.716299
769.173846	3214.206925
769.499479	3197.228319
769.825066	3181.270546
770.150607	3165.917712
770.476101	3182.384641
770.801548	3173.761747
771.126949	3132.908237
771.452303	3113.764455
771.777611	3119.639920
772.102872	3127.415900
772.428087	3100.579317
772.753256	3091.318718
773.078378	3083.449476
773.403453	3048.108467
773.728482	3038.694113
774.053465	3060.043399
774.378401	3046.855741
774.703291	3014.685617
775.028135	3015.613190
775.352932	3009.732684
775.677683	2999.526868
776.002388	2996.630725
776.327046	2998.080057
776.651658	2987.717965
776.976224	2972.982672
777.300743	2973.731283
777.625216	2964.316929
777.949643	2959.502627
778.274024	2961.577062
778.598359	2951.570371
778.922647	2957.438274
779.246889	2956.916515
779.571086	2939.620316
779.895236	2935.564708
780.219339	2945.785647
780.543397	2957.067749
780.867409	2964.349696
781.191374	2952.261009
781.515294	2952.858386
781.839167	2952.409723
782.162995	2946.365380
782.486776	2950.340330
782.810511	2950.002572
783.134201	2935.320212
783.457844	2943.945626
783.781441	2933.883483
784.104993	2913.575195
784.428498	2913.217273
784.751958	2930.256373
785.075372	2922.503078
785.398739	2906.068917
785.722061	2921.925866
786.045337	2935.436158
786.368568	2918.452511
786.691752	2910.043866
787.014891	2960.392390
787.337983	2988.960609
787.661030	3013.374917
787.984031	3084.056935
788.306987	3130.992598
788.629897	3124.905405
788.952760	3107.702467
789.275579	3090.915425
789.598351	3032.438041
789.921078	2989.668891
790.243759	2978.273363
790.566395	2958.585137
790.888984	2937.573608
791.211529	2919.783376
791.534027	2907.845923
791.856480	2902.829975
792.178888	2887.996380
792.501249	2879.179402
792.823566	2876.157230
793.145836	2875.078423
793.468062	2867.466281
793.790241	2865.119624
794.112375	2874.004658
794.434464	2883.890360
794.756507	2887.913201
795.078505	2896.959552
795.400457	2908.864236
795.722364	2947.300514
796.044226	2970.648618
796.366042	2970.479739
796.687812	2963.737196
797.009538	2980.491471
797.331218	2970.547795
797.652852	2956.510702
797.974442	2938.105449
798.295986	2933.066816
798.617484	2926.294026
798.938938	2913.882705
799.260346	2895.994171
799.581709	2892.878738
799.903026	2885.647202
800.224299	2880.089330
800.545526	2870.178422
800.866708	2850.709486
801.187845	2844.203877
801.508936	2844.128259
801.829983	2852.216791
802.150984	2836.589214
802.471940	2829.846670
802.792851	2826.643017
803.113717	2827.958758
803.434538	2834.376147
803.755314	2825.644869
804.076045	2819.126657
804.396731	2815.854948
804.717372	2821.586740
805.037967	2814.461069
805.358518	2820.636482
805.679024	2830.708708
805.999485	2827.875579
806.319901	2831.676609
806.640272	2824.364416
806.960598	2830.698625
807.280879	2838.532578
807.601115	2844.793692
807.921306	2831.648883
808.241453	2828.987154
808.561554	2836.327074
808.881611	2835.709532
809.201623	2831.099397
809.521590	2829.791218
809.841513	2824.437512
810.161390	2830.068481
810.481223	2821.858962
810.801011	2815.313024
811.120755	2810.765903
811.440453	2814.294711
811.760107	2811.869916
812.079716	2811.307827
812.399281	2803.347845
812.718801	2793.331072
813.038276	2791.982564
813.357707	2797.890796
813.677093	2803.241981
813.996434	2798.541105
814.315731	2790.969292
814.634983	2790.654220
814.954191	2790.689508
815.273354	2802.203503
815.592473	2810.097950
815.911547	2814.599701
816.230577	2823.792245
816.549562	2831.432113
816.868502	2829.892041
817.187399	2841.811849
817.506250	2855.276771
817.825058	2850.278467
818.143821	2859.917153
818.462539	2877.402395
818.781213	2905.166550
819.099843	2941.475461
819.418429	2998.778256
819.736970	3061.616239
820.055466	3134.370171
820.373919	3237.875142
820.692327	3379.871843
821.010691	3549.662946
821.329011	3989.856500
821.647286	4891.224890
821.965517	6269.443584
822.283704	7017.092069
822.601847	7001.537589
822.919945	6365.898501
823.237999	5861.271439
823.556010	5273.198158
823.873976	4720.372624
824.191897	4313.173422
824.509775	4016.302393
824.827609	3747.664345
825.145398	3620.912094
825.463144	3612.339612
825.780845	3702.097356
826.098502	3804.147954
826.416116	4086.273608
826.733685	4403.052154
827.051210	4469.355930
827.368692	4354.659598
827.686129	4087.077672
828.003522	3763.133126
828.320872	3502.323991
828.638177	3308.675627
828.955439	3170.258146
829.272656	3087.729416
829.589830	3020.412368
829.906960	2972.569298
830.224046	2924.327976
830.541088	2889.760784
830.858086	2875.184288
831.175041	2857.240300
831.491952	2859.720548
831.808819	2869.926364
832.125642	2895.290930
832.442421	2941.180553
832.759157	3022.953110
833.075849	3199.776622
833.392497	3480.518480
833.709101	3686.648740
834.025662	3633.993888
834.342179	3472.876090
834.658653	3299.107517
834.975083	3151.903304
835.291469	3051.665001
835.607811	2962.703759
835.924110	2909.280132
836.240366	2858.611494
836.556578	2813.780513
836.872746	2792.819395
837.188871	2770.998761
837.504952	2753.185844
837.820990	2746.072776
838.136984	2729.653738
838.452935	2726.452605
838.768842	2722.021431
839.084706	2740.124214
839.400526	2819.703869
839.716303	2950.095834
840.032037	3033.413504
840.347727	3017.629651
840.663373	2956.840898
840.978977	2882.045298
841.294537	2808.492343
841.610054	2760.684560
841.925527	2737.139851
842.240957	2717.048332
842.556344	2694.176617
842.871687	2680.293280
843.186987	2670.463030
843.502244	2666.485559
843.817458	2661.951042
844.132629	2650.681542
844.447756	2641.337763
844.762840	2634.995992
845.077881	2637.877011
845.392879	2636.084881
845.707833	2629.123048
846.022745	2621.011831
846.337613	2627.676237
846.652438	2627.593057
846.967221	2627.509878
847.281960	2623.769342
847.596656	2623.618108
847.911309	2620.898405
848.225919	2615.990842
848.540485	2615.471603
848.855009	2616.774741
849.169490	2617.011676
849.483928	2614.312138
849.798323	2613.351798
850.112675	2609.926334
850.426984	2615.259875
850.741251	2612.751901
851.055474	2610.616972
851.369654	2615.706017
851.683792	2615.406068
851.997887	2612.774586
852.311938	2610.259050
852.625947	2616.071500
852.939914	2616.028651
853.253837	2617.866151
853.567718	2613.825666
853.881555	2613.006479
854.195350	2616.943620
854.509103	2616.331120
854.822812	2610.755604
855.136479	2610.838783
855.450103	2613.681993
855.763685	2614.423043
856.077224	2612.429267
856.390720	2609.850717
856.704173	2613.581170
857.017584	2617.742643
857.330953	2618.430760
857.644278	2620.598457
857.957561	2620.376646
858.270802	2613.629061
858.584000	2615.166613
858.897155	2620.850514
859.210268	2621.528549
859.523339	2613.626541
859.836367	2610.049842
860.149352	2613.061932
860.462295	2614.748197
860.775195	2611.305089
861.088054	2612.441870
861.400869	2605.601024
861.713642	2606.596652
862.026373	2608.051025
862.339062	2610.422887
862.651708	2616.411778
862.964312	2616.436984
863.276873	2614.826335
863.589392	2615.315327
863.901869	2620.084259
864.214303	2626.224384
864.526696	2627.691360
864.839045	2629.231432
865.151353	2636.616723
865.463619	2632.724952
865.775842	2631.406690
866.088023	2632.122534
866.400162	2633.839047
866.712258	2633.939870
867.024313	2632.760240
867.336325	2627.346041
867.648296	2632.273769
867.960224	2630.952987
868.272110	2634.075981
868.583954	2630.060702
868.895755	2628.997019
869.207515	2634.050776
869.519233	2642.406488
869.830909	2635.285858
870.142542	2631.721762
870.454134	2633.581948
870.765684	2641.234420
871.077191	2641.912455
871.388657	2646.424288
871.700081	2641.047897
872.011463	2643.240799
872.322803	2644.496046
872.634101	2647.147693
872.945357	2653.897798
873.256571	2659.707728
873.567744	2655.127840
873.878874	2655.536173
874.189963	2657.756802
874.501010	2663.712925
874.812015	2666.268790
875.122979	2665.857936
875.433900	2659.813592
875.744780	2656.254538
876.055618	2661.961124
876.366415	2671.806497
876.677169	2669.046466
876.987882	2662.354334
877.298554	2662.860970
877.609183	2672.290448
877.919771	2678.034843
878.230317	2685.939372
878.540822	2696.724921
878.851285	2708.664894
879.161707	2734.692371
879.472087	2771.490273
879.782425	2822.295022
880.092722	2932.703853
880.402977	3122.959520
880.713191	3384.192112
881.023363	3679.976773
881.333494	3872.750496
881.643583	4045.531003
881.953631	4045.258780
882.263637	3861.556614
882.573602	3644.555105
882.883526	3512.998634
883.193408	3399.759195
883.503248	3297.078453
883.813048	3179.359949
884.122806	3066.894327
884.432522	2979.566419
884.742197	2912.347674
885.051831	2878.035060
885.361424	2841.763958
885.670975	2806.123000
885.980485	2773.426077
886.289954	2755.605598
886.599382	2743.010275
886.908768	2730.293964
887.218113	2712.281922
887.527417	2700.183152
887.836680	2688.470031
888.145901	2685.609177
888.455082	2674.639626
888.764221	2664.764005
889.073319	2657.935762
889.382376	2657.713952
889.691392	2656.899805
890.000366	2660.743685
890.309300	2655.805875
890.618193	2658.321411
890.927044	2660.461381
891.235855	2660.751247
891.544625	2662.392142
891.853353	2661.207471
892.162041	2669.500169
892.470687	2688.112109
892.779293	2699.300950
893.087858	2709.766386
893.396381	2732.191959
893.704864	2774.625871
894.013306	2844.808815
894.321707	2937.558484
894.630068	2988.932883
894.938387	3012.190246
895.246665	3004.517610
895.554903	2957.097996
895.863100	2917.867737
896.171256	2856.022862
896.479371	2793.283182
896.787446	2755.333375
897.095480	2738.715212
897.403473	2731.271948
897.711425	2714.404247
898.019336	2697.591999
898.327207	2683.887622
898.635038	2681.848476
898.942827	2680.646161
899.250576	2669.437155
899.558284	2659.806031
899.865952	2653.675987
900.173579	2650.159783
900.481165	2651.026861
900.788711	2640.672331
901.096216	2634.239819
901.403681	2632.644294
901.711105	2632.540950
902.018489	2631.504993
902.325832	2635.026239
902.633135	2635.800056
902.940397	2650.242962
903.247619	2689.468180
903.554800	2757.649786
903.861941	2885.490927
904.169041	3013.828621
904.476101	3076.182653
904.783121	3070.292065
905.090100	3013.518590
905.397039	2935.363062
905.703938	2863.498893
906.010796	2799.940025
906.317614	2748.232910
906.624391	2710.386448
906.931129	2683.431398
907.237826	2660.128664
907.544483	2643.366828
907.851099	2627.867800
908.157675	2619.542335
908.464211	2610.193515
908.770707	2599.680189
909.077163	2595.707759
909.383578	2591.039651
909.689954	2591.460587
909.996289	2590.616194
910.302584	2589.928077
910.608839	2586.109402
910.915054	2586.991604
911.221229	2591.478231
911.527363	2591.679877
911.833458	2591.402614
912.139513	2594.283633
912.445527	2592.327666
912.751502	2597.852770
913.057436	2603.687906
913.363331	2607.362907
913.669186	2620.807664
913.975000	2633.831485
914.280775	2653.373518
914.586510	2667.995385
914.892205	2707.891077
915.197859	2774.799791
915.503475	2858.815661
915.809050	2926.435178
916.114585	2942.720626
916.420081	2955.545321
916.725536	2965.035293
917.030952	2937.387085
917.336328	2891.063922
917.641665	2840.775892
917.946961	2790.432409
918.252218	2755.479569
918.557435	2731.362689
918.862612	2708.140614
919.167750	2690.244517
919.472848	2672.776919
919.777906	2658.414672
920.082925	2646.215080
920.387904	2633.702936
920.692843	2629.065074
920.997743	2625.150618
921.302603	2618.513939
921.607423	2607.874584
921.912204	2605.893411
922.216946	2602.220930
922.521647	2602.858636
922.826310	2596.804210
923.130932	2593.406473
923.435516	2588.198961
923.740059	2585.537232
924.044564	2584.176120
924.349028	2582.527663
924.653454	2573.589697
924.957840	2570.486867
925.262186	2569.269428
925.566493	2567.005950
925.870761	2565.627194
926.174989	2565.425548
926.479178	2564.475291
926.783328	2563.885476
927.087438	2558.783828
927.391509	2564.313974
927.695541	2559.774415
927.999533	2556.515309
928.303486	2556.759805
928.607400	2557.054712
928.911275	2556.343910
929.215110	2556.938766
929.518906	2557.503375
929.822663	2556.517829
930.126381	2556.414486
930.430060	2556.298539
930.733699	2555.567572
931.037299	2554.937428
931.340861	2557.926832
931.644383	2559.134188
931.947866	2556.122099
932.251309	2557.347099
932.554714	2557.432799
932.858080	2559.300546
933.161407	2554.791234
933.464694	2558.458674
933.767943	2557.087480
934.071153	2555.663354
934.374323	2554.637479
934.677455	2554.690411
934.980548	2552.444577
935.283602	2555.474311
935.586617	2553.510781
935.889593	2552.303425
936.192530	2550.637323
936.495428	2552.500030
936.798287	2555.139074
937.101108	2557.987326
937.403890	2558.559497
937.706632	2561.138047
938.009336	2567.555436
938.312002	2569.438307
938.614628	2569.561815
938.917216	2574.562640
939.219765	2575.815366
939.522275	2577.650346
939.824747	2578.096488
940.127179	2571.308575
940.429573	2569.193811
940.731929	2568.004098
941.034246	2564.591237
941.336524	2568.828327
941.638763	2568.349417
941.940964	2566.567370
942.243126	2563.945970
942.545250	2564.797925
942.847335	2562.592420
943.149381	2562.032852
943.451389	2560.228119
943.753359	2559.807182
944.055290	2557.997408
944.357182	2559.842470
944.659036	2557.326935
944.960851	2558.728375
945.262628	2559.540001
945.564367	2557.331976
945.866067	2559.227450
946.167729	2557.732747
946.469352	2558.360371
946.770937	2556.192675
947.072484	2560.076884
947.373992	2556.621173
947.675462	2555.892726
947.976893	2555.302911
948.278286	2553.881306
948.579641	2557.916750
948.880958	2554.087993
949.182236	2550.952396
949.483476	2551.688404
949.784678	2554.955072
950.085841	2552.192519
950.386967	2554.506409
950.688054	2554.662685
950.989103	2558.877089
951.290114	2552.487427
951.591087	2558.365412
951.892021	2558.017573
952.192917	2557.362223
952.493776	2560.205433
952.794596	2564.074519
953.095378	2562.393294
953.396122	2563.154508
953.696828	2561.349775
953.997496	2559.313149
954.298126	2557.067315
954.598718	2554.277037
954.899272	2556.270813
955.199788	2555.418858
955.500266	2552.013558
955.800706	2548.126829
956.101108	2545.079451
956.401472	2547.138763
956.701798	2543.730943
957.002087	2546.150697
957.302337	2545.334030
957.602550	2545.328988
957.902724	2542.790768
958.202861	2544.535007
958.502960	2541.429656
958.803022	2544.033412
959.103045	2542.339584
959.403031	2543.617517
959.702979	2540.207176
960.002889	2541.366642
960.302762	2542.881508
960.602596	2541.028884
960.902393	2539.151054
961.202153	2539.103163
961.501875	2539.831610
961.801559	2538.518390
962.101205	2538.810777
962.400814	2539.065355
962.700385	2538.145344
962.999918	2540.766744
963.299414	2540.711292
963.598873	2539.629964
963.898293	2538.377237
964.197677	2537.913451
964.497022	2539.594676
964.796331	2539.135931
965.095601	2537.265663
965.394835	2539.700540
965.694030	2539.433359
965.993189	2536.693492
966.292309	2537.132072
966.591393	2538.362114
966.890439	2537.439583
967.189447	2539.430838
967.488419	2536.554860
967.787353	2539.554347
968.086249	2539.488812
968.385108	2537.825231
968.683930	2536.779192
968.982714	2540.570139
969.281462	2539.430838
969.580172	2538.341949
969.878844	2537.033770
970.177480	2537.860519
970.476078	2537.056455
970.774639	2539.491332
971.073162	2538.215920
971.371649	2536.438914
971.670098	2535.329860
971.968510	2536.466640
972.266885	2534.601413
972.565223	2540.527289
972.863524	2535.712987
973.161788	2537.169881
973.460014	2540.343287
973.758204	2541.210366
974.056356	2539.821528
974.354471	2539.488812
974.652550	2538.929244
974.950591	2538.049562
975.248595	2538.289017
975.546563	2538.480581
975.844493	2538.162988
976.142386	2539.813966
976.440243	2539.156096
976.738062	2534.548481
977.035845	2536.779192
977.333590	2533.691485
977.631299	2537.976466
977.928971	2536.897659
978.226606	2538.556198
978.524204	2537.056455
978.821765	2538.742721
979.119290	2535.564273
979.416777	2538.082330
979.714228	2538.636857
980.011642	2536.257432
980.309020	2540.325643
980.606360	2536.295241
980.903664	2537.437062
981.200931	2537.326157
981.498162	2540.673483
981.795356	2541.991745
982.092513	2545.172713
982.389633	2547.932744
982.686717	2549.530790
982.983764	2553.268806
983.280775	2552.754608
983.577749	2553.838456
983.874686	2551.585060
984.171587	2547.108516
984.468451	2546.929555
984.765279	2546.246478
985.062070	2544.887887
985.358824	2538.034439
985.655543	2539.584594
985.952224	2537.628626
986.248869	2535.160981
986.545478	2533.878007
986.842050	2533.910775
987.138586	2529.547656
987.435086	2535.791125
987.731549	2530.124868
988.027975	2537.043852
988.324366	2537.134593
988.620719	2535.889428
988.917037	2534.707277
989.213318	2535.390354
989.509563	2536.053265
989.805772	2534.326670
990.101944	2535.092926
990.398080	2533.925898
990.694180	2534.803059
990.990244	2534.639222
991.286271	2536.144006
991.582262	2534.145189
991.878217	2533.913296
992.174136	2534.291382
992.470019	2534.636701
992.765865	2534.571166
993.061676	2534.611495
993.357450	2535.788605
993.653188	2536.312885
993.948890	2537.406815
994.244556	2535.347504
994.540186	2536.597710
994.835780	2536.958153
995.131337	2536.141486
995.426859	2536.680889
995.722345	2535.806249
996.017795	2538.752803
996.313208	2538.626774
996.608586	2538.483102
996.903928	2537.610982
997.199234	2537.714326
997.494504	2538.876312
997.789738	2538.619213
998.084936	2536.887576
998.380099	2536.849768
998.675225	2534.235929
998.970316	2535.581917
999.265371	2535.405477
999.560390	2532.995806
999.855373	2534.961856
1000.150320	2534.619057
1000.445232	2533.046217
1000.740108	2534.987061
1001.034948	2532.400949
1001.329752	2534.445137
1001.624521	2535.501259
1001.919254	2527.319466
1002.213951	2531.065044
1002.508613	2528.536905
1002.803239	2531.692667
1003.097829	2531.213758
1003.392384	2533.257946
1003.686903	2533.492359
1003.981386	2535.660055
1004.275834	2532.378264
1004.570246	2534.591331
1004.864623	2532.514375
1005.158964	2531.352389
1005.453270	2535.498738
1005.747540	2532.088398
1006.041775	2532.700898
1006.335974	2530.442461
1006.630138	2536.078471
1006.924266	2532.842050
1007.218359	2532.963038
1007.512416	2533.305837
1007.806438	2533.207534
1008.100425	2533.331042
1008.394376	2530.649148
1008.688292	2533.636032
1008.982172	2533.459592
1009.276017	2532.209386
1009.569827	2533.757020
1009.863602	2533.600744
1010.157341	2531.501103
1010.451045	2532.761392
1010.744714	2532.491690
1011.038347	2533.734335
1011.331945	2530.931453
1011.625508	2534.114942
1011.919036	2533.820034
1012.212528	2531.216278
1012.505986	2532.789118
1012.799408	2534.409849
1013.092795	2530.112266
1013.386147	2528.728469
1013.679464	2533.310878
1013.972745	2530.346679
1014.265992	2531.407842
1014.559204	2533.769623
1014.852380	2534.742565
1015.145521	2532.489170
1015.438628	2533.988913
1015.731699	2531.518748
1016.024736	2530.991947
1016.317737	2533.114273
1016.610703	2533.459592
1016.903635	2529.361134
1017.196531	2530.563449
1017.489393	2527.226205
1017.782219	2527.367357
1018.075011	2529.494724
1018.367768	2531.803573
1018.660490	2529.971113
1018.953177	2529.971113
1019.245829	2529.971113
