Dividing Wavelength (nm)	Counts (n)	Blue Motor Position (mm): 23.900000	Red Motor Position (mm): 0.000000	
326.493990	2132.506379
326.888308	2132.506379
327.282561	2132.506379
327.676750	2098.178642
328.070874	2099.544795
328.464933	2103.118973
328.858929	2108.654160
329.252859	2117.317383
329.646726	2131.901441
330.040528	2143.354943
330.434265	2159.751295
330.827938	2174.821825
331.221547	2196.322346
331.615091	2211.070242
332.008571	2231.416338
332.401986	2252.763104
332.795338	2270.760024
333.188625	2289.775256
333.581847	2310.481795
333.975006	2330.611123
334.368100	2348.950840
334.761129	2362.246884
335.154095	2380.793289
335.546996	2398.800290
335.939833	2425.505803
336.332606	2438.408636
336.725315	2450.177210
337.117960	2461.635752
337.510540	2469.247895
337.903056	2481.167703
338.295508	2488.361429
338.687896	2495.550115
339.080220	2504.538492
339.472480	2508.342043
339.864676	2514.567868
340.256807	2518.570544
340.648875	2523.957017
341.040879	2521.741430
341.432818	2526.467511
341.824694	2528.761236
342.216506	2529.567821
342.608253	2527.178314
342.999937	2526.941380
343.391557	2527.934487
343.783113	2524.219157
344.174605	2526.286030
344.566033	2526.502799
344.957397	2523.067253
345.348697	2522.923580
345.739934	2518.313445
346.131106	2520.574402
346.522215	2518.623476
346.913260	2515.160203
347.304241	2515.664319
347.695159	2514.018382
348.086012	2510.638288
348.476802	2507.144769
348.867528	2502.637977
349.258191	2504.387257
349.648789	2503.487412
350.039324	2503.247957
350.429796	2501.445744
350.820203	2500.959273
351.210548	2500.205620
351.600828	2497.921978
351.991045	2498.355517
352.381198	2495.214878
352.771288	2496.898623
353.161314	2494.181442
353.551276	2496.719663
353.941175	2496.913747
354.331010	2496.558346
354.720782	2495.020794
355.110490	2493.148005
355.500135	2492.802686
355.889717	2495.870228
356.279235	2494.420896
356.668689	2496.213027
357.058080	2497.059940
357.447408	2494.975423
357.836672	2492.447285
358.225873	2493.205978
358.615010	2494.040289
359.004084	2501.533964
359.393095	2500.460199
359.782043	2498.221926
360.170927	2497.932060
360.559748	2499.109169
360.948505	2500.286279
361.337199	2500.548419
361.725830	2500.452637
362.114398	2503.288286
362.502903	2504.556136
362.891344	2503.021105
363.279722	2504.596465
363.668037	2503.825169
364.056289	2503.240395
364.444478	2505.753410
364.832603	2502.612771
365.220665	2505.461023
365.608665	2508.049656
365.996601	2506.083606
366.384474	2508.095026
366.772284	2508.889008
367.160031	2507.880777
367.547715	2511.293638
367.935336	2509.441014
368.322893	2508.828514
368.710388	2509.725839
369.097820	2512.788340
369.485189	2509.362876
369.872495	2508.795747
370.259738	2510.819770
370.646918	2508.510921
371.034035	2511.301200
371.421090	2510.179543
371.808081	2510.305572
372.195010	2513.035357
372.581875	2509.307424
372.968678	2510.245078
373.355418	2511.429749
373.742096	2509.725839
374.128710	2511.520490
374.515262	2512.306910
374.901751	2509.882115
375.288177	2513.168948
375.674540	2510.804646
376.060841	2514.025944
376.447079	2513.703310
376.833254	2512.259019
377.219367	2510.363545
377.605417	2512.838752
377.991404	2510.902949
378.377329	2512.427898
378.763191	2510.925634
379.148991	2514.588032
379.534727	2512.909328
379.920402	2514.270440
380.306013	2515.732374
380.691563	2518.620955
381.077049	2512.304390
381.462474	2518.777231
381.847835	2517.902591
382.233134	2517.668177
382.618371	2516.796058
383.003545	2517.769000
383.388657	2517.214473
383.773706	2518.005935
384.158693	2517.673218
384.543618	2520.047602
384.928480	2515.208094
385.313280	2519.425019
385.698017	2514.696417
386.082692	2521.930473
386.467305	2519.145235
386.851856	2518.532735
387.236344	2521.804444
387.620770	2520.254289
388.005133	2521.658251
388.389435	2519.551048
388.773674	2519.684639
389.157851	2518.257992
389.541965	2521.338137
389.926018	2521.978364
390.310008	2520.594567
390.693936	2523.490710
391.077802	2519.704803
391.461606	2522.953827
391.845348	2524.549352
392.229027	2521.282685
392.612645	2521.872500
392.996200	2521.741430
393.379694	2521.529701
393.763125	2522.192613
394.146494	2524.561955
394.529801	2522.762263
394.913047	2525.696215
395.296230	2524.070443
395.679351	2523.838550
396.062410	2525.159332
396.445408	2523.425175
396.828343	2523.531039
397.211217	2522.013652
397.594028	2522.968951
397.976778	2521.990967
398.359466	2525.703777
398.742092	2517.458969
399.124656	2525.239990
399.507158	2527.523633
399.889598	2524.791328
400.271977	2523.606657
400.654294	2526.535567
401.036549	2530.752492
401.418742	2525.113962
401.800874	2525.905423
402.182944	2529.981196
402.564952	2526.376771
402.946898	2526.800228
403.328783	2526.701925
403.710606	2528.710825
404.092367	2526.739734
404.474067	2528.806607
404.855705	2530.114786
405.237282	2528.864580
405.618797	2531.077647
406.000250	2526.230577
406.381642	2529.542615
406.762972	2529.056144
407.144240	2529.872811
407.525447	2530.843233
407.906593	2528.098325
408.287677	2531.130579
408.668700	2530.870959
409.049661	2531.732997
409.430560	2532.612678
409.811399	2529.882893
410.192176	2531.632173
410.572891	2527.856349
410.953545	2531.417924
411.334138	2532.012781
411.714669	2532.441279
412.095139	2531.667462
412.475547	2531.138140
412.855894	2531.191073
413.236180	2534.271218
413.616405	2534.029242
413.996568	2534.079654
414.376670	2536.272556
414.756711	2529.517409
415.136691	2533.416742
415.516609	2533.953625
415.896466	2534.888759
416.276262	2534.540919
416.655997	2530.228212
417.035670	2529.658562
417.415283	2531.586803
417.794834	2529.509848
418.174324	2532.957997
418.553753	2533.502442
418.933121	2535.213913
419.312428	2537.069058
419.691674	2537.174922
420.070859	2535.662576
420.449983	2536.635519
420.829045	2537.668955
421.208047	2536.244829
421.586988	2534.256094
421.965867	2533.938501
422.344686	2539.642567
422.723444	2535.821372
423.102141	2536.905220
423.480777	2534.825744
423.859352	2540.106353
424.237866	2537.497556
424.616319	2538.967052
424.994712	2536.557381
425.373044	2538.838503
425.751314	2537.696682
426.129524	2539.816487
426.507673	2535.188707
426.885762	2536.375899
427.263789	2542.770603
427.641756	2539.503935
428.019662	2540.860006
428.397508	2538.699871
428.775292	2540.519728
429.153016	2538.972093
429.530679	2541.999306
429.908282	2538.145344
430.285824	2540.731456
430.663305	2539.793802
431.040726	2541.903524
431.418086	2539.216589
431.795385	2543.693134
432.172624	2539.677855
432.549802	2541.772454
432.926920	2540.935623
433.303977	2542.052238
433.680974	2539.546785
434.057910	2540.413863
434.434786	2539.176260
434.811601	2542.793288
435.188355	2540.832279
435.565050	2541.417053
435.941683	2542.269008
436.318257	2538.470499
436.694770	2539.478729
437.071222	2541.313709
437.447614	2537.376568
437.823946	2537.946219
438.200218	2543.216745
438.576429	2543.337733
438.952580	2543.471323
439.328670	2546.087682
439.704700	2542.664739
440.080670	2543.662887
440.456580	2543.637681
440.832429	2544.759338
441.208218	2546.453166
441.583947	2543.796478
441.959616	2544.434184
442.335224	2542.760521
442.710773	2542.760521
443.086261	2546.014585
443.461689	2546.412837
443.837057	2546.677497
444.212365	2545.848227
444.587612	2544.232537
444.962800	2548.356201
445.337927	2547.640357
445.712995	2545.081972
446.088002	2547.940306
446.462949	2547.857127
446.837837	2545.553320
447.212664	2549.261088
447.587431	2549.384597
447.962139	2545.820501
448.336786	2552.245452
448.711374	2550.203784
449.085901	2552.454659
449.460369	2549.051881
449.834776	2549.873589
450.209124	2552.046326
450.583412	2549.283774
450.957640	2551.542211
451.331808	2554.919784
451.705917	2550.896943
452.079965	2553.404917
452.453954	2553.167983
452.827883	2553.588919
453.201752	2554.413148
453.575562	2555.403734
453.949311	2554.556821
454.323001	2555.912891
454.696632	2557.815927
455.070202	2558.907336
455.443713	2559.091338
455.817164	2558.773746
456.190556	2556.666543
456.563888	2559.832388
456.937160	2560.485217
457.310373	2566.174160
457.683526	2566.136351
458.056619	2570.265056
458.429653	2572.727660
458.802628	2575.873340
459.175542	2575.233113
459.548398	2585.133939
459.921194	2588.425813
460.293930	2593.272882
460.666607	2601.116917
461.039224	2616.005965
461.411782	2621.692387
461.784280	2625.511061
462.156719	2628.981895
462.529099	2633.254273
462.901419	2634.015487
463.273680	2637.244347
463.645882	2643.513021
464.018024	2651.122643
464.390106	2659.685043
464.762130	2678.339833
465.134094	2704.173226
465.505999	2750.166193
465.877845	2810.803712
466.249631	2840.886797
466.621358	2833.471260
466.993026	2827.000939
467.364634	2831.326249
467.736184	2833.672906
468.107674	2838.426714
468.479105	2862.702391
468.850477	2866.049717
469.221790	2870.236395
469.593043	2871.781509
469.964238	2887.144425
470.335373	2902.524985
470.706449	2931.146136
471.077467	2954.070783
471.448425	3071.489339
471.819324	3179.491019
472.190164	3202.627394
472.560945	3131.668113
472.931667	3103.871191
473.302330	3115.123046
473.672934	3115.173457
474.043479	3174.472550
474.413965	3200.237887
474.784393	3223.061712
475.154761	3270.700615
475.525070	3314.309117
475.895321	3326.465859
476.265513	3381.825290
476.635645	3442.941719
477.005719	3490.068946
477.375734	3546.149262
477.745691	3621.912763
478.115588	3687.767876
478.485427	3777.628964
478.855207	3924.195471
479.224928	4144.201507
479.594591	4314.773988
479.964194	4341.308102
480.333739	4372.381774
480.703226	4432.880661
481.072653	4520.309393
481.442022	4662.845497
481.811333	4775.238022
482.180584	4799.314573
482.549777	4808.161798
482.918912	4832.992001
483.287988	4917.315381
483.657005	4987.747862
484.025964	4978.628415
484.394864	5090.811732
484.763706	5164.573895
485.132489	5159.653729
485.501213	5229.226693
485.869879	5319.924613
486.238487	5360.601683
486.607036	5459.599862
486.975527	5479.925795
487.343959	5614.885045
487.712333	5721.649122
488.080648	5762.847951
488.448905	5876.435230
488.817104	5927.597900
489.185244	6111.889882
489.553326	6273.032885
489.921350	6589.012408
490.289315	7126.616178
490.657222	7362.282558
491.025070	7437.277284
491.392861	7479.809499
491.760593	7416.651403
492.128267	7355.313163
492.495883	7284.109386
492.863440	7212.225052
493.230939	7133.124308
493.598380	7178.340937
493.965763	7204.214659
494.333088	7215.274951
494.700354	7270.757890
495.067563	7366.804473
495.434713	7365.455965
495.801805	7509.454004
496.168839	7549.936990
496.535815	7594.977179
496.902733	7659.642580
497.269593	7709.842390
497.636395	7839.810898
498.003139	7920.610512
498.369825	7897.499342
498.736453	8077.458452
499.103023	8098.986699
499.469535	8197.047224
499.835989	8257.868745
500.202385	8302.820714
500.568723	8266.975589
500.935003	8479.288825
501.301226	8433.195035
501.667390	8668.672372
502.033497	8813.474475
502.399546	8770.417980
502.765537	8768.101570
503.131470	8890.067246
503.497345	9086.568902
503.863163	8847.635854
504.228923	9154.778234
504.594625	9248.165609
504.960269	9121.254561
505.325856	9348.436680
505.691385	9235.116583
506.056856	9410.823479
506.422270	9487.043205
506.787625	9441.755999
507.152924	9598.493034
507.518164	9623.802147
507.883347	9610.211196
508.248472	9583.974511
508.613540	9828.931738
508.978550	9776.624726
509.343503	9799.004928
509.708398	9944.923647
510.073236	10083.746942
510.438016	10134.120672
510.802738	10118.293969
511.167403	10208.848216
511.532010	10149.072734
511.896561	10392.873016
512.261053	10492.345064
512.625488	10412.132744
512.989866	10426.739488
513.354186	10451.645308
513.718449	10389.629034
514.082655	10599.898081
514.446803	10525.687255
514.810894	10668.228401
515.174927	10578.304299
515.538904	10619.767789
515.902822	10791.487133
516.266684	10699.833915
516.630488	10671.971458
516.994235	10739.643907
517.357925	10830.515746
517.721558	10928.898905
518.085133	10965.548093
518.448651	10991.197484
518.812112	10896.776672
519.175516	10930.547362
519.538863	11065.473845
519.902152	10997.254430
520.265385	11170.448312
520.628560	11099.862076
520.991678	11087.856568
521.354739	11166.506129
521.717743	11112.729621
522.080690	11096.174472
522.443580	11245.531257
522.806413	11204.735720
523.169189	11247.835064
523.531908	11309.503499
523.894569	11155.259315
524.257174	11164.232569
524.619722	11283.571804
524.982213	11243.663510
525.344647	11291.771241
525.707025	11247.378840
526.069345	11356.403874
526.431608	11278.568459
526.793815	11394.746890
527.155964	11186.799294
527.518057	11244.707028
527.880093	11203.719927
528.242072	11275.279106
528.603995	11185.808708
528.965860	11107.262489
529.327669	11160.938175
529.689421	11112.127203
530.051117	11085.431773
530.412755	11190.751559
530.774337	11082.396998
531.135862	11068.682539
531.497331	11098.241345
531.858743	10951.505959
532.220098	11113.329518
532.581396	10992.301497
532.942638	10969.896088
533.303824	10942.351224
533.664953	10951.934457
534.026025	10874.096521
534.387040	10969.444905
534.747999	10974.793569
535.108902	11032.696262
535.469748	10797.188678
535.830537	10900.555017
536.191270	10876.201203
536.551947	10903.902343
536.912567	10900.643237
537.273131	10830.659419
537.633638	10804.831067
537.994089	10800.629266
538.354483	10750.608417
538.714821	10886.797708
539.075103	10902.964689
539.435328	10864.503205
539.795497	10697.704027
540.155609	10861.602021
540.515665	10940.871645
540.875665	10680.385143
541.235609	10750.560526
541.595496	10745.998281
541.955328	10902.006869
542.315102	10780.348704
542.674821	10738.839843
543.034483	10740.581562
543.394090	10741.060471
543.753640	10676.959679
544.113134	10887.513552
544.472571	10753.948181
544.831953	10887.861392
545.191278	10698.513133
545.550548	10724.643954
545.909761	10860.145128
546.268918	10833.900881
546.628019	10918.955229
546.987064	10785.069744
547.346053	10706.130316
547.704986	10813.753910
548.063863	10790.801536
548.422684	10783.456575
548.781449	10702.735099
549.140158	10804.710080
549.498811	10682.948570
549.857408	10543.671572
550.215949	10768.701118
550.574434	10623.173088
550.932864	10725.500950
551.291237	10777.031624
551.649555	10726.824253
552.007817	10741.955276
552.366022	10699.952382
552.724173	10697.605725
553.082267	10681.658035
553.440305	10816.471092
553.798288	10615.278642
554.156215	10773.926274
554.514086	10754.258212
554.871902	10602.355644
555.229661	10638.440223
555.587365	10613.179001
555.945014	10512.494556
556.302606	10636.038113
556.660143	10528.724551
557.017625	10678.464464
557.375050	10581.792777
557.732421	10707.874555
558.089735	10623.717533
558.446994	10623.352049
558.804197	10659.963429
559.161345	10662.390745
559.518437	10512.061017
559.875474	10599.388925
560.232455	10627.432863
560.589381	10576.093753
560.946251	10577.359082
561.303065	10678.436737
561.659825	10622.805084
562.016528	10555.505680
562.373177	10429.340723
562.729770	10545.859433
563.086307	10462.551845
563.442789	10551.455113
563.799216	10431.359705
564.155587	10479.820317
564.511904	10434.039078
564.868164	10429.189488
565.224370	10439.662486
565.580520	10359.775321
565.936615	10368.131033
566.292654	10246.069575
566.648638	10377.018587
567.004567	10330.037554
567.360441	10314.858640
567.716260	10224.503519
568.072023	10318.296707
568.427732	10273.846333
568.783385	10179.763278
569.138982	10249.268187
569.494525	10270.816599
569.850013	10141.516044
570.205445	10225.186595
570.560823	10124.786975
570.916145	10037.698522
571.271412	10112.310119
571.626625	10062.521163
571.981782	10026.444146
572.336884	10003.416155
572.691931	10010.806487
573.046923	9955.522673
573.401860	9909.277648
573.756743	9844.531589
574.111570	9892.188137
574.466342	9873.893789
574.821059	9905.879911
575.175722	9792.378332
575.530330	9800.527357
575.884882	9793.091655
576.239380	9725.174710
576.593823	9700.520947
576.948211	9718.064162
577.302544	9600.575031
577.656823	9616.026167
578.011047	9620.497671
578.365216	9590.238145
578.719330	9514.441876
579.073389	9527.856387
579.427394	9475.163726
579.781344	9453.723699
580.135239	9393.943176
580.489080	9412.638295
580.842866	9307.656266
581.196597	9311.792533
581.550273	9358.198874
581.903895	9324.629831
582.257463	9388.775993
582.610975	9268.158826
582.964434	9289.122464
583.317837	9218.085044
583.671186	9198.570738
584.024481	9196.929842
584.377721	9115.263150
584.730906	9093.908822
585.084037	9117.922359
585.437113	9056.669819
585.790135	9079.420546
586.143103	8978.998241
586.496016	8946.334085
586.848874	9008.108384
587.201679	8996.866611
587.554428	8880.579794
587.907124	8930.772043
588.259765	8896.724090
588.612352	8900.701560
588.964884	8780.268395
589.317362	8792.326835
589.669786	8786.988253
590.022155	8839.249895
590.374470	8859.459880
590.726731	8790.585116
591.078937	8651.771904
591.431090	8760.532277
591.783188	8635.204152
592.135232	8627.528995
592.487222	8626.944221
592.839157	8680.808950
593.191038	8610.991490
593.542866	8556.415958
593.894639	8454.660268
594.246358	8511.191767
594.598022	8524.308849
594.949633	8422.132223
595.301190	8394.763798
595.652692	8421.560052
596.004141	8538.671097
596.355535	8317.740009
596.706876	8296.524313
597.058162	8227.309270
597.409395	8307.821538
597.760573	8368.169191
598.111698	8277.277187
598.462768	8261.238756
598.813785	8227.407573
599.164748	8195.958335
599.515657	8189.498096
599.866511	8097.464271
600.217312	8228.693067
600.568060	8083.921211
600.918753	8185.666819
601.269392	8158.878127
601.619978	8068.288593
601.970510	8131.260166
602.320988	8129.278993
602.671412	8180.590377
603.021783	8117.701983
603.372100	8096.813962
603.722363	8096.942511
604.072572	8076.493071
604.422728	8082.088752
604.772830	8012.006631
605.122878	8016.919235
605.472872	8016.059718
605.822813	8047.703041
606.172701	7989.742375
606.522534	8067.371103
606.872314	8059.615288
607.222041	8034.303654
607.571714	8089.340451
607.921333	8046.127681
608.270899	8049.669091
608.620411	8140.114953
608.969870	8047.733288
609.319276	8037.711474
609.668627	8057.414824
610.017926	8094.689116
610.367171	8138.801732
610.716362	8114.430274
611.065500	8104.395857
611.414585	8128.790001
611.763616	8119.345399
612.112594	8099.243798
612.461518	8120.978733
612.810389	8180.454266
613.159207	8119.489072
613.507971	8067.726504
613.856682	8187.640431
614.205340	8142.272567
614.553945	8214.585398
614.902496	8118.311962
615.250994	8177.689193
615.599439	8149.007548
615.947830	8166.956577
616.296169	8136.482802
616.644454	8149.491499
616.992686	8151.732292
617.340864	8209.332516
617.688990	8109.757124
618.037063	8204.745066
618.385082	8149.846900
618.733048	8238.523317
619.080961	8173.943616
619.428821	8191.920370
619.776628	8197.732821
620.124382	8141.889439
620.472083	8131.582800
620.819731	8151.868403
621.167326	8054.042292
621.514868	8062.899599
621.862357	7947.053884
622.209793	7968.430897
622.557176	7897.504383
622.904506	7870.009930
623.251783	7803.834703
623.599007	7755.409379
623.946179	7759.560770
624.293297	7718.787917
624.640363	7637.716081
624.987376	7621.881817
625.334336	7570.562871
625.681243	7518.991867
626.028097	7507.613983
626.374899	7481.485682
626.721647	7478.990311
627.068343	7412.910867
627.414987	7380.423151
627.761577	7338.082499
628.108115	7371.497788
628.454600	7267.347549
628.801032	7323.017011
629.147412	7278.949765
629.493739	7268.312930
629.840014	7203.009823
630.186236	7262.160202
630.532405	7145.210474
630.878521	7199.783485
631.224585	7160.354100
631.570597	7078.216060
631.916556	7106.738908
632.262462	7107.459793
632.608316	7068.897487
632.954117	7047.674229
633.299866	7028.422063
633.645562	7024.968872
633.991206	6946.669671
634.336797	6894.539099
634.682336	6849.607295
635.027823	6813.434495
635.373257	6803.493340
635.718639	6734.300983
636.063968	6747.919660
636.409245	6647.565410
636.754470	6642.120964
637.099642	6597.637822
637.444762	6544.186468
637.789829	6555.004784
638.134845	6497.127297
638.479808	6481.240101
638.824719	6488.176728
639.169577	6414.170069
639.514383	6434.533810
639.859137	6365.906062
640.203839	6378.120778
640.548489	6361.545464
640.893086	6338.658626
641.237632	6305.802906
641.582125	6326.098591
641.926566	6299.879550
642.270955	6311.655685
642.615292	6306.304501
642.959576	6321.367468
643.303809	6310.486138
643.647990	6315.058464
643.992118	6306.659902
644.336195	6252.676706
644.680219	6282.316170
645.024192	6272.803513
645.368112	6367.678028
645.711981	6381.284102
646.055797	6466.194777
646.399562	6422.099804
646.743274	6550.923970
647.086935	6598.310817
647.430544	6597.224448
647.774101	6617.729341
648.117606	6622.253777
648.461059	6615.894361
648.804460	6572.371559
649.147810	6484.801676
649.491108	6454.353107
649.834354	6430.415188
650.177548	6341.239697
650.520690	6260.319095
650.863781	6244.295788
651.206820	6263.333705
651.549807	6182.967631
651.892742	6121.889011
652.235626	6129.362521
652.578458	6116.910871
652.921238	6019.024266
653.263967	6062.930196
653.606644	6005.841649
653.949269	6007.006156
654.291843	5946.792093
654.634365	5993.228682
654.976836	5949.423576
655.319255	5951.944153
655.661622	5926.256953
656.003938	5921.372075
656.346203	5883.593668
656.688416	5913.676754
657.030577	5872.019179
657.372687	5841.540363
657.714746	5825.703578
658.056753	5872.813161
658.398708	5808.185568
658.740612	5800.896060
659.082465	5852.895562
659.424266	5842.251166
659.766016	5840.431309
660.107715	5816.364841
660.449362	5828.637530
660.790958	5822.996478
661.132503	5811.958872
661.473996	5850.405232
661.815438	5834.444939
662.156829	5831.682387
662.498168	5823.049411
662.839456	5800.603673
663.180693	5835.191030
663.521879	5837.038613
663.863013	5823.346839
664.204097	5846.979768
664.545129	5881.907402
664.886110	5879.684253
665.227040	5914.513585
665.567918	5880.332042
665.908746	5907.806330
666.249522	5914.322022
666.590248	5900.055556
666.930922	5925.606644
667.271545	5939.525270
667.612118	5941.259427
667.952639	5911.627525
668.293109	5933.904384
668.633528	5894.096912
668.973896	5900.166462
669.314213	5883.208020
669.654480	5867.608169
669.994695	5863.650864
670.334859	5856.903279
670.674973	5846.634449
671.015035	5851.262228
671.355047	5848.103945
671.695008	5834.825546
672.034918	5807.875537
672.374777	5818.925747
672.714585	5806.413603
673.054342	5807.018541
673.394049	5798.640144
673.733705	5831.949568
674.073310	5817.851981
674.412864	5777.076608
674.752368	5770.722234
675.091820	5771.226349
675.431223	5713.885745
675.770574	5713.633687
676.109875	5662.997817
676.449125	5667.459238
676.788324	5633.023116
677.127473	5579.959931
677.466571	5569.519701
677.805619	5557.675510
678.144616	5542.932656
678.483562	5523.418349
678.822458	5498.893136
679.161303	5491.215459
679.500098	5482.771526
679.838842	5462.322085
680.177535	5472.595957
680.516179	5486.237319
680.854771	5494.141848
681.193314	5573.870217
681.531805	5684.803328
681.870247	5832.491492
682.208638	5937.549138
682.546978	5947.815448
682.885268	5923.784267
683.223508	5837.436864
683.561697	5787.239574
683.899836	5755.699595
684.237925	5703.125402
684.575963	5672.568448
684.913951	5633.963292
685.251889	5700.130956
685.589776	5664.689124
685.927614	5634.684177
686.265401	5706.719744
686.603137	5690.620820
686.940824	5766.676708
687.278460	5790.110511
687.616046	5794.834073
687.953582	5866.368046
688.291068	5848.630746
688.628504	5913.664151
688.965889	5871.174786
689.303224	5814.308050
689.640510	5768.431029
689.977745	5695.939237
690.314930	5596.605821
690.652065	5543.409045
690.989150	5448.216937
691.326185	5371.508219
691.663170	5320.907638
692.000105	5250.104632
692.336990	5167.875851
692.673825	5142.405421
693.010610	5077.772788
693.347345	5006.359802
693.684030	4991.100230
694.020665	4949.838385
694.357251	4864.113564
694.693786	4873.419534
695.030272	4837.544163
695.366707	4805.638700
695.703093	4769.170993
696.039429	4793.008089
696.375716	4775.608547
696.711952	4749.878497
697.048139	4738.440119
697.384276	4718.182243
697.720363	4729.988625
698.056400	4740.549842
698.392388	4686.947253
698.728326	4669.550232
699.064214	4646.935615
699.400053	4638.088390
699.735842	4609.706694
700.071581	4580.921706
700.407270	4553.200401
700.742910	4540.463926
701.078501	4487.756142
701.414042	4484.348322
701.749533	4456.627017
702.084974	4389.998086
702.420366	4447.232826
702.755709	4390.524887
703.091002	4328.317048
703.426246	4379.610789
703.761440	4338.976568
704.096584	4301.384684
704.431679	4322.539886
704.766725	4306.267041
705.101721	4296.719096
705.436668	4322.398734
705.771565	4271.147843
706.106413	4298.027275
706.441212	4333.668233
706.775961	4343.604347
707.110661	4320.062159
707.445311	4343.422866
707.779913	4369.863718
708.114465	4383.255543
708.448967	4405.091301
708.783421	4467.364674
709.117825	4505.513606
709.452180	4509.276827
709.786485	4558.092841
710.120742	4640.314060
710.454949	4625.215804
710.789107	4693.541083
711.123216	4768.409779
711.457275	4754.259260
711.791286	4829.218697
712.125247	4846.240153
712.459159	4751.723560
712.793023	4828.754911
713.126837	4785.590031
713.460602	4778.976037
713.794318	4696.371691
714.127985	4706.915264
714.461602	4618.780771
714.795171	4590.167182
715.128691	4526.139487
715.462162	4471.843739
715.795584	4423.491512
716.128957	4404.713214
716.462281	4353.686655
716.795556	4324.609280
717.128782	4291.829177
717.461960	4217.913258
717.795088	4230.851380
718.128167	4192.704969
718.461198	4133.917553
718.794180	4127.464876
719.127113	4107.280096
719.459997	4086.223197
719.792833	4044.200138
720.125619	4033.921225
720.458357	3996.727592
720.791046	4004.778315
721.123686	3975.874859
721.456278	3935.908592
721.788821	3954.036581
722.121315	3926.355605
722.453761	3898.959455
722.786158	3912.925971
723.118506	3935.422120
723.450805	3889.356057
723.783056	3907.506731
724.115259	3924.457611
724.447412	3930.081018
724.779518	3926.075821
725.111574	3931.129578
725.443582	3959.775935
725.775542	3941.652987
726.107453	3995.288343
726.439315	3992.525791
726.771129	4006.441896
727.102895	4043.670817
727.434612	4091.168568
727.766281	4100.529991
728.097901	4101.513016
728.429473	4108.719346
728.760996	4115.968525
729.092471	4108.179942
729.423897	4096.365998
729.755276	4101.288685
730.086606	4099.320114
730.417887	4136.405363
730.749120	4203.525805
731.080305	4268.022328
731.411442	4295.239517
731.742530	4257.811471
732.073570	4264.289353
732.404562	4323.270853
732.735506	4312.266014
733.066401	4278.593627
733.397249	4210.694326
733.728048	4133.889827
734.058798	4050.375552
734.389501	3980.850478
734.720156	3917.664656
735.050762	3873.662945
735.381320	3871.429713
735.711831	3817.925427
736.042293	3789.765542
736.372707	3811.462668
736.703073	3784.583236
737.033391	3772.723921
737.363661	3792.775111
737.693883	3815.233451
738.024056	3824.882219
738.354182	3822.671673
738.684260	3884.821539
739.014290	3904.325763
739.344272	3898.674629
739.674207	3944.382771
740.004093	3946.769758
740.333931	3939.563428
740.663722	3944.166002
740.993464	3939.253397
741.323159	3914.612237
741.652806	3888.325141
741.982405	3860.787838
742.311956	3830.480421
742.641460	3819.886436
742.970915	3796.306439
743.300323	3752.939913
743.629683	3720.353894
743.958996	3709.401988
744.288260	3685.580015
744.617477	3654.196312
744.946647	3640.020587
745.275768	3611.162502
745.604842	3610.335753
745.933869	3566.424782
746.262847	3554.598235
746.591778	3594.309925
746.920662	3562.517888
747.249498	3533.730379
747.578286	3578.599169
747.907027	3598.547015
748.235720	3594.246910
748.564365	3618.704068
748.892963	3615.505456
749.221514	3604.359465
749.550017	3578.200918
749.878473	3577.086823
750.206881	3547.470044
750.535242	3543.459806
750.863555	3544.551216
751.191821	3539.898231
751.520039	3521.321579
751.848210	3499.556397
752.176334	3533.193496
752.504411	3542.857388
752.832440	3499.329545
753.160421	3483.301197
753.488356	3491.863596
753.816243	3506.823220
754.144082	3461.140284
754.471875	3445.555557
754.799620	3463.895275
755.127318	3457.611477
755.454969	3453.853296
755.782572	3464.490131
756.110129	3437.824948
756.437638	3430.348917
756.765100	3446.674693
757.092515	3455.448822
757.419882	3459.759008
757.747203	3432.075512
758.074477	3433.555090
758.401703	3452.207360
758.728882	3469.420379
759.056014	3476.694764
759.383099	3481.244406
759.710138	3475.396667
760.037129	3495.026920
760.364073	3525.742671
760.690970	3506.059486
761.017820	3486.978718
761.344623	3507.433200
761.671379	3552.511198
761.998088	3601.538939
762.324751	3727.106520
762.651366	3975.302688
762.977935	4442.894913
763.304456	4883.648035
763.630931	4974.804700
763.957359	4616.189618
764.283740	4274.490128
764.610074	4090.639247
764.936362	3893.373856
765.262602	3731.633476
765.588796	3624.569451
765.914943	3536.439999
766.241044	3451.206691
766.567097	3421.320210
766.893104	3372.655431
767.219064	3341.647294
767.544978	3314.573777
767.870845	3260.504882
768.196665	3243.400247
768.522438	3251.579519
768.848165	3248.184302
769.173846	3211.507387
769.499479	3195.572300
769.825066	3175.634536
770.150607	3161.602484
770.476101	3174.308713
770.801548	3171.246212
771.126949	3125.076804
771.452303	3108.682972
771.777611	3117.099178
772.102872	3120.711165
772.428087	3095.349120
772.753256	3086.325455
773.078378	3076.197777
773.403453	3043.780637
773.728482	3034.295706
774.053465	3054.286401
774.378401	3043.808363
774.703291	3011.398785
775.028135	3016.389527
775.352932	3005.772857
775.677683	2995.882113
776.002388	2990.543532
776.327046	2992.154180
776.651658	2984.589929
776.976224	2973.779174
777.300743	2971.964359
777.625216	2962.297947
777.949643	2956.533387
778.274024	2960.596557
778.598359	2950.668005
778.922647	2954.005248
779.246889	2951.046091
779.571086	2937.187959
779.895236	2933.641508
780.219339	2943.645677
780.543397	2957.138326
780.867409	2958.532205
781.191374	2951.512398
781.515294	2950.499126
781.839167	2946.927468
782.162995	2940.552929
782.486776	2952.971812
782.810511	2946.907304
783.134201	2931.249480
783.457844	2939.383382
783.781441	2931.188986
784.104993	2909.983373
784.428498	2913.660894
784.751958	2926.404931
785.075372	2918.898653
785.398739	2904.712846
785.722061	2920.879827
786.045337	2931.988009
786.368568	2915.316913
786.691752	2907.026736
787.014891	2955.923408
787.337983	2984.579847
787.661030	3011.708816
787.984031	3079.517376
788.306987	3124.247534
788.629897	3115.533900
788.952760	3100.602002
789.275579	3086.451483
789.598351	3026.439068
789.921078	2981.499702
790.243759	2975.735142
790.566395	2960.359623
790.888984	2934.374995
791.211529	2916.753642
791.534027	2909.726274
791.856480	2898.103893
792.178888	2884.202912
792.501249	2874.531458
792.823566	2874.047507
793.145836	2869.608771
793.468062	2866.891589
793.790241	2862.886393
794.112375	2869.707074
794.434464	2881.929351
794.756507	2887.121740
795.078505	2889.861607
795.400457	2908.909607
795.722364	2940.542847
796.044226	2965.577217
796.366042	2966.177114
796.687812	2959.905919
797.009538	2977.209680
797.331218	2963.369192
797.652852	2953.561627
797.974442	2931.909871
798.295986	2928.582710
798.617484	2925.129519
798.938938	2905.958011
799.260346	2890.411093
799.581709	2888.150135
799.903026	2882.763662
800.224299	2878.065307
800.545526	2868.035931
800.866708	2853.948427
801.187845	2841.932837
801.508936	2842.474761
801.829983	2849.630679
802.150984	2837.559636
802.471940	2823.913232
802.792851	2822.335351
803.113717	2825.181082
803.434538	2830.048317
803.755314	2822.279898
804.076045	2818.960299
804.396731	2817.354691
804.717372	2817.710092
805.037967	2809.566108
805.358518	2818.788899
805.679024	2830.189469
805.999485	2824.916422
806.319901	2827.547904
806.640272	2822.206802
806.960598	2828.077225
807.280879	2834.328256
807.601115	2841.431242
807.921306	2830.426403
808.241453	2825.982626
808.561554	2832.757937
808.881611	2835.328925
809.201623	2829.713080
809.521590	2826.453974
809.841513	2823.184786
810.161390	2826.476659
810.481223	2819.068683
810.801011	2808.996458
811.120755	2807.312713
811.440453	2810.347487
811.760107	2814.292190
812.079716	2809.175419
812.399281	2798.699901
812.718801	2793.013480
813.038276	2789.018365
813.357707	2793.391566
813.677093	2800.565128
813.996434	2795.586989
814.315731	2788.862090
814.634983	2787.069959
814.954191	2789.058695
815.273354	2799.451033
815.592473	2810.733136
815.911547	2807.794143
816.230577	2819.950885
816.549562	2828.432627
816.868502	2826.388439
817.187399	2837.831858
817.506250	2854.482789
817.825058	2849.534897
818.143821	2857.751977
818.462539	2874.234030
818.781213	2900.632032
819.099843	2938.551591
819.418429	2994.110148
819.736970	3055.478634
820.055466	3124.817185
820.373919	3231.253587
820.692327	3369.597972
821.010691	3533.470760
821.329011	3972.270434
821.647286	4860.609962
821.965517	6226.298868
822.283704	6946.929290
822.601847	6920.768222
822.919945	6297.069107
823.237999	5804.492923
823.556010	5228.578905
823.873976	4685.684444
824.191897	4282.682003
824.509775	3988.820542
824.827609	3725.763053
825.145398	3603.731841
825.463144	3595.955862
825.780845	3687.341898
826.098502	3786.556847
826.416116	4068.657296
826.733685	4381.828896
827.051210	4440.621353
827.368692	4324.677335
827.686129	4064.657140
828.003522	3744.546392
828.320872	3489.408554
828.638177	3296.879327
828.955439	3158.923111
829.272656	3078.728436
829.589830	3013.778210
829.906960	2967.114769
830.224046	2917.406472
830.541088	2885.889178
830.858086	2870.443082
831.175041	2851.969774
831.491952	2854.576051
831.808819	2868.471991
832.125642	2889.728016
832.442421	2933.218051
832.759157	3014.869619
833.075849	3193.059284
833.392497	3470.650421
833.709101	3671.938653
834.025662	3618.313379
834.342179	3458.261785
834.658653	3288.901701
834.975083	3141.442910
835.291469	3045.875236
835.607811	2964.763071
835.924110	2902.855181
836.240366	2856.194261
836.556578	2813.039463
836.872746	2789.464507
837.188871	2766.222268
837.504952	2750.801378
837.820990	2743.206880
838.136984	2730.704818
838.452935	2725.048644
838.768842	2720.559496
839.084706	2739.262177
839.400526	2817.697490
839.716303	2947.459310
840.032037	3027.550642
840.347727	3009.881398
840.663373	2951.882923
840.978977	2875.718650
841.294537	2804.088895
841.610054	2758.332862
841.925527	2737.701940
842.240957	2715.281408
842.556344	2692.724765
842.871687	2679.237158
843.186987	2671.496466
843.502244	2664.456495
843.817458	2659.017090
844.132629	2648.740698
844.447756	2638.534882
844.762840	2634.138996
845.077881	2638.209727
845.392879	2634.660755
845.707833	2633.087915
846.022745	2621.815895
846.337613	2626.675567
846.652438	2627.693881
846.967221	2626.148767
847.281960	2623.119033
847.596656	2620.797582
847.911309	2621.679784
848.225919	2618.594598
848.540485	2614.407920
848.855009	2614.407920
849.169490	2612.509925
849.483928	2617.656943
849.798323	2614.652416
850.112675	2612.888012
850.426984	2613.634102
850.741251	2610.183433
851.055474	2610.163268
851.369654	2617.004114
851.683792	2615.693414
851.997887	2612.285594
852.311938	2609.878443
852.625947	2612.464555
852.939914	2616.368928
853.253837	2615.794237
853.567718	2613.737446
853.881555	2613.266098
854.195350	2615.932869
854.509103	2616.263064
854.822812	2610.009513
855.136479	2613.291304
855.450103	2613.669391
855.763685	2616.235338
856.077224	2613.455142
856.390720	2610.402723
856.704173	2612.182250
857.017584	2618.249279
857.330953	2616.817591
857.644278	2620.101903
857.957561	2619.496964
858.270802	2614.914556
858.584000	2614.967488
858.897155	2620.391769
859.210268	2619.799434
859.523339	2615.464041
859.836367	2611.020264
860.149352	2611.713423
860.462295	2612.716612
860.775195	2608.280397
861.088054	2608.456837
861.400869	2607.935078
861.713642	2602.440220
862.026373	2606.876436
862.339062	2612.600666
862.651708	2615.794237
862.964312	2613.180399
863.276873	2614.261726
863.589392	2616.071500
863.901869	2624.994343
864.214303	2624.023921
864.526696	2628.099693
864.839045	2629.428037
865.151353	2632.780405
865.463619	2631.016001
865.775842	2631.318470
866.088023	2630.358130
866.400162	2633.949952
866.712258	2635.464819
867.024313	2632.223357
867.336325	2626.708335
867.648296	2631.595734
867.960224	2636.155457
868.272110	2633.692854
868.583954	2626.070629
868.895755	2627.053654
869.207515	2633.793677
869.519233	2639.351549
869.830909	2636.188225
870.142542	2632.014149
870.454134	2631.618419
870.765684	2638.865077
871.077191	2639.238123
871.388657	2644.276756
871.700081	2642.555202
872.011463	2642.366159
872.322803	2642.222486
872.634101	2648.158445
872.945357	2653.464259
873.256571	2659.032213
873.567744	2655.601708
873.878874	2655.599188
874.189963	2657.139260
874.501010	2657.703869
874.812015	2665.963800
875.122979	2665.568069
875.433900	2654.404434
875.744780	2655.289157
876.055618	2660.363078
876.366415	2666.470436
876.677169	2663.438182
876.987882	2659.501041
877.298554	2658.003818
877.609183	2667.919768
877.919771	2676.061231
878.230317	2681.919052
878.540822	2690.927594
878.851285	2705.892259
879.161707	2731.329921
879.472087	2767.671599
879.782425	2811.065852
880.092722	2926.155394
880.402977	3110.066769
880.713191	3364.695449
881.023363	3647.473933
881.333494	3835.072912
881.643583	4003.800331
881.953631	4001.299919
882.263637	3830.508147
882.573602	3610.083695
882.883526	3484.992504
883.193408	3374.077037
883.503248	3272.961573
883.813048	3163.918895
884.122806	3051.140721
884.432522	2964.742906
884.742197	2904.531365
885.051831	2865.351517
885.361424	2833.602330
885.670975	2798.195786
885.980485	2767.298554
886.289954	2752.533014
886.599382	2738.445510
886.908768	2726.351782
887.218113	2707.437373
887.527417	2697.118131
887.836680	2686.380473
888.145901	2683.141532
888.455082	2674.117866
888.764221	2661.091525
889.073319	2658.898623
889.382376	2657.724034
889.691392	2656.267141
890.000366	2657.565238
890.309300	2655.291677
890.618193	2655.208498
890.927044	2661.189827
891.235855	2657.693787
891.544625	2657.983653
891.853353	2660.143788
892.162041	2667.642504
892.470687	2685.082376
892.779293	2697.039993
893.087858	2706.194728
893.396381	2729.247925
893.704864	2767.938781
894.013306	2839.044256
894.321707	2929.555652
894.630068	2974.744555
894.938387	2997.245746
895.246665	2989.527739
895.554903	2944.197684
895.863100	2904.536406
896.171256	2847.309227
896.479371	2787.077521
896.787446	2750.012437
897.095480	2731.108111
897.403473	2726.205588
897.711425	2711.470296
898.019336	2693.884231
898.327207	2680.147086
898.635038	2679.925276
898.942827	2677.742456
899.250576	2667.206444
899.558284	2655.311842
899.865952	2651.029382
900.173579	2651.878816
900.481165	2647.649288
900.788711	2639.159985
901.096216	2631.605816
901.403681	2633.380302
901.711105	2631.356279
902.018489	2627.018366
902.325832	2631.782256
902.633135	2633.914664
902.940397	2650.459731
903.247619	2683.610359
903.554800	2750.839187
903.861941	2880.154865
904.169041	2996.234994
904.476101	3056.015517
904.783121	3051.002090
905.090100	2995.763646
905.397039	2921.199940
905.703938	2850.510360
906.010796	2793.116823
906.317614	2738.518607
906.624391	2703.757330
906.931129	2680.782272
907.237826	2654.354023
907.544483	2639.157464
907.851099	2625.808489
908.157675	2617.404886
908.464211	2612.094030
908.770707	2598.553491
909.077163	2598.966865
909.383578	2592.315063
909.689954	2591.324476
909.996289	2586.747108
910.302584	2587.962027
910.608839	2586.237952
910.915054	2589.986050
911.221229	2589.993612
911.527363	2588.559403
911.833458	2589.310535
912.139513	2589.973447
912.445527	2592.252048
912.751502	2595.531319
913.057436	2601.280755
913.363331	2604.854933
913.669186	2617.566202
913.975000	2631.590692
914.280775	2647.929072
914.586510	2666.946825
914.892205	2702.343287
915.197859	2765.261928
915.503475	2848.042715
915.809050	2913.643250
916.114585	2924.048192
916.420081	2936.618309
916.725536	2949.579115
917.030952	2921.714138
917.336328	2880.364073
917.641665	2829.662668
917.946961	2777.998403
918.252218	2747.406161
918.557435	2721.144270
918.862612	2701.524099
919.167750	2683.867458
919.472848	2670.364727
919.777906	2651.772952
920.082925	2642.179636
920.387904	2631.739407
920.692843	2624.089456
920.997743	2622.380504
921.302603	2615.322889
921.607423	2610.254009
921.912204	2603.660180
922.216946	2604.756631
922.521647	2600.877463
922.826310	2595.674992
923.130932	2591.488314
923.435516	2586.164855
923.740059	2584.307190
924.044564	2583.314083
924.349028	2582.631006
924.653454	2573.642629
924.957840	2571.716908
925.262186	2568.440158
925.566493	2568.916547
925.870761	2560.754919
926.174989	2568.447720
926.479178	2561.979920
926.783328	2564.417317
927.087438	2561.869014
927.391509	2560.651576
927.695541	2561.407749
927.999533	2561.246432
928.303486	2556.336348
928.607400	2560.167625
928.911275	2556.162428
929.215110	2556.293498
929.518906	2557.251317
929.822663	2556.661502
930.126381	2558.181410
930.430060	2556.202757
930.733699	2557.304249
931.037299	2557.901626
931.340861	2560.681823
931.644383	2559.804662
931.947866	2555.471790
932.251309	2558.438509
932.554714	2556.301060
932.858080	2559.905485
933.161407	2554.942469
933.464694	2557.274003
933.767943	2556.545556
934.071153	2553.644372
934.374323	2557.422717
934.677455	2556.628735
934.980548	2555.779300
935.283602	2554.675288
935.586617	2554.849207
935.889593	2554.929866
936.192530	2555.817109
936.495428	2552.794937
936.798287	2555.091183
937.101108	2555.890206
937.403890	2559.865156
937.706632	2563.625856
938.009336	2564.104766
938.312002	2566.970662
938.614628	2569.723132
938.917216	2573.776220
939.219765	2575.056673
939.522275	2577.090778
939.824747	2575.815366
940.127179	2570.711198
940.429573	2569.478636
940.731929	2569.665159
941.034246	2566.232133
941.336524	2568.021742
941.638763	2567.487380
941.940964	2565.060065
942.243126	2564.288768
942.545250	2564.165260
942.847335	2562.037893
943.149381	2563.207441
943.451389	2560.719631
943.753359	2559.406411
944.055290	2560.354147
944.357182	2558.471277
944.659036	2557.364743
944.960851	2555.423899
945.262628	2555.257541
945.564367	2558.070505
945.866067	2556.656461
946.167729	2557.067315
946.469352	2559.250135
946.770937	2558.289795
947.072484	2558.506565
947.373992	2556.222922
947.675462	2555.071018
947.976893	2556.399362
948.278286	2554.534135
948.579641	2552.051367
948.880958	2554.884496
949.182236	2555.612942
949.483476	2554.894578
949.784678	2556.427089
950.085841	2552.217725
950.386967	2554.100596
950.688054	2553.772921
950.989103	2556.510268
951.290114	2554.856769
951.591087	2555.421378
951.892021	2561.317008
952.192917	2561.954714
952.493776	2560.056719
952.794596	2560.921277
953.095378	2565.423028
953.396122	2559.862635
953.696828	2563.671227
953.997496	2557.909188
954.298126	2554.617314
954.598718	2555.370967
954.899272	2554.609753
955.199788	2554.599670
955.500266	2553.135215
955.800706	2550.707900
956.101108	2545.969215
956.401472	2549.094730
956.701798	2545.896118
957.002087	2543.335212
957.302337	2547.821839
957.602550	2545.255892
957.902724	2546.155738
958.202861	2545.066848
958.502960	2544.771941
958.803022	2546.140614
959.103045	2542.503422
959.403031	2542.846220
959.702979	2545.303783
960.002889	2542.584080
960.302762	2538.445293
960.602596	2542.337064
960.902393	2542.694986
961.202153	2541.964018
961.501875	2542.140459
961.801559	2539.836651
962.101205	2544.187167
962.400814	2539.541744
962.700385	2539.385468
962.999918	2540.512166
963.299414	2538.596527
963.598873	2542.750438
963.898293	2537.507638
964.197677	2541.260777
964.497022	2540.673483
964.796331	2539.140972
965.095601	2538.306661
965.394835	2540.413863
965.694030	2538.238606
965.993189	2539.491332
966.292309	2537.873122
966.591393	2541.336395
966.890439	2539.536703
967.189447	2541.359080
967.488419	2536.063348
967.787353	2539.602238
968.086249	2539.849254
968.385108	2541.311189
968.683930	2540.560057
968.982714	2539.156096
969.281462	2540.098791
969.580172	2540.565098
969.878844	2542.034594
970.177480	2540.078627
970.476078	2539.506456
970.774639	2544.096426
971.073162	2542.551313
971.371649	2538.820859
971.670098	2535.760878
971.968510	2540.083668
972.266885	2536.834644
972.565223	2541.432177
972.863524	2538.770447
973.161788	2540.063503
973.460014	2540.297917
973.758204	2541.848072
974.056356	2539.733308
974.354471	2539.571991
974.652550	2539.221631
974.950591	2539.793802
975.248595	2538.412525
975.546563	2539.372865
975.844493	2540.365972
976.142386	2541.401930
976.440243	2540.071065
976.738062	2539.163657
977.035845	2537.878163
977.333590	2540.807073
977.631299	2538.984696
977.928971	2541.159954
978.226606	2539.609799
978.524204	2539.408153
978.821765	2538.825900
979.119290	2538.422608
979.416777	2536.600231
979.714228	2538.067206
980.011642	2538.911600
980.309020	2543.108360
980.606360	2540.229861
980.903664	2539.309851
981.200931	2540.106353
981.498162	2541.774975
981.795356	2542.934440
982.092513	2546.155738
982.389633	2547.322765
982.686717	2551.892571
982.983764	2553.523384
983.280775	2554.647561
983.577749	2554.836605
983.874686	2551.655637
984.171587	2548.406613
984.468451	2549.225800
984.765279	2544.837476
985.062070	2546.019627
985.358824	2541.336395
985.655543	2542.100129
985.952224	2538.916641
986.248869	2538.359593
986.545478	2535.574356
986.842050	2536.880015
987.138586	2533.764582
987.435086	2535.720549
987.731549	2531.165867
988.027975	2537.311033
988.324366	2537.757175
988.620719	2537.923533
988.917037	2537.169881
989.213318	2537.535365
989.509563	2536.706095
989.805772	2535.755837
990.101944	2536.224665
990.398080	2537.200128
990.694180	2536.023018
990.990244	2535.896990
991.286271	2535.602082
991.582262	2537.563091
991.878217	2533.981351
992.174136	2536.643080
992.470019	2534.162833
992.765865	2536.751465
993.061676	2537.270704
993.357450	2537.343801
993.653188	2536.932947
993.948890	2537.217772
994.244556	2536.222144
994.540186	2537.784902
994.835780	2539.188863
995.131337	2536.817000
995.426859	2535.231557
995.722345	2534.399767
996.017795	2539.589635
996.313208	2539.882022
996.608586	2540.575180
996.903928	2539.380427
997.199234	2537.600900
997.494504	2540.071065
997.789738	2536.612833
998.084936	2537.255581
998.380099	2537.127031
998.675225	2535.798687
998.970316	2537.895807
999.265371	2538.944367
999.560390	2534.951773
999.855373	2537.031249
1000.150320	2535.090405
1000.445232	2536.333049
1000.740108	2534.770292
1001.034948	2535.564273
1001.329752	2537.283307
1001.624521	2534.238450
1001.919254	2530.565969
1002.213951	2532.075795
1002.508613	2531.279293
1002.803239	2531.841381
1003.097829	2534.193080
1003.392384	2532.486649
1003.686903	2536.307844
1003.981386	2536.078471
1004.275834	2536.169212
1004.570246	2534.548481
1004.864623	2531.758202
1005.158964	2534.482946
1005.453270	2535.276928
1005.747540	2535.592000
1006.041775	2534.268697
1006.335974	2533.555374
1006.630138	2534.377082
1006.924266	2533.961187
1007.218359	2533.086546
1007.512416	2534.702236
1007.806438	2535.435724
1008.100425	2533.323481
1008.394376	2535.818852
1008.688292	2534.934129
1008.982172	2533.326001
1009.276017	2533.028573
1009.569827	2532.579910
1009.863602	2535.652494
1010.157341	2534.737524
1010.451045	2533.633512
1010.744714	2533.399098
1011.038347	2534.656866
1011.331945	2535.105528
1011.625508	2530.389529
1011.919036	2530.661751
1012.212528	2533.504962
1012.505986	2532.063192
1012.799408	2533.646114
1013.092795	2534.430014
1013.386147	2531.637215
1013.679464	2532.776515
1013.972745	2530.727286
1014.265992	2533.762061
1014.559204	2534.616537
1014.852380	2532.703419
1015.145521	2533.439427
1015.438628	2530.676875
1015.731699	2536.015457
1016.024736	2534.515713
1016.317737	2533.101670
1016.610703	2534.283820
1016.903635	2532.630322
1017.196531	2530.669313
1017.489393	2530.971782
1017.782219	2531.244005
1018.075011	2532.025383
1018.367768	2532.910106
1018.660490	2533.459592
1018.953177	2533.459592
1019.245829	2533.459592
