Dividing Wavelength (nm)	Counts (n)	Blue Motor Position (mm): 44.100000	Red Motor Position (mm): 0.000000	
326.493990	2128.788528
326.888308	2128.788528
327.282561	2128.788528
327.676750	2099.806935
328.070874	2093.588672
328.464933	2098.997830
328.858929	2104.739704
329.252859	2115.815119
329.646726	2126.068826
330.040528	2139.652215
330.434265	2155.173928
330.827938	2173.221258
331.221547	2191.659279
331.615091	2210.389686
332.008571	2229.425083
332.401986	2249.463669
332.795338	2266.812800
333.188625	2288.275513
333.581847	2303.487194
333.975006	2325.262458
334.368100	2341.883143
334.761129	2361.936853
335.154095	2376.233565
335.546996	2397.310629
335.939833	2422.302149
336.332606	2436.762699
336.725315	2454.714248
337.117960	2461.648355
337.510540	2471.518934
337.903056	2480.005717
338.295508	2486.342447
338.687896	2498.801659
339.080220	2504.442710
339.472480	2510.844976
339.864676	2515.679442
340.256807	2521.726306
340.648875	2524.539270
341.040879	2525.953314
341.432818	2526.780063
341.824694	2528.163860
342.216506	2527.541277
342.608253	2529.845084
342.999937	2530.553367
343.391557	2529.154446
343.783113	2527.155629
344.174605	2526.238139
344.566033	2527.379960
344.957397	2526.585978
345.348697	2523.470545
345.739934	2520.924763
346.131106	2517.953003
346.522215	2517.360667
346.913260	2515.074504
347.304241	2513.110974
347.695159	2512.165758
348.086012	2512.190964
348.476802	2509.960253
348.867528	2506.655777
349.258191	2503.691578
349.648789	2504.929182
350.039324	2501.942298
350.429796	2506.164264
350.820203	2497.009529
351.210548	2500.765188
351.600828	2498.980620
351.991045	2500.230826
352.381198	2496.054230
352.771288	2497.488438
353.161314	2497.392657
353.551276	2496.460043
353.941175	2497.417862
354.331010	2497.062461
354.720782	2495.035917
355.110490	2497.070023
355.500135	2497.662358
355.889717	2499.850219
356.279235	2498.211844
356.668689	2498.143788
357.058080	2496.878459
357.447408	2495.335866
357.836672	2497.014570
358.225873	2497.906854
358.615010	2497.251504
359.004084	2501.317195
359.393095	2501.430621
359.782043	2500.177894
360.170927	2503.905827
360.559748	2503.557988
360.948505	2502.053203
361.337199	2501.329798
361.725830	2505.050169
362.114398	2503.384068
362.502903	2508.513442
362.891344	2506.136538
363.279722	2505.450941
363.668037	2509.491426
364.056289	2505.735766
364.444478	2507.782475
364.832603	2508.213493
365.220665	2510.809688
365.608665	2511.948988
365.996601	2512.644667
366.384474	2510.751714
366.772284	2510.368587
367.160031	2513.211797
367.547715	2513.083248
367.935336	2513.917559
368.322893	2512.069976
368.710388	2514.419154
369.097820	2515.989473
369.485189	2514.683814
369.872495	2515.228259
370.259738	2515.157683
370.646918	2514.356139
371.034035	2515.576098
371.421090	2517.096006
371.808081	2516.019720
372.195010	2516.675070
372.581875	2518.648682
372.968678	2518.623476
373.355418	2517.877385
373.742096	2519.959382
374.128710	2520.080369
374.515262	2521.176820
374.901751	2522.434588
375.288177	2521.885103
375.674540	2523.341996
376.060841	2527.949611
376.447079	2529.424148
376.833254	2531.407842
377.219367	2526.812830
377.605417	2536.562422
377.991404	2538.198276
378.377329	2543.758669
378.763191	2549.800492
379.148991	2560.951524
379.534727	2567.575600
379.920402	2580.790985
380.306013	2589.116451
380.691563	2606.790736
381.077049	2618.365225
381.462474	2633.259314
381.847835	2653.600370
382.233134	2668.706188
382.618371	2678.339833
383.003545	2711.039277
383.388657	2727.738099
383.773706	2747.721233
384.158693	2768.952052
384.543618	2795.380302
384.928480	2822.126143
385.313280	2859.725589
385.698017	2876.822662
386.082692	2918.707089
386.467305	2942.551747
386.851856	2978.477530
387.236344	3007.764113
387.620770	3046.749876
388.005133	3087.915939
388.389435	3120.244858
388.773674	3150.706030
389.157851	3200.976417
389.541965	3231.997157
389.926018	3232.193762
390.310008	3304.312509
390.693936	3337.390040
391.077802	3389.024058
391.461606	3409.226482
391.845348	3476.102429
392.229027	3493.766632
392.612645	3528.893392
392.996200	3610.136627
393.379694	3660.792662
393.763125	3738.698653
394.146494	3730.037951
394.529801	3803.543015
394.913047	3860.102241
395.296230	3850.513966
395.679351	3913.987134
396.062410	3956.758804
396.445408	3951.705047
396.828343	3996.614166
397.211217	4032.481976
397.594028	3967.405721
397.976778	4043.297772
398.359466	4079.314295
398.742092	4113.382413
399.124656	4046.042680
399.507158	4132.027120
399.889598	4162.810926
400.271977	4231.040423
400.654294	4207.329356
401.036549	4218.790419
401.418742	4191.159855
401.800874	4299.305208
402.182944	4321.587108
402.564952	4389.577150
402.946898	4377.521230
403.328783	4372.674161
403.710606	4289.908497
404.092367	4481.119462
404.474067	4448.987148
404.855705	4459.087100
405.237282	4389.209146
405.618797	4496.694107
406.000250	4532.892112
406.381642	4612.260039
406.762972	4576.566149
407.144240	4585.327674
407.525447	4588.400257
407.906593	4647.306140
408.287677	4690.894477
408.668700	4615.940081
409.049661	4669.129295
409.430560	4709.019946
409.811399	4636.323987
410.192176	4800.695849
410.572891	4734.724789
410.953545	4838.265048
411.334138	4723.387234
411.714669	4788.521462
412.095139	4686.609496
412.475547	4826.347760
412.855894	4806.276406
413.236180	4815.010205
413.616405	4771.048823
413.996568	4856.236761
414.376670	4799.715344
414.756711	4758.879478
415.136691	4783.550885
415.516609	4863.969891
415.896466	4899.295777
416.276262	4936.285243
416.655997	4917.580042
417.035670	5096.062094
417.415283	5190.971897
417.794834	5131.700531
418.174324	5089.243933
418.553753	4993.179706
418.933121	5180.778684
419.312428	5243.457871
419.691674	5184.582235
420.070859	5307.934228
420.449983	5224.866095
420.829045	5340.825237
421.208047	5241.973251
421.586988	5316.383202
421.965867	5331.002548
422.344686	5464.920800
422.723444	5316.385723
423.102141	5136.950893
423.480777	5430.625831
423.859352	5202.637127
424.237866	5460.920645
424.616319	5454.692299
424.994712	5561.166509
425.373044	5437.751502
425.751314	5581.356331
426.129524	5384.438779
426.507673	5574.772584
426.885762	5658.894318
427.263789	5593.445017
427.641756	5474.002439
428.019662	5593.850830
428.397508	5601.036995
428.775292	5551.540426
429.153016	5643.775897
429.530679	5579.894396
429.908282	5657.460110
430.285824	5536.051481
430.663305	5803.424199
431.040726	5538.889651
431.418086	5539.686153
431.795385	5642.528212
432.172624	5660.328526
432.549802	5653.336446
432.926920	5666.892108
433.303977	5674.537018
433.680974	5710.356937
434.057910	5728.847889
434.434786	5737.921966
434.811601	5708.842070
435.188355	5938.161638
435.565050	5812.959541
435.941683	5795.368435
436.318257	6011.220560
436.694770	5990.448486
437.071222	6026.654053
437.447614	5958.701819
437.823946	5868.860896
438.200218	6028.428539
438.576429	5892.619854
438.952580	5990.997972
439.328670	6031.218818
439.704700	5943.475014
440.080670	5928.308703
440.456580	6199.643768
440.832429	6084.922229
441.208218	5927.257622
441.583947	6084.342497
441.959616	6088.685451
442.335224	6013.300036
442.710773	6155.090050
443.086261	6179.973185
443.461689	5971.539118
443.837057	6124.830524
444.212365	6273.292505
444.587612	6170.047153
444.962800	6319.454350
445.337927	6299.473737
445.712995	5911.756074
446.088002	6492.678479
446.462949	6316.182642
446.837837	6254.052941
447.212664	6428.842348
447.587431	6569.997176
447.962139	7109.287212
448.336786	8034.417080
448.711374	7774.875795
449.085901	6850.502099
449.460369	6771.048474
449.834776	6705.788217
450.209124	7098.153823
450.583412	7251.583861
450.957640	7391.596868
451.331808	7156.248080
451.705917	6711.237704
452.079965	6636.767259
452.453954	6844.518250
452.827883	6720.142902
453.201752	6814.667057
453.575562	6613.280523
453.949311	6825.553429
454.323001	6704.870727
454.696632	6780.495596
455.070202	6919.369302
455.443713	7077.684218
455.817164	7172.198291
456.190556	7257.040910
456.563888	7334.357087
456.937160	7376.763273
457.310373	7033.168309
457.683526	7057.524644
458.056619	6948.247552
458.429653	6936.456293
458.802628	6875.758280
459.175542	6978.882644
459.548398	7337.807757
459.921194	7498.252560
460.293930	7495.270718
460.666607	8028.067747
461.039224	8335.081578
461.411782	8461.997667
461.784280	8477.920152
462.156719	8368.043162
462.529099	8249.339113
462.901419	7835.243612
463.273680	7729.545740
463.645882	7745.012000
464.018024	7607.096113
464.390106	7776.161289
464.762130	8165.986154
465.134094	8639.605079
465.505999	9660.247169
465.877845	10882.059024
466.249631	11526.036181
466.621358	11144.904785
466.993026	10508.156643
467.364634	10257.926369
467.736184	9891.394155
468.107674	9556.921159
468.479105	9590.671684
468.850477	9356.104275
469.221790	9128.649934
469.593043	8799.591137
469.964238	8658.065784
470.335373	8672.717898
470.706449	8731.240653
471.077467	8714.511584
471.448425	10020.417447
471.819324	11098.342168
472.190164	11116.651638
472.560945	9868.325835
472.931667	9079.987676
473.302330	8945.517418
473.672934	8590.287471
474.043479	8947.246533
474.413965	8889.492554
474.784393	8774.438300
475.154761	8929.738606
475.525070	9019.917287
475.895321	8842.226696
476.265513	9023.186475
476.635645	9197.386067
477.005719	9198.588382
477.375734	9306.277510
477.745691	9540.461792
478.115588	9673.409622
478.485427	9921.106716
478.855207	10457.694693
479.224928	11272.902202
479.594591	11901.622307
479.964194	11707.941176
480.333739	11641.108079
480.703226	11561.785523
481.072653	11657.741366
481.442022	11896.215669
481.811333	12079.708628
482.180584	11886.796273
482.549777	11596.642581
482.918912	11420.938205
483.287988	11445.612133
483.657005	11452.387443
484.025964	11136.095369
484.394864	11269.292736
484.763706	11238.798796
485.132489	10997.118319
485.501213	10955.677514
485.869879	11029.918587
486.238487	10868.284071
486.607036	10991.399130
486.975527	10776.005750
487.343959	10958.666918
487.712333	11009.116265
488.080648	10936.914339
488.448905	10985.314457
488.817104	10918.788871
489.185244	11185.080261
489.553326	11339.677326
489.921350	11878.919470
490.289315	12949.040485
490.657222	13284.798976
491.025070	13188.452443
491.392861	13066.602714
491.760593	12679.553004
492.128267	12332.620796
492.495883	12004.993687
492.863440	11671.516319
493.230939	11328.705254
493.598380	11267.190575
493.965763	11137.753908
494.333088	11033.797754
494.700354	10946.179980
495.067563	11019.357369
495.434713	10846.531492
495.801805	10969.336520
496.168839	10890.792823
496.535815	10828.832001
496.902733	10826.684469
497.269593	10767.602146
497.636395	10872.952179
498.003139	10853.884015
498.369825	10721.495753
498.736453	10880.314784
499.103023	10809.738631
499.469535	10836.915491
499.835989	10827.087762
500.202385	10784.590835
500.568723	10639.594647
500.935003	10856.026505
501.301226	10669.798720
501.667390	10926.443863
502.033497	11014.890907
502.399546	10888.272246
502.765537	10792.152565
503.131470	10864.815757
503.497345	11037.140039
503.863163	10654.219034
504.228923	10958.016609
504.594625	11023.274346
504.960269	10771.042734
505.325856	10993.622279
505.691385	10785.780547
506.056856	10939.180338
506.422270	10960.547268
506.787625	10853.329488
507.152924	10969.550769
507.518164	10949.575197
507.883347	10874.643486
508.248472	10794.221959
508.613540	11020.673110
508.978550	10907.824361
509.343503	10890.707123
509.708398	11003.278609
510.073236	11115.056113
510.438016	11122.675817
510.802738	11066.230018
511.167403	11125.544234
511.532010	11020.962977
511.896561	11253.123235
512.261053	11323.157465
512.625488	11185.949860
512.989866	11176.263283
513.354186	11163.524287
513.718449	11055.704088
514.082655	11255.348904
514.446803	11145.219857
514.810894	11275.843715
515.174927	11141.103755
515.538904	11162.241313
515.902822	11310.947790
516.266684	11196.929493
516.630488	11140.443364
516.994235	11198.469565
517.357925	11258.925603
517.721558	11346.555980
518.085133	11365.533404
518.448651	11373.100176
518.812112	11256.813359
519.175516	11277.905547
519.538863	11394.608259
519.902152	11309.745475
520.265385	11472.123561
520.628560	11382.587627
520.991678	11358.362362
521.354739	11420.991137
521.717743	11352.872546
522.080690	11339.652120
522.443580	11466.306069
522.806413	11426.120511
523.169189	11459.412291
523.531908	11516.367248
523.894569	11334.926038
524.257174	11339.863848
524.619722	11456.364914
524.982213	11404.496482
525.344647	11457.131169
525.707025	11406.775083
526.069345	11497.803198
526.431608	11416.139027
526.793815	11529.290245
527.155964	11318.950622
527.518057	11371.096317
527.880093	11321.362814
528.242072	11383.356403
528.603995	11285.799994
528.965860	11215.453213
529.327669	11264.327199
529.689421	11216.201824
530.051117	11182.153871
530.412755	11288.670931
530.774337	11178.622543
531.135862	11160.486992
531.497331	11184.170332
531.858743	11034.344720
532.220098	11202.212622
532.581396	11066.817312
532.942638	11057.047556
533.303824	11020.436176
533.664953	11034.611901
534.026025	10943.760226
534.387040	11052.964221
534.747999	11047.895341
535.108902	11110.645104
535.469748	10864.946827
535.830537	10966.445418
536.191270	10944.501276
536.551947	10962.740170
536.912567	10966.107661
537.273131	10892.126208
537.633638	10872.347241
537.994089	10864.425067
538.354483	10808.964813
538.714821	10961.462238
539.075103	10963.834101
539.435328	10931.946282
539.795497	10750.623540
540.155609	10913.099928
540.515665	10998.441622
540.875665	10736.168031
541.235609	10804.021962
541.595496	10794.781527
541.955328	10959.042484
542.315102	10838.200985
542.674821	10789.712647
543.034483	10780.948601
543.394090	10790.194077
543.753640	10716.394105
544.113134	10945.391039
544.472571	10799.346292
544.831953	10939.974320
545.191278	10742.877807
545.550548	10783.834662
545.909761	10920.018912
546.268918	10889.187215
546.628019	10970.077570
546.987064	10836.824750
547.346053	10748.594476
547.704986	10857.669921
548.063863	10842.443116
548.422684	10833.643782
548.781449	10749.688406
549.140158	10854.867040
549.498811	10728.671836
549.857408	10588.777296
550.215949	10817.126442
550.574434	10659.623151
550.932864	10764.401013
551.291237	10825.983749
551.649555	10770.324369
552.007817	10785.069744
552.366022	10750.938612
552.724173	10739.533002
553.082267	10730.726106
553.440305	10859.416681
553.798288	10660.631382
554.156215	10819.833541
554.514086	10794.030395
554.871902	10640.489452
555.229661	10682.870432
555.587365	10661.455611
555.945014	10551.354290
556.302606	10676.841212
556.660143	10570.165356
557.017625	10725.359798
557.375050	10619.392223
557.732421	10757.860116
558.089735	10666.978195
558.446994	10671.371560
558.804197	10701.678977
559.161345	10710.899248
559.518437	10559.082379
559.875474	10637.827723
560.232455	10672.089925
560.589381	10628.894798
560.946251	10622.553027
561.303065	10724.452390
561.659825	10664.321507
562.016528	10594.201577
562.373177	10478.953239
562.729770	10587.625392
563.086307	10508.809472
563.442789	10595.212329
563.799216	10478.615481
564.155587	10526.493840
564.511904	10479.243105
564.868164	10471.721703
565.224370	10484.153189
565.580520	10408.578731
565.936615	10408.480428
566.292654	10282.638105
566.648638	10413.796325
567.004567	10367.644562
567.360441	10349.980359
567.716260	10262.125650
568.072023	10358.530156
568.427732	10312.751437
568.783385	10218.544875
569.138982	10288.223703
569.494525	10307.382609
569.850013	10182.576242
570.205445	10264.752091
570.560823	10159.341564
570.916145	10078.017670
571.271412	10147.585593
571.626625	10091.613662
571.981782	10067.461494
572.336884	10040.025014
572.691931	10050.142610
573.046923	9994.435340
573.401860	9946.209141
573.756743	9888.187981
574.111570	9930.548797
574.466342	9912.183873
574.821059	9940.260580
575.175722	9825.463424
575.530330	9841.811886
575.884882	9844.763482
576.239380	9763.399259
576.593823	9740.351103
576.948211	9758.426161
577.302544	9632.314135
577.656823	9645.325353
578.011047	9655.251385
578.365216	9628.475297
578.719330	9549.114932
579.073389	9566.113703
579.427394	9511.376855
579.781344	9485.293925
580.135239	9434.083363
580.489080	9440.394888
580.842866	9344.408798
581.196597	9354.773410
581.550273	9398.190348
581.903895	9362.173824
582.257463	9427.711345
582.610975	9303.925812
582.964434	9331.495883
583.317837	9251.391948
583.671186	9238.486594
584.024481	9227.592661
584.377721	9151.677925
584.730906	9126.915777
585.084037	9158.748143
585.437113	9093.066950
585.790135	9112.296431
586.143103	9011.700206
586.496016	8987.061567
586.848874	9044.132469
587.201679	9038.110811
587.554428	8918.280063
587.907124	8964.908216
588.259765	8936.818907
588.612352	8936.826468
588.964884	8806.918454
589.317362	8829.097011
589.669786	8827.151125
590.022155	8874.061582
590.374470	8892.786948
590.726731	8827.083070
591.078937	8680.075462
591.431090	8797.090725
591.783188	8668.450561
592.135232	8654.965475
592.487222	8653.659816
592.839157	8708.510090
593.191038	8640.751941
593.542866	8589.732944
593.894639	8485.761666
594.246358	8540.243937
594.598022	8552.582161
594.949633	8453.994835
595.301190	8425.653468
595.652692	8457.097666
596.004141	8570.702588
596.355535	8346.749328
596.706876	8326.579672
597.058162	8262.357893
597.409395	8336.530910
597.760573	8400.770333
598.111698	8305.759707
598.462768	8293.824775
598.813785	8262.045341
599.164748	8227.969662
599.515657	8221.670740
599.866511	8130.589693
600.217312	8255.343127
600.568060	8117.560831
600.918753	8214.577836
601.269392	8187.605143
601.619978	8097.272707
601.970510	8163.526071
602.320988	8157.537181
602.671412	8214.421561
603.021783	8153.849577
603.372100	8127.867470
603.722363	8127.565000
604.072572	8102.928882
604.422728	8111.778627
604.772830	8043.360087
605.122878	8049.376704
605.472872	8042.762710
605.822813	8073.168430
606.172701	8023.356789
606.522534	8091.301460
606.872314	8091.540915
607.222041	8059.781646
607.571714	8116.809699
607.921333	8075.101712
608.270899	8082.950789
608.620411	8172.731218
608.969870	8071.093995
609.319276	8069.301865
609.668627	8086.439267
610.017926	8122.954865
610.367171	8168.047986
610.716362	8145.342629
611.065500	8136.137483
611.414585	8163.576483
611.763616	8149.927559
612.112594	8135.829972
612.461518	8144.299111
612.810389	8214.424081
613.159207	8149.557034
613.507971	8093.093590
613.856682	8217.300059
614.205340	8172.877412
614.553945	8254.796162
614.902496	8153.862179
615.250994	8204.044345
615.599439	8186.123043
615.947830	8199.966052
616.296169	8172.985797
616.644454	8184.756891
616.992686	8183.211777
617.340864	8242.450376
617.688990	8147.283474
618.037063	8236.126248
618.385082	8180.232455
618.733048	8271.414325
619.080961	8208.546096
619.428821	8226.530412
619.776628	8226.346410
620.124382	8180.628186
620.472083	8165.292996
620.819731	8190.352572
621.167326	8081.572033
621.514868	8092.229032
621.862357	7978.271229
622.209793	7997.399887
622.557176	7930.481091
622.904506	7900.166112
623.251783	7834.621030
623.599007	7789.341386
623.946179	7792.131665
624.293297	7750.032989
624.640363	7669.266143
624.987376	7657.404307
625.334336	7601.583611
625.681243	7548.233080
626.028097	7539.161523
626.374899	7505.373190
626.721647	7509.343098
627.068343	7434.855009
627.414987	7405.691934
627.761577	7361.602003
628.108115	7405.714619
628.454600	7298.396016
628.801032	7347.822009
629.147412	7302.496994
629.493739	7297.070192
629.840014	7234.343115
630.186236	7287.565097
630.532405	7172.994793
630.878521	7228.061837
631.224585	7180.269178
631.570597	7101.848989
631.916556	7133.366283
632.262462	7132.778988
632.608316	7095.678617
632.954117	7071.299597
633.299866	7060.226702
633.645562	7054.648666
633.991206	6975.237890
634.336797	6915.911071
634.682336	6870.770058
635.027823	6841.922056
635.373257	6831.570046
635.718639	6764.424398
636.063968	6778.668178
636.409245	6672.866961
636.754470	6667.571229
637.099642	6630.140662
637.444762	6568.525159
637.789829	6579.003197
638.134845	6523.401791
638.479808	6505.724985
638.824719	6506.234142
639.169577	6436.419202
639.514383	6459.429549
639.859137	6385.692591
640.203839	6396.765486
640.548489	6384.903651
640.893086	6359.188725
641.237632	6333.867009
641.582125	6349.608012
641.926566	6321.574156
642.270955	6340.075190
642.615292	6331.091854
642.959576	6343.553586
643.303809	6336.359860
643.647990	6340.932186
643.992118	6331.217883
644.336195	6280.418176
644.680219	6303.166382
645.024192	6292.711029
645.368112	6391.436986
645.711981	6412.874493
646.055797	6489.716801
646.399562	6445.891530
646.743274	6574.141004
647.086935	6624.814683
647.430544	6618.810669
647.774101	6643.529967
648.117606	6651.366440
648.461059	6642.100799
648.804460	6603.372135
649.147810	6513.707652
649.491108	6482.971737
649.834354	6453.864115
650.177548	6371.090889
650.520690	6279.588906
650.863781	6264.853613
651.206820	6288.415966
651.549807	6205.932607
651.892742	6147.792980
652.235626	6146.086549
652.578458	6140.919366
652.921238	6046.760695
653.263967	6083.359472
653.606644	6027.926944
653.949269	6031.433067
654.291843	5971.529035
654.634365	6021.214648
654.976836	5976.723944
655.319255	5974.707483
655.661622	5951.490449
656.003938	5943.207833
656.346203	5908.711217
656.688416	5940.878820
657.030577	5890.830245
657.372687	5855.005285
657.714746	5851.668041
658.056753	5887.954266
658.398708	5832.884702
658.740612	5822.754503
659.082465	5872.419951
659.424266	5862.277149
659.766016	5859.396130
660.107715	5836.847049
660.449362	5850.518658
660.790958	5847.178893
661.132503	5832.332695
661.473996	5869.957347
661.815438	5856.174833
662.156829	5853.487898
662.498168	5849.465057
662.839456	5824.148382
663.180693	5856.489905
663.521879	5862.889649
663.863013	5844.922977
664.204097	5861.702458
664.545129	5906.074694
664.886110	5903.571761
665.227040	5937.150887
665.567918	5900.899949
665.908746	5928.689310
666.249522	5932.946564
666.590248	5920.005923
666.930922	5950.333504
667.271545	5963.737932
667.612118	5967.155834
667.952639	5937.050064
668.293109	5959.064783
668.633528	5916.179687
668.973896	5924.953815
669.314213	5912.393780
669.654480	5891.427621
669.994695	5884.231374
670.334859	5878.812134
670.674973	5869.110433
671.015035	5873.942379
671.355047	5870.317790
671.695008	5858.178691
672.034918	5831.377397
672.374777	5840.907698
672.714585	5828.050235
673.054342	5830.424619
673.394049	5826.421943
673.733705	5857.820769
674.073310	5839.259241
674.412864	5805.828829
674.752368	5793.651922
675.091820	5797.478158
675.431223	5730.607252
675.770574	5738.753757
676.109875	5686.542526
676.449125	5689.887332
676.788324	5655.171426
677.127473	5598.594556
677.466571	5595.186736
677.805619	5582.556125
678.144616	5570.626235
678.483562	5549.428183
678.822458	5515.516341
679.161303	5508.693139
679.500098	5501.554865
679.838842	5486.333101
680.177535	5492.445500
680.516179	5502.232900
680.854771	5514.898799
681.193314	5596.479792
681.531805	5704.794024
681.870247	5861.500812
682.208638	5956.173681
682.546978	5970.782945
682.885268	5947.989368
683.223508	5863.925607
683.561697	5811.190096
683.899836	5782.468122
684.237925	5735.376183
684.575963	5693.579977
684.913951	5656.766951
685.251889	5721.858329
685.589776	5687.369275
685.927614	5659.395913
686.265401	5728.477364
686.603137	5713.711825
686.940824	5789.676972
687.278460	5812.238656
687.616046	5829.030740
687.953582	5889.184308
688.291068	5872.019179
688.628504	5938.398572
688.965889	5900.824332
689.303224	5843.995405
689.640510	5795.938085
689.977745	5723.320264
690.314930	5624.291838
690.652065	5567.309155
690.989150	5469.334330
691.326185	5400.245317
691.663170	5347.035938
692.000105	5265.132312
692.336990	5187.836300
692.673825	5167.482641
693.010610	5094.267443
693.347345	5026.421074
693.684030	5012.968755
694.020665	4972.102641
694.357251	4879.486563
694.693786	4891.968460
695.030272	4856.796329
695.366707	4821.041946
695.703093	4787.692192
696.039429	4810.188342
696.375716	4791.072286
696.711952	4767.691415
697.048139	4757.722533
697.384276	4732.710848
697.720363	4744.300461
698.056400	4758.191360
698.392388	4707.971386
698.728326	4687.413560
699.064214	4664.468748
699.400053	4661.428933
699.735842	4624.447028
700.071581	4595.377214
700.407270	4574.237136
700.742910	4553.853230
701.078501	4502.630066
701.414042	4499.968337
701.749533	4466.966423
702.084974	4400.163573
702.420366	4461.098520
702.755709	4399.115013
703.091002	4347.632229
703.426246	4398.404210
703.761440	4351.700440
704.096584	4315.547806
704.431679	4332.874251
704.766725	4319.991583
705.101721	4307.807114
705.436668	4338.916074
705.771565	4289.671563
706.106413	4314.771468
706.441212	4348.834544
706.775961	4353.381665
707.110661	4333.927853
707.445311	4360.822408
707.779913	4387.548085
708.114465	4398.918408
708.448967	4420.703754
708.783421	4484.365966
709.117825	4524.851472
709.452180	4533.660888
709.786485	4576.387188
710.120742	4661.607894
710.454949	4644.987209
710.789107	4710.426427
711.123216	4786.084064
711.457275	4776.536119
711.791286	4854.394220
712.125247	4867.682701
712.459159	4772.044451
712.793023	4845.811655
713.126837	4807.992919
713.460602	4797.860200
713.794318	4717.247109
714.127985	4723.924117
714.461602	4637.649810
714.795171	4606.712249
715.128691	4546.120100
715.462162	4483.970235
715.795584	4441.647228
716.128957	4417.283331
716.462281	4368.190055
716.795556	4342.223071
717.128782	4304.500117
717.461960	4235.501844
717.795088	4248.480295
718.128167	4205.002863
718.461198	4145.345849
718.794180	4141.766630
719.127113	4121.206284
719.459997	4102.276751
719.792833	4059.237900
720.125619	4044.217782
720.458357	4012.574459
720.791046	4015.813401
721.123686	3989.357425
721.456278	3949.418884
721.788821	3962.223415
722.121315	3938.353551
722.453761	3912.527720
722.786158	3929.327365
723.118506	3948.173719
723.450805	3902.286616
723.783056	3923.162034
724.115259	3938.771967
724.447412	3943.107359
724.779518	3934.429013
725.111574	3940.722894
725.443582	3972.136844
725.775542	3956.176551
726.107453	4008.879294
726.439315	4006.096577
726.771129	4022.510574
727.102895	4058.254875
727.434612	4107.602730
727.766281	4119.439359
728.097901	4119.106643
728.429473	4121.488588
728.760996	4130.529898
729.092471	4126.151656
729.423897	4110.423256
729.755276	4116.918782
730.086606	4117.435501
730.417887	4155.226510
730.749120	4218.707240
731.080305	4285.116880
731.411442	4310.867094
731.742530	4277.829893
732.073570	4284.098567
732.404562	4339.571424
732.735506	4327.308818
733.066401	4288.277684
733.397249	4229.901122
733.728048	4147.606806
734.058798	4066.913057
734.389501	3992.727437
734.720156	3930.403652
735.050762	3890.013927
735.381320	3882.469840
735.711831	3831.526460
736.042293	3800.329280
736.372707	3826.404648
736.703073	3792.555820
737.033391	3782.796147
737.363661	3805.506545
737.693883	3828.037982
738.024056	3839.098273
738.354182	3835.796317
738.684260	3896.166655
739.014290	3915.388575
739.344272	3911.789191
739.674207	3958.445070
740.004093	3958.934062
740.333931	3955.879123
740.663722	3958.147642
740.993464	3955.042291
741.323159	3930.927932
741.652806	3898.316707
741.982405	3872.548850
742.311956	3842.735466
742.641460	3832.151563
742.970915	3809.826813
743.300323	3766.354423
743.629683	3734.499372
743.958996	3723.232393
744.288260	3699.526367
744.617477	3663.847601
744.946647	3649.056856
745.275768	3625.696149
745.604842	3623.140284
745.933869	3574.412491
746.262847	3565.126685
746.591778	3605.007253
746.920662	3575.408118
747.249498	3545.362842
747.578286	3590.133329
747.907027	3608.205865
748.235720	3605.337449
748.564365	3631.876603
748.892963	3633.116727
749.221514	3614.300620
749.550017	3590.594594
749.878473	3588.021085
750.206881	3559.251220
750.535242	3552.917011
750.863555	3559.462949
751.191821	3549.267215
751.520039	3532.253321
751.848210	3512.025691
752.176334	3541.521482
752.504411	3552.619582
752.832440	3511.390506
753.160421	3494.366529
753.488356	3504.423631
753.816243	3513.371679
754.144082	3473.039928
754.471875	3458.481076
754.799620	3474.900114
755.127318	3469.856439
755.454969	3465.924339
755.782572	3473.730566
756.110129	3450.384983
756.437638	3438.712191
756.765100	3452.887915
757.092515	3464.333855
757.419882	3470.557160
757.747203	3442.704785
758.074477	3446.762913
758.401703	3462.186324
758.728882	3484.304386
759.056014	3487.248420
759.383099	3491.586333
759.710138	3488.175992
760.037129	3505.754496
760.364073	3538.239691
760.690970	3524.036240
761.017820	3500.899865
761.344623	3516.535003
761.671379	3561.945717
761.998088	3615.608800
762.324751	3740.856267
762.651366	3992.006552
762.977935	4464.728151
763.304456	4910.247684
763.630931	5007.766284
763.957359	4648.344618
764.283740	4299.161535
764.610074	4105.656845
764.936362	3907.368099
765.262602	3751.866147
765.588796	3639.206441
765.914943	3550.661094
766.241044	3461.593988
766.567097	3430.253135
766.893104	3384.217318
767.219064	3353.133563
767.544978	3325.520643
767.870845	3270.057868
768.196665	3250.263778
768.522438	3259.214346
768.848165	3256.600508
769.173846	3219.162379
769.499479	3203.275183
769.825066	3183.518901
770.150607	3168.861746
770.476101	3182.576205
770.801548	3176.307530
771.126949	3133.387146
771.452303	3114.981894
771.777611	3124.673512
772.102872	3130.120479
772.428087	3102.913371
772.753256	3090.865014
773.078378	3083.572985
773.403453	3050.732388
773.728482	3037.721170
774.053465	3061.018862
774.378401	3047.432953
774.703291	3019.441946
775.028135	3017.319620
775.352932	3011.897859
775.677683	3000.777074
776.002388	2996.676095
776.327046	2997.517968
776.651658	2988.902636
776.976224	2976.992910
777.300743	2976.781182
777.625216	2967.823051
777.949643	2961.191413
778.274024	2965.040334
778.598359	2954.002728
778.922647	2957.687811
779.246889	2955.996504
779.571086	2942.632405
779.895236	2936.600665
780.219339	2946.577108
780.543397	2957.650003
780.867409	2964.258955
781.191374	2956.172945
781.515294	2950.468879
781.839167	2953.405351
782.162995	2944.903445
782.486776	2951.333437
782.810511	2950.282356
783.134201	2936.451951
783.457844	2944.847993
783.781441	2935.663010
784.104993	2914.681728
784.428498	2917.640885
784.751958	2928.045827
785.075372	2922.535846
785.398739	2908.226530
785.722061	2924.517019
786.045337	2938.639812
786.368568	2919.836308
786.691752	2916.380597
787.014891	2961.531691
787.337983	2989.331134
787.661030	3020.780372
787.984031	3085.375197
788.306987	3132.726755
788.629897	3124.096300
788.952760	3107.831017
789.275579	3095.613781
789.598351	3034.918288
789.921078	2989.265599
790.243759	2978.724546
790.566395	2964.125365
790.888984	2940.852878
791.211529	2921.104158
791.534027	2913.413878
791.856480	2902.777043
792.178888	2886.186606
792.501249	2877.835934
792.823566	2876.124463
793.145836	2874.493649
793.468062	2870.972403
793.790241	2866.873945
794.112375	2873.089688
794.434464	2885.901781
794.756507	2890.413613
795.078505	2894.486866
795.400457	2908.337436
795.722364	2948.588529
796.044226	2969.998309
796.366042	2975.001654
796.687812	2963.165025
797.009538	2984.330309
797.331218	2970.681385
797.652852	2954.554734
797.974442	2937.528237
798.295986	2935.494132
798.617484	2928.595313
798.938938	2914.316244
799.260346	2899.593554
799.581709	2893.952503
799.903026	2886.015207
800.224299	2879.691079
800.545526	2871.947867
800.866708	2856.005218
801.187845	2846.424505
801.508936	2846.782427
801.829983	2854.036647
802.150984	2839.739935
802.471940	2825.644869
802.792851	2830.335662
803.113717	2827.860456
803.434538	2833.042762
803.755314	2826.764005
804.076045	2819.492140
804.396731	2821.438026
804.717372	2821.438026
805.037967	2814.612303
805.358518	2821.054898
805.679024	2832.904130
805.999485	2830.444047
806.319901	2835.671724
806.640272	2825.400373
806.960598	2830.693584
807.280879	2841.491736
807.601115	2848.796368
807.921306	2835.205417
808.241453	2829.841629
808.561554	2836.924450
808.881611	2839.548371
809.201623	2830.335662
809.521590	2828.697287
809.841513	2827.812565
810.161390	2832.410097
810.481223	2823.401555
810.801011	2815.265133
811.120755	2812.182467
811.440453	2812.530307
811.760107	2814.629947
812.079716	2811.839669
812.399281	2802.064872
812.718801	2794.520785
813.038276	2789.635907
813.357707	2797.137144
813.677093	2804.759368
813.996434	2798.417597
814.315731	2793.179838
814.634983	2788.650361
814.954191	2791.554066
815.273354	2804.378761
815.592473	2814.042653
815.911547	2818.209167
816.230577	2822.657985
816.549562	2832.367247
816.868502	2832.170642
817.187399	2841.337981
817.506250	2858.180476
817.825058	2850.364167
818.143821	2864.774305
818.462539	2884.817933
818.781213	2906.240316
819.099843	2944.790019
819.418429	3002.995182
819.736970	3062.324521
820.055466	3138.902169
820.373919	3243.944691
820.692327	3385.896022
821.010691	3556.992783
821.329011	4006.608254
821.647286	4915.419908
821.965517	6308.295756
822.283704	7063.944553
822.601847	7051.717235
822.919945	6408.544142
823.237999	5892.266973
823.556010	5305.088497
823.873976	4745.724587
824.191897	4326.950896
824.509775	4028.867469
824.827609	3755.906632
825.145398	3630.512971
825.463144	3621.207001
825.780845	3710.531206
826.098502	3817.759069
826.416116	4101.439919
826.733685	4425.134928
827.051210	4490.642202
827.368692	4374.725911
827.686129	4105.334211
828.003522	3774.132924
828.320872	3513.822862
828.638177	3314.011689
828.955439	3176.670493
829.272656	3090.184458
829.589830	3024.987215
829.906960	2973.701037
830.224046	2929.008687
830.541088	2895.149777
830.858086	2879.381048
831.175041	2860.015456
831.491952	2861.099304
831.808819	2873.364431
832.125642	2896.034500
832.442421	2943.073506
832.759157	3025.035106
833.075849	3205.626881
833.392497	3491.556086
833.709101	3696.799103
834.025662	3651.191784
834.342179	3488.564161
834.658653	3307.007005
834.975083	3157.340189
835.291469	3059.657751
835.607811	2969.262301
835.924110	2911.684762
836.240366	2858.374560
836.556578	2819.618169
836.872746	2795.110600
837.188871	2771.560850
837.504952	2755.456884
837.820990	2747.015472
838.136984	2733.147257
838.452935	2725.779611
838.768842	2720.935062
839.084706	2740.648494
839.400526	2820.238231
839.716303	2956.175465
840.032037	3039.427600
840.347727	3024.223480
840.663373	2961.476238
840.978977	2887.741802
841.294537	2811.237251
841.610054	2764.215888
841.925527	2739.100860
842.240957	2720.201574
842.556344	2698.804397
842.871687	2682.710513
843.186987	2669.321208
843.502244	2669.444717
843.817458	2662.190496
844.132629	2647.729947
844.447756	2642.600572
844.762840	2636.354583
845.077881	2638.323153
845.392879	2636.825931
845.707833	2628.318984
846.022745	2623.522326
846.337613	2626.121041
846.652438	2625.150618
846.967221	2624.863273
847.281960	2624.706997
847.596656	2622.819085
847.911309	2623.091307
848.225919	2620.485031
848.540485	2615.441356
848.855009	2615.408589
849.169490	2614.299535
849.483928	2613.538321
849.798323	2614.861623
850.112675	2614.110492
850.426984	2614.004627
850.741251	2609.873402
851.055474	2612.285594
851.369654	2619.166769
851.683792	2616.520163
851.997887	2611.327775
852.311938	2612.777106
852.625947	2612.583022
852.939914	2615.557303
853.253837	2616.467231
853.567718	2612.046139
853.881555	2610.279215
854.195350	2614.370111
854.509103	2613.911366
854.822812	2614.007148
855.136479	2611.728546
855.450103	2613.361880
855.763685	2615.789196
856.077224	2612.658639
856.390720	2609.601179
856.704173	2612.565378
857.017584	2616.875564
857.330953	2615.206942
857.644278	2618.680297
857.957561	2620.416975
858.270802	2616.036212
858.584000	2615.862292
858.897155	2616.348764
859.210268	2619.723816
859.523339	2616.005965
859.836367	2610.158227
860.149352	2612.038577
860.462295	2611.259719
860.775195	2607.345263
861.088054	2610.707713
861.400869	2609.074379
861.713642	2605.941302
862.026373	2608.373658
862.339062	2607.713267
862.651708	2617.571244
862.964312	2619.950668
863.276873	2613.808022
863.589392	2617.178034
863.901869	2621.437809
864.214303	2628.376957
864.526696	2628.956690
864.839045	2629.468367
865.151353	2631.484828
865.463619	2633.856691
865.775842	2630.665641
866.088023	2631.701598
866.400162	2637.135962
866.712258	2633.937350
867.024313	2634.897689
867.336325	2627.613222
867.648296	2630.776546
867.960224	2637.617392
868.272110	2634.025570
868.583954	2625.082563
868.895755	2628.457615
869.207515	2631.956176
869.519233	2642.784575
869.830909	2637.388019
870.142542	2633.357617
870.454134	2634.849798
870.765684	2641.166364
871.077191	2643.485295
871.388657	2646.346150
871.700081	2643.323978
872.011463	2644.238947
872.322803	2644.962353
872.634101	2648.992756
872.945357	2655.911739
873.256571	2661.177224
873.567744	2658.966678
873.878874	2660.579848
874.189963	2660.161432
874.501010	2660.453819
874.812015	2666.581341
875.122979	2669.326250
875.433900	2660.128664
875.744780	2656.496513
876.055618	2665.366423
876.366415	2670.513441
876.677169	2667.866836
876.987882	2663.100425
877.298554	2663.775939
877.609183	2673.346570
877.919771	2681.863599
878.230317	2684.921059
878.540822	2695.812472
878.851285	2711.145141
879.161707	2736.900396
879.472087	2780.602159
879.782425	2827.429437
880.092722	2943.149124
880.402977	3135.721201
880.713191	3401.074936
881.023363	3701.736913
881.333494	3899.372829
881.643583	4073.496804
881.953631	4071.679468
882.263637	3895.241604
882.573602	3667.048734
882.883526	3534.456305
883.193408	3416.606731
883.503248	3309.832572
883.813048	3190.947041
884.122806	3075.676017
884.432522	2990.024293
884.742197	2923.652461
885.051831	2882.216697
885.361424	2846.343846
885.670975	2809.613999
885.980485	2779.016716
886.289954	2758.945362
886.599382	2742.770820
886.908768	2735.541805
887.218113	2714.792416
887.527417	2701.652649
887.836680	2693.352389
888.145901	2688.258303
888.455082	2677.334122
888.764221	2670.493277
889.073319	2659.659837
889.382376	2659.813592
889.691392	2660.385763
890.000366	2660.884837
890.309300	2659.450629
890.618193	2660.529436
890.927044	2663.123110
891.235855	2663.072698
891.544625	2663.758295
891.853353	2664.990857
892.162041	2672.368586
892.470687	2691.419106
892.779293	2702.882690
893.087858	2712.861654
893.396381	2737.500294
893.704864	2777.746345
894.013306	2850.538086
894.321707	2949.889146
894.630068	3001.724811
894.938387	3022.859848
895.246665	3012.845596
895.554903	2970.426807
895.863100	2922.044333
896.171256	2864.824716
896.479371	2801.893472
896.787446	2762.058275
897.095480	2741.813001
897.403473	2735.655231
897.711425	2718.386759
898.019336	2698.905220
898.327207	2686.337623
898.635038	2683.010462
898.942827	2682.776048
899.250576	2668.701147
899.558284	2660.824344
899.865952	2656.120947
900.173579	2651.984680
900.481165	2650.444608
900.788711	2643.326499
901.096216	2636.382309
901.403681	2632.258645
901.711105	2635.459778
902.018489	2633.178656
902.325832	2636.263842
902.633135	2638.179481
902.940397	2653.993580
903.247619	2691.540094
903.554800	2761.725558
903.861941	2894.481824
904.169041	3024.810775
904.476101	3093.499017
904.783121	3084.578695
905.090100	3024.833460
905.397039	2946.471244
905.703938	2869.023998
906.010796	2801.628812
906.317614	2750.574526
906.624391	2716.145966
906.931129	2685.750329
907.237826	2662.167811
907.544483	2643.878505
907.851099	2630.080867
908.157675	2619.239866
908.464211	2613.160234
908.770707	2600.174222
909.077163	2601.237905
909.383578	2592.143664
909.689954	2594.404621
909.996289	2590.301122
910.302584	2592.259610
910.608839	2587.518405
910.915054	2588.335072
911.221229	2590.165011
911.527363	2590.195258
911.833458	2589.819692
912.139513	2591.584096
912.445527	2592.241966
912.751502	2598.818151
913.057436	2606.032043
913.363331	2613.777775
913.669186	2621.725154
913.975000	2635.061527
914.280775	2655.188334
914.586510	2672.965963
914.892205	2710.071376
915.197859	2780.496295
915.503475	2868.449306
915.809050	2935.766354
916.114585	2955.578088
916.420081	2965.733493
916.725536	2976.945019
917.030952	2949.639609
917.336328	2901.199162
917.641665	2845.847293
917.946961	2799.602268
918.252218	2764.977103
918.557435	2736.507186
918.862612	2711.387117
919.167750	2694.900023
919.472848	2677.538289
919.777906	2660.907523
920.082925	2647.336737
920.387904	2637.501445
920.692843	2630.209416
920.997743	2627.824951
921.302603	2619.859927
921.607423	2613.089658
921.912204	2608.474482
922.216946	2603.738317
922.521647	2600.068357
922.826310	2598.661876
923.130932	2592.448653
923.435516	2587.042016
923.740059	2586.656368
924.044564	2585.726275
924.349028	2584.057653
924.653454	2574.176991
924.957840	2571.905952
925.262186	2570.144068
925.566493	2569.929819
925.870761	2565.483522
926.174989	2565.909499
926.479178	2563.640980
926.783328	2564.445044
927.087438	2562.927657
927.391509	2561.432954
927.695541	2560.717111
927.999533	2558.040258
928.303486	2556.530432
928.607400	2554.506409
928.911275	2552.300904
929.215110	2555.270144
929.518906	2557.122768
929.822663	2554.924825
930.126381	2554.186296
930.430060	2556.890875
930.733699	2555.554969
931.037299	2556.500185
931.340861	2559.149312
931.644383	2558.756102
931.947866	2558.909857
932.251309	2555.433981
932.554714	2559.358520
932.858080	2555.088662
933.161407	2557.183262
933.464694	2554.977757
933.767943	2555.247459
934.071153	2552.013558
934.374323	2553.165462
934.677455	2555.161759
934.980548	2555.403734
935.283602	2551.464073
935.586617	2552.515153
935.889593	2555.224773
936.192530	2552.512633
936.495428	2553.770401
936.798287	2553.046995
937.101108	2554.922304
937.403890	2559.222408
937.706632	2563.693912
938.009336	2563.961093
938.312002	2568.780436
938.614628	2570.393605
938.917216	2575.303689
939.219765	2578.093968
939.522275	2577.420974
939.824747	2577.264698
940.127179	2567.600806
940.429573	2567.406722
940.731929	2568.692216
941.034246	2563.605692
941.336524	2568.336815
941.638763	2568.077195
941.940964	2566.711042
942.243126	2564.268603
942.545250	2565.274314
942.847335	2562.332800
943.149381	2562.025290
943.451389	2559.045968
943.753359	2558.617470
944.055290	2560.031514
944.357182	2556.500185
944.659036	2555.325597
944.960851	2559.797100
945.262628	2557.120247
945.564367	2554.902140
945.866067	2554.708055
946.167729	2561.122923
946.469352	2556.928683
946.770937	2558.110834
947.072484	2556.341389
947.373992	2556.855587
947.675462	2554.057746
947.976893	2555.756615
948.278286	2552.643703
948.579641	2555.733930
948.880958	2553.198230
949.182236	2554.241748
949.483476	2555.620504
949.784678	2554.806358
950.085841	2555.131512
950.386967	2555.592778
950.688054	2553.120092
950.989103	2554.392983
951.290114	2557.483210
951.591087	2553.649413
951.892021	2555.799465
952.192917	2559.706359
952.493776	2562.910013
952.794596	2561.415310
953.095378	2561.390105
953.396122	2561.869014
953.696828	2561.196020
953.997496	2558.524209
954.298126	2556.303580
954.598718	2557.614280
954.899272	2554.778631
955.199788	2552.626059
955.500266	2554.335010
955.800706	2548.625903
956.101108	2543.476364
956.401472	2546.327137
956.701798	2543.935109
957.002087	2542.795809
957.302337	2545.568443
957.602550	2545.331509
957.902724	2541.124666
958.202861	2544.734132
958.502960	2543.020140
958.803022	2539.259439
959.103045	2541.215407
959.403031	2540.111394
959.702979	2539.874460
960.002889	2541.530479
960.302762	2540.421425
960.602596	2538.944367
960.902393	2537.641229
961.202153	2540.013092
961.501875	2536.547298
961.801559	2539.085519
962.101205	2537.275745
962.400814	2536.191897
962.700385	2537.590817
962.999918	2538.304141
963.299414	2537.926054
963.598873	2537.061496
963.898293	2536.322967
964.197677	2536.169212
964.497022	2534.548481
964.796331	2537.542926
965.095601	2535.899510
965.394835	2536.043183
965.694030	2537.268183
965.993189	2536.587628
966.292309	2536.149047
966.591393	2534.498069
966.890439	2537.779861
967.189447	2534.931609
967.488419	2535.481094
967.787353	2534.077133
968.086249	2533.862884
968.385108	2537.386651
968.683930	2536.063348
968.982714	2539.977804
969.281462	2539.856816
969.580172	2537.479912
969.878844	2537.031249
970.177480	2538.014274
970.476078	2536.789274
970.774639	2541.021323
971.073162	2538.374717
971.371649	2533.925898
971.670098	2532.577390
971.968510	2535.279448
972.266885	2535.314736
972.565223	2539.927392
972.863524	2537.232895
973.161788	2540.547454
973.460014	2535.687782
973.758204	2540.038298
974.056356	2538.926723
974.354471	2537.245498
974.652550	2538.019315
974.950591	2538.231044
975.248595	2535.987730
975.546563	2536.552340
975.844493	2538.533513
976.142386	2538.604089
976.440243	2537.159799
976.738062	2535.844058
977.035845	2538.044521
977.333590	2537.850437
977.631299	2536.131403
977.928971	2538.841023
978.226606	2535.221475
978.524204	2539.108205
978.821765	2535.602082
979.119290	2534.127545
979.416777	2535.007226
979.714228	2533.532688
980.011642	2535.957483
980.309020	2538.198276
980.606360	2533.625950
980.903664	2537.409336
981.200931	2536.499407
981.498162	2536.154088
981.795356	2540.819676
982.092513	2543.872095
982.389633	2544.960984
982.686717	2548.847714
982.983764	2551.310318
983.280775	2553.795606
983.577749	2550.854093
983.874686	2552.704197
984.171587	2549.331665
984.468451	2547.108516
984.765279	2544.766900
985.062070	2543.330171
985.358824	2540.401261
985.655543	2541.381765
985.952224	2537.558050
986.248869	2535.178625
986.545478	2530.296268
986.842050	2536.144006
987.138586	2529.532533
987.435086	2530.845753
987.731549	2530.724766
988.027975	2534.140148
988.324366	2533.106711
988.620719	2533.363810
988.917037	2533.895652
989.213318	2533.520086
989.509563	2530.954138
989.805772	2535.934798
990.101944	2531.491021
990.398080	2533.308357
990.694180	2532.184180
990.990244	2534.671989
991.286271	2533.918337
991.582262	2533.338604
991.878217	2534.845909
992.174136	2535.939839
992.470019	2533.366330
992.765865	2533.714170
993.061676	2533.265507
993.357450	2533.641073
993.653188	2534.828265
993.948890	2537.217772
994.244556	2531.702750
994.540186	2535.685261
994.835780	2532.511855
995.131337	2533.288192
995.426859	2536.852288
995.722345	2533.996475
996.017795	2535.770961
996.313208	2537.588297
996.608586	2534.941691
996.903928	2536.627957
997.199234	2538.785571
997.494504	2536.723739
997.789738	2537.404295
998.084936	2533.688964
998.380099	2537.628626
998.675225	2530.029087
998.970316	2533.197452
999.265371	2535.012267
999.560390	2535.995292
999.855373	2532.043028
1000.150320	2532.277441
1000.445232	2533.673841
1000.740108	2535.067720
1001.034948	2533.396577
1001.329752	2532.037986
1001.624521	2533.479756
1001.919254	2527.193437
1002.213951	2530.873480
1002.508613	2529.870290
1002.803239	2528.844415
1003.097829	2527.637059
1003.392384	2529.903058
1003.686903	2533.046217
1003.981386	2532.370702
1004.275834	2532.196783
1004.570246	2530.684437
1004.864623	2530.389529
1005.158964	2527.664785
1005.453270	2529.305681
1005.747540	2532.106042
1006.041775	2531.901875
1006.335974	2530.392050
1006.630138	2530.636546
1006.924266	2530.102183
1007.218359	2531.717873
1007.512416	2531.596885
1007.806438	2532.169056
1008.100425	2531.995137
1008.394376	2528.967924
1008.688292	2530.729807
1008.982172	2531.259128
1009.276017	2534.563604
1009.569827	2529.383819
1009.863602	2532.960518
1010.157341	2532.259797
1010.451045	2530.896165
1010.744714	2530.427338
1011.038347	2531.352389
1011.331945	2527.901720
1011.625508	2531.405322
1011.919036	2531.090249
1012.212528	2530.500434
1012.505986	2530.903727
1012.799408	2529.104035
1013.092795	2531.503624
1013.386147	2529.524971
1013.679464	2530.765095
1013.972745	2530.954138
1014.265992	2528.506658
1014.559204	2531.949766
1014.852380	2532.103521
1015.145521	2531.463295
1015.438628	2531.617050
1015.731699	2531.874149
1016.024736	2528.355423
1016.317737	2530.535722
1016.610703	2531.304498
1016.903635	2526.686802
1017.196531	2526.190248
1017.489393	2529.403983
1017.782219	2527.080012
1018.075011	2530.104704
1018.367768	2530.336597
1018.660490	2532.552184
1018.953177	2532.552184
1019.245829	2532.552184
