Dividing Wavelength (nm)	Counts (n)	Blue Motor Position (mm): 46.700000	Red Motor Position (mm): 0.000000	
326.493990	2132.093005
326.888308	2132.093005
327.282561	2132.093005
327.676750	2097.326687
328.070874	2095.363158
328.464933	2101.105032
328.858929	2105.866402
329.252859	2114.771600
329.646726	2127.155195
330.040528	2139.082565
330.434265	2158.249032
330.827938	2172.245795
331.221547	2191.482838
331.615091	2209.419264
332.008571	2230.077912
332.401986	2248.289080
332.795338	2268.544437
333.188625	2288.315842
333.581847	2305.952319
333.975006	2325.469146
334.368100	2343.350118
334.761129	2360.706811
335.154095	2377.655170
335.546996	2400.872204
335.939833	2426.453540
336.332606	2441.221600
336.725315	2452.793568
337.117960	2458.578292
337.510540	2469.862915
337.903056	2480.409009
338.295508	2488.890751
338.687896	2498.083295
339.080220	2505.763492
339.472480	2511.964112
339.864676	2516.949813
340.256807	2520.292098
340.648875	2524.030113
341.040879	2527.158149
341.432818	2529.300640
341.824694	2532.068233
342.216506	2531.407842
342.608253	2534.112421
342.999937	2530.507996
343.391557	2530.132430
343.783113	2527.347193
344.174605	2530.797863
344.566033	2526.631349
344.957397	2525.509692
345.348697	2522.802593
345.739934	2522.605988
346.131106	2520.372756
346.522215	2519.956861
346.913260	2520.067767
347.304241	2513.746160
347.695159	2512.584174
348.086012	2512.420336
348.476802	2510.991169
348.867528	2508.392454
349.258191	2508.354646
349.648789	2505.181239
350.039324	2503.250477
350.429796	2504.306599
350.820203	2502.796773
351.210548	2499.724190
351.600828	2500.404746
351.991045	2500.613954
352.381198	2498.950373
352.771288	2499.719149
353.161314	2498.589931
353.551276	2496.936432
353.941175	2496.696977
354.331010	2499.966166
354.720782	2499.086484
355.110490	2499.053717
355.500135	2501.231495
355.889717	2498.257214
356.279235	2499.315857
356.668689	2501.723008
357.058080	2499.003305
357.447408	2497.702687
357.836672	2496.588593
358.225873	2499.169663
358.615010	2494.771257
359.004084	2501.728049
359.393095	2501.107987
359.782043	2505.829027
360.170927	2502.292658
360.559748	2505.428256
360.948505	2505.067813
361.337199	2507.338853
361.725830	2506.938081
362.114398	2509.630058
362.502903	2508.989831
362.891344	2509.299862
363.279722	2508.904131
363.668037	2509.640140
364.056289	2507.797598
364.444478	2511.974194
364.832603	2511.190295
365.220665	2513.668022
365.608665	2510.615603
365.996601	2512.838752
366.384474	2512.095182
366.772284	2516.337313
367.160031	2515.331603
367.547715	2513.612569
367.935336	2513.320182
368.322893	2514.822446
368.710388	2515.102230
369.097820	2520.193795
369.485189	2516.417971
369.872495	2517.179185
370.259738	2517.927797
370.646918	2520.965092
371.034035	2519.248579
371.421090	2523.639424
371.808081	2525.602953
372.195010	2525.295443
372.581875	2530.205527
372.968678	2535.463450
373.355418	2539.534182
373.742096	2547.751263
374.128710	2556.144784
374.515262	2562.705846
374.901751	2571.764799
375.288177	2578.872826
375.674540	2589.885227
376.060841	2604.224789
376.447079	2619.481841
376.833254	2632.162863
377.219367	2640.246354
377.605417	2665.532781
377.991404	2677.994514
378.377329	2694.532019
378.763191	2711.190512
379.148991	2741.318968
379.534727	2764.969541
379.920402	2787.586678
380.306013	2805.250881
380.691563	2842.023577
381.077049	2864.008049
381.462474	2890.632903
381.847835	2927.637493
382.233134	2955.459621
382.618371	2966.338431
383.003545	3026.343286
383.388657	3043.352139
383.773706	3077.984866
384.158693	3105.081068
384.543618	3136.676499
384.928480	3176.594876
385.313280	3227.364336
385.698017	3238.757344
386.082692	3295.503092
386.467305	3313.583191
386.851856	3348.936803
387.236344	3380.254971
387.620770	3417.199067
388.005133	3450.561423
388.389435	3483.333964
388.773674	3506.248529
389.157851	3553.766445
389.541965	3577.885846
389.926018	3548.609345
390.310008	3625.829739
390.693936	3646.483347
391.077802	3696.126109
391.461606	3686.807536
391.845348	3756.909822
392.229027	3762.964247
392.612645	3774.175773
392.996200	3856.212991
393.379694	3893.439391
393.763125	3963.708035
394.146494	3932.873817
394.529801	3995.056450
394.913047	4047.416394
395.296230	4014.225437
395.679351	4069.698294
396.062410	4093.427005
396.445408	4076.539140
396.828343	4108.774798
397.211217	4134.414107
397.594028	4052.908731
397.976778	4119.802322
398.359466	4147.654697
398.742092	4176.424562
399.124656	4100.411524
399.507158	4181.301879
399.889598	4206.353893
400.271977	4264.291874
400.654294	4240.303543
401.036549	4246.834358
401.418742	4217.351170
401.800874	4319.573167
402.182944	4339.848688
402.564952	4402.958893
402.946898	4394.991349
403.328783	4388.147983
403.710606	4302.803769
404.092367	4498.592102
404.474067	4457.993169
404.855705	4468.509016
405.237282	4395.525711
405.618797	4506.960417
406.000250	4539.208678
406.381642	4617.497798
406.762972	4579.900872
407.144240	4590.366307
407.525447	4592.513839
407.906593	4649.584742
408.287677	4693.707441
408.668700	4626.516422
409.049661	4671.748175
409.430560	4715.949012
409.811399	4641.160974
410.192176	4802.619049
410.572891	4742.465481
410.953545	4847.192931
411.334138	4724.133325
411.714669	4792.488850
412.095139	4688.744425
412.475547	4831.280529
412.855894	4808.217250
413.236180	4821.896421
413.616405	4773.831540
413.996568	4862.245817
414.376670	4806.727589
414.756711	4761.576495
415.136691	4794.485147
415.516609	4867.082804
415.896466	4905.375408
416.276262	4938.924287
416.655997	4919.669600
417.035670	5106.613229
417.415283	5191.423081
417.794834	5137.258403
418.174324	5091.514973
418.553753	4997.555427
418.933121	5180.531668
419.312428	5250.901134
419.691674	5188.899983
420.070859	5313.280372
420.449983	5228.160489
420.829045	5343.484445
421.208047	5252.126135
421.586988	5323.176157
421.965867	5334.493547
422.344686	5467.073373
422.723444	5325.878215
423.102141	5139.300070
423.480777	5436.176141
423.859352	5208.371440
424.237866	5467.484227
424.616319	5457.220438
424.994712	5565.975770
425.373044	5444.990598
425.751314	5583.161064
426.129524	5388.214603
426.507673	5587.236837
426.885762	5663.998486
427.263789	5592.182208
427.641756	5478.151308
428.019662	5598.516418
428.397508	5610.123675
428.775292	5557.604934
429.153016	5655.133617
429.530679	5577.124282
429.908282	5667.572664
430.285824	5536.530391
430.663305	5808.419982
431.040726	5547.961207
431.418086	5548.792997
431.795385	5654.465664
432.172624	5665.548641
432.549802	5655.468854
432.926920	5669.626934
433.303977	5676.596330
433.680974	5719.703236
434.057910	5736.064301
434.434786	5739.610753
434.811601	5707.377615
435.188355	5945.342762
435.565050	5817.665458
435.941683	5799.393796
436.318257	6014.961096
436.694770	5996.044167
437.071222	6034.291401
437.447614	5963.619465
437.823946	5877.168718
438.200218	6031.226379
438.576429	5893.915431
438.952580	5993.208518
439.328670	6040.512185
439.704700	5944.959634
440.080670	5934.816833
440.456580	6203.016299
440.832429	6085.141520
441.208218	5932.669301
441.583947	6088.592189
441.959616	6091.841213
442.335224	6016.501169
442.710773	6157.920658
443.086261	6184.427045
443.461689	5979.151260
443.837057	6123.582838
444.212365	6281.801972
444.587612	6169.061608
444.962800	6328.475495
445.337927	6307.995808
445.712995	5916.562814
446.088002	6498.259036
446.462949	6327.817625
446.837837	6255.850112
447.212664	6433.402071
447.587431	6569.883750
447.962139	7117.012780
448.336786	8039.238944
448.711374	7785.731920
449.085901	6857.368151
449.460369	6776.182889
449.834776	6712.941614
450.209124	7103.116839
450.583412	7249.862307
450.957640	7401.354021
451.331808	7164.432393
451.705917	6715.008487
452.079965	6638.012424
452.453954	6852.692481
452.827883	6729.602627
453.201752	6817.716955
453.575562	6616.096007
453.949311	6825.437483
454.323001	6722.088788
454.696632	6786.718900
455.070202	6927.909017
455.443713	7085.308963
455.817164	7182.515012
456.190556	7268.469206
456.563888	7340.361101
456.937160	7382.369036
457.310373	7038.877416
457.683526	7063.503452
458.056619	6958.952442
458.429653	6947.277130
458.802628	6875.027313
459.175542	6989.617781
459.548398	7344.109199
459.921194	7506.779672
460.293930	7503.979311
460.666607	8036.310033
461.039224	8340.669697
461.411782	8468.868760
461.784280	8488.935073
462.156719	8380.174699
462.529099	8251.675688
462.901419	7843.173347
463.273680	7741.952019
463.645882	7748.747495
464.018024	7611.517205
464.390106	7785.109337
464.762130	8172.905138
465.134094	8638.322105
465.505999	9663.768415
465.877845	10888.294931
466.249631	11533.882737
466.621358	11153.162195
466.993026	10518.188539
467.364634	10267.605384
467.736184	9902.436802
468.107674	9576.090147
468.479105	9605.104507
468.850477	9371.288230
469.221790	9140.965473
469.593043	8809.464237
469.964238	8677.050770
470.335373	8686.455042
470.706449	8746.170030
471.077467	8725.773522
471.448425	10037.232215
471.819324	11108.094280
472.190164	11132.596808
472.560945	9882.022650
472.931667	9095.839584
473.302330	8959.771280
473.672934	8606.567877
474.043479	8957.744736
474.413965	8893.883399
474.784393	8781.478272
475.154761	8942.628837
475.525070	9025.127319
475.895321	8855.537863
476.265513	9031.542188
476.635645	9199.861273
477.005719	9202.608702
477.375734	9314.406371
477.745691	9552.921003
478.115588	9685.175675
478.485427	9928.013097
478.855207	10465.463111
479.224928	11283.609613
479.594591	11911.359295
479.964194	11719.984493
480.333739	11665.839980
480.703226	11576.528378
481.072653	11668.620176
481.442022	11902.030640
481.811333	12097.400557
482.180584	11898.179199
482.549777	11607.972575
482.918912	11435.502099
483.287988	11459.714761
483.657005	11472.433592
484.025964	11144.408232
484.394864	11275.576534
484.763706	11242.365412
485.132489	11005.436223
485.501213	10972.767025
485.869879	11042.221522
486.238487	10883.415094
486.607036	11001.841880
486.975527	10787.209714
487.343959	10967.861983
487.712333	11018.964159
488.080648	10953.519900
488.448905	10989.881743
488.817104	10927.116857
489.185244	11192.475633
489.553326	11356.517300
489.921350	11897.712892
490.289315	12956.450982
490.657222	13298.127786
491.025070	13205.282335
491.392861	13078.099065
491.760593	12699.606714
492.128267	12340.172444
492.495883	12015.575069
492.863440	11686.377640
493.230939	11337.113899
493.598380	11274.210381
493.965763	11142.563169
494.333088	11040.525174
494.700354	10968.892899
495.067563	11025.714264
495.434713	10857.911897
495.801805	10982.962759
496.168839	10909.089691
496.535815	10843.748775
496.902733	10843.882366
497.269593	10773.490214
497.636395	10878.953673
498.003139	10861.808709
498.369825	10733.856662
498.736453	10891.740560
499.103023	10815.735083
499.469535	10842.533857
499.835989	10835.249390
500.202385	10799.691611
500.568723	10651.857254
500.935003	10872.511078
501.301226	10672.989771
501.667390	10936.972312
502.033497	11036.724144
502.399546	10889.782071
502.765537	10802.759153
503.131470	10869.846828
503.497345	11046.652697
503.863163	10659.887812
504.228923	10966.266457
504.594625	11033.858248
504.960269	10778.995154
505.325856	11003.233239
505.691385	10797.745726
506.056856	10943.886255
506.422270	10973.508075
506.787625	10859.933399
507.152924	10975.244752
507.518164	10960.481733
507.883347	10871.782632
508.248472	10801.208998
508.613540	11039.204392
508.978550	10918.047821
509.343503	10897.232897
509.708398	11008.309681
510.073236	11126.615479
510.438016	11125.178750
510.802738	11076.471122
511.167403	11128.584050
511.532010	11029.807681
511.896561	11262.527507
512.261053	11331.649288
512.625488	11204.776049
512.989866	11183.966166
513.354186	11176.318735
513.718449	11076.987840
514.082655	11274.459918
514.446803	11158.979687
514.810894	11272.952613
515.174927	11150.868470
515.538904	11173.485607
515.902822	11326.824904
516.266684	11207.891482
516.630488	11157.358956
516.994235	11210.681761
517.357925	11272.927408
517.721558	11363.539627
518.085133	11381.750796
518.448651	11381.392874
518.812112	11271.999835
519.175516	11279.952256
519.538863	11397.935420
519.902152	11328.352374
520.265385	11477.550363
520.628560	11387.119625
520.991678	11372.414579
521.354739	11433.460431
521.717743	11359.504184
522.080690	11346.563542
522.443580	11482.747793
522.806413	11438.917480
523.169189	11471.178344
523.531908	11517.945129
523.894569	11347.211330
524.257174	11352.045797
524.619722	11469.683642
524.982213	11418.813359
525.344647	11477.789818
525.707025	11420.434090
526.069345	11509.370126
526.431608	11425.432394
526.793815	11545.116948
527.155964	11324.823566
527.518057	11376.999508
527.880093	11324.213586
528.242072	11397.519525
528.603995	11301.306583
528.965860	11220.617875
529.327669	11273.381112
529.689421	11216.879859
530.051117	11193.221724
530.412755	11298.344905
530.774337	11193.211642
531.135862	11168.325986
531.497331	11196.881602
531.858743	11046.279651
532.220098	11213.381298
532.581396	11079.021946
532.942638	11063.817826
533.303824	11030.647033
533.664953	11039.030472
534.026025	10958.311517
534.387040	11052.896166
534.747999	11058.592670
535.108902	11114.816658
535.469748	10869.607374
535.830537	10975.968158
536.191270	10959.647423
536.551947	10975.272479
536.912567	10975.252314
537.273131	10905.911243
537.633638	10882.381657
537.994089	10873.650379
538.354483	10820.055352
538.714821	10969.323917
539.075103	10981.878911
539.435328	10939.540780
539.795497	10765.568041
540.155609	10923.638461
540.515665	11007.886224
540.875665	10742.814793
541.235609	10815.425052
541.595496	10807.931377
541.955328	10967.907353
542.315102	10849.987203
542.674821	10795.648606
543.034483	10800.573813
543.394090	10803.900974
543.753640	10727.822401
544.113134	10961.179933
544.472571	10805.327621
544.831953	10948.554363
545.191278	10755.238716
545.550548	10790.073089
545.909761	10923.467061
546.268918	10896.625438
546.628019	10976.716769
546.987064	10841.480256
547.346053	10766.210788
547.704986	10867.122085
548.063863	10855.887873
548.422684	10839.869607
548.781449	10758.147462
549.140158	10862.622855
549.498811	10736.939328
549.857408	10593.006824
550.215949	10824.889818
550.574434	10679.853302
550.932864	10778.528847
551.291237	10831.589512
551.649555	10779.521954
552.007817	10800.742692
552.366022	10755.452965
552.724173	10749.327963
553.082267	10732.399769
553.440305	10878.073992
553.798288	10681.219454
554.156215	10828.925262
554.514086	10807.059257
554.871902	10653.104939
555.229661	10687.402430
555.587365	10663.038533
555.945014	10560.496423
556.302606	10684.239106
556.660143	10582.264125
557.017625	10735.953782
557.375050	10623.107553
557.732421	10764.953020
558.089735	10679.608806
558.446994	10680.601913
558.804197	10721.266381
559.161345	10715.269928
559.518437	10567.755684
559.875474	10656.295990
560.232455	10688.783706
560.589381	10635.617177
560.946251	10632.100972
561.303065	10742.179607
561.659825	10673.677888
562.016528	10602.365726
562.373177	10478.169339
562.729770	10599.046126
563.086307	10513.959011
563.442789	10611.260842
563.799216	10488.546554
564.155587	10530.993070
564.511904	10484.395164
564.868164	10481.733435
565.224370	10497.459314
565.580520	10417.567108
565.936615	10427.344426
566.292654	10296.581937
566.648638	10425.504405
567.004567	10378.924143
567.360441	10370.137412
567.716260	10280.556108
568.072023	10372.289985
568.427732	10318.694958
568.783385	10230.792358
569.138982	10298.477410
569.494525	10319.660339
569.850013	10194.823726
570.205445	10274.789028
570.560823	10173.993678
570.916145	10092.470658
571.271412	10158.701338
571.626625	10107.687381
571.981782	10073.369727
572.336884	10051.934740
572.691931	10058.062263
573.046923	10006.443368
573.401860	9963.369229
573.756743	9893.491275
574.111570	9940.608419
574.466342	9925.379094
574.821059	9956.480492
575.175722	9849.366055
575.530330	9855.107930
575.884882	9846.366569
576.239380	9775.278738
576.593823	9753.148073
576.948211	9767.805227
577.302544	9650.600921
577.656823	9668.297892
578.011047	9664.239763
578.365216	9636.838571
578.719330	9565.536491
579.073389	9573.251977
579.427394	9519.009162
579.781344	9501.909568
580.135239	9451.417371
580.489080	9455.783010
580.842866	9366.317653
581.196597	9368.029124
581.550273	9405.338704
581.903895	9373.050114
582.257463	9440.871277
582.610975	9307.668869
582.964434	9342.536009
583.317837	9262.356458
583.671186	9245.798788
584.024481	9246.159230
584.377721	9157.918873
584.730906	9134.268300
585.084037	9164.716869
585.437113	9103.413918
585.790135	9126.585582
586.143103	9022.122792
586.496016	8995.921394
586.848874	9049.082882
587.201679	9044.805463
587.554428	8927.734748
587.907124	8973.823497
588.259765	8949.681411
588.612352	8944.927603
588.964884	8824.622987
589.317362	8842.327519
589.669786	8840.195111
590.022155	8886.261175
590.374470	8905.760358
590.726731	8840.474895
591.078937	8695.498872
591.431090	8804.143299
591.783188	8672.801077
592.135232	8670.295623
592.487222	8667.820417
592.839157	8721.975012
593.191038	8654.168972
593.542866	8598.217206
593.894639	8503.312443
594.246358	8558.790342
594.598022	8570.027073
594.949633	8464.513203
595.301190	8438.941950
595.652692	8467.651321
596.004141	8583.287829
596.355535	8362.172739
596.706876	8340.324378
597.058162	8272.737628
597.409395	8346.943413
597.760573	8410.061180
598.111698	8318.176068
598.462768	8310.495871
598.813785	8267.396526
599.164748	8237.585663
599.515657	8238.389727
599.866511	8140.886249
600.217312	8270.582535
600.568060	8124.058878
600.918753	8229.623160
601.269392	8200.747431
601.619978	8106.480374
601.970510	8173.852875
602.320988	8171.841455
602.671412	8227.130309
603.021783	8167.707708
603.372100	8139.376424
603.722363	8143.626117
604.072572	8114.344574
604.422728	8123.988302
604.772830	8055.894916
605.122878	8063.451606
605.472872	8052.908032
605.822813	8088.690142
606.172701	8029.368365
606.522534	8108.574974
606.872314	8104.156402
607.222041	8074.332936
607.571714	8131.499621
607.921333	8087.157632
608.270899	8096.151050
608.620411	8182.450563
608.969870	8087.230728
609.319276	8085.350378
609.668627	8101.774457
610.017926	8138.705950
610.367171	8179.584667
610.716362	8152.750605
611.065500	8147.396900
611.414585	8174.893873
611.763616	8165.597986
612.112594	8151.326479
612.461518	8162.727048
612.810389	8229.333294
613.159207	8164.098242
613.507971	8106.429963
613.856682	8223.533446
614.205340	8183.347888
614.553945	8259.038293
614.902496	8159.815782
615.250994	8217.350471
615.599439	8198.201648
615.947830	8211.379224
616.296169	8183.940224
616.644454	8194.458591
616.992686	8190.854166
617.340864	8256.237932
617.688990	8150.527456
618.037063	8248.658557
618.385082	8197.329528
618.733048	8285.605173
619.080961	8217.698311
619.428821	8239.839058
619.776628	8242.495746
620.124382	8192.265689
620.472083	8177.900922
620.819731	8201.460754
621.167326	8091.109896
621.514868	8106.147658
621.862357	7994.758323
622.209793	8012.296497
622.557176	7940.787730
622.904506	7910.371928
623.251783	7847.896908
623.599007	7805.019374
623.946179	7806.012482
624.293297	7762.043538
624.640363	7677.926845
624.987376	7664.895462
625.334336	7610.304807
625.681243	7558.522075
626.028097	7548.812813
626.374899	7528.837240
626.721647	7515.127823
627.068343	7449.602905
627.414987	7418.549397
627.761577	7375.006431
628.108115	7415.474293
628.454600	7307.570916
628.801032	7355.708894
629.147412	7317.262534
629.493739	7311.245917
629.840014	7249.007832
630.186236	7300.230996
630.532405	7181.887389
630.878521	7235.797488
631.224585	7191.185797
631.570597	7115.076977
631.916556	7147.501678
632.262462	7147.584857
632.608316	7103.585667
632.954117	7082.226298
633.299866	7068.085861
633.645562	7061.149233
633.991206	6983.956565
634.336797	6924.609582
634.682336	6882.329424
635.027823	6850.900351
635.373257	6838.352919
635.718639	6771.539986
636.063968	6785.370392
636.409245	6675.349730
636.754470	6676.332755
637.099642	6640.475027
637.444762	6579.749288
637.789829	6586.340597
638.134845	6528.982348
638.479808	6519.837695
638.824719	6520.646800
639.169577	6449.838753
639.514383	6469.337937
639.859137	6395.379168
640.203839	6409.638072
640.548489	6392.099898
640.893086	6366.543768
641.237632	6344.176169
641.582125	6360.804415
641.926566	6330.343243
642.270955	6343.843453
642.615292	6338.414130
642.959576	6349.199679
643.303809	6344.271951
643.647990	6350.079360
643.992118	6345.781776
644.336195	6287.977386
644.680219	6310.317259
645.024192	6300.948275
645.368112	6396.273973
645.711981	6419.614516
646.055797	6491.294682
646.399562	6454.458971
646.743274	6582.070739
647.086935	6633.167875
647.430544	6627.186546
647.774101	6650.927860
648.117606	6652.687223
648.461059	6647.648589
648.804460	6603.440191
649.147810	6521.665113
649.491108	6488.453992
649.834354	6462.925589
650.177548	6378.750922
650.520690	6292.148941
650.863781	6272.077587
651.206820	6293.295803
651.549807	6215.107507
651.892742	6150.923536
652.235626	6158.996944
652.578458	6152.060316
652.921238	6055.048352
653.263967	6095.753148
653.606644	6033.925917
653.949269	6039.251896
654.291843	5978.112782
654.634365	6025.156830
654.976836	5981.870963
655.319255	5980.487166
655.661622	5956.455985
656.003938	5954.076561
656.346203	5915.032824
656.688416	5944.228667
657.030577	5898.407099
657.372687	5869.851483
657.714746	5852.983782
658.056753	5899.135546
658.398708	5836.471483
658.740612	5831.815977
659.082465	5874.514550
659.424266	5871.552872
659.766016	5869.664960
660.107715	5843.375343
660.449362	5856.068968
660.790958	5853.190469
661.132503	5839.269323
661.473996	5878.285333
661.815438	5862.826635
662.156829	5861.967118
662.498168	5855.106108
662.839456	5831.642057
663.180693	5864.369228
663.521879	5865.863930
663.863013	5855.617785
664.204097	5871.182348
664.545129	5910.959572
664.886110	5910.936887
665.227040	5941.019972
665.567918	5910.725158
665.908746	5939.288336
666.249522	5944.604233
666.590248	5928.054125
666.930922	5955.664524
667.271545	5968.403520
667.612118	5974.805785
667.952639	5947.661693
668.293109	5962.424712
668.633528	5921.488022
668.973896	5925.478095
669.314213	5915.554584
669.654480	5895.430298
669.994695	5892.498867
670.334859	5885.300099
670.674973	5872.261154
671.015035	5879.512854
671.355047	5874.769128
671.695008	5867.613211
672.034918	5836.902501
672.374777	5849.021435
672.714585	5830.555689
673.054342	5833.827398
673.394049	5833.461914
673.733705	5861.838569
674.073310	5851.158884
674.412864	5806.216998
674.752368	5798.909845
675.091820	5805.055012
675.431223	5738.937759
675.770574	5741.052523
676.109875	5696.949988
676.449125	5698.064083
676.788324	5663.088558
677.127473	5609.609477
677.466571	5599.285194
677.805619	5589.901086
678.144616	5572.733437
678.483562	5552.861208
678.822458	5524.247619
679.161303	5518.762844
679.500098	5509.116596
679.838842	5489.239326
680.177535	5495.296273
680.516179	5510.797821
680.854771	5521.109501
681.193314	5606.083190
681.531805	5712.968255
681.870247	5862.536769
682.208638	5964.340350
682.546978	5972.413758
682.885268	5956.244257
683.223508	5867.484661
683.561697	5814.555066
683.899836	5785.752434
684.237925	5742.138891
684.575963	5697.559968
684.913951	5662.735677
685.251889	5728.444597
685.589776	5691.170305
685.927614	5663.428836
686.265401	5735.071194
686.603137	5718.337083
686.940824	5798.796419
687.278460	5817.383154
687.616046	5831.606769
687.953582	5895.137911
688.291068	5877.163677
688.628504	5941.012411
688.965889	5906.810702
689.303224	5847.229305
689.640510	5802.360515
689.977745	5728.184978
690.314930	5630.033712
690.652065	5571.831070
690.989150	5477.692563
691.326185	5404.268158
691.663170	5349.075085
692.000105	5276.439620
692.336990	5191.493657
692.673825	5166.620604
693.010610	5101.015028
693.347345	5029.763359
693.684030	5015.658211
694.020665	4973.793948
694.357251	4885.339342
694.693786	4894.940220
695.030272	4860.151217
695.366707	4821.888860
695.703093	4792.572029
696.039429	4814.289320
696.375716	4797.784582
696.711952	4769.586888
697.048139	4757.236062
697.384276	4734.719748
697.720363	4750.483436
698.056400	4756.205146
698.392388	4712.271490
698.728326	4692.318603
699.064214	4663.372297
699.400053	4661.161752
699.735842	4629.314262
700.071581	4607.438175
700.407270	4576.296447
700.742910	4561.099889
701.078501	4503.282895
701.414042	4505.715252
701.749533	4474.326508
702.084974	4408.713370
702.420366	4464.415599
702.755709	4407.563987
703.091002	4350.674566
703.426246	4399.205754
703.761440	4352.585163
704.096584	4319.661387
704.431679	4342.185263
704.766725	4324.296728
705.101721	4310.526816
705.436668	4342.986806
705.771565	4287.728198
706.106413	4315.439421
706.441212	4348.090974
706.775961	4357.752346
707.110661	4335.977082
707.445311	4362.012121
707.779913	4386.612951
708.114465	4398.031165
708.448967	4420.784413
708.783421	4485.452334
709.117825	4526.608314
709.452180	4531.031927
709.786485	4574.169080
710.120742	4664.748532
710.454949	4649.914937
710.789107	4711.737127
711.123216	4786.192449
711.457275	4781.398312
711.791286	4852.160988
712.125247	4868.375860
712.459159	4773.695429
712.793023	4846.766954
713.126837	4804.759019
713.460602	4804.282630
713.794318	4718.562850
714.127985	4730.137339
714.461602	4642.403618
714.795171	4611.090491
715.128691	4544.917785
715.462162	4489.518025
715.795584	4440.719656
716.128957	4423.620062
716.462281	4375.290520
716.795556	4348.814380
717.128782	4306.332576
717.461960	4235.816916
717.795088	4249.417949
718.128167	4207.795663
718.461198	4145.610509
718.794180	4139.629180
719.127113	4123.631079
719.459997	4100.925722
719.792833	4057.680183
720.125619	4048.313720
720.458357	4013.713760
720.791046	4016.325078
721.123686	3991.784741
721.456278	3951.526086
721.788821	3968.015701
722.121315	3944.128193
722.453761	3914.841610
722.786158	3927.762087
723.118506	3950.137248
723.450805	3904.310639
723.783056	3921.992487
724.115259	3941.264818
724.447412	3947.772947
724.779518	3937.856998
725.111574	3942.888069
725.443582	3970.143067
725.775542	3957.668732
726.107453	4008.007174
726.439315	4005.587420
726.771129	4022.765152
727.102895	4058.834608
727.434612	4103.562245
727.766281	4117.175881
728.097901	4117.637147
728.429473	4124.881285
728.760996	4132.042244
729.092471	4129.158704
729.423897	4109.999799
729.755276	4116.666725
730.086606	4115.119090
730.417887	4154.898835
730.749120	4221.003486
731.080305	4283.980100
731.411442	4310.141168
731.742530	4280.910038
732.073570	4284.164102
732.404562	4337.000436
732.735506	4331.407276
733.066401	4291.307417
733.397249	4227.882140
733.728048	4147.780726
734.058798	4067.873397
734.389501	3997.289681
734.720156	3933.587140
735.050762	3887.450500
735.381320	3882.129562
735.711831	3831.987726
736.042293	3804.135351
736.372707	3823.707631
736.703073	3797.596974
737.033391	3785.987197
737.363661	3802.743992
737.693883	3829.741892
738.024056	3837.487625
738.354182	3836.204651
738.684260	3897.442067
739.014290	3922.463834
739.344272	3914.947474
739.674207	3953.726550
740.004093	3960.622848
740.333931	3959.780976
740.663722	3960.196871
740.993464	3957.141932
741.323159	3928.717386
741.652806	3902.326945
741.982405	3875.205538
742.311956	3841.550795
742.641460	3835.990402
742.970915	3810.487205
743.300323	3767.380298
743.629683	3732.843353
743.958996	3724.777507
744.288260	3697.525029
744.617477	3661.785769
744.946647	3651.874861
745.275768	3622.915952
745.604842	3624.622383
745.933869	3577.311154
746.262847	3567.521233
746.591778	3605.231585
746.920662	3574.510793
747.249498	3543.762275
747.578286	3588.840273
747.907027	3610.643263
748.235720	3608.238633
748.564365	3631.622025
748.892963	3627.591622
749.221514	3614.368676
749.550017	3589.296497
749.878473	3591.202053
750.206881	3558.424471
750.535242	3556.634862
750.863555	3556.004717
751.191821	3550.953481
751.520039	3535.386398
751.848210	3512.219776
752.176334	3544.160526
752.504411	3549.829304
752.832440	3508.184332
753.160421	3493.549862
753.488356	3504.143847
753.816243	3514.846217
754.144082	3471.028507
754.471875	3456.951085
754.799620	3474.653097
755.127318	3466.194041
755.454969	3468.560863
755.782572	3471.940956
756.110129	3446.425156
756.437638	3440.300154
756.765100	3453.276084
757.092515	3462.937456
757.419882	3471.215030
757.747203	3444.242337
758.074477	3447.141000
758.401703	3461.634317
758.728882	3483.427225
759.056014	3487.291270
759.383099	3492.256806
759.710138	3487.787823
760.037129	3507.859178
760.364073	3538.494269
760.690970	3521.722351
761.017820	3499.218640
761.344623	3519.171527
761.671379	3562.565779
761.998088	3613.257102
762.324751	3741.937595
762.651366	3989.715347
762.977935	4464.889468
763.304456	4911.397067
763.630931	5006.158156
763.957359	4647.023836
764.283740	4301.689674
764.610074	4108.406794
764.936362	3909.591248
765.262602	3751.099892
765.588796	3639.725680
765.914943	3551.109757
766.241044	3462.634986
766.567097	3429.726334
766.893104	3383.088099
767.219064	3351.969057
767.544978	3325.578616
767.870845	3268.182559
768.196665	3251.241762
768.522438	3260.905653
768.848165	3255.577154
769.173846	3219.096844
769.499479	3202.662682
769.825066	3183.733150
770.150607	3170.200172
770.476101	3181.862882
770.801548	3179.838858
771.126949	3134.108031
771.452303	3114.979373
771.777611	3122.362143
772.102872	3129.510499
772.428087	3102.754575
772.753256	3092.168152
773.078378	3085.372677
773.403453	3053.028633
773.728482	3042.885832
774.053465	3060.297977
774.378401	3049.547717
774.703291	3015.973632
775.028135	3019.280629
775.352932	3015.033457
775.677683	3000.651045
776.002388	2998.006960
776.327046	2999.655417
776.651658	2990.808192
776.976224	2976.133393
777.300743	2977.237406
777.625216	2965.645273
777.949643	2961.105714
778.274024	2966.822382
778.598359	2954.380814
778.922647	2956.684622
779.246889	2957.458439
779.571086	2944.048970
779.895236	2937.185439
780.219339	2947.943261
780.543397	2962.544963
780.867409	2964.390025
781.191374	2954.872327
781.515294	2954.718572
781.839167	2957.834005
782.162995	2943.723815
782.486776	2953.735547
782.810511	2954.673201
783.134201	2938.886828
783.457844	2945.095009
783.781441	2936.610747
784.104993	2915.884043
784.428498	2914.674166
784.751958	2933.218051
785.075372	2925.467277
785.398739	2909.693506
785.722061	2923.801175
786.045337	2936.593103
786.368568	2921.124323
786.691752	2914.706934
787.014891	2960.624283
787.337983	2991.710559
787.661030	3019.404137
787.984031	3084.503078
788.306987	3134.662558
788.629897	3126.274078
788.952760	3109.371089
789.275579	3093.012545
789.598351	3034.567928
789.921078	2992.464211
790.243759	2979.213538
790.566395	2962.842391
790.888984	2940.489915
791.211529	2920.879827
791.534027	2912.125863
791.856480	2903.296282
792.178888	2891.515105
792.501249	2879.567571
792.823566	2877.339381
793.145836	2873.629092
793.468062	2869.059286
793.790241	2868.900489
794.112375	2873.971890
794.434464	2883.247613
794.756507	2893.604664
795.078505	2894.749006
795.400457	2908.105543
795.722364	2949.465689
796.044226	2973.096098
796.366042	2976.826552
796.687812	2961.544294
797.009538	2982.873416
797.331218	2971.699698
797.652852	2955.769652
797.974442	2939.582507
798.295986	2935.491611
798.617484	2929.275868
798.938938	2913.257602
799.260346	2899.278482
799.581709	2895.358985
799.903026	2887.386400
800.224299	2882.350288
800.545526	2871.988196
800.866708	2856.887420
801.187845	2849.481965
801.508936	2846.318641
801.829983	2853.981194
802.150984	2842.391582
802.471940	2830.537308
802.792851	2828.314160
803.113717	2828.508244
803.434538	2831.076712
803.755314	2826.438850
804.076045	2817.115236
804.396731	2818.982984
804.717372	2818.098261
805.037967	2815.940647
805.358518	2822.554641
805.679024	2832.536126
805.999485	2832.009325
806.319901	2833.130982
806.640272	2826.393480
806.960598	2830.557473
807.280879	2837.110973
807.601115	2847.808302
807.921306	2836.163236
808.241453	2829.130827
808.561554	2837.206755
808.881611	2839.704647
809.201623	2834.098884
809.521590	2832.021928
809.841513	2829.219047
810.161390	2832.221054
810.481223	2826.262410
810.801011	2817.364773
811.120755	2813.634320
811.440453	2816.154897
811.760107	2815.234886
812.079716	2814.894608
812.399281	2803.458751
812.718801	2796.791825
813.038276	2793.205044
813.357707	2796.766619
813.677093	2803.715849
813.996434	2802.725263
814.315731	2794.828295
814.634983	2791.639765
814.954191	2790.813016
815.273354	2807.181643
815.592473	2812.777323
815.911547	2816.172541
816.230577	2822.443736
816.549562	2834.910509
816.868502	2833.304902
817.187399	2842.673886
817.506250	2860.494365
817.825058	2852.383149
818.143821	2865.013760
818.462539	2881.957078
818.781213	2906.348701
819.099843	2942.324895
819.418429	3003.864781
819.736970	3066.722928
820.055466	3137.510810
820.373919	3243.899321
820.692327	3386.881568
821.010691	3561.517219
821.329011	4004.095239
821.647286	4917.814456
821.965517	6318.572148
822.283704	7080.328303
822.601847	7060.786270
822.919945	6421.121821
823.237999	5899.982459
823.556010	5311.815917
823.873976	4746.697529
824.191897	4332.629755
824.509775	4032.232439
824.827609	3759.634565
825.145398	3634.009011
825.463144	3620.917135
825.780845	3711.862071
826.098502	3818.643792
826.416116	4106.390333
826.733685	4428.260444
827.051210	4497.135208
827.368692	4379.542733
827.686129	4108.510138
828.003522	3774.745424
828.320872	3513.210362
828.638177	3318.974705
828.955439	3179.261646
829.272656	3092.057247
829.589830	3026.192051
829.906960	2974.726911
830.224046	2928.814603
830.541088	2894.234808
830.858086	2880.333826
831.175041	2861.179962
831.491952	2864.315560
831.808819	2874.692775
832.125642	2900.425345
832.442421	2941.813218
832.759157	3028.284130
833.075849	3209.992520
833.392497	3493.751508
833.709101	3697.222560
834.025662	3648.956032
834.342179	3487.825632
834.658653	3310.838282
834.975083	3155.079231
835.291469	3058.357133
835.607811	2971.215748
835.924110	2913.411357
836.240366	2862.805734
836.556578	2819.474496
836.872746	2796.101187
837.188871	2772.927002
837.504952	2756.840680
837.820990	2746.821387
838.136984	2730.377143
838.452935	2724.078222
838.768842	2725.857749
839.084706	2741.626478
839.400526	2823.242759
839.716303	2957.471042
840.032037	3040.758465
840.347727	3023.389169
840.663373	2963.485138
840.978977	2886.458828
841.294537	2814.619865
841.610054	2765.889552
841.925527	2741.802918
842.240957	2720.768704
842.556344	2700.243646
842.871687	2679.832014
843.186987	2672.340860
843.502244	2667.670231
843.817458	2662.739982
844.132629	2649.907725
844.447756	2643.205511
844.762840	2634.963224
845.077881	2640.004378
845.392879	2634.754017
845.707833	2635.134624
846.022745	2625.516102
846.337613	2629.349900
846.652438	2626.095835
846.967221	2626.652882
847.281960	2624.190279
847.596656	2623.492079
847.911309	2624.459980
848.225919	2618.345061
848.540485	2615.655605
848.855009	2618.531583
849.169490	2615.481685
849.483928	2616.106788
849.798323	2614.332302
850.112675	2613.765172
850.426984	2613.820625
850.741251	2614.304576
851.055474	2612.683845
851.369654	2617.311624
851.683792	2619.771707
851.997887	2613.437497
852.311938	2611.940275
852.625947	2614.322220
852.939914	2617.120060
853.253837	2619.030658
853.567718	2612.088989
853.881555	2613.371962
854.195350	2615.862292
854.509103	2615.801799
854.822812	2613.455142
855.136479	2611.960439
855.450103	2615.287601
855.763685	2615.053187
856.077224	2612.663680
856.390720	2608.436673
856.704173	2615.668208
857.017584	2617.152828
857.330953	2620.217849
857.644278	2621.725154
857.957561	2620.288426
858.270802	2616.255502
858.584000	2619.038219
858.897155	2621.563837
859.210268	2620.490072
859.523339	2617.190637
859.836367	2609.374327
860.149352	2612.706530
860.462295	2612.482199
860.775195	2611.980604
861.088054	2611.244596
861.400869	2609.253340
861.713642	2608.804677
862.026373	2608.086313
862.339062	2612.910697
862.651708	2617.820781
862.964312	2617.304062
863.276873	2615.325410
863.589392	2618.163579
863.901869	2622.375463
864.214303	2628.170270
864.526696	2632.225878
864.839045	2632.843419
865.151353	2635.888276
865.463619	2636.619243
865.775842	2632.485497
866.088023	2633.413070
866.400162	2634.958183
866.712258	2632.954325
867.024313	2634.461630
867.336325	2628.437451
867.648296	2634.370889
867.960224	2638.741569
868.272110	2631.736886
868.583954	2626.526853
868.895755	2631.842750
869.207515	2634.443986
869.519233	2642.161992
869.830909	2638.023205
870.142542	2633.740745
870.454134	2632.903913
870.765684	2639.734677
871.077191	2640.954636
871.388657	2644.617034
871.700081	2644.324647
872.011463	2643.369348
872.322803	2645.015285
872.634101	2648.511325
872.945357	2657.902995
873.256571	2664.327946
873.567744	2658.225629
873.878874	2656.607418
874.189963	2662.750064
874.501010	2663.281906
874.812015	2670.521003
875.122979	2668.275169
875.433900	2662.379540
875.744780	2658.031544
876.055618	2664.340548
876.366415	2672.061076
876.677169	2667.965138
876.987882	2665.875580
877.298554	2662.906340
877.609183	2672.368586
877.919771	2678.934689
878.230317	2689.977336
878.540822	2698.567462
878.851285	2711.298897
879.161707	2735.849316
879.472087	2778.862961
879.782425	2827.855415
880.092722	2942.067796
880.402977	3139.696150
880.713191	3407.068868
881.023363	3710.793346
881.333494	3907.116042
881.643583	4082.775047
881.953631	4079.720108
882.263637	3897.472314
882.573602	3676.415197
882.883526	3539.704146
883.193408	3418.161927
883.503248	3312.156544
883.813048	3195.443750
884.122806	3080.190370
884.432522	2991.564365
884.742197	2924.154056
885.051831	2886.438663
885.361424	2848.740915
885.670975	2809.999648
885.980485	2778.973866
886.289954	2763.036258
886.599382	2748.618558
886.908768	2734.488204
887.218113	2717.305431
887.527417	2703.243133
887.836680	2695.298274
888.145901	2687.166893
888.455082	2680.552899
888.764221	2669.729542
889.073319	2662.006494
889.382376	2660.915084
889.691392	2661.948521
890.000366	2661.197389
890.309300	2660.998263
890.618193	2661.593120
890.927044	2664.499345
891.235855	2662.661844
891.544625	2662.636638
891.853353	2663.508758
892.162041	2670.609223
892.470687	2692.775177
892.779293	2701.824048
893.087858	2714.278218
893.396381	2739.000037
893.704864	2782.164917
894.013306	2854.142511
894.321707	2949.906790
894.630068	3001.397136
894.938387	3025.007380
895.246665	3018.637882
895.554903	2972.773464
895.863100	2925.744540
896.171256	2866.926877
896.479371	2802.853812
896.787446	2763.668923
897.095480	2743.716036
897.403473	2733.038872
897.711425	2719.168138
898.019336	2702.451672
898.327207	2687.560103
898.635038	2685.102541
898.942827	2682.158507
899.250576	2672.096364
899.558284	2663.168480
899.865952	2656.236894
900.173579	2653.796975
900.481165	2652.478713
900.788711	2642.867754
901.096216	2637.410705
901.403681	2633.768471
901.711105	2637.587145
902.018489	2631.986423
902.325832	2636.583955
902.633135	2636.531023
902.940397	2654.906029
903.247619	2692.412214
903.554800	2763.779829
903.861941	2897.115827
904.169041	3027.606095
904.476101	3094.257710
904.783121	3087.300918
905.090100	3028.863863
905.397039	2947.151800
905.703938	2872.189842
906.010796	2807.930254
906.317614	2753.044692
906.624391	2717.691080
906.931129	2688.936338
907.237826	2664.650579
907.544483	2645.698362
907.851099	2631.494911
908.157675	2618.801285
908.464211	2612.388937
908.770707	2601.694130
909.077163	2599.327308
909.383578	2593.499734
909.689954	2594.029055
909.996289	2593.242635
910.302584	2590.780032
910.608839	2589.461770
910.915054	2585.398600
911.221229	2590.618715
911.527363	2595.874117
911.833458	2590.812799
912.139513	2596.032914
912.445527	2593.371185
912.751502	2601.063985
913.057436	2606.803339
913.363331	2611.965481
913.669186	2622.042747
913.975000	2640.059831
914.280775	2654.369146
914.586510	2676.688855
914.892205	2712.428115
915.197859	2781.706172
915.503475	2869.079450
915.809050	2938.332301
916.114585	2957.705455
916.420081	2973.557364
916.725536	2980.244454
917.030952	2953.488530
917.336328	2903.734862
917.641665	2852.794003
917.946961	2801.727114
918.252218	2767.351486
918.557435	2737.553226
918.862612	2716.234186
919.167750	2695.139478
919.472848	2678.841427
919.777906	2661.963644
920.082925	2650.444608
920.387904	2638.517238
920.692843	2629.909468
920.997743	2628.414766
921.302603	2622.539301
921.607423	2618.110647
921.912204	2608.098916
922.216946	2604.370982
922.521647	2604.693616
922.826310	2599.972576
923.130932	2593.270362
923.435516	2588.834146
923.740059	2586.376584
924.044564	2585.428847
924.349028	2582.714185
924.653454	2573.788822
924.957840	2572.097515
925.262186	2569.904613
925.566493	2568.326732
925.870761	2565.531412
926.174989	2567.114335
926.479178	2564.800445
926.783328	2566.456464
927.087438	2562.831875
927.391509	2563.242729
927.695541	2561.153170
927.999533	2560.918757
928.303486	2559.431616
928.607400	2556.621173
928.911275	2557.311811
929.215110	2556.134702
929.518906	2557.795762
929.822663	2556.565720
930.126381	2557.841132
930.430060	2556.122099
930.733699	2558.902295
931.037299	2557.820968
931.340861	2558.340207
931.644383	2556.976574
931.947866	2557.624363
932.251309	2554.335010
932.554714	2559.093859
932.858080	2559.068653
933.161407	2556.190154
933.464694	2557.591595
933.767943	2558.241904
934.071153	2553.490617
934.374323	2552.815102
934.677455	2553.669578
934.980548	2551.912735
935.283602	2551.665719
935.586617	2553.936759
935.889593	2555.517160
936.192530	2553.062118
936.495428	2553.777962
936.798287	2553.578837
937.101108	2557.896585
937.403890	2560.339024
937.706632	2564.016546
938.009336	2563.613253
938.312002	2568.639284
938.614628	2571.608523
938.917216	2575.386868
939.219765	2578.086406
939.522275	2579.394586
939.824747	2580.697724
940.127179	2572.687330
940.429573	2570.333112
940.731929	2569.730694
941.034246	2566.998388
941.336524	2566.935374
941.638763	2567.721794
941.940964	2566.683316
942.243126	2563.169632
942.545250	2565.775908
942.847335	2560.517985
943.149381	2563.136864
943.451389	2563.257852
943.753359	2560.593602
944.055290	2559.875238
944.357182	2557.974723
944.659036	2559.610577
944.960851	2556.931204
945.262628	2557.760474
945.564367	2557.258879
945.866067	2556.918601
946.167729	2556.144784
946.469352	2555.943138
946.770937	2557.896585
947.072484	2553.286450
947.373992	2557.243756
947.675462	2556.240566
947.976893	2554.710576
948.278286	2554.587068
948.579641	2555.665874
948.880958	2554.100596
949.182236	2554.907181
949.483476	2553.167983
949.784678	2551.426264
950.085841	2553.140256
950.386967	2555.678477
950.688054	2554.922304
950.989103	2555.507078
951.290114	2557.331976
951.591087	2557.720145
951.892021	2560.177707
952.192917	2560.364230
952.493776	2562.174004
952.794596	2563.025959
953.095378	2562.831875
953.396122	2561.858932
953.696828	2559.247614
953.997496	2557.836091
954.298126	2558.826678
954.598718	2555.625545
954.899272	2556.742161
955.199788	2554.009855
955.500266	2552.159752
955.800706	2551.864844
956.101108	2545.482744
956.401472	2545.815460
956.701798	2542.528628
957.002087	2544.426622
957.302337	2546.112888
957.602550	2545.855789
957.902724	2541.568288
958.202861	2541.205325
958.502960	2540.950746
958.803022	2540.764224
959.103045	2545.618855
959.403031	2542.395037
959.702979	2544.474513
960.002889	2541.958977
960.302762	2541.137269
960.602596	2538.291538
960.902393	2539.892104
961.202153	2539.307330
961.501875	2537.701723
961.801559	2539.887063
962.101205	2538.616692
962.400814	2539.882022
962.700385	2539.408153
962.999918	2538.712474
963.299414	2538.473019
963.598873	2539.105684
963.898293	2539.632485
964.197677	2538.820859
964.497022	2539.612320
964.796331	2539.045190
965.095601	2538.523431
965.394835	2538.586445
965.694030	2538.047042
965.993189	2536.973276
966.292309	2538.714995
966.591393	2535.977648
966.890439	2536.489325
967.189447	2538.601569
967.488419	2536.688451
967.787353	2540.040818
968.086249	2537.157278
968.385108	2539.360262
968.683930	2538.135262
968.982714	2539.080478
969.281462	2538.336908
969.580172	2537.187525
969.878844	2538.132741
970.177480	2538.906558
970.476078	2537.547967
970.774639	2541.497712
971.073162	2539.559388
971.371649	2534.452699
971.670098	2534.646783
971.968510	2534.800539
972.266885	2534.727442
972.565223	2537.139634
972.863524	2539.655170
973.161788	2538.404964
973.460014	2541.291024
973.758204	2536.116280
974.056356	2537.207690
974.354471	2538.793132
974.652550	2538.641898
974.950591	2537.515200
975.248595	2538.367155
975.546563	2538.495704
975.844493	2538.004192
976.142386	2536.285158
976.440243	2538.004192
976.738062	2537.308513
977.035845	2537.411856
977.333590	2537.578214
977.631299	2536.146527
977.928971	2538.891435
978.226606	2536.259953
978.524204	2538.185673
978.821765	2534.503111
979.119290	2537.250539
979.416777	2536.370858
979.714228	2537.452186
980.011642	2538.162988
980.309020	2538.291538
980.606360	2534.704757
980.903664	2537.921013
981.200931	2538.473019
981.498162	2541.659028
981.795356	2540.436549
982.092513	2544.708927
982.389633	2543.473844
982.686717	2550.571788
982.983764	2554.400545
983.280775	2551.721172
983.577749	2554.173693
983.874686	2554.738302
984.171587	2548.467107
984.468451	2547.705893
984.765279	2543.466282
985.062070	2542.140459
985.358824	2539.181301
985.655543	2538.485622
985.952224	2540.136600
986.248869	2537.308513
986.545478	2534.480425
986.842050	2534.782895
987.138586	2529.797193
987.435086	2531.939684
987.731549	2531.198634
988.027975	2534.220806
988.324366	2533.436907
988.620719	2535.639891
988.917037	2531.919519
989.213318	2532.632843
989.509563	2534.372041
989.805772	2533.346166
990.101944	2533.580579
990.398080	2532.216947
990.694180	2534.019160
990.990244	2532.665610
991.286271	2532.947915
991.582262	2532.937832
991.878217	2532.569828
992.174136	2532.040507
992.470019	2531.387678
992.765865	2535.072761
993.061676	2536.333049
993.357450	2534.253573
993.653188	2532.852133
993.948890	2533.013450
994.244556	2535.130734
994.540186	2534.992103
994.835780	2535.438245
995.131337	2537.369007
995.426859	2536.761547
995.722345	2536.817000
996.017795	2535.748276
996.313208	2538.079809
996.608586	2539.849254
996.903928	2535.455889
997.199234	2541.676673
997.494504	2536.882535
997.789738	2538.851106
998.084936	2536.196938
998.380099	2535.957483
998.675225	2535.352545
998.970316	2534.377082
999.265371	2534.750127
999.560390	2533.464633
999.855373	2535.914634
1000.150320	2531.090249
1000.445232	2532.647966
1000.740108	2533.734335
1001.034948	2531.927081
1001.329752	2532.731145
1001.624521	2532.312729
1001.919254	2525.512213
1002.213951	2530.283665
1002.508613	2527.848788
1002.803239	2528.368026
1003.097829	2528.705784
1003.392384	2533.608306
1003.686903	2534.114942
1003.981386	2532.587472
1004.275834	2532.254756
1004.570246	2530.941535
1004.864623	2533.328522
1005.158964	2530.502955
1005.453270	2529.570342
1005.747540	2532.789118
1006.041775	2531.584282
1006.335974	2531.753161
1006.630138	2532.620240
1006.924266	2532.983203
1007.218359	2532.768954
1007.512416	2531.793490
1007.806438	2530.555887
1008.100425	2529.267872
1008.394376	2531.957328
1008.688292	2530.137471
1008.982172	2531.765764
1009.276017	2528.791483
1009.569827	2531.062523
1009.863602	2533.535209
1010.157341	2530.785260
1010.451045	2530.301309
1010.744714	2531.382636
1011.038347	2532.794159
1011.331945	2530.336597
1011.625508	2531.695188
1011.919036	2530.961700
1012.212528	2531.370033
1012.505986	2529.502286
1012.799408	2532.393388
1013.092795	2531.886752
1013.386147	2530.797862
1013.679464	2529.527492
1013.972745	2530.195445
1014.265992	2532.491690
1014.559204	2532.214427
1014.852380	2530.102183
1015.145521	2530.689478
1015.438628	2528.710825
1015.731699	2531.334745
1016.024736	2528.489014
1016.317737	2531.460774
1016.610703	2529.401463
1016.903635	2530.538243
1017.196531	2529.035979
1017.489393	2529.310722
1017.782219	2526.152439
1018.075011	2527.513551
1018.367768	2530.308871
1018.660490	2527.679909
1018.953177	2527.679909
1019.245829	2527.679909
