Dividing Wavelength (nm)	Counts (n)	Blue Motor Position (mm): 9.700000	Red Motor Position (mm): 0.000000	
326.493990	2141.787144
326.888308	2141.787144
327.282561	2141.787144
327.676750	2105.853799
328.070874	2105.266505
328.464933	2110.000148
328.858929	2117.995418
329.252859	2123.518002
329.646726	2137.277832
330.040528	2149.172434
330.434265	2167.106339
330.827938	2184.838598
331.221547	2202.260825
331.615091	2218.821016
332.008571	2241.748183
332.401986	2259.089753
332.795338	2280.403751
333.188625	2298.909827
333.581847	2318.804740
333.975006	2334.644046
334.368100	2353.432426
334.761129	2373.597042
335.154095	2388.191182
335.546996	2407.304717
335.939833	2423.151584
336.332606	2438.743873
336.725315	2450.620831
337.117960	2461.177007
337.510540	2469.250415
337.903056	2481.586119
338.295508	2485.697180
338.687896	2497.022132
339.080220	2502.738800
339.472480	2510.633247
339.864676	2514.008300
340.256807	2516.460821
340.648875	2521.474248
341.040879	2524.539270
341.432818	2524.443488
341.824694	2526.001205
342.216506	2526.795186
342.608253	2529.169570
342.999937	2526.099507
343.391557	2523.853673
343.783113	2525.643283
344.174605	2523.624301
344.566033	2519.477952
344.957397	2524.635052
345.348697	2518.809999
345.739934	2518.973836
346.131106	2515.790348
346.522215	2516.728002
346.913260	2512.894205
347.304241	2512.697600
347.695159	2511.754904
348.086012	2506.600324
348.476802	2506.741476
348.867528	2506.018071
349.258191	2501.347442
349.648789	2503.613440
350.039324	2500.480363
350.429796	2501.743172
350.820203	2499.371309
351.210548	2496.155053
351.600828	2497.415342
351.991045	2497.062461
352.381198	2497.007008
352.771288	2496.041627
353.161314	2494.221771
353.551276	2495.981133
353.941175	2492.648931
354.331010	2494.867038
354.720782	2492.943838
355.110490	2494.887203
355.500135	2491.781852
355.889717	2493.311843
356.279235	2493.765546
356.668689	2494.451143
357.058080	2494.688077
357.447408	2492.023828
357.836672	2491.479383
358.225873	2492.464929
358.615010	2491.693632
359.004084	2495.383757
359.393095	2497.657317
359.782043	2497.024652
360.170927	2499.089005
360.559748	2498.234529
360.948505	2499.882987
361.337199	2498.020280
361.725830	2499.053717
362.114398	2501.312154
362.502903	2499.968686
362.891344	2504.485560
363.279722	2502.345590
363.668037	2503.452123
364.056289	2502.070847
364.444478	2501.279386
364.832603	2504.573780
365.220665	2503.449603
365.608665	2502.948008
365.996601	2505.461023
366.384474	2505.148472
366.772284	2507.898421
367.160031	2506.131497
367.547715	2504.997237
367.935336	2509.798936
368.322893	2507.951353
368.710388	2507.933709
369.097820	2508.999913
369.485189	2504.672083
369.872495	2507.016219
370.259738	2508.641991
370.646918	2506.040756
371.034035	2508.465551
371.421090	2510.285408
371.808081	2507.565705
372.195010	2509.904800
372.581875	2508.856240
372.968678	2510.668535
373.355418	2510.169461
373.742096	2509.998062
374.128710	2510.736591
374.515262	2510.862620
374.901751	2512.722805
375.288177	2510.872702
375.674540	2511.911180
376.060841	2508.861282
376.447079	2511.623834
376.833254	2513.065604
377.219367	2507.991683
377.605417	2508.984790
377.991404	2510.557630
378.377329	2509.138545
378.763191	2508.584018
379.148991	2512.392610
379.534727	2514.081396
379.920402	2509.556961
380.306013	2514.565347
380.691563	2516.808661
381.077049	2513.768845
381.462474	2515.049298
381.847835	2515.518125
382.233134	2517.917714
382.618371	2516.077693
383.003545	2513.657939
383.388657	2514.126767
383.773706	2518.041223
384.158693	2513.776407
384.543618	2517.179185
384.928480	2515.757580
385.313280	2514.492250
385.698017	2519.656912
386.082692	2516.778414
386.467305	2518.220184
386.851856	2518.366377
387.236344	2518.598270
387.620770	2518.419309
388.005133	2517.126253
388.389435	2517.809330
388.773674	2519.881244
389.157851	2518.333610
389.541965	2518.068949
389.926018	2516.503671
390.310008	2520.309742
390.693936	2519.800585
391.077802	2517.264885
391.461606	2523.752850
391.845348	2520.017355
392.229027	2521.249917
392.612645	2520.629855
392.996200	2520.458456
393.379694	2521.454084
393.763125	2520.763446
394.146494	2523.004239
394.529801	2521.426357
394.913047	2522.575741
395.296230	2523.273940
395.679351	2523.324352
396.062410	2522.434588
396.445408	2523.399969
396.828343	2523.417613
397.211217	2517.824453
397.594028	2520.443333
397.976778	2519.551048
398.359466	2522.295957
398.742092	2520.430730
399.124656	2524.768643
399.507158	2527.448016
399.889598	2525.431554
400.271977	2524.932480
400.654294	2525.968437
401.036549	2525.292922
401.418742	2523.125226
401.800874	2525.045906
402.182944	2524.869466
402.564952	2525.239990
402.946898	2525.519774
403.328783	2526.049096
403.710606	2527.395084
404.092367	2525.267717
404.474067	2527.080012
404.855705	2527.422810
405.237282	2526.901051
405.618797	2525.333252
406.000250	2525.176976
406.381642	2527.488345
406.762972	2528.567152
407.144240	2524.239321
407.525447	2526.797707
407.906593	2525.476925
408.287677	2528.990609
408.668700	2526.674199
409.049661	2527.208561
409.430560	2527.314425
409.811399	2530.959179
410.192176	2526.681760
410.572891	2527.705115
410.953545	2529.008253
411.334138	2528.869621
411.714669	2528.511699
412.095139	2530.031607
412.475547	2529.318284
412.855894	2527.848787
413.236180	2530.419776
413.616405	2528.325177
413.996568	2530.439941
414.376670	2531.125537
414.756711	2531.856505
415.136691	2530.515558
415.516609	2533.426824
415.896466	2530.225692
416.276262	2533.164684
416.655997	2527.969775
417.035670	2527.062368
417.415283	2529.033459
417.794834	2524.955165
418.174324	2528.461288
418.553753	2530.384488
418.933121	2532.194262
419.312428	2533.855322
419.691674	2529.666123
420.070859	2531.536392
420.449983	2530.306350
420.829045	2531.687626
421.208047	2533.424304
421.586988	2533.704088
421.965867	2533.825075
422.344686	2532.282482
422.723444	2531.637215
423.102141	2534.472864
423.480777	2532.766433
423.859352	2532.315250
424.237866	2533.031094
424.616319	2532.078316
424.994712	2534.956814
425.373044	2535.143337
425.751314	2533.182328
426.129524	2534.566125
426.507673	2534.296423
426.885762	2532.232071
427.263789	2534.641742
427.641756	2532.030425
428.019662	2534.009078
428.397508	2533.167205
428.775292	2535.337422
429.153016	2533.941022
429.530679	2534.896321
429.908282	2533.920857
430.285824	2535.039993
430.663305	2535.672658
431.040726	2535.261804
431.418086	2535.617206
431.795385	2537.293389
432.172624	2533.832637
432.549802	2537.535365
432.926920	2534.951773
433.303977	2536.103677
433.680974	2533.648635
434.057910	2535.050076
434.434786	2534.452699
434.811601	2538.548637
435.188355	2537.008564
435.565050	2535.045035
435.941683	2535.652494
436.318257	2534.175436
436.694770	2531.770805
437.071222	2535.796167
437.447614	2537.109387
437.823946	2536.375899
438.200218	2536.002854
438.576429	2537.374048
438.952580	2535.024870
439.328670	2537.903369
439.704700	2537.537885
440.080670	2537.129552
440.456580	2535.395395
440.832429	2537.507638
441.208218	2540.547454
441.583947	2540.250026
441.959616	2539.153575
442.335224	2540.854964
442.710773	2538.440252
443.086261	2538.346990
443.461689	2538.238606
443.837057	2538.823379
444.212365	2538.006713
444.587612	2539.556867
444.962800	2539.423277
445.337927	2542.548792
445.712995	2537.938657
446.088002	2541.535520
446.462949	2537.116949
446.837837	2538.873791
447.212664	2539.622402
447.587431	2538.871270
447.962139	2539.665252
448.336786	2541.873277
448.711374	2540.693648
449.085901	2541.996786
449.460369	2540.050900
449.834776	2538.780530
450.209124	2539.362783
450.583412	2542.127856
450.957640	2540.867567
451.331808	2540.822197
451.705917	2541.306148
452.079965	2541.376724
452.453954	2541.157434
452.827883	2541.379244
453.201752	2541.916127
453.575562	2539.072917
453.949311	2541.356559
454.323001	2542.158103
454.696632	2541.061652
455.070202	2542.498381
455.443713	2539.004861
455.817164	2538.437731
456.190556	2536.789274
456.563888	2539.947557
456.937160	2538.188194
457.310373	2540.451672
457.683526	2540.935623
458.056619	2540.996117
458.429653	2540.633154
458.802628	2542.107691
459.175542	2543.045346
459.548398	2543.748587
459.921194	2542.536189
460.293930	2542.808412
460.666607	2545.835624
461.039224	2545.276056
461.411782	2543.312527
461.784280	2544.555171
462.156719	2542.609286
462.529099	2547.068187
462.901419	2540.134079
463.273680	2544.000644
463.645882	2543.723381
464.018024	2543.274718
464.390106	2546.007024
464.762130	2543.337733
465.134094	2543.441076
465.505999	2545.926365
465.877845	2539.193904
466.249631	2545.898639
466.621358	2543.287321
466.993026	2546.732950
467.364634	2545.437373
467.736184	2543.846889
468.107674	2543.897301
468.479105	2544.300593
468.850477	2544.834955
469.221790	2544.550130
469.593043	2543.146169
469.964238	2544.572815
470.335373	2542.153062
470.706449	2545.066848
471.077467	2542.823535
471.448425	2545.944009
471.819324	2543.451159
472.190164	2547.053063
472.560945	2543.257074
472.931667	2544.731612
473.302330	2546.942158
473.672934	2546.962322
474.043479	2543.947712
474.413965	2543.955274
474.784393	2541.061652
475.154761	2543.809081
475.525070	2541.495191
475.895321	2543.977959
476.265513	2540.134079
476.635645	2548.240255
477.005719	2544.245140
477.375734	2542.891591
477.745691	2546.518701
478.115588	2547.486602
478.485427	2547.075748
478.855207	2545.838145
479.224928	2546.513660
479.594591	2544.996272
479.964194	2547.721016
480.333739	2544.880326
480.703226	2547.728578
481.072653	2545.354194
481.442022	2545.076931
481.811333	2548.605738
482.180584	2547.549617
482.549777	2547.952909
482.918912	2544.600542
483.287988	2547.489123
483.657005	2545.727240
484.025964	2545.029040
484.394864	2545.878474
484.763706	2548.898125
485.132489	2547.143804
485.501213	2549.734957
485.869879	2547.458876
486.238487	2545.772610
486.607036	2545.782692
486.975527	2547.118598
487.343959	2547.456355
487.712333	2548.688917
488.080648	2547.100954
488.448905	2548.530121
488.817104	2548.953578
489.185244	2549.374514
489.553326	2547.894936
489.921350	2548.313352
490.289315	2548.663712
490.657222	2548.946016
491.025070	2548.487271
491.392861	2549.059442
491.760593	2546.914431
492.128267	2550.072714
492.495883	2547.569781
492.863440	2548.091541
493.230939	2549.026675
493.598380	2546.977446
493.965763	2542.226158
494.333088	2542.732794
494.700354	2542.379913
495.067563	2546.526263
495.434713	2545.636499
495.801805	2548.240255
496.168839	2544.817311
496.535815	2548.348640
496.902733	2548.139432
497.269593	2550.007179
497.636395	2547.259750
498.003139	2548.646068
498.369825	2548.368804
498.736453	2548.512477
499.103023	2547.564740
499.469535	2547.862168
499.835989	2551.706048
500.202385	2549.308979
500.568723	2549.661860
500.935003	2548.875440
501.301226	2547.579864
501.667390	2548.477189
502.033497	2550.292004
502.399546	2549.918959
502.765537	2547.098433
503.131470	2550.430636
503.497345	2550.087838
503.863163	2551.038095
504.228923	2549.024154
504.594625	2550.662529
504.960269	2550.339895
505.325856	2550.710420
505.691385	2548.313352
506.056856	2548.814946
506.422270	2549.734957
506.787625	2550.811243
507.152924	2550.907025
507.518164	2551.769062
507.883347	2548.588094
508.248472	2548.741850
508.613540	2548.862837
508.978550	2548.371325
509.343503	2551.201933
509.708398	2551.302756
510.073236	2549.745039
510.438016	2548.817467
510.802738	2551.103630
511.167403	2551.275029
511.532010	2550.211346
511.896561	2551.159083
512.261053	2550.208825
512.625488	2546.780841
512.989866	2547.524411
513.354186	2548.618341
513.718449	2543.221786
514.082655	2547.952909
514.446803	2549.339226
514.810894	2548.220090
515.174927	2550.818805
515.538904	2550.115564
515.902822	2549.538352
516.266684	2550.428116
516.630488	2549.611449
516.994235	2551.917777
517.357925	2547.466438
517.721558	2551.867365
518.085133	2550.145811
518.448651	2553.581357
518.812112	2550.009700
519.175516	2551.416182
519.538863	2547.892415
519.902152	2550.349978
520.265385	2552.157231
520.628560	2553.195709
520.991678	2547.995759
521.354739	2549.868548
521.717743	2551.963147
522.080690	2550.884340
522.443580	2549.825698
522.806413	2550.997766
523.169189	2553.765359
523.531908	2552.467262
523.894569	2551.360729
524.257174	2552.963816
524.619722	2551.428785
524.982213	2550.707900
525.344647	2553.024310
525.707025	2553.150339
526.069345	2551.839639
526.431608	2553.873744
526.793815	2551.461552
527.155964	2550.919628
527.518057	2552.999104
527.880093	2554.319886
528.242072	2549.649257
528.603995	2553.793086
528.965860	2555.401214
529.327669	2553.853580
529.689421	2554.118240
530.051117	2556.520350
530.412755	2554.516491
530.774337	2556.396842
531.135862	2553.548590
531.497331	2552.684032
531.858743	2549.896274
532.220098	2551.640513
532.581396	2548.444422
532.942638	2553.029351
533.303824	2556.137222
533.664953	2555.791903
534.026025	2555.060936
534.387040	2555.660833
534.747999	2555.381049
535.108902	2558.050340
535.469748	2557.843653
535.830537	2557.110165
536.191270	2557.508416
536.551947	2557.727706
536.912567	2555.973385
537.273131	2556.444733
537.633638	2559.290464
537.994089	2560.008828
538.354483	2556.709393
538.714821	2558.345248
539.075103	2556.991698
539.435328	2556.306101
539.795497	2557.853735
540.155609	2559.391287
540.515665	2559.081256
540.875665	2559.718962
541.235609	2559.923129
541.595496	2558.670402
541.955328	2558.032696
542.315102	2560.339024
542.674821	2559.850032
543.034483	2561.984961
543.394090	2560.896072
543.753640	2560.412121
544.113134	2560.732234
544.472571	2561.516133
544.831953	2563.343552
545.191278	2560.281051
545.550548	2562.670558
545.909761	2562.259704
546.268918	2560.873386
546.628019	2565.007133
546.987064	2560.868345
547.346053	2562.156360
547.704986	2563.293140
548.063863	2559.408931
548.422684	2561.619477
548.781449	2563.925805
549.140158	2563.262893
549.498811	2565.516289
549.857408	2561.836247
550.215949	2559.386246
550.574434	2561.062430
550.932864	2564.334138
551.291237	2561.417831
551.649555	2561.937070
552.007817	2566.201886
552.366022	2565.851526
552.724173	2563.439334
553.082267	2562.662996
553.440305	2563.134344
553.798288	2562.368088
554.156215	2566.771536
554.514086	2564.114848
554.871902	2565.871690
555.229661	2563.298181
555.587365	2562.050496
555.945014	2564.820610
556.302606	2563.923284
556.660143	2562.073181
557.017625	2559.784497
557.375050	2565.236505
557.732421	2565.722976
558.089735	2563.890517
558.446994	2564.689540
558.804197	2565.047462
559.161345	2564.092163
559.518437	2562.501679
559.875474	2564.331618
560.232455	2563.832544
560.589381	2562.569735
560.946251	2568.346897
561.303065	2563.245249
561.659825	2565.591906
562.016528	2564.056875
562.373177	2560.223077
562.729770	2561.596792
563.086307	2565.286917
563.442789	2561.987481
563.799216	2561.926987
564.155587	2563.789694
564.511904	2564.195507
564.868164	2562.005125
565.224370	2563.328428
565.580520	2563.315825
565.936615	2562.174004
566.292654	2563.625856
566.648638	2564.616443
567.004567	2561.269117
567.360441	2563.905640
567.716260	2561.546380
568.072023	2562.642831
568.427732	2559.446740
568.783385	2561.024621
569.138982	2559.482028
569.494525	2559.623180
569.850013	2559.928170
570.205445	2560.611246
570.560823	2561.599312
570.916145	2562.332800
571.271412	2560.860783
571.626625	2563.832544
571.981782	2560.412121
572.336884	2563.230126
572.691931	2559.850032
573.046923	2562.148798
573.401860	2562.894889
573.756743	2562.592420
574.111570	2558.965310
574.466342	2562.610064
574.821059	2561.770712
575.175722	2561.564024
575.530330	2560.149981
575.884882	2561.473284
576.239380	2560.475135
576.593823	2560.389436
576.948211	2562.055537
577.302544	2561.153170
577.656823	2562.723490
578.011047	2562.136195
578.365216	2559.802141
578.719330	2562.191648
579.073389	2561.019580
579.427394	2560.185269
579.781344	2560.099569
580.135239	2561.415310
580.489080	2557.195865
580.842866	2558.942624
581.196597	2562.869683
581.550273	2560.991853
581.903895	2561.190979
582.257463	2562.269786
582.610975	2558.239383
582.964434	2560.233160
583.317837	2559.333314
583.671186	2558.567058
584.024481	2558.340207
584.377721	2560.903633
584.730906	2557.883982
585.084037	2559.371122
585.437113	2560.976730
585.790135	2559.741647
586.143103	2558.677964
586.496016	2559.930691
586.848874	2556.522871
587.201679	2560.553273
587.554428	2555.224773
587.907124	2557.611760
588.259765	2554.710576
588.612352	2560.843139
588.964884	2558.670402
589.317362	2558.803993
589.669786	2561.596792
590.022155	2560.270968
590.374470	2559.267779
590.726731	2558.385577
591.078937	2558.695608
591.431090	2559.706359
591.783188	2559.764332
592.135232	2556.270813
592.487222	2557.309291
592.839157	2561.377502
593.191038	2561.564024
593.542866	2557.420196
593.894639	2559.134188
594.246358	2558.872048
594.598022	2560.737275
594.949633	2558.234342
595.301190	2559.829868
595.652692	2559.948335
596.004141	2559.862635
596.355535	2559.315670
596.706876	2558.582182
597.058162	2560.618808
597.409395	2558.609908
597.760573	2560.102090
598.111698	2557.770556
598.462768	2559.892882
598.813785	2561.286761
599.164748	2559.272820
599.515657	2556.417006
599.866511	2558.592264
600.217312	2557.460525
600.568060	2558.763663
600.918753	2560.714590
601.269392	2558.098231
601.619978	2559.469425
601.970510	2561.485887
602.320988	2559.212326
602.671412	2560.757440
603.021783	2556.777449
603.372100	2562.637790
603.722363	2559.171997
604.072572	2561.843808
604.422728	2561.238870
604.772830	2555.496996
605.122878	2558.572100
605.472872	2557.878941
605.822813	2555.688560
606.172701	2559.643345
606.522534	2560.583520
606.872314	2561.450598
607.222041	2563.358675
607.571714	2561.644683
607.921333	2561.594271
608.270899	2561.977399
608.620411	2563.542677
608.969870	2563.646021
609.319276	2563.814900
609.668627	2566.153995
610.017926	2566.723645
610.367171	2571.404357
610.716362	2567.484860
611.065500	2571.071641
611.414585	2568.455282
611.763616	2566.688357
612.112594	2567.678944
612.461518	2565.322205
612.810389	2563.734241
613.159207	2566.559808
613.507971	2566.552246
613.856682	2568.107442
614.205340	2566.252297
614.553945	2566.542164
614.902496	2565.932184
615.250994	2567.477298
615.599439	2565.753223
615.947830	2566.774057
616.296169	2569.070302
616.644454	2568.931671
616.992686	2568.208265
617.340864	2569.420663
617.688990	2567.436969
618.037063	2568.747669
618.385082	2568.220868
618.733048	2572.019377
619.080961	2570.423852
619.428821	2573.262022
619.776628	2571.890828
620.124382	2573.924934
620.472083	2572.470561
620.819731	2572.863771
621.167326	2573.423339
621.514868	2575.205387
621.862357	2574.345870
622.209793	2573.393092
622.557176	2577.080696
622.904506	2571.588359
623.251783	2570.713719
623.599007	2572.495767
623.946179	2572.011816
624.293297	2573.461147
624.640363	2575.225551
624.987376	2577.115984
625.334336	2579.465162
625.681243	2576.795871
626.028097	2577.557085
626.374899	2579.064390
626.721647	2578.895511
627.068343	2580.062538
627.414987	2578.870306
627.761577	2579.772672
628.108115	2580.924576
628.454600	2579.281160
628.801032	2583.200657
629.147412	2584.496233
629.493739	2583.485482
629.840014	2585.002869
630.186236	2588.748447
630.532405	2586.217787
630.878521	2587.964547
631.224585	2589.330700
631.570597	2589.146698
631.916556	2592.403283
632.262462	2592.168869
632.608316	2594.568459
632.954117	2594.132399
633.299866	2593.570310
633.645562	2597.386464
633.991206	2595.601895
634.336797	2595.233891
634.682336	2596.516865
635.027823	2597.441916
635.373257	2598.069540
635.718639	2595.528798
636.063968	2600.033069
636.409245	2598.109869
636.754470	2599.261773
637.099642	2600.801845
637.444762	2598.913933
637.789829	2602.553646
638.134845	2600.867380
638.479808	2601.605909
638.824719	2605.870726
639.169577	2602.415015
639.514383	2605.976590
639.859137	2606.881477
640.203839	2606.868874
640.548489	2610.153186
640.893086	2608.630757
641.237632	2610.067486
641.582125	2612.041098
641.926566	2612.204935
642.270955	2616.925976
642.615292	2617.488065
642.959576	2621.145422
643.303809	2620.991667
643.647990	2625.851339
643.992118	2625.906792
644.336195	2627.855197
644.680219	2630.703449
645.024192	2629.765795
645.368112	2636.044552
645.711981	2640.011940
646.055797	2642.139307
646.399562	2645.088382
646.743274	2654.051553
647.086935	2657.928201
647.430544	2662.114879
647.774101	2668.496980
648.117606	2668.164264
648.461059	2667.834068
648.804460	2673.402022
649.147810	2668.567556
649.491108	2672.300530
649.834354	2673.991837
650.177548	2671.405726
650.520690	2672.343380
650.863781	2674.742969
651.206820	2677.351767
651.549807	2676.971159
651.892742	2678.412929
652.235626	2682.657581
652.578458	2681.165399
652.921238	2684.512726
653.263967	2686.937521
653.606644	2685.878878
653.949269	2689.677388
654.291843	2687.721420
654.634365	2693.574200
654.976836	2698.396063
655.319255	2698.043182
655.661622	2704.818493
656.003938	2708.100284
656.346203	2704.604244
656.688416	2710.845193
657.030577	2712.599514
657.372687	2712.670090
657.714746	2712.665049
658.056753	2720.819116
658.398708	2716.566902
658.740612	2718.676625
659.082465	2726.734910
659.424266	2727.969992
659.766016	2730.004098
660.107715	2739.655387
660.449362	2744.691500
660.790958	2747.403640
661.132503	2748.185019
661.473996	2758.779004
661.815438	2758.879827
662.156829	2759.741864
662.498168	2766.315529
662.839456	2762.892586
663.180693	2771.739811
663.521879	2774.499842
663.863013	2775.949174
664.204097	2788.466359
664.545129	2790.457615
664.886110	2796.328038
665.227040	2804.973617
665.567918	2803.151240
665.908746	2813.951912
666.249522	2818.904846
666.590248	2818.350319
666.930922	2825.778459
667.271545	2833.052844
667.612118	2837.665500
667.952639	2836.727845
668.293109	2847.589011
668.633528	2845.484330
668.973896	2845.940554
669.314213	2849.121522
669.654480	2861.573172
669.994695	2858.792976
670.334859	2855.904395
670.674973	2866.979810
671.015035	2867.415869
671.355047	2875.060779
671.695008	2878.337529
672.034918	2874.866695
672.374777	2885.150649
672.714585	2890.020403
673.054342	2897.488873
673.394049	2897.549367
673.733705	2911.344484
674.073310	2918.868406
674.412864	2908.045049
674.752368	2916.536873
675.091820	2917.403951
675.431223	2915.611821
675.770574	2922.979467
676.109875	2915.485792
676.449125	2920.272368
676.788324	2919.236410
677.127473	2921.860331
677.466571	2917.736667
677.805619	2927.501382
678.144616	2931.302412
678.483562	2931.549429
678.822458	2931.950200
679.161303	2937.061930
679.500098	2939.199380
679.838842	2941.324226
680.177535	2949.984928
680.516179	2953.372584
680.854771	2961.866928
681.193314	2976.337560
681.531805	2998.417814
681.870247	3037.179246
682.208638	3057.928635
682.546978	3061.490210
682.885268	3063.418452
683.223508	3057.187585
683.561697	3052.607697
683.899836	3055.551731
684.237925	3055.103068
684.575963	3052.385886
684.913951	3046.696944
685.251889	3075.358424
685.589776	3065.092115
685.927614	3061.860735
686.265401	3088.677153
686.603137	3088.944334
686.940824	3110.752366
687.278460	3120.532204
687.616046	3133.997126
687.953582	3151.797440
688.291068	3149.854075
688.628504	3182.261133
688.965889	3173.348373
689.303224	3163.704646
689.640510	3165.804286
689.977745	3155.502688
690.314930	3139.499545
690.652065	3129.583596
690.989150	3116.164044
691.326185	3107.526027
691.663170	3107.747838
692.000105	3092.818461
692.336990	3075.151737
692.673825	3085.317224
693.010610	3068.537743
693.347345	3048.547048
693.684030	3063.756209
694.020665	3058.778069
694.357251	3032.543905
694.693786	3046.268446
695.030272	3043.410112
695.366707	3041.176881
695.703093	3030.774460
696.039429	3044.725853
696.375716	3054.727502
696.711952	3045.877757
697.048139	3043.458003
697.384276	3044.619989
697.720363	3050.359342
698.056400	3063.877197
698.392388	3052.809343
698.728326	3047.894218
699.064214	3043.372303
699.400053	3047.362377
699.735842	3050.739950
700.071581	3045.429094
700.407270	3038.331149
700.742910	3042.041439
701.078501	3025.922349
701.414042	3035.888710
701.749533	3033.562218
702.084974	3011.746625
702.420366	3037.801828
702.755709	3025.773635
703.091002	3009.490708
703.426246	3036.261756
703.761440	3014.312572
704.096584	3006.246726
704.431679	3020.893798
704.766725	3022.191895
705.101721	3023.553007
705.436668	3038.719318
705.771565	3016.744929
706.106413	3026.204654
706.441212	3055.208932
706.775961	3060.013152
707.110661	3046.523024
707.445311	3052.267419
707.779913	3077.596697
708.114465	3078.620051
708.448967	3079.799681
708.783421	3107.909155
709.117825	3124.895323
709.452180	3127.063019
709.786485	3139.552477
710.120742	3168.617250
710.454949	3166.794873
710.789107	3192.076259
711.123216	3219.454766
711.457275	3213.773386
711.791286	3243.874115
712.125247	3259.186620
712.459159	3213.070145
712.793023	3238.280955
713.126837	3257.288626
713.460602	3255.945158
713.794318	3214.204404
714.127985	3231.309039
714.461602	3214.993345
714.795171	3198.932229
715.128691	3182.293900
715.462162	3174.656552
715.795584	3166.013494
716.128957	3164.634738
716.462281	3136.976448
716.795556	3140.268321
717.128782	3135.083495
717.461960	3118.165382
717.795088	3122.513377
718.128167	3111.556430
718.461198	3086.091041
718.794180	3089.481217
719.127113	3094.920622
719.459997	3091.464911
719.792833	3071.053279
720.125619	3068.915830
720.458357	3062.644634
720.791046	3071.983372
721.123686	3061.336455
721.456278	3049.401523
721.788821	3058.662123
722.121315	3053.036195
722.453761	3040.970193
722.786158	3057.134653
723.118506	3068.424317
723.450805	3041.953218
723.783056	3053.464693
724.115259	3075.209710
724.447412	3076.767427
724.779518	3066.480952
725.111574	3072.694175
725.443582	3087.716813
725.775542	3085.178592
726.107453	3108.090636
726.439315	3110.442335
726.771129	3111.899228
727.102895	3125.598564
727.434612	3153.879437
727.766281	3157.073008
728.097901	3154.761639
728.429473	3159.177689
728.760996	3169.081036
729.092471	3162.857732
729.423897	3165.942918
729.755276	3177.890452
730.086606	3177.051100
730.417887	3183.778520
730.749120	3221.251937
731.080305	3259.206785
731.411442	3267.005450
731.742530	3250.838469
732.073570	3254.931886
732.404562	3288.137967
732.735506	3287.038995
733.066401	3266.516458
733.397249	3246.500556
733.728048	3217.380331
734.058798	3195.715972
734.389501	3171.944412
734.720156	3139.688589
735.050762	3125.288533
735.381320	3135.698515
735.711831	3102.895727
736.042293	3095.283585
736.372707	3111.475771
736.703073	3102.341200
737.033391	3088.041968
737.363661	3103.417487
737.693883	3123.987915
738.024056	3122.125209
738.354182	3114.475258
738.684260	3148.727377
739.014290	3157.763646
739.344272	3150.751401
739.674207	3178.639064
740.004093	3176.224351
740.333931	3174.137313
740.663722	3182.830783
740.993464	3182.203160
741.323159	3171.014319
741.652806	3168.725635
741.982405	3155.679129
742.311956	3147.945999
742.641460	3143.416522
742.970915	3140.112046
743.300323	3119.652523
743.629683	3103.334308
743.958996	3107.941922
744.288260	3099.959255
744.617477	3084.785382
744.946647	3078.027715
745.275768	3073.198290
745.604842	3077.047211
745.933869	3041.759134
746.262847	3043.135369
746.591778	3077.120308
746.920662	3054.830846
747.249498	3038.938608
747.578286	3071.690985
747.907027	3076.860688
748.235720	3064.749316
748.564365	3087.865527
748.892963	3096.770725
749.221514	3084.472831
749.550017	3067.607650
749.878473	3073.760379
750.206881	3062.460632
750.535242	3063.824264
750.863555	3068.429358
751.191821	3066.985068
751.520039	3051.765824
751.848210	3039.974566
752.176334	3065.515572
752.504411	3075.938157
752.832440	3050.729867
753.160421	3035.946684
753.488356	3047.420350
753.816243	3058.470559
754.144082	3033.277393
754.471875	3026.428985
754.799620	3039.977086
755.127318	3034.578010
755.454969	3037.789225
755.782572	3044.037736
756.110129	3024.452853
756.437638	3020.097296
756.765100	3034.247815
757.092515	3039.732590
757.419882	3047.768189
757.747203	3029.942669
758.074477	3027.865714
758.401703	3041.053373
758.728882	3056.370918
759.056014	3063.718400
759.383099	3060.910478
759.710138	3054.273798
760.037129	3063.173956
760.364073	3093.254521
760.690970	3083.189857
761.017820	3066.173442
761.344623	3080.011409
761.671379	3112.625154
761.998088	3141.311840
762.324751	3215.252964
762.651366	3340.366841
762.977935	3572.275041
763.304456	3816.251764
763.630931	3896.501892
763.957359	3701.366388
764.283740	3520.787217
764.610074	3432.849329
764.936362	3328.623473
765.262602	3232.186200
765.588796	3172.509021
765.914943	3126.894140
766.241044	3075.799525
766.567097	3058.931825
766.893104	3035.293854
767.219064	3016.344157
767.544978	3007.234792
767.870845	2967.641570
768.196665	2960.493213
768.522438	2971.987044
768.848165	2971.286324
769.173846	2947.633230
769.499479	2938.889349
769.825066	2929.013728
770.150607	2920.804209
770.476101	2934.347269
770.801548	2934.228802
771.126949	2900.233781
771.452303	2891.336144
771.777611	2905.335429
772.102872	2908.765934
772.428087	2891.076525
772.753256	2883.751728
773.078378	2880.810215
773.403453	2860.930425
773.728482	2855.259127
774.053465	2873.243443
774.378401	2863.113245
774.703291	2840.987620
775.028135	2843.321675
775.352932	2840.715398
775.677683	2835.003771
776.002388	2832.851198
776.327046	2836.616940
776.651658	2830.595282
776.976224	2821.062460
777.300743	2822.748726
777.625216	2816.321255
777.949643	2815.597849
778.274024	2818.163796
778.598359	2809.470327
778.922647	2813.883857
779.246889	2813.480564
779.571086	2801.321301
779.895236	2798.962041
780.219339	2808.464616
780.543397	2819.073725
780.867409	2820.470124
781.191374	2812.978970
781.515294	2811.950574
781.839167	2814.143476
782.162995	2806.992599
782.486776	2814.002324
782.810511	2815.580205
783.134201	2808.401602
783.457844	2813.412509
783.781441	2808.847744
784.104993	2796.633028
784.428498	2792.159004
784.751958	2807.602579
785.075372	2803.879687
785.398739	2791.516257
785.722061	2807.005202
786.045337	2812.696665
786.368568	2800.290385
786.691752	2793.452060
787.014891	2832.140395
787.337983	2848.771162
787.661030	2860.353213
787.984031	2903.651683
788.306987	2936.595624
788.629897	2931.577155
788.952760	2927.927360
789.275579	2922.500558
789.598351	2881.306769
789.921078	2852.365505
790.243759	2850.694362
790.566395	2839.737414
790.888984	2821.889209
791.211529	2811.645584
791.534027	2805.916313
791.856480	2800.592855
792.178888	2788.224384
792.501249	2782.926131
792.823566	2783.984773
793.145836	2780.529062
793.468062	2779.074689
793.790241	2779.679628
794.112375	2781.648198
794.434464	2790.213119
794.756507	2792.758902
795.078505	2795.287040
795.400457	2802.783236
795.722364	2830.791887
796.044226	2842.986438
796.366042	2843.407374
796.687812	2835.749862
797.009538	2853.731657
797.331218	2848.690503
797.652852	2840.302023
797.974442	2830.282730
798.295986	2827.290805
798.617484	2825.244097
798.938938	2814.750935
799.260346	2804.892959
799.581709	2799.098152
799.903026	2796.138995
800.224299	2792.378294
800.545526	2786.825463
800.866708	2775.099740
801.187845	2765.395518
801.508936	2766.819644
801.829983	2773.060593
802.150984	2766.940632
802.471940	2754.226842
802.792851	2756.742378
803.113717	2753.321955
803.434538	2762.196906
803.755314	2754.841863
804.076045	2752.346492
804.396731	2750.493868
804.717372	2751.194588
805.037967	2747.426326
805.358518	2749.541090
805.679024	2759.497368
805.999485	2755.479569
806.319901	2762.446443
806.640272	2752.104516
806.960598	2756.739857
807.280879	2765.735796
807.601115	2769.844337
807.921306	2758.496699
808.241453	2757.760691
808.561554	2762.781680
808.881611	2765.418204
809.201623	2761.612132
809.521590	2759.527615
809.841513	2760.500558
810.161390	2761.854108
810.481223	2757.637183
810.801011	2749.808271
811.120755	2748.197622
811.440453	2754.156266
811.760107	2752.986718
812.079716	2752.565782
812.399281	2745.689648
812.718801	2738.435428
813.038276	2734.531054
813.357707	2741.586149
813.677093	2747.885071
813.996434	2745.553537
814.315731	2741.210583
814.634983	2736.555077
814.954191	2738.165726
815.273354	2749.682242
815.592473	2756.008890
815.911547	2757.223808
816.230577	2763.847884
816.549562	2771.417177
816.868502	2770.857609
817.187399	2779.893877
817.506250	2794.528347
817.825058	2788.423509
818.143821	2800.113945
818.462539	2810.959987
818.781213	2831.996722
819.099843	2860.499406
819.418429	2901.095818
819.736970	2948.296142
820.055466	3004.268073
820.373919	3094.512288
820.692327	3208.520503
821.010691	3336.495235
821.329011	3652.767145
821.647286	4239.537288
821.965517	5130.712465
822.283704	5608.825578
822.601847	5637.159383
822.919945	5275.096152
823.237999	4995.803626
823.556010	4609.452116
823.873976	4204.203841
824.191897	3908.809869
824.509775	3691.059749
824.827609	3485.184068
825.145398	3389.631517
825.463144	3385.706979
825.780845	3459.000314
826.098502	3530.675440
826.416116	3740.808376
826.733685	3967.912357
827.051210	4013.348277
827.368692	3939.371864
827.686129	3752.650047
828.003522	3507.100484
828.320872	3305.436686
828.638177	3151.124446
828.955439	3043.042108
829.272656	2977.986017
829.589830	2925.298398
829.906960	2887.961092
830.224046	2854.636544
830.541088	2825.100424
830.858086	2816.170020
831.175041	2799.705612
831.491952	2800.799542
831.808819	2813.573826
832.125642	2837.272290
832.442421	2873.508104
832.759157	2932.781991
833.075849	3072.353897
833.392497	3295.167856
833.709101	3457.714820
834.025662	3411.789909
834.342179	3293.408493
834.658653	3157.264572
834.975083	3041.237375
835.291469	2963.074284
835.607811	2893.516443
835.924110	2845.081037
836.240366	2803.872125
836.556578	2768.916764
836.872746	2752.464959
837.188871	2733.961404
837.504952	2719.188302
837.820990	2714.389124
838.136984	2702.166846
838.452935	2695.724252
838.768842	2694.547142
839.084706	2709.534493
839.400526	2772.937085
839.716303	2876.885677
840.032037	2937.482867
840.347727	2927.511464
840.663373	2883.829866
840.978977	2826.610250
841.294537	2764.956938
841.610054	2725.562841
841.925527	2711.296376
842.240957	2692.578572
842.556344	2673.303720
842.871687	2660.847029
843.186987	2653.091214
843.502244	2650.016110
843.817458	2647.306490
844.132629	2634.990951
844.447756	2627.063736
844.762840	2622.287243
845.077881	2623.396297
845.392879	2624.467542
845.707833	2617.553600
846.022745	2609.570932
846.337613	2618.760956
846.652438	2615.789196
846.967221	2613.966819
847.281960	2613.508074
847.596656	2613.649226
847.911309	2610.135542
848.225919	2606.636981
848.540485	2606.649584
848.855009	2604.948194
849.169490	2604.948194
849.483928	2606.833586
849.798323	2606.016919
850.112675	2603.130858
850.426984	2605.422063
850.741251	2603.297217
851.055474	2601.091712
851.369654	2606.362238
851.683792	2608.393823
851.997887	2603.100612
852.311938	2602.006681
852.625947	2603.811414
852.939914	2605.941302
853.253837	2606.967177
853.567718	2604.295365
853.881555	2603.377875
854.195350	2610.203597
854.509103	2606.062289
854.822812	2601.920982
855.136479	2602.183122
855.450103	2606.253853
855.763685	2605.822835
856.077224	2602.016763
856.390720	2603.108173
856.704173	2602.757813
857.017584	2609.545727
857.330953	2607.526745
857.644278	2611.693258
857.957561	2609.676797
858.270802	2607.287290
858.584000	2607.320057
858.897155	2608.330809
859.210268	2610.269132
859.523339	2603.922320
859.836367	2603.425766
860.149352	2603.609768
860.462295	2604.189501
860.775195	2603.939964
861.088054	2601.689088
861.400869	2601.525251
861.713642	2598.613985
862.026373	2595.538881
862.339062	2602.742690
862.651708	2607.451127
862.964312	2606.024481
863.276873	2606.447938
863.589392	2608.933227
863.901869	2611.395830
864.214303	2617.354474
864.526696	2619.194495
864.839045	2618.093003
865.151353	2621.034516
865.463619	2622.929990
865.775842	2621.107613
866.088023	2623.131636
866.400162	2620.074177
866.712258	2623.018210
867.024313	2620.986625
867.336325	2615.809360
867.648296	2616.419340
867.960224	2624.853190
868.272110	2621.352109
868.583954	2615.343054
868.895755	2619.358333
869.207515	2625.037192
869.519233	2628.760085
869.830909	2622.831688
870.142542	2619.383538
870.454134	2622.952675
870.765684	2628.097173
871.077191	2628.934004
871.388657	2633.773512
871.700081	2632.901392
872.011463	2630.020373
872.322803	2630.963069
872.634101	2632.213275
872.945357	2643.122332
873.256571	2644.576705
873.567744	2642.593011
873.878874	2640.518576
874.189963	2642.315747
874.501010	2649.544762
874.812015	2652.801347
875.122979	2651.059629
875.433900	2641.254584
875.744780	2641.478916
876.055618	2648.289515
876.366415	2652.390493
876.677169	2652.100627
876.987882	2645.327837
877.298554	2646.716675
877.609183	2656.912408
877.919771	2661.126813
878.230317	2668.880107
878.540822	2671.569563
878.851285	2688.767459
879.161707	2709.718495
879.472087	2741.790316
879.782425	2782.898405
880.092722	2883.240051
880.402977	3040.617313
880.713191	3243.596852
881.023363	3455.532001
881.333494	3592.522836
881.643583	3738.164291
881.953631	3751.684666
882.263637	3614.913121
882.573602	3439.342335
882.883526	3339.101511
883.193408	3254.589088
883.503248	3173.643280
883.813048	3080.122315
884.122806	2982.989363
884.432522	2911.031933
884.742197	2855.052440
885.051831	2825.544046
885.361424	2798.024387
885.670975	2768.515993
885.980485	2740.623288
886.289954	2729.106772
886.599382	2711.775286
886.908768	2704.705067
887.218113	2688.444826
887.527417	2679.774041
887.836680	2672.098884
888.145901	2666.447751
888.455082	2658.639003
888.764221	2649.983342
889.073319	2643.402116
889.382376	2642.741725
889.691392	2645.279946
890.000366	2644.390182
890.309300	2641.131076
890.618193	2643.898670
890.927044	2645.690800
891.235855	2643.850779
891.544625	2644.778351
891.853353	2646.383958
892.162041	2651.924187
892.470687	2670.309275
892.779293	2676.819925
893.087858	2685.795699
893.396381	2705.362938
893.704864	2741.263515
894.013306	2799.594706
894.321707	2879.839793
894.630068	2921.076432
894.938387	2937.019081
895.246665	2932.214861
895.554903	2897.085580
895.863100	2862.319263
896.171256	2812.971408
896.479371	2756.558376
896.787446	2726.744992
897.095480	2708.594317
897.403473	2704.790767
897.711425	2691.134281
898.019336	2673.845644
898.327207	2663.163439
898.635038	2663.294509
898.942827	2660.289981
899.250576	2655.904177
899.558284	2643.543268
899.865952	2640.112763
900.173579	2636.208389
900.481165	2636.006743
900.788711	2628.064405
901.096216	2626.418469
901.403681	2619.091152
901.711105	2620.389249
902.018489	2619.905298
902.325832	2623.880248
902.633135	2622.675412
902.940397	2637.400622
903.247619	2669.331291
903.554800	2730.064592
903.861941	2833.304902
904.169041	2936.925819
904.476101	2989.252996
904.783121	2984.171513
905.090100	2931.403235
905.397039	2870.385109
905.703938	2810.458393
906.010796	2761.755805
906.317614	2715.523383
906.624391	2685.909125
906.931129	2664.229643
907.237826	2642.981180
907.544483	2627.101545
907.851099	2615.068311
908.157675	2607.640171
908.464211	2603.214037
908.770707	2591.415217
909.077163	2589.111410
909.383578	2586.553024
909.689954	2586.653847
909.996289	2584.544124
910.302584	2581.985739
910.608839	2580.647312
910.915054	2583.107395
911.221229	2584.425657
911.527363	2583.999680
911.833458	2583.004052
912.139513	2585.312900
912.445527	2587.624269
912.751502	2592.274734
913.057436	2597.986361
913.363331	2602.513317
913.669186	2610.148145
913.975000	2622.655247
914.280775	2637.246867
914.586510	2651.576347
914.892205	2679.915193
915.197859	2740.913155
915.503475	2810.770944
915.809050	2869.835623
916.114585	2874.899462
916.420081	2884.848179
916.725536	2896.168090
917.030952	2874.309647
917.336328	2837.239522
917.641665	2793.499951
917.946961	2751.567633
918.252218	2722.938921
918.557435	2700.019315
918.862612	2681.425019
919.167750	2666.215858
919.472848	2655.452994
919.777906	2643.500418
920.082925	2627.598099
920.387904	2621.044599
920.692843	2616.371449
920.997743	2613.500512
921.302603	2609.543206
921.607423	2601.222782
921.912204	2597.736824
922.216946	2595.433017
922.521647	2591.828592
922.826310	2588.897161
923.130932	2585.701069
923.435516	2580.186047
923.740059	2581.514391
924.044564	2575.999368
924.349028	2578.514904
924.653454	2567.777247
924.957840	2570.507031
925.262186	2565.909499
925.566493	2565.039900
925.870761	2562.836916
926.174989	2563.519992
926.479178	2563.945970
926.783328	2562.229457
927.087438	2562.799107
927.391509	2561.785835
927.695541	2557.208467
927.999533	2557.163097
928.303486	2555.023127
928.607400	2556.404403
928.911275	2557.291647
929.215110	2555.076059
929.518906	2556.996739
929.822663	2555.287788
930.126381	2555.716286
930.430060	2554.173693
930.733699	2555.091183
931.037299	2555.988508
931.340861	2557.669733
931.644383	2557.894064
931.947866	2557.979764
932.251309	2553.072201
932.554714	2556.457336
932.858080	2557.261400
933.161407	2556.066646
933.464694	2557.949517
933.767943	2553.228477
934.071153	2553.442726
934.374323	2553.863662
934.677455	2554.927345
934.980548	2552.041285
935.283602	2554.123281
935.586617	2554.375339
935.889593	2551.743857
936.192530	2553.891388
936.495428	2555.509599
936.798287	2554.806358
937.101108	2553.334341
937.403890	2559.277861
937.706632	2560.664178
938.009336	2562.617626
938.312002	2565.226423
938.614628	2569.834037
938.917216	2573.861919
939.219765	2570.388564
939.522275	2571.051476
939.824747	2573.352763
940.127179	2566.763975
940.429573	2566.461505
940.731929	2565.788511
941.034246	2565.818758
941.336524	2564.092163
941.638763	2567.242884
941.940964	2562.950342
942.243126	2564.261042
942.545250	2562.025290
942.847335	2563.537636
943.149381	2558.688046
943.451389	2558.796431
943.753359	2556.921122
944.055290	2554.360216
944.357182	2555.391132
944.659036	2553.180586
944.960851	2555.592778
945.262628	2555.481872
945.564367	2557.268961
945.866067	2557.805844
946.167729	2555.509599
946.469352	2555.950700
946.770937	2558.128478
947.072484	2556.744681
947.373992	2556.527912
947.675462	2557.415155
947.976893	2553.974567
948.278286	2552.510112
948.579641	2557.916750
948.880958	2553.503219
949.182236	2553.747715
949.483476	2552.757129
949.784678	2554.899619
950.085841	2554.708055
950.386967	2553.684701
950.688054	2555.106306
950.989103	2555.635628
951.290114	2555.799465
951.591087	2556.517829
951.892021	2558.703170
952.192917	2558.294836
952.493776	2559.857594
952.794596	2558.811554
953.095378	2559.431616
953.396122	2561.178376
953.696828	2561.400187
953.997496	2558.483879
954.298126	2555.257541
954.598718	2553.155380
954.899272	2557.977243
955.199788	2552.646223
955.500266	2553.402396
955.800706	2549.596325
956.101108	2545.946530
956.401472	2547.728578
956.701798	2545.386962
957.002087	2545.465100
957.302337	2547.103475
957.602550	2545.737322
957.902724	2547.731098
958.202861	2546.039791
958.502960	2547.569781
958.803022	2544.482075
959.103045	2544.131714
959.403031	2546.768238
959.702979	2543.884698
960.002889	2545.041643
960.302762	2544.802188
960.602596	2543.735984
960.902393	2544.535007
961.202153	2541.691796
961.501875	2542.246323
961.801559	2545.293700
962.101205	2543.408309
962.400814	2541.812784
962.700385	2542.808412
962.999918	2544.378731
963.299414	2542.410160
963.598873	2541.933771
963.898293	2541.452341
964.197677	2540.653318
964.497022	2542.125335
964.796331	2545.339071
965.095601	2542.004347
965.394835	2542.266487
965.694030	2541.651467
965.993189	2543.478885
966.292309	2541.560726
966.591393	2540.965870
966.890439	2543.252033
967.189447	2542.090047
967.488419	2539.408153
967.787353	2543.599873
968.086249	2541.238092
968.385108	2542.170706
968.683930	2543.778834
968.982714	2541.870757
969.281462	2542.253885
969.580172	2542.019471
969.878844	2543.758669
970.177480	2540.355890
970.476078	2543.572146
970.774639	2543.995603
971.073162	2542.505942
971.371649	2539.451003
971.670098	2540.287835
971.968510	2542.047197
972.266885	2538.137782
972.565223	2542.200952
972.863524	2541.613658
973.161788	2541.648946
973.460014	2541.790098
973.758204	2544.436704
974.056356	2542.304296
974.354471	2545.339071
974.652550	2541.936292
974.950591	2544.769420
975.248595	2545.361756
975.546563	2546.516180
975.844493	2543.713299
976.142386	2544.658515
976.440243	2541.843031
976.738062	2542.916796
977.035845	2540.328164
977.333590	2542.011909
977.631299	2541.570808
977.928971	2540.663401
978.226606	2539.453524
978.524204	2541.936292
978.821765	2541.364121
979.119290	2543.909904
979.416777	2541.749769
979.714228	2543.274718
980.011642	2542.019471
980.309020	2542.021992
980.606360	2539.214069
980.903664	2542.551313
981.200931	2544.315717
981.498162	2543.110881
981.795356	2543.683052
982.092513	2551.330482
982.389633	2547.968032
982.686717	2551.683363
982.983764	2552.633620
983.280775	2558.249466
983.577749	2555.038251
983.874686	2555.706204
984.171587	2553.072201
984.468451	2547.741181
984.765279	2546.833773
985.062070	2548.164638
985.358824	2542.475695
985.655543	2544.265305
985.952224	2545.434853
986.248869	2543.710778
986.545478	2538.533513
986.842050	2540.156765
987.138586	2535.521424
987.435086	2535.395395
987.731549	2533.739376
988.027975	2541.391847
988.324366	2540.713812
988.620719	2541.016281
988.917037	2539.645088
989.213318	2541.608617
989.509563	2538.515869
989.805772	2538.112577
990.101944	2538.208359
990.398080	2539.534182
990.694180	2539.834131
990.990244	2539.544264
991.286271	2540.252547
991.582262	2539.151054
991.878217	2540.199614
992.174136	2540.204656
992.470019	2537.744572
992.765865	2542.465613
993.061676	2542.344625
993.357450	2539.259439
993.653188	2538.939326
993.948890	2538.964532
994.244556	2539.592155
994.540186	2540.028215
994.835780	2541.749769
995.131337	2541.248174
995.426859	2541.868236
995.722345	2541.399409
996.017795	2541.921168
996.313208	2541.316230
996.608586	2541.303627
996.903928	2542.848741
997.199234	2541.651467
997.494504	2540.615510
997.789738	2539.942516
998.084936	2541.530479
998.380099	2541.008720
998.675225	2542.992414
998.970316	2541.205325
999.265371	2541.555685
999.560390	2541.248174
999.855373	2540.844882
1000.150320	2540.209697
1000.445232	2540.759183
1000.740108	2542.269008
1001.034948	2539.153575
1001.329752	2538.636857
1001.624521	2540.824717
1001.919254	2534.329191
1002.213951	2536.726259
1002.508613	2534.966897
1002.803239	2538.379758
1003.097829	2537.555529
1003.392384	2539.950077
1003.686903	2536.726259
1003.981386	2538.399922
1004.275834	2540.986034
1004.570246	2543.075593
1004.864623	2537.918492
1005.158964	2541.447300
1005.453270	2537.386651
1005.747540	2540.013092
1006.041775	2540.237423
1006.335974	2539.176260
1006.630138	2539.950077
1006.924266	2539.269522
1007.218359	2539.377906
1007.512416	2536.101156
1007.806438	2543.136087
1008.100425	2539.433359
1008.394376	2536.764068
1008.688292	2538.881353
1008.982172	2535.816331
1009.276017	2542.664739
1009.569827	2536.151568
1009.863602	2539.614841
1010.157341	2539.067875
1010.451045	2537.835313
1010.744714	2539.574511
1011.038347	2537.033770
1011.331945	2538.309182
1011.625508	2539.665252
1011.919036	2538.193235
1012.212528	2536.373379
1012.505986	2539.894625
1012.799408	2540.585263
1013.092795	2538.722556
1013.386147	2538.483102
1013.679464	2539.662732
1013.972745	2537.472350
1014.265992	2539.904707
1014.559204	2540.272711
1014.852380	2536.176774
1015.145521	2540.938143
1015.438628	2537.336239
1015.731699	2535.803728
1016.024736	2539.277083
1016.317737	2537.810107
1016.610703	2539.448482
1016.903635	2537.389171
1017.196531	2530.331556
1017.489393	2536.968235
1017.782219	2535.130734
1018.075011	2538.518390
1018.367768	2539.461085
1018.660490	2538.730118
1018.953177	2538.730118
1019.245829	2538.730118
