Dividing Wavelength (nm)	Counts (n)	Blue Motor Position (mm): 9.200000	Red Motor Position (mm): 0.000000	
326.493990	2138.936371
326.888308	2138.936371
327.282561	2138.936371
327.676750	2107.172061
328.070874	2106.725919
328.464933	2108.066866
328.858929	2114.988370
329.252859	2123.835595
329.646726	2135.503345
330.040528	2150.029430
330.434265	2166.907213
330.827938	2185.040244
331.221547	2203.150589
331.615091	2220.966027
332.008571	2239.983779
332.401986	2259.306522
332.795338	2278.558689
333.188625	2299.209775
333.581847	2316.228711
333.975006	2335.652277
334.368100	2354.397807
334.761129	2372.026722
335.154095	2386.333517
335.546996	2405.991496
335.939833	2421.172931
336.332606	2437.297062
336.725315	2447.092023
337.117960	2460.307408
337.510540	2469.240333
337.903056	2479.950264
338.295508	2487.161635
338.687896	2494.695639
339.080220	2503.936074
339.472480	2510.431601
339.864676	2514.756911
340.256807	2519.309073
340.648875	2520.581964
341.040879	2521.179341
341.432818	2525.408869
341.824694	2525.464322
342.216506	2527.677388
342.608253	2528.327697
342.999937	2528.897348
343.391557	2524.153622
343.783113	2525.802079
344.174605	2523.331914
344.566033	2523.198323
344.957397	2519.006604
345.348697	2521.827129
345.739934	2518.943589
346.131106	2516.823784
346.522215	2514.436798
346.913260	2513.877230
347.304241	2510.910511
347.695159	2509.078051
348.086012	2507.222907
348.476802	2506.408760
348.867528	2507.205263
349.258191	2501.302071
349.648789	2502.685868
350.039324	2499.126813
350.429796	2497.344766
350.820203	2495.865187
351.210548	2496.081957
351.600828	2495.270331
351.991045	2496.197903
352.381198	2494.831750
352.771288	2495.799652
353.161314	2493.710094
353.551276	2492.643890
353.941175	2493.715135
354.331010	2494.110865
354.720782	2493.924343
355.110490	2493.082470
355.500135	2491.524753
355.889717	2493.546256
356.279235	2491.378560
356.668689	2495.507265
357.058080	2494.499034
357.447408	2493.024497
357.836672	2491.376039
358.225873	2495.192193
358.615010	2490.695484
359.004084	2496.147492
359.393095	2494.373005
359.782043	2496.823006
360.170927	2497.793428
360.559748	2498.279900
360.948505	2497.417862
361.337199	2498.163953
361.725830	2502.194356
362.114398	2499.509941
362.502903	2501.513800
362.891344	2503.338698
363.279722	2502.070847
363.668037	2501.236536
364.056289	2502.242247
364.444478	2504.601507
364.832603	2501.264263
365.220665	2503.109325
365.608665	2500.472802
365.996601	2503.555467
366.384474	2506.449089
366.772284	2504.770385
367.160031	2506.396157
367.547715	2505.587052
367.935336	2505.002278
368.322893	2509.035201
368.710388	2507.114522
369.097820	2510.005623
369.485189	2507.701816
369.872495	2507.951353
370.259738	2504.488081
370.646918	2510.413957
371.034035	2507.643843
371.421090	2508.851199
371.808081	2505.861795
372.195010	2509.839265
372.581875	2506.045797
372.968678	2509.496467
373.355418	2510.552589
373.742096	2507.737104
374.128710	2510.182064
374.515262	2512.206087
374.901751	2511.081910
375.288177	2512.105264
375.674540	2509.756086
376.060841	2511.407064
376.447079	2512.667353
376.833254	2512.251458
377.219367	2509.456138
377.605417	2510.905469
377.991404	2509.176354
378.377329	2508.110150
378.763191	2510.532424
379.148991	2513.121057
379.534727	2516.039885
379.920402	2515.054339
380.306013	2511.220542
380.691563	2514.625841
381.077049	2515.034174
381.462474	2516.856552
381.847835	2511.631396
382.233134	2514.867816
382.618371	2514.648526
383.003545	2516.670029
383.388657	2514.172137
383.773706	2514.726664
384.158693	2516.055008
384.543618	2513.844462
384.928480	2512.538803
385.313280	2516.115502
385.698017	2515.157683
386.082692	2518.557941
386.467305	2517.824453
386.851856	2516.039885
387.236344	2517.476613
387.620770	2521.174300
388.005133	2518.283198
388.389435	2521.156656
388.773674	2518.792355
389.157851	2518.789834
389.541965	2520.551717
389.926018	2517.779083
390.310008	2520.072808
390.693936	2519.719927
391.077802	2517.022910
391.461606	2516.324710
391.845348	2519.911491
392.229027	2521.058353
392.612645	2519.800585
392.996200	2519.992149
393.379694	2519.654392
393.763125	2520.919722
394.146494	2524.173786
394.529801	2521.363343
394.913047	2519.220853
395.296230	2521.726306
395.679351	2522.616070
396.062410	2522.701769
396.445408	2521.358302
396.828343	2522.638755
397.211217	2519.495596
397.594028	2520.070287
397.976778	2518.560462
398.359466	2523.102541
398.742092	2519.843435
399.124656	2523.122706
399.507158	2525.335772
399.889598	2525.832326
400.271977	2522.502644
400.654294	2524.193951
401.036549	2526.129754
401.418742	2524.680422
401.800874	2525.343334
402.182944	2526.742254
402.564952	2524.113293
402.946898	2525.376102
403.328783	2527.190917
403.710606	2527.198479
404.092367	2526.260824
404.474067	2525.444157
404.855705	2526.611184
405.237282	2526.815351
405.618797	2522.704290
406.000250	2525.938190
406.381642	2527.397604
406.762972	2525.449198
407.144240	2525.910464
407.525447	2527.730320
407.906593	2524.630011
408.287677	2528.471370
408.668700	2526.722090
409.049661	2528.000022
409.430560	2526.989271
409.811399	2527.639580
410.192176	2526.369209
410.572891	2525.645803
410.953545	2526.039013
411.334138	2527.450536
411.714669	2527.654703
412.095139	2531.647297
412.475547	2530.787780
412.855894	2528.115969
413.236180	2530.500434
413.616405	2530.502955
413.996568	2527.042203
414.376670	2527.480783
414.756711	2529.018335
415.136691	2532.269879
415.516609	2528.766277
415.896466	2528.395753
416.276262	2531.659900
416.655997	2527.740403
417.035670	2527.846267
417.415283	2528.736031
417.794834	2525.068591
418.174324	2529.721576
418.553753	2530.197965
418.933121	2531.095291
419.312428	2530.530681
419.691674	2530.349200
420.070859	2533.933460
420.449983	2531.412883
420.829045	2532.413552
421.208047	2528.892306
421.586988	2531.664941
421.965867	2536.191897
422.344686	2533.497400
422.723444	2532.847092
423.102141	2533.227699
423.480777	2534.445137
423.859352	2535.478574
424.237866	2533.736855
424.616319	2531.430527
424.994712	2534.044366
425.373044	2533.517565
425.751314	2533.245343
426.129524	2532.196783
426.507673	2535.670138
426.885762	2533.573018
427.263789	2534.830786
427.641756	2534.452699
428.019662	2536.204500
428.397508	2534.792977
428.775292	2537.197607
429.153016	2533.237781
429.530679	2537.701723
429.908282	2532.307688
430.285824	2536.075951
430.663305	2532.022863
431.040726	2535.788605
431.418086	2538.296579
431.795385	2535.014788
432.172624	2535.574356
432.549802	2534.480425
432.926920	2534.551002
433.303977	2536.317926
433.680974	2535.193749
434.057910	2534.939170
434.434786	2536.045704
434.811601	2537.782381
435.188355	2535.740714
435.565050	2539.115766
435.941683	2536.756506
436.318257	2533.981351
436.694770	2532.582431
437.071222	2532.708460
437.447614	2532.542102
437.823946	2534.228368
438.200218	2536.501928
438.576429	2535.065199
438.952580	2535.707946
439.328670	2535.561753
439.704700	2540.088709
440.080670	2538.898997
440.456580	2536.902700
440.832429	2539.869419
441.208218	2536.078471
441.583947	2538.999820
441.959616	2538.541075
442.335224	2539.224151
442.710773	2537.716846
443.086261	2539.786240
443.461689	2537.116949
443.837057	2538.276414
444.212365	2537.794984
444.587612	2536.940508
444.962800	2538.563760
445.337927	2538.614172
445.712995	2539.418236
446.088002	2539.377906
446.462949	2538.067206
446.837837	2541.112063
447.212664	2537.542926
447.587431	2541.772454
447.962139	2540.149203
448.336786	2541.265818
448.711374	2541.366642
449.085901	2544.570295
449.460369	2539.060314
449.834776	2539.960160
450.209124	2538.828421
450.583412	2540.812115
450.957640	2538.929244
451.331808	2538.881353
451.705917	2541.059131
452.079965	2540.318082
452.453954	2539.335057
452.827883	2540.706250
453.201752	2538.034439
453.575562	2542.538710
453.949311	2540.028215
454.323001	2539.876981
454.696632	2543.234389
455.070202	2544.976108
455.443713	2540.348328
455.817164	2539.571991
456.190556	2536.380940
456.563888	2537.527803
456.937160	2539.045190
457.310373	2541.643905
457.683526	2540.900335
458.056619	2543.252033
458.429653	2541.104502
458.802628	2545.321427
459.175542	2542.523586
459.548398	2539.710623
459.921194	2542.631971
460.293930	2539.196425
460.666607	2541.966539
461.039224	2541.689275
461.411782	2542.596683
461.784280	2542.725233
462.156719	2541.147351
462.529099	2542.442928
462.901419	2544.955943
463.273680	2543.204142
463.645882	2542.891591
464.018024	2542.931920
464.390106	2545.545758
464.762130	2541.958977
465.134094	2542.689944
465.505999	2542.873947
465.877845	2543.423432
466.249631	2543.708257
466.621358	2541.719522
466.993026	2542.722712
467.364634	2544.887887
467.736184	2545.961653
468.107674	2544.393854
468.479105	2544.542568
468.850477	2542.785726
469.221790	2542.258926
469.593043	2543.017619
469.964238	2542.599204
470.335373	2540.708771
470.706449	2541.903524
471.077467	2543.078113
471.448425	2544.209852
471.819324	2542.833617
472.190164	2543.708257
472.560945	2545.044163
472.931667	2545.520552
473.302330	2545.182795
473.672934	2546.059956
474.043479	2543.622558
474.413965	2545.298742
474.784393	2542.173226
475.154761	2541.598535
475.525070	2541.381765
475.895321	2543.753628
476.265513	2539.236754
476.635645	2546.047353
477.005719	2544.451828
477.375734	2545.558361
477.745691	2546.773279
478.115588	2544.356046
478.485427	2543.304965
478.855207	2547.531973
479.224928	2544.719009
479.594591	2545.018957
479.964194	2543.098278
480.333739	2546.191026
480.703226	2545.013916
481.072653	2543.413350
481.442022	2544.857641
481.811333	2546.032229
482.180584	2546.208670
482.549777	2548.484751
482.918912	2544.230017
483.287988	2547.126160
483.657005	2547.577343
484.025964	2546.954761
484.394864	2544.398896
484.763706	2544.348484
485.132489	2545.623896
485.501213	2547.395862
485.869879	2543.488967
486.238487	2545.752445
486.607036	2546.170861
486.975527	2547.675646
487.343959	2541.533000
487.712333	2549.220759
488.080648	2544.993752
488.448905	2547.768907
488.817104	2547.652960
489.185244	2546.289328
489.553326	2548.477189
489.921350	2545.520552
490.289315	2546.455686
490.657222	2545.265974
491.025070	2546.516180
491.392861	2547.910059
491.760593	2547.683207
492.128267	2547.342929
492.495883	2544.708927
492.863440	2547.685728
493.230939	2548.918290
493.598380	2549.913918
493.965763	2542.836138
494.333088	2544.504760
494.700354	2541.235572
495.067563	2546.213711
495.434713	2544.028371
495.801805	2546.957281
496.168839	2545.465100
496.535815	2545.838145
496.902733	2547.859648
497.269593	2547.990718
497.636395	2548.431819
498.003139	2547.421067
498.369825	2548.252858
498.736453	2548.479710
499.103023	2547.332847
499.469535	2548.330996
499.835989	2547.534493
500.202385	2548.635985
500.568723	2551.181768
500.935003	2549.697148
501.301226	2548.401572
501.667390	2550.796120
502.033497	2551.398538
502.399546	2548.210008
502.765537	2547.287477
503.131470	2547.118598
503.497345	2548.542724
503.863163	2549.704710
504.228923	2550.554144
504.594625	2546.906870
504.960269	2548.348640
505.325856	2547.395862
505.691385	2548.028526
506.056856	2548.641027
506.422270	2548.051212
506.787625	2549.460214
507.152924	2550.241593
507.518164	2548.441901
507.883347	2548.235214
508.248472	2550.352498
508.613540	2549.223280
508.978550	2546.064997
509.343503	2549.102292
509.708398	2549.298897
510.073236	2550.609597
510.438016	2550.662529
510.802738	2548.530121
511.167403	2550.758311
511.532010	2546.967363
511.896561	2550.171017
512.261053	2548.749411
512.625488	2542.901673
512.989866	2544.940820
513.354186	2547.564740
513.718449	2544.661036
514.082655	2548.600697
514.446803	2547.133722
514.810894	2551.101110
515.174927	2551.653116
515.538904	2549.687066
515.902822	2549.911397
516.266684	2550.259237
516.630488	2551.297715
516.994235	2548.789741
517.357925	2551.282591
517.721558	2548.641027
518.085133	2551.058260
518.448651	2549.142621
518.812112	2550.483568
519.175516	2551.002807
519.538863	2550.793599
519.902152	2550.876778
520.265385	2549.344267
520.628560	2552.056408
520.991678	2550.962478
521.354739	2550.874258
521.717743	2548.217570
522.080690	2548.555327
522.443580	2549.545914
522.806413	2549.445091
523.169189	2552.046326
523.531908	2550.468445
523.894569	2550.944834
524.257174	2552.822664
524.619722	2550.377704
524.982213	2551.985832
525.344647	2549.447611
525.707025	2551.580019
526.069345	2548.656150
526.431608	2551.093548
526.793815	2550.801161
527.155964	2550.254196
527.518057	2548.532642
527.880093	2548.847714
528.242072	2549.150183
528.603995	2551.259906
528.965860	2552.668908
529.327669	2553.150339
529.689421	2553.699824
530.051117	2552.726882
530.412755	2551.028013
530.774337	2553.533466
531.135862	2552.999104
531.497331	2551.867365
531.858743	2547.927703
532.220098	2551.116233
532.581396	2546.952240
532.942638	2551.421223
533.303824	2552.247972
533.664953	2553.780483
534.026025	2554.138405
534.387040	2552.721841
534.747999	2553.019269
535.108902	2554.881975
535.469748	2555.396173
535.830537	2556.124619
536.191270	2550.758311
536.551947	2554.408107
536.912567	2555.562531
537.273131	2554.022458
537.633638	2554.599670
537.994089	2554.375339
538.354483	2554.251831
538.714821	2557.548745
539.075103	2554.372818
539.435328	2553.977088
539.795497	2552.235369
540.155609	2557.289126
540.515665	2556.147305
540.875665	2555.930535
541.235609	2557.505896
541.595496	2554.939948
541.955328	2557.362223
542.315102	2557.664692
542.674821	2558.168807
543.034483	2556.296019
543.394090	2556.835422
543.753640	2558.778787
544.113134	2557.553787
544.472571	2556.575803
544.831953	2559.663509
545.191278	2557.329455
545.550548	2559.746688
545.909761	2560.177707
546.268918	2557.505896
546.628019	2558.254507
546.987064	2559.487069
547.346053	2560.339024
547.704986	2561.092677
548.063863	2559.290464
548.422684	2559.114024
548.781449	2560.578479
549.140158	2559.615618
549.498811	2562.214333
549.857408	2558.995557
550.215949	2557.445402
550.574434	2555.065977
550.932864	2556.840463
551.291237	2557.374826
551.649555	2561.536298
552.007817	2560.238201
552.366022	2559.502193
552.724173	2561.397666
553.082267	2560.616287
553.440305	2558.244425
553.798288	2558.188972
554.156215	2561.173335
554.514086	2560.553273
554.871902	2558.924980
555.229661	2559.625701
555.587365	2558.864487
555.945014	2560.044117
556.302606	2563.295661
556.660143	2559.948335
557.017625	2562.622667
557.375050	2562.993192
557.732421	2556.631255
558.089735	2560.021431
558.446994	2560.477656
558.804197	2560.354148
559.161345	2561.712738
559.518437	2559.411452
559.875474	2562.433623
560.232455	2559.988664
560.589381	2557.631924
560.946251	2559.711400
561.303065	2561.619477
561.659825	2560.097049
562.016528	2562.426062
562.373177	2561.863973
562.729770	2561.006977
563.086307	2561.843808
563.442789	2562.110990
563.799216	2561.727862
564.155587	2563.184755
564.511904	2559.837429
564.868164	2560.586041
565.224370	2560.512944
565.580520	2562.126113
565.936615	2559.398849
566.292654	2558.602347
566.648638	2560.570917
567.004567	2559.829867
567.360441	2559.693756
567.716260	2559.194682
568.072023	2560.180228
568.427732	2555.870041
568.783385	2558.380536
569.138982	2557.122768
569.494525	2557.049671
569.850013	2556.583364
570.205445	2560.389436
570.560823	2558.524209
570.916145	2558.085628
571.271412	2559.388767
571.626625	2561.138047
571.981782	2558.738458
572.336884	2560.916236
572.691931	2559.613098
573.046923	2556.666543
573.401860	2560.583520
573.756743	2561.196020
574.111570	2559.262738
574.466342	2558.594785
574.821059	2558.650237
575.175722	2558.403221
575.530330	2559.640824
575.884882	2557.667212
576.239380	2558.993036
576.593823	2560.565876
576.948211	2556.462377
577.302544	2560.633932
577.656823	2559.033365
578.011047	2558.602347
578.365216	2556.578323
578.719330	2560.089487
579.073389	2557.773077
579.427394	2555.605381
579.781344	2558.035217
580.135239	2557.135371
580.489080	2558.176369
580.842866	2558.355330
581.196597	2560.497820
581.550273	2556.878272
581.903895	2556.888354
582.257463	2558.115875
582.610975	2554.876934
582.964434	2557.042109
583.317837	2555.539846
583.671186	2555.991029
584.024481	2556.585885
584.377721	2558.287274
584.730906	2556.404403
585.084037	2556.830381
585.437113	2556.681667
585.790135	2555.746533
586.143103	2558.544373
586.496016	2557.616801
586.848874	2552.479865
587.201679	2554.917263
587.554428	2554.788714
587.907124	2555.867521
588.259765	2554.715617
588.612352	2556.855587
588.964884	2558.103272
589.317362	2556.356512
589.669786	2556.424568
590.022155	2558.589744
590.374470	2555.930535
590.726731	2555.630586
591.078937	2558.395659
591.431090	2558.945145
591.783188	2554.748384
592.135232	2556.848025
592.487222	2559.141750
592.839157	2558.352809
593.191038	2553.220915
593.542866	2556.149825
593.894639	2553.102448
594.246358	2556.437171
594.598022	2557.246276
594.949633	2557.445402
595.301190	2556.520350
595.652692	2557.599157
596.004141	2554.715617
596.355535	2559.671071
596.706876	2555.943138
597.058162	2557.929353
597.409395	2553.281409
597.760573	2555.045812
598.111698	2555.146636
598.462768	2557.233673
598.813785	2556.114537
599.164748	2556.273333
599.515657	2557.946997
599.866511	2557.735268
600.217312	2554.735782
600.568060	2556.061605
600.918753	2556.734599
601.269392	2555.761656
601.619978	2558.010011
601.970510	2558.410783
602.320988	2557.989846
602.671412	2555.025648
603.021783	2554.829043
603.372100	2558.824157
603.722363	2556.815258
604.072572	2557.442881
604.422728	2557.505896
604.772830	2554.415668
605.122878	2551.017931
605.472872	2553.495658
605.822813	2553.566234
606.172701	2555.759136
606.522534	2555.376008
606.872314	2557.067315
607.222041	2559.280382
607.571714	2558.826678
607.921333	2557.377346
608.270899	2556.132181
608.620411	2557.752912
608.969870	2561.942111
609.319276	2560.364230
609.668627	2562.758778
610.017926	2565.508727
610.367171	2567.565518
610.716362	2565.823799
611.065500	2565.375137
611.414585	2562.907492
611.763616	2563.116700
612.112594	2560.701987
612.461518	2563.411607
612.810389	2561.427913
613.159207	2559.073694
613.507971	2557.490772
613.856682	2558.861966
614.205340	2559.484548
614.553945	2560.984292
614.902496	2559.965979
615.250994	2559.920608
615.599439	2557.813406
615.947830	2560.601164
616.296169	2561.178376
616.644454	2561.599312
616.992686	2559.532439
617.340864	2562.368088
617.688990	2559.673592
618.037063	2560.197872
618.385082	2560.538150
618.733048	2564.775239
619.080961	2560.391956
619.428821	2561.450598
619.776628	2560.185269
620.124382	2564.258521
620.472083	2564.021587
620.819731	2564.445044
621.167326	2563.716597
621.514868	2565.478480
621.862357	2560.061761
622.209793	2563.633418
622.557176	2564.510579
622.904506	2561.453119
623.251783	2559.650907
623.599007	2561.223747
623.946179	2559.683674
624.293297	2562.786504
624.640363	2562.463870
624.987376	2563.003274
625.334336	2561.143088
625.681243	2563.860270
626.028097	2565.947308
626.374899	2565.266752
626.721647	2563.570404
627.068343	2563.900599
627.414987	2566.766495
627.761577	2567.293296
628.108115	2564.505538
628.454600	2565.508727
628.801032	2567.245405
629.147412	2565.629715
629.493739	2565.808676
629.840014	2565.561659
630.186236	2567.575600
630.532405	2567.162226
630.878521	2568.246074
631.224585	2565.917061
631.570597	2568.104922
631.916556	2570.943091
632.262462	2570.408729
632.608316	2568.772874
632.954117	2571.366548
633.299866	2572.742783
633.645562	2570.559963
633.991206	2570.938050
634.336797	2567.618450
634.682336	2571.548030
635.027823	2572.836044
635.373257	2570.834706
635.718639	2568.230950
636.063968	2571.293451
636.409245	2570.769171
636.754470	2572.480643
637.099642	2571.167422
637.444762	2572.773030
637.789829	2573.690520
638.134845	2573.325036
638.479808	2572.336970
638.824719	2573.080540
639.169577	2573.176322
639.514383	2575.157496
639.859137	2574.618092
640.203839	2577.549523
640.548489	2577.143710
640.893086	2573.609862
641.237632	2574.776889
641.582125	2574.466858
641.926566	2574.560119
642.270955	2580.848958
642.615292	2580.574216
642.959576	2580.612024
643.303809	2582.275605
643.647990	2584.362643
643.992118	2582.205029
644.336195	2582.946078
644.680219	2585.133939
645.024192	2584.289546
645.368112	2587.588981
645.711981	2592.473859
646.055797	2591.972264
646.399562	2591.662233
646.743274	2596.695826
647.086935	2597.366299
647.430544	2600.136413
647.774101	2603.390478
648.117606	2602.349480
648.461059	2604.028184
648.804460	2605.888370
649.147810	2602.495673
649.491108	2603.294696
649.834354	2608.053545
650.177548	2605.971549
650.520690	2605.437186
650.863781	2604.738987
651.206820	2610.594287
651.549807	2607.773761
651.892742	2609.059255
652.235626	2613.031685
652.578458	2608.587907
652.921238	2611.171499
653.263967	2612.336005
653.606644	2610.874071
653.949269	2616.747015
654.291843	2615.257354
654.634365	2621.722634
654.976836	2620.255658
655.319255	2618.682818
655.661622	2625.465691
656.003938	2625.523664
656.346203	2625.884106
656.688416	2628.855867
657.030577	2626.831843
657.372687	2630.128758
657.714746	2631.036166
658.056753	2635.162350
658.398708	2633.944911
658.740612	2630.584982
659.082465	2636.621764
659.424266	2638.514717
659.766016	2636.339459
660.107715	2646.457055
660.449362	2649.247334
660.790958	2651.586429
661.132503	2647.404792
661.473996	2657.615649
661.815438	2656.514157
662.156829	2658.724703
662.498168	2657.550114
662.839456	2659.140598
663.180693	2665.144613
663.521879	2667.178718
663.863013	2666.530930
664.204097	2676.618279
664.545129	2675.625171
664.886110	2679.464010
665.227040	2684.215297
665.567918	2685.163034
665.908746	2688.321317
666.249522	2692.003880
666.590248	2694.211906
666.930922	2697.871783
667.271545	2700.659541
667.612118	2704.684903
667.952639	2702.960828
668.293109	2711.634133
668.633528	2711.641695
668.973896	2709.257229
669.314213	2715.253682
669.654480	2720.975391
669.994695	2716.894577
670.334859	2717.726368
670.674973	2722.049157
671.015035	2725.827502
671.355047	2732.824623
671.695008	2732.955693
672.034918	2731.571897
672.374777	2736.809656
672.714585	2740.930799
673.054342	2746.138311
673.394049	2749.082345
673.733705	2756.518047
674.073310	2760.011566
674.412864	2751.076121
674.752368	2759.845208
675.091820	2763.799993
675.431223	2759.807399
675.770574	2765.123296
676.109875	2758.796648
676.449125	2763.842843
676.788324	2761.720517
677.127473	2762.096083
677.466571	2759.547780
677.805619	2769.365427
678.144616	2773.985645
678.483562	2773.642846
678.822458	2772.685027
679.161303	2774.336005
679.500098	2779.195677
679.838842	2779.654422
680.177535	2784.047788
680.516179	2786.162552
680.854771	2792.327883
681.193314	2803.178967
681.531805	2814.133394
681.870247	2840.939729
682.208638	2857.542770
682.546978	2858.135105
682.885268	2855.647296
683.223508	2861.626104
683.561697	2854.752491
683.899836	2856.209384
684.237925	2856.267358
684.575963	2858.608974
684.913951	2855.314580
685.251889	2872.860316
685.589776	2867.390664
685.927614	2864.802031
686.265401	2885.654764
686.603137	2883.971019
686.940824	2901.857033
687.278460	2907.099833
687.616046	2920.282450
687.953582	2928.028183
688.291068	2933.628905
688.628504	2951.041050
688.965889	2945.281532
689.303224	2944.416974
689.640510	2943.615430
689.977745	2938.465892
690.314930	2926.261258
690.652065	2921.726740
690.989150	2909.138979
691.326185	2907.961870
691.663170	2907.238464
692.000105	2894.867473
692.336990	2884.273488
692.673825	2890.660630
693.010610	2884.301214
693.347345	2865.069212
693.684030	2883.192160
694.020665	2876.653784
694.357251	2859.017307
694.693786	2867.927547
695.030272	2868.139275
695.366707	2869.901158
695.703093	2862.021835
696.039429	2873.354349
696.375716	2878.007334
696.711952	2873.346787
697.048139	2870.841333
697.384276	2873.019112
697.720363	2879.166799
698.056400	2890.708521
698.392388	2883.557644
698.728326	2880.969012
699.064214	2876.734442
699.400053	2880.192674
699.735842	2886.897408
700.071581	2879.433980
700.407270	2877.404916
700.742910	2879.565050
701.078501	2870.652290
701.414042	2877.339381
701.749533	2878.082951
702.084974	2862.357072
702.420366	2879.774258
702.755709	2872.923330
703.091002	2858.674509
703.426246	2879.822149
703.761440	2864.181969
704.096584	2854.994466
704.431679	2869.770088
704.766725	2870.748072
705.101721	2871.605068
705.436668	2884.628889
705.771565	2865.268338
706.106413	2872.794781
706.441212	2894.741444
706.775961	2902.754358
707.110661	2890.138870
707.445311	2891.487379
707.779913	2916.166348
708.114465	2917.076276
708.448967	2915.949578
708.783421	2937.747527
709.117825	2953.178499
709.452180	2954.869806
709.786485	2957.977678
710.120742	2989.225270
710.454949	2983.054898
710.789107	2998.450581
711.123216	3019.182327
711.457275	3015.850124
711.791286	3041.176881
712.125247	3054.422513
712.459159	3017.135618
712.793023	3036.153371
713.126837	3057.308573
713.460602	3054.137687
713.794318	3019.847759
714.127985	3033.055582
714.461602	3027.618698
714.795171	3010.488857
715.128691	2998.027124
715.462162	2993.490086
715.795584	2990.490599
716.128957	2988.537152
716.462281	2963.535550
716.795556	2971.293886
717.128782	2969.390850
717.461960	2950.322686
717.795088	2960.709983
718.128167	2955.222687
718.461198	2931.337700
718.794180	2933.742331
719.127113	2941.606531
719.459997	2938.843978
719.792833	2925.820157
720.125619	2919.249013
720.458357	2919.143149
720.791046	2926.157915
721.123686	2919.869075
721.456278	2906.144534
721.788821	2917.852614
722.121315	2913.981008
722.453761	2900.919378
722.786158	2915.465627
723.118506	2924.428799
723.450805	2900.294275
723.783056	2908.332395
724.115259	2927.917277
724.447412	2930.710077
724.779518	2924.640527
725.111574	2927.950045
725.443582	2938.702826
725.775542	2940.096705
726.107453	2958.998511
726.439315	2961.294757
726.771129	2959.852987
727.102895	2971.969400
727.434612	2992.948162
727.766281	2994.016887
728.097901	2991.617297
728.429473	2996.482011
728.760996	3000.819924
729.092471	2996.429079
729.423897	3003.514420
729.755276	3014.466327
730.086606	3011.189577
730.417887	3018.509333
730.749120	3044.982952
731.080305	3076.979155
731.411442	3083.265474
731.742530	3069.656879
732.073570	3073.520924
732.404562	3097.589913
732.735506	3100.906992
733.066401	3087.046340
733.397249	3066.700243
733.728048	3047.238868
734.058798	3037.769061
734.389501	3014.882222
734.720156	2988.522029
735.050762	2978.177581
735.381320	2988.615290
735.711831	2966.033442
736.042293	2956.568675
736.372707	2975.296562
736.703073	2965.141157
737.033391	2954.514405
737.363661	2964.692495
737.693883	2982.303766
738.024056	2984.279898
738.354182	2976.093064
738.684260	3002.412928
739.014290	3008.653877
739.344272	3004.431910
739.674207	3022.738861
740.004093	3025.927390
740.333931	3021.440763
740.663722	3030.865201
740.993464	3030.746733
741.323159	3022.816998
741.652806	3017.533869
741.982405	3013.518590
742.311956	3004.008453
742.641460	3003.980727
742.970915	2997.646517
743.300323	2981.865185
743.629683	2971.382106
743.958996	2971.392188
744.288260	2966.837506
744.617477	2959.946248
744.946647	2949.022068
745.275768	2949.304373
745.604842	2949.949640
745.933869	2923.854107
746.262847	2924.312852
746.591778	2955.348716
746.920662	2937.475305
747.249498	2919.939651
747.578286	2949.503498
747.907027	2955.951134
748.235720	2941.225923
748.564365	2962.807103
748.892963	2975.099957
749.221514	2964.175776
749.550017	2948.520473
749.878473	2950.302521
750.206881	2943.068465
750.535242	2945.271449
750.863555	2950.090793
751.191821	2951.867799
751.520039	2934.304419
751.848210	2923.231525
752.176334	2948.543158
752.504411	2958.713686
752.832440	2935.468926
753.160421	2922.127512
753.488356	2938.430604
753.816243	2947.829835
754.144082	2924.756474
754.471875	2917.288004
754.799620	2933.308791
755.127318	2927.181269
755.454969	2930.405087
755.782572	2937.334153
756.110129	2917.953437
756.437638	2915.634506
756.765100	2928.002977
757.092515	2934.168308
757.419882	2938.150820
757.747203	2924.249838
758.074477	2920.400917
758.401703	2932.759306
758.728882	2943.164247
759.056014	2950.970474
759.383099	2949.652212
759.710138	2945.072324
760.037129	2950.761266
760.364073	2977.164309
760.690970	2971.954277
761.017820	2952.855865
761.344623	2964.195941
761.671379	2987.216370
761.998088	3011.391223
762.324751	3071.091088
762.651366	3165.229595
762.977935	3346.985876
763.304456	3540.031821
763.630931	3606.506997
763.957359	3453.558389
764.283740	3315.085454
764.610074	3246.490474
764.936362	3168.518947
765.262602	3090.161773
765.588796	3046.270967
765.914943	3005.929133
766.241044	2965.418421
766.567097	2953.551545
766.893104	2934.427928
767.219064	2920.917635
767.544978	2913.436563
767.870845	2881.964639
768.196665	2872.890563
768.522438	2886.274826
768.848165	2888.382028
769.173846	2866.568956
769.499479	2857.948582
769.825066	2847.873837
770.150607	2844.345029
770.476101	2857.933459
770.801548	2856.040506
771.126949	2829.239211
771.452303	2820.666729
771.777611	2833.902279
772.102872	2838.676251
772.428087	2823.991370
772.753256	2819.219918
773.078378	2819.852583
773.403453	2800.693678
773.728482	2791.884261
774.053465	2810.783547
774.378401	2801.669141
774.703291	2783.773045
775.028135	2787.183385
775.352932	2785.071142
775.677683	2777.554782
776.002388	2777.917745
776.327046	2780.287087
776.651658	2770.789553
776.976224	2770.015736
777.300743	2771.880963
777.625216	2766.257556
777.949643	2765.183790
778.274024	2767.459871
778.598359	2759.494848
778.922647	2763.689088
779.246889	2765.839140
779.571086	2756.223139
779.895236	2748.787437
780.219339	2757.823705
780.543397	2765.004829
780.867409	2766.607916
781.191374	2764.649428
781.515294	2764.702360
781.839167	2763.011053
782.162995	2758.789086
782.486776	2765.589603
782.810511	2762.206989
783.134201	2757.067532
783.457844	2765.022473
783.781441	2760.485435
784.104993	2747.774165
784.428498	2749.679721
784.751958	2760.485435
785.075372	2755.759353
785.398739	2746.551685
785.722061	2760.508120
786.045337	2768.054727
786.368568	2752.875813
786.691752	2746.844072
787.014891	2779.964453
787.337983	2794.548511
787.661030	2800.799542
787.984031	2834.484532
788.306987	2863.632483
788.629897	2859.120651
788.952760	2857.439426
789.275579	2852.665453
789.598351	2821.947182
789.921078	2794.818213
790.243759	2799.536733
790.566395	2789.207409
790.888984	2772.364914
791.211529	2763.532812
791.534027	2757.024682
791.856480	2756.336565
792.178888	2743.552199
792.501249	2743.272415
792.823566	2740.298134
793.145836	2741.576067
793.468062	2738.790829
793.790241	2740.701426
794.112375	2741.603793
794.434464	2752.442274
794.756507	2749.808271
795.078505	2752.555700
795.400457	2757.173397
795.722364	2775.215686
796.044226	2788.920063
796.366042	2791.647327
796.687812	2789.043571
797.009538	2803.854481
797.331218	2795.581948
797.652852	2789.368726
797.974442	2780.579474
798.295986	2779.011675
798.617484	2776.964967
798.938938	2770.121600
799.260346	2761.889396
799.581709	2760.182965
799.903026	2755.547624
800.224299	2750.871954
800.545526	2748.346336
800.866708	2736.030797
801.187845	2731.007287
801.508936	2730.374623
801.829983	2742.349884
802.150984	2729.948645
802.471940	2723.062429
802.792851	2722.036554
803.113717	2721.550083
803.434538	2728.214488
803.755314	2723.639641
804.076045	2717.839794
804.396731	2717.391131
804.717372	2718.263251
805.037967	2712.786037
805.358518	2717.786862
805.679024	2726.107286
805.999485	2719.210987
806.319901	2725.598129
806.640272	2719.359702
806.960598	2725.399004
807.280879	2732.509551
807.601115	2736.544995
807.921306	2725.482183
808.241453	2725.663664
808.561554	2727.672564
808.881611	2730.190621
809.201623	2729.290775
809.521590	2727.044941
809.841513	2725.270454
810.161390	2729.734396
810.481223	2724.768860
810.801011	2721.522357
811.120755	2717.645709
811.440453	2722.671740
811.760107	2721.666029
812.079716	2721.141749
812.399281	2714.900801
812.718801	2709.842003
813.038276	2707.379399
813.357707	2715.001624
813.677093	2718.691749
813.996434	2715.556151
814.315731	2711.838300
814.634983	2710.164637
814.954191	2712.854092
815.273354	2723.654765
815.592473	2727.188613
815.911547	2727.849005
816.230577	2734.722618
816.549562	2740.494739
816.868502	2739.544482
817.187399	2746.869278
817.506250	2760.770260
817.825058	2756.434867
818.143821	2764.024325
818.462539	2777.907662
818.781213	2794.359468
819.099843	2818.395689
819.418429	2853.542614
819.736970	2894.224726
820.055466	2942.047632
820.373919	3018.380783
820.692327	3121.278295
821.010691	3227.039182
821.329011	3482.890343
821.647286	3949.786888
821.965517	4668.244573
822.283704	5057.905600
822.601847	5084.280917
822.919945	4814.455678
823.237999	4618.143065
823.556010	4307.975993
823.873976	3981.684789
824.191897	3726.468814
824.509775	3546.360990
824.827609	3362.563041
825.145398	3279.875515
825.463144	3275.250257
825.780845	3341.765761
826.098502	3403.436717
826.416116	3571.796132
826.733685	3758.880913
827.051210	3796.747540
827.368692	3747.737442
827.686129	3596.948969
828.003522	3385.356618
828.320872	3212.598797
828.638177	3080.699527
828.955439	2982.765031
829.272656	2926.346958
829.589830	2881.213508
829.906960	2850.558251
830.224046	2818.189002
830.541088	2797.086732
830.858086	2784.136008
831.175041	2774.404060
831.491952	2773.761313
831.808819	2786.827984
832.125642	2802.914306
832.442421	2835.490242
832.759157	2889.985115
833.075849	3007.504494
833.392497	3200.825182
833.709101	3340.147551
834.025662	3305.444248
834.342179	3200.573124
834.658653	3086.501895
834.975083	2981.708909
835.291469	2917.184661
835.607811	2856.131247
835.924110	2812.953764
836.240366	2776.052518
836.556578	2743.826942
836.872746	2730.840929
837.188871	2712.705378
837.504952	2703.167515
837.820990	2696.992102
838.136984	2685.520956
838.452935	2680.966274
838.768842	2679.287570
839.084706	2691.565300
839.400526	2748.477406
839.716303	2836.072495
840.032037	2887.976215
840.347727	2882.766183
840.663373	2844.302179
840.978977	2795.992802
841.294537	2743.290059
841.610054	2707.724718
841.925527	2692.860876
842.240957	2675.315140
842.556344	2659.586740
842.871687	2650.000986
843.186987	2641.952784
843.502244	2641.889770
843.817458	2636.147896
844.132629	2628.639097
844.447756	2617.127622
844.762840	2614.531428
845.077881	2613.805502
845.392879	2617.598970
845.707833	2613.445059
846.022745	2605.948863
846.337613	2610.601848
846.652438	2606.256374
846.967221	2609.147476
847.281960	2605.406939
847.596656	2603.355190
847.911309	2604.686054
848.225919	2601.646239
848.540485	2598.379571
848.855009	2603.246805
849.169490	2597.207503
849.483928	2601.275714
849.798323	2599.067688
850.112675	2598.518203
850.426984	2599.811259
850.741251	2598.659355
851.055474	2598.694643
851.369654	2603.060282
851.683792	2602.107504
851.997887	2600.789242
852.311938	2599.428131
852.625947	2599.130703
852.939914	2601.273193
853.253837	2603.282093
853.567718	2600.529623
853.881555	2598.414859
854.195350	2598.939139
854.509103	2600.854777
854.822812	2599.158429
855.136479	2598.089705
855.450103	2600.882504
855.763685	2599.639859
856.077224	2599.292020
856.390720	2596.988212
856.704173	2599.309664
857.017584	2603.483739
857.330953	2603.385437
857.644278	2604.587752
857.957561	2603.569439
858.270802	2601.978955
858.584000	2601.356372
858.897155	2604.549943
859.210268	2605.941302
859.523339	2602.236054
859.836367	2599.223964
860.149352	2596.978130
860.462295	2599.372678
860.775195	2598.034252
861.088054	2594.376895
861.400869	2595.758171
861.713642	2593.177100
862.026373	2594.225660
862.339062	2598.319077
862.651708	2603.314861
862.964312	2601.389140
863.276873	2599.811259
863.589392	2605.064141
863.901869	2607.942640
864.214303	2610.672425
864.526696	2612.033536
864.839045	2613.046808
865.151353	2618.365225
865.463619	2613.414812
865.775842	2618.040071
866.088023	2615.098558
866.400162	2616.043774
866.712258	2616.648712
867.024313	2617.069649
867.336325	2613.414812
867.648296	2613.676952
867.960224	2619.464197
868.272110	2617.266254
868.583954	2609.661673
868.895755	2614.302055
869.207515	2615.879937
869.519233	2623.149280
869.830909	2620.048971
870.142542	2618.017386
870.454134	2617.241048
870.765684	2618.057715
871.077191	2621.276492
871.388657	2627.910650
871.700081	2625.208592
872.011463	2623.194651
872.322803	2622.559465
872.634101	2626.529374
872.945357	2634.723770
873.256571	2639.757362
873.567744	2635.878194
873.878874	2632.934160
874.189963	2633.748306
874.501010	2641.683082
874.812015	2645.380769
875.122979	2644.312044
875.433900	2635.719397
875.744780	2635.631177
876.055618	2642.814822
876.366415	2645.403454
876.677169	2644.140645
876.987882	2639.407002
877.298554	2635.898358
877.609183	2647.271202
877.919771	2652.314876
878.230317	2657.522388
878.540822	2668.179387
878.851285	2678.780934
879.161707	2698.839685
879.472087	2731.922257
879.782425	2768.541198
880.092722	2854.021524
880.402977	2999.368071
880.713191	3173.754186
881.023363	3344.240968
881.333494	3457.810602
881.643583	3592.326231
881.953631	3617.489150
882.263637	3507.221472
882.573602	3346.761545
882.883526	3267.751540
883.193408	3193.041640
883.503248	3122.173100
883.813048	3032.884183
884.122806	2948.422171
884.432522	2882.677963
884.742197	2830.605364
885.051831	2807.673155
885.361424	2779.866151
885.670975	2751.507140
885.980485	2729.215157
886.289954	2716.932386
886.599382	2704.016950
886.908768	2692.510516
887.218113	2681.795544
887.527417	2671.791374
887.836680	2664.519509
888.145901	2659.334683
888.455082	2651.904022
888.764221	2643.281128
889.073319	2634.796866
889.382376	2638.716363
889.691392	2637.574542
890.000366	2638.338277
890.309300	2635.858029
890.618193	2637.183853
890.927044	2640.085037
891.235855	2638.363483
891.544625	2637.166209
891.853353	2640.395068
892.162041	2648.055101
892.470687	2658.802841
892.779293	2671.209121
893.087858	2680.023578
893.396381	2694.650486
893.704864	2728.040568
894.013306	2784.254475
894.321707	2853.063704
894.630068	2890.358161
894.938387	2910.447159
895.246665	2902.020870
895.554903	2870.856457
895.863100	2839.341684
896.171256	2794.921557
896.479371	2743.053125
896.787446	2713.544731
897.095480	2699.038810
897.403473	2696.339272
897.711425	2684.311079
898.019336	2670.596620
898.327207	2655.218581
898.635038	2658.339055
898.942827	2655.647079
899.250576	2647.311531
899.558284	2635.946249
899.865952	2633.027421
900.173579	2633.992802
900.481165	2630.592544
900.788711	2621.082407
901.096216	2616.137035
901.403681	2615.504371
901.711105	2614.370111
902.018489	2615.600152
902.325832	2616.951182
902.633135	2618.566872
902.940397	2631.683954
903.247619	2662.208140
903.554800	2715.619165
903.861941	2812.399237
904.169041	2905.194276
904.476101	2953.995166
904.783121	2950.138683
905.090100	2906.532703
905.397039	2849.189578
905.703938	2793.043727
906.010796	2745.510687
906.317614	2705.783874
906.624391	2675.123577
906.931129	2657.973571
907.237826	2638.252577
907.544483	2621.604167
907.851099	2610.838783
908.157675	2605.611106
908.464211	2599.503748
908.770707	2588.554362
909.077163	2584.705441
909.383578	2583.014134
909.689954	2583.190574
909.996289	2578.497260
910.302584	2580.107909
910.608839	2579.059349
910.915054	2581.390882
911.221229	2581.186716
911.527363	2584.584453
911.833458	2583.982036
912.139513	2582.653692
912.445527	2581.844586
912.751502	2588.236769
913.057436	2590.931266
913.363331	2596.700867
913.669186	2605.900972
913.975000	2618.455966
914.280775	2630.053141
914.586510	2643.954122
914.892205	2670.430262
915.197859	2726.850856
915.503475	2790.976854
915.809050	2843.548527
916.114585	2851.992459
916.420081	2857.986391
916.725536	2870.052393
917.030952	2851.758046
917.336328	2818.451142
917.641665	2777.998403
917.946961	2736.933164
918.252218	2712.458362
918.557435	2692.429858
918.862612	2676.167095
919.167750	2658.817964
919.472848	2648.339926
919.777906	2634.688482
920.082925	2624.913684
920.387904	2615.033023
920.692843	2611.352980
920.997743	2610.551437
921.302603	2603.970211
921.607423	2596.990733
921.912204	2592.783890
922.216946	2592.148705
922.521647	2589.111410
922.826310	2586.585792
923.130932	2583.084710
923.435516	2574.913000
923.740059	2578.421643
924.044564	2578.351067
924.349028	2575.013823
924.653454	2565.743141
924.957840	2566.761454
925.262186	2562.927657
925.566493	2570.328070
925.870761	2562.516802
926.174989	2562.478994
926.479178	2559.222408
926.783328	2560.207954
927.087438	2557.236194
927.391509	2558.803993
927.695541	2557.145453
927.999533	2555.882644
928.303486	2556.021276
928.607400	2553.835936
928.911275	2553.848538
929.215110	2557.306770
929.518906	2553.851059
929.822663	2555.486913
930.126381	2552.827705
930.430060	2557.475649
930.733699	2554.972716
931.037299	2554.433312
931.340861	2556.928683
931.644383	2552.875596
931.947866	2554.526574
932.251309	2553.800648
932.554714	2554.755946
932.858080	2557.095042
933.161407	2555.875082
933.464694	2555.643189
933.767943	2555.895247
934.071153	2554.176213
934.374323	2552.706717
934.677455	2553.593960
934.980548	2552.240410
935.283602	2552.883157
935.586617	2553.770401
935.889593	2551.272509
936.192530	2552.341233
936.495428	2554.357695
936.798287	2552.474824
937.101108	2555.839794
937.403890	2558.002449
937.706632	2558.090669
938.009336	2560.328942
938.312002	2566.693398
938.614628	2568.238512
938.917216	2570.360838
939.219765	2571.648853
939.522275	2572.115159
939.824747	2571.001064
940.127179	2565.594427
940.429573	2563.719118
940.731929	2562.161401
941.034246	2562.390774
941.336524	2561.437996
941.638763	2563.295661
941.940964	2563.633418
942.243126	2561.632080
942.545250	2560.301215
942.847335	2558.398180
943.149381	2556.280895
943.451389	2559.224929
943.753359	2557.992367
944.055290	2556.812737
944.357182	2555.819630
944.659036	2554.864331
944.960851	2555.587737
945.262628	2553.616645
945.564367	2556.147305
945.866067	2555.345761
946.167729	2556.979095
946.469352	2555.759136
946.770937	2556.177552
947.072484	2552.409289
947.373992	2556.220401
947.675462	2552.777293
947.976893	2554.466080
948.278286	2550.632282
948.579641	2550.896943
948.880958	2553.336861
949.182236	2553.233518
949.483476	2552.560524
949.784678	2551.058260
950.085841	2553.740154
950.386967	2552.827705
950.688054	2550.024823
950.989103	2553.397355
951.290114	2554.536656
951.591087	2555.713765
951.892021	2557.543704
952.192917	2556.905998
952.493776	2562.025290
952.794596	2558.718293
953.095378	2558.627552
953.396122	2559.262738
953.696828	2558.141081
953.997496	2555.796944
954.298126	2555.620504
954.598718	2555.522202
954.899272	2552.827705
955.199788	2554.024979
955.500266	2552.341233
955.800706	2547.073228
956.101108	2544.532486
956.401472	2547.330327
956.701798	2543.269677
957.002087	2547.562220
957.302337	2546.221273
957.602550	2548.590615
957.902724	2545.984338
958.202861	2546.415357
958.502960	2548.381407
958.803022	2545.394523
959.103045	2543.534338
959.403031	2546.448125
959.702979	2545.518032
960.002889	2544.532486
960.302762	2541.152393
960.602596	2543.335212
960.902393	2540.310520
961.202153	2544.323278
961.501875	2543.317568
961.801559	2545.477702
962.101205	2543.418391
962.400814	2543.425953
962.700385	2540.892773
962.999918	2542.405119
963.299414	2546.390151
963.598873	2541.084337
963.898293	2542.016950
964.197677	2542.321940
964.497022	2541.190201
964.796331	2542.639533
965.095601	2539.750952
965.394835	2543.700696
965.694030	2542.326981
965.993189	2545.386962
966.292309	2539.377906
966.591393	2542.072403
966.890439	2541.480068
967.189447	2543.196580
967.488419	2542.624409
967.787353	2542.964687
968.086249	2540.512166
968.385108	2543.307486
968.683930	2541.681714
968.982714	2540.411343
969.281462	2544.580377
969.580172	2540.781868
969.878844	2541.442259
970.177480	2540.615510
970.476078	2541.921168
970.774639	2543.670449
971.073162	2545.066848
971.371649	2538.651980
971.670098	2537.989068
971.968510	2541.719522
972.266885	2539.632485
972.565223	2541.275901
972.863524	2542.246323
973.161788	2544.282949
973.460014	2544.567774
973.758204	2542.412681
974.056356	2542.180788
974.354471	2541.994265
974.652550	2541.661549
974.950591	2544.489636
975.248595	2539.498894
975.546563	2543.171375
975.844493	2541.414532
976.142386	2543.073072
976.440243	2542.432846
976.738062	2542.694986
977.035845	2540.267670
977.333590	2542.364790
977.631299	2540.388658
977.928971	2542.337064
978.226606	2540.983514
978.524204	2543.448638
978.821765	2542.780685
979.119290	2540.887732
979.416777	2543.622558
979.714228	2542.135417
980.011642	2545.238248
980.309020	2543.378062
980.606360	2538.906558
980.903664	2542.730274
981.200931	2540.822197
981.498162	2541.109543
981.795356	2545.666746
982.092513	2547.020296
982.389633	2551.252344
982.686717	2553.223435
982.983764	2553.472972
983.280775	2553.959444
983.577749	2554.158569
983.874686	2554.148487
984.171587	2552.827705
984.468451	2550.725544
984.765279	2548.862837
985.062070	2546.559030
985.358824	2545.364277
985.655543	2544.562733
985.952224	2541.500232
986.248869	2544.164482
986.545478	2537.918492
986.842050	2539.080478
987.138586	2539.191384
987.435086	2537.588297
987.731549	2536.370858
988.027975	2541.724563
988.324366	2542.125335
988.620719	2540.693648
988.917037	2539.637526
989.213318	2541.159954
989.509563	2540.328164
989.805772	2538.901517
990.101944	2541.540561
990.398080	2537.484953
990.694180	2541.681714
990.990244	2537.328677
991.286271	2538.646939
991.582262	2538.334388
991.878217	2538.702392
992.174136	2538.044521
992.470019	2540.396219
992.765865	2539.884542
993.061676	2538.241126
993.357450	2540.484440
993.653188	2538.354552
993.948890	2540.431507
994.244556	2540.562577
994.540186	2541.565767
994.835780	2540.055942
995.131337	2544.550130
995.426859	2540.978473
995.722345	2541.454862
996.017795	2542.034594
996.313208	2544.169523
996.608586	2539.408153
996.903928	2541.054090
997.199234	2541.061652
997.494504	2543.446117
997.789738	2542.417722
998.084936	2540.353370
998.380099	2539.992927
998.675225	2541.197763
998.970316	2540.207176
999.265371	2540.476878
999.560390	2540.917979
999.855373	2541.313709
1000.150320	2542.009389
1000.445232	2541.132228
1000.740108	2540.466796
1001.034948	2539.939995
1001.329752	2541.253216
1001.624521	2538.352032
1001.919254	2535.662576
1002.213951	2536.615354
1002.508613	2535.730632
1002.803239	2537.948739
1003.097829	2535.150899
1003.392384	2540.607948
1003.686903	2538.062165
1003.981386	2538.130221
1004.275834	2539.589635
1004.570246	2540.562578
1004.864623	2539.350180
1005.158964	2541.648946
1005.453270	2541.855633
1005.747540	2540.151723
1006.041775	2536.887576
1006.335974	2540.638195
1006.630138	2538.629295
1006.924266	2538.707433
1007.218359	2540.802032
1007.512416	2538.324305
1007.806438	2536.668286
1008.100425	2537.643749
1008.394376	2537.704243
1008.688292	2540.943185
1008.982172	2538.805735
1009.276017	2537.598379
1009.569827	2538.092412
1009.863602	2539.453524
1010.157341	2537.149716
1010.451045	2538.019315
1010.744714	2537.762217
1011.038347	2539.531662
1011.331945	2536.617875
1011.625508	2537.961342
1011.919036	2540.184491
1012.212528	2537.696682
1012.505986	2537.381609
1012.799408	2538.662063
1013.092795	2535.559232
1013.386147	2537.454706
1013.679464	2539.004861
1013.972745	2537.734490
1014.265992	2539.750952
1014.559204	2539.317412
1014.852380	2539.471168
1015.145521	2536.728780
1015.438628	2540.340767
1015.731699	2537.172402
1016.024736	2537.341280
1016.317737	2539.579552
1016.610703	2537.626105
1016.903635	2536.383461
1017.196531	2535.294572
1017.489393	2534.982020
1017.782219	2531.990095
1018.075011	2536.519572
1018.367768	2537.885725
1018.660490	2539.471168
1018.953177	2539.471168
1019.245829	2539.471168
