Dividing Wavelength (nm)	Counts (n)	Blue Motor Position (mm): 1.300000	Red Motor Position (mm): 0.000000	
326.493990	2145.807464
326.888308	2145.807464
327.282561	2145.807464
327.676750	2112.372011
328.070874	2110.403440
328.464933	2112.457711
328.858929	2117.282095
329.252859	2129.766512
329.646726	2138.286062
330.040528	2153.049081
330.434265	2171.512307
330.827938	2188.538804
331.221547	2205.948429
331.615091	2223.854608
332.008571	2244.167937
332.401986	2263.130237
332.795338	2282.571447
333.188625	2303.507359
333.581847	2320.755667
333.975006	2336.421053
334.368100	2358.735720
334.761129	2374.237268
335.154095	2393.791904
335.546996	2410.841086
335.939833	2425.803231
336.332606	2438.045673
336.725315	2450.918259
337.117960	2459.652058
337.510540	2467.891824
337.903056	2478.332054
338.295508	2486.914618
338.687896	2496.011380
339.080220	2506.144100
339.472480	2513.552075
339.864676	2514.202384
340.256807	2519.336799
340.648875	2519.609022
341.040879	2523.818385
341.432818	2527.324507
341.824694	2527.190917
342.216506	2528.395753
342.608253	2530.145033
342.999937	2529.456916
343.391557	2529.398942
343.783113	2524.849301
344.174605	2525.340813
344.566033	2527.125382
344.957397	2522.167407
345.348697	2523.001718
345.739934	2519.737571
346.131106	2517.736233
346.522215	2515.848321
346.913260	2515.152642
347.304241	2513.302538
347.695159	2510.504698
348.086012	2509.456138
348.476802	2508.112670
348.867528	2504.631753
349.258191	2502.073368
349.648789	2503.000940
350.039324	2500.883656
350.429796	2497.634632
350.820203	2500.210662
351.210548	2496.633963
351.600828	2495.499703
351.991045	2501.249139
352.381198	2496.654128
352.771288	2497.853922
353.161314	2494.882162
353.551276	2493.389980
353.941175	2497.806031
354.331010	2495.156905
354.720782	2495.759323
355.110490	2496.661689
355.500135	2493.533653
355.889717	2492.590958
356.279235	2494.746051
356.668689	2497.407780
357.058080	2496.175218
357.447408	2496.676813
357.836672	2493.266472
358.225873	2493.218581
358.615010	2492.918633
359.004084	2495.378716
359.393095	2496.386946
359.782043	2497.962307
360.170927	2499.830054
360.559748	2497.422903
360.948505	2501.430621
361.337199	2501.430621
361.725830	2501.007164
362.114398	2501.725528
362.502903	2504.765344
362.891344	2503.696619
363.279722	2505.614778
363.668037	2505.821466
364.056289	2505.831548
364.444478	2505.798781
364.832603	2504.167967
365.220665	2507.527896
365.608665	2507.041425
365.996601	2507.086795
366.384474	2503.016064
366.772284	2505.818945
367.160031	2506.817094
367.547715	2507.021260
367.935336	2511.691889
368.322893	2510.734070
368.710388	2507.454800
369.097820	2509.070489
369.485189	2510.197187
369.872495	2508.526045
370.259738	2510.187105
370.646918	2507.260715
371.034035	2507.845489
371.421090	2512.871519
371.808081	2508.566374
372.195010	2510.910511
372.581875	2509.231806
372.968678	2511.253309
373.355418	2510.978566
373.742096	2513.158865
374.128710	2509.625016
374.515262	2511.180212
374.901751	2512.490912
375.288177	2511.994359
375.674540	2512.332116
376.060841	2513.743639
376.447079	2511.835562
376.833254	2512.561488
377.219367	2510.403875
377.605417	2510.882784
377.991404	2508.183246
378.377329	2511.086951
378.763191	2513.148783
379.148991	2515.684483
379.534727	2512.863958
379.920402	2513.627693
380.306013	2515.636592
380.691563	2517.451408
381.077049	2512.158196
381.462474	2519.971985
381.847835	2514.686335
382.233134	2515.147600
382.618371	2518.041223
383.003545	2513.826818
383.388657	2517.423681
383.773706	2518.449556
384.158693	2516.425533
384.543618	2518.769669
384.928480	2517.458969
385.313280	2519.334279
385.698017	2518.663805
386.082692	2516.196160
386.467305	2519.984588
386.851856	2515.422343
387.236344	2520.806296
387.620770	2520.677746
388.005133	2521.028106
388.389435	2518.363857
388.773674	2519.107427
389.157851	2520.375277
389.541965	2520.024917
389.926018	2524.503982
390.310008	2520.060205
390.693936	2524.251924
391.077802	2519.966943
391.461606	2522.616070
391.845348	2524.330062
392.229027	2523.183200
392.612645	2521.295288
392.996200	2520.092972
393.379694	2523.760412
393.763125	2522.689167
394.146494	2524.100690
394.529801	2523.735206
394.913047	2526.036493
395.296230	2523.233611
395.679351	2524.561955
396.062410	2524.148581
396.445408	2522.714372
396.828343	2525.081194
397.211217	2517.418640
397.594028	2521.849814
397.976778	2521.169259
398.359466	2521.733868
398.742092	2519.082221
399.124656	2523.820906
399.507158	2525.073632
399.889598	2527.306863
400.271977	2524.662778
400.654294	2525.799558
401.036549	2527.432892
401.418742	2522.802593
401.800874	2524.844260
402.182944	2528.645290
402.564952	2527.387522
402.946898	2528.345341
403.328783	2525.991122
403.710606	2523.082377
404.092367	2526.122192
404.474067	2526.815351
404.855705	2524.624970
405.237282	2527.997502
405.618797	2528.451205
406.000250	2528.196627
406.381642	2527.720238
406.762972	2526.283509
407.144240	2529.590506
407.525447	2529.953469
407.906593	2526.331400
408.287677	2529.446833
408.668700	2526.464991
409.049661	2529.676206
409.430560	2528.824251
409.811399	2528.925074
410.192176	2527.919364
410.572891	2530.016484
410.953545	2530.752492
411.334138	2528.075639
411.714669	2529.068747
412.095139	2528.133613
412.475547	2528.068078
412.855894	2532.723583
413.236180	2526.979188
413.616405	2530.855836
413.996568	2529.466998
414.376670	2530.258459
414.756711	2531.238963
415.136691	2535.433203
415.516609	2530.061854
415.896466	2530.145033
416.276262	2534.240971
416.655997	2529.895496
417.035670	2528.461288
417.415283	2530.656710
417.794834	2530.016484
418.174324	2530.709642
418.553753	2533.928419
418.933121	2531.301978
419.312428	2533.096629
419.691674	2532.060672
420.070859	2531.203675
420.449983	2534.160312
420.829045	2531.054961
421.208047	2535.831455
421.586988	2533.880528
421.965867	2533.260466
422.344686	2536.713657
422.723444	2536.746424
423.102141	2535.685261
423.480777	2531.947246
423.859352	2535.297092
424.237866	2534.515713
424.616319	2533.535209
424.994712	2535.786084
425.373044	2535.009747
425.751314	2534.576207
426.129524	2535.125693
426.507673	2536.048224
426.885762	2534.737524
427.263789	2537.842875
427.641756	2536.620395
428.019662	2536.857329
428.397508	2532.849612
428.775292	2536.759027
429.153016	2535.763399
429.530679	2537.056455
429.908282	2537.048893
430.285824	2536.307844
430.663305	2534.848430
431.040726	2537.058976
431.418086	2535.407998
431.795385	2538.208359
432.172624	2536.948070
432.549802	2536.370858
432.926920	2536.280117
433.303977	2538.135262
433.680974	2537.994110
434.057910	2538.697351
434.434786	2536.481763
434.811601	2538.120138
435.188355	2539.143493
435.565050	2540.454193
435.941683	2538.657021
436.318257	2536.161650
436.694770	2533.358769
437.071222	2535.405477
437.447614	2538.649460
437.823946	2537.618544
438.200218	2535.022349
438.576429	2541.099460
438.952580	2537.762217
439.328670	2538.956970
439.704700	2535.884387
440.080670	2538.964532
440.456580	2538.825900
440.832429	2542.112732
441.208218	2538.788091
441.583947	2539.846734
441.959616	2539.980324
442.335224	2539.221631
442.710773	2540.292876
443.086261	2538.735159
443.461689	2540.497043
443.837057	2538.609130
444.212365	2538.606610
444.587612	2537.835313
444.962800	2538.631816
445.337927	2541.018802
445.712995	2540.451672
446.088002	2539.577032
446.462949	2540.978473
446.837837	2538.946888
447.212664	2539.882022
447.587431	2542.473175
447.962139	2539.342618
448.336786	2541.908566
448.711374	2543.851930
449.085901	2544.222455
449.460369	2544.436704
449.834776	2540.537372
450.209124	2542.611807
450.583412	2545.081972
450.957640	2541.681714
451.331808	2543.267157
451.705917	2540.978473
452.079965	2544.134235
452.453954	2543.980480
452.827883	2543.559543
453.201752	2543.688093
453.575562	2542.604245
453.949311	2542.606765
454.323001	2541.737166
454.696632	2543.534338
455.070202	2545.326468
455.443713	2542.972249
455.817164	2540.759182
456.190556	2538.374717
456.563888	2542.107691
456.937160	2539.201466
457.310373	2542.732794
457.683526	2544.020809
458.056619	2543.657846
458.429653	2540.940664
458.802628	2544.950902
459.175542	2545.404606
459.548398	2544.608103
459.921194	2542.440407
460.293930	2542.090047
460.666607	2543.153731
461.039224	2544.129194
461.411782	2544.842517
461.784280	2544.053577
462.156719	2546.503577
462.529099	2544.164482
462.901419	2542.473175
463.273680	2547.484082
463.645882	2544.219935
464.018024	2541.162475
464.390106	2543.504091
464.762130	2544.363607
465.134094	2543.977959
465.505999	2547.100954
465.877845	2543.219266
466.249631	2545.318906
466.621358	2547.821839
466.993026	2551.824515
467.364634	2547.786551
467.736184	2542.896632
468.107674	2544.103988
468.479105	2545.568443
468.850477	2544.701365
469.221790	2546.312013
469.593043	2544.653474
469.964238	2546.990049
470.335373	2545.480223
470.706449	2543.995603
471.077467	2548.240255
471.448425	2545.250851
471.819324	2547.264792
472.190164	2548.459545
472.560945	2546.485933
472.931667	2542.014430
473.302330	2543.844369
473.672934	2547.398382
474.043479	2543.221786
474.413965	2545.848227
474.784393	2542.269008
475.154761	2544.356046
475.525070	2542.059800
475.895321	2540.746580
476.265513	2540.184491
476.635645	2546.710265
477.005719	2545.661705
477.375734	2548.958619
477.745691	2546.138094
478.115588	2547.284956
478.485427	2545.328988
478.855207	2547.862168
479.224928	2546.211190
479.594591	2547.398382
479.964194	2547.867209
480.333739	2545.825542
480.703226	2547.325285
481.072653	2548.225131
481.442022	2550.085317
481.811333	2547.955430
482.180584	2545.855789
482.549777	2547.282436
482.918912	2547.065666
483.287988	2548.010882
483.657005	2545.003834
484.025964	2547.511808
484.394864	2546.163299
484.763706	2546.798485
485.132489	2546.080120
485.501213	2549.031716
485.869879	2547.085831
486.238487	2546.680018
486.607036	2545.465100
486.975527	2549.336706
487.343959	2547.773948
487.712333	2549.061963
488.080648	2546.286808
488.448905	2549.525749
488.817104	2547.468958
489.185244	2548.978784
489.553326	2549.810574
489.921350	2547.491643
490.289315	2549.588763
490.657222	2548.031047
491.025070	2547.811757
491.392861	2550.327293
491.760593	2549.311500
492.128267	2549.435008
492.495883	2549.440049
492.863440	2552.447098
493.230939	2544.562733
493.598380	2551.902653
493.965763	2544.109029
494.333088	2546.790923
494.700354	2545.533155
495.067563	2549.253527
495.434713	2546.216232
495.801805	2548.850234
496.168839	2547.143804
496.535815	2548.996428
496.902733	2547.254709
497.269593	2550.536500
497.636395	2548.381407
498.003139	2548.961140
498.369825	2548.338557
498.736453	2547.990718
499.103023	2548.628424
499.469535	2548.890564
499.835989	2549.871068
500.202385	2550.138249
500.568723	2549.634134
500.935003	2551.131357
501.301226	2551.985832
501.667390	2552.303425
502.033497	2548.590615
502.399546	2549.377035
502.765537	2551.133877
503.131470	2549.016593
503.497345	2547.552137
503.863163	2550.168496
504.228923	2549.041798
504.594625	2552.419371
504.960269	2547.221942
505.325856	2550.682694
505.691385	2550.551624
506.056856	2549.646737
506.422270	2549.876109
506.787625	2549.707231
507.152924	2551.539690
507.518164	2548.356201
507.883347	2547.899977
508.248472	2548.436860
508.613540	2549.954247
508.978550	2552.048847
509.343503	2550.846531
509.708398	2551.501881
510.073236	2549.190512
510.438016	2549.596325
510.802738	2551.247303
511.167403	2552.459701
511.532010	2547.027857
511.896561	2550.261757
512.261053	2551.514484
512.625488	2550.150852
512.989866	2546.727909
513.354186	2552.167314
513.718449	2547.761345
514.082655	2548.923331
514.446803	2551.403579
514.810894	2549.359391
515.174927	2550.735626
515.538904	2552.540359
515.902822	2549.097251
516.266684	2549.808054
516.630488	2552.326110
516.994235	2551.252344
517.357925	2548.822508
517.721558	2553.561193
518.085133	2549.412323
518.448651	2551.272509
518.812112	2549.742519
519.175516	2552.111861
519.538863	2548.199926
519.902152	2552.137067
520.265385	2549.656819
520.628560	2554.148487
520.991678	2550.733105
521.354739	2550.780996
521.717743	2551.781665
522.080690	2550.418033
522.443580	2554.662685
522.806413	2550.869217
523.169189	2550.695297
523.531908	2552.000956
523.894569	2548.701520
524.257174	2553.369629
524.619722	2552.414330
524.982213	2554.864331
525.344647	2549.671942
525.707025	2551.827036
526.069345	2551.171686
526.431608	2551.327962
526.793815	2551.048177
527.155964	2553.225956
527.518057	2550.337375
527.880093	2554.256872
528.242072	2553.737633
528.603995	2551.146480
528.965860	2551.108671
529.327669	2550.531459
529.689421	2552.046326
530.051117	2552.404248
530.412755	2551.418702
530.774337	2552.789896
531.135862	2552.255534
531.497331	2550.657488
531.858743	2546.821170
532.220098	2550.730585
532.581396	2549.644216
532.942638	2549.530790
533.303824	2551.612787
533.664953	2554.455997
534.026025	2553.523384
534.387040	2549.924000
534.747999	2551.728733
535.108902	2551.461552
535.469748	2553.437684
535.830537	2551.038095
536.191270	2549.969371
536.551947	2553.246121
536.912567	2555.973385
537.273131	2549.911397
537.633638	2551.401058
537.994089	2550.919628
538.354483	2552.285781
538.714821	2553.654454
539.075103	2552.878116
539.435328	2553.319217
539.795497	2550.622200
540.155609	2551.632951
540.515665	2553.031872
540.875665	2551.249824
541.235609	2551.937941
541.595496	2554.682849
541.955328	2552.860472
542.315102	2554.645041
542.674821	2553.571275
543.034483	2555.441543
543.394090	2552.043805
543.753640	2551.685883
544.113134	2551.217056
544.472571	2552.426933
544.831953	2551.776624
545.191278	2552.535318
545.550548	2553.016748
545.909761	2550.246634
546.268918	2550.692776
546.628019	2552.522715
546.987064	2551.965667
547.346053	2551.600184
547.704986	2551.471634
548.063863	2553.167983
548.422684	2553.329300
548.781449	2550.846531
549.140158	2554.708055
549.498811	2553.467931
549.857408	2551.542211
550.215949	2550.385266
550.574434	2545.286139
550.932864	2550.294525
551.291237	2549.679504
551.649555	2552.668908
552.007817	2552.205122
552.366022	2554.508930
552.724173	2553.843497
553.082267	2552.852911
553.440305	2552.588250
553.798288	2553.523384
554.156215	2552.938610
554.514086	2552.895760
554.871902	2554.902140
555.229661	2552.532797
555.587365	2551.970709
555.945014	2552.066491
556.302606	2551.736295
556.660143	2553.001625
557.017625	2551.532128
557.375050	2552.797458
557.732421	2551.675801
558.089735	2554.425751
558.446994	2552.336192
558.804197	2554.803837
559.161345	2553.364588
559.518437	2552.061449
559.875474	2554.453477
560.232455	2552.568085
560.589381	2554.019938
560.946251	2555.398693
561.303065	2554.105637
561.659825	2553.588919
562.016528	2555.738971
562.373177	2552.668908
562.729770	2552.494989
563.086307	2554.309804
563.442789	2553.735112
563.799216	2552.212684
564.155587	2554.735782
564.511904	2551.229659
564.868164	2552.981460
565.224370	2553.669578
565.580520	2551.998435
565.936615	2552.986501
566.292654	2552.641182
566.648638	2554.531615
567.004567	2555.554969
567.360441	2552.106820
567.716260	2553.372149
568.072023	2554.413148
568.427732	2547.277394
568.783385	2554.027499
569.138982	2549.321582
569.494525	2549.399720
569.850013	2549.036757
570.205445	2553.001625
570.560823	2553.435164
570.916145	2549.545914
571.271412	2552.968857
571.626625	2555.330638
571.981782	2554.939948
572.336884	2551.897612
572.691931	2555.590257
573.046923	2554.622356
573.401860	2553.770401
573.756743	2554.811399
574.111570	2552.694114
574.466342	2554.440874
574.821059	2554.133364
575.175722	2553.152859
575.530330	2555.033210
575.884882	2552.520194
576.239380	2552.230328
576.593823	2554.826522
576.948211	2554.685370
577.302544	2554.836605
577.656823	2552.729402
578.011047	2553.788045
578.365216	2553.029351
578.719330	2553.097407
579.073389	2555.595298
579.427394	2549.966850
579.781344	2550.617159
580.135239	2550.775955
580.489080	2552.550441
580.842866	2557.921791
581.196597	2556.411965
581.550273	2553.578837
581.903895	2553.241079
582.257463	2553.052036
582.610975	2552.041285
582.964434	2553.490617
583.317837	2555.645710
583.671186	2553.460370
584.024481	2555.532284
584.377721	2555.562531
584.730906	2554.113199
585.084037	2554.982798
585.437113	2554.080432
585.790135	2553.909032
586.143103	2556.018755
586.496016	2554.811399
586.848874	2549.182951
587.201679	2551.935421
587.554428	2549.477858
587.907124	2552.129505
588.259765	2548.401572
588.612352	2552.497509
588.964884	2553.067160
589.317362	2554.140925
589.669786	2551.678322
590.022155	2554.839125
590.374470	2550.985163
590.726731	2555.065977
591.078937	2552.701676
591.431090	2554.783672
591.783188	2551.650595
592.135232	2550.962478
592.487222	2553.316697
592.839157	2552.739485
593.191038	2554.710576
593.542866	2552.212684
593.894639	2554.183775
594.246358	2552.936090
594.598022	2554.632438
594.949633	2553.132695
595.301190	2553.561193
595.652692	2552.464742
596.004141	2553.979608
596.355535	2553.777962
596.706876	2552.588250
597.058162	2553.891388
597.409395	2551.557334
597.760573	2555.701163
598.111698	2553.843497
598.462768	2553.606563
598.813785	2553.152859
599.164748	2552.363919
599.515657	2551.774104
599.866511	2553.561193
600.217312	2551.212015
600.568060	2552.280740
600.918753	2551.854762
601.269392	2551.660678
601.619978	2552.530277
601.970510	2555.607901
602.320988	2551.302756
602.671412	2552.787376
603.021783	2551.852242
603.372100	2554.458518
603.722363	2553.909032
604.072572	2554.982798
604.422728	2553.130174
604.772830	2551.552293
605.122878	2551.194371
605.472872	2551.975750
605.822813	2549.561037
606.172701	2553.462890
606.522534	2553.357026
606.872314	2555.413817
607.222041	2550.801161
607.571714	2553.304094
607.921333	2555.922973
608.270899	2552.348795
608.620411	2553.034392
608.969870	2554.811399
609.319276	2554.496327
609.668627	2553.175544
610.017926	2554.786193
610.367171	2551.272509
610.716362	2554.927345
611.065500	2555.350802
611.414585	2551.053219
611.763616	2555.239897
612.112594	2554.345092
612.461518	2552.590771
612.810389	2554.108158
613.159207	2553.389793
613.507971	2553.248641
613.856682	2555.396173
614.205340	2554.665205
614.553945	2553.772921
614.902496	2551.564896
615.250994	2554.214022
615.599439	2553.399876
615.947830	2554.846687
616.296169	2552.731923
616.644454	2558.130999
616.992686	2553.122612
617.340864	2552.689073
617.688990	2551.333003
618.037063	2554.123281
618.385082	2555.312994
618.733048	2552.633620
619.080961	2551.970709
619.428821	2554.009855
619.776628	2552.772252
620.124382	2553.072201
620.472083	2552.308466
620.819731	2552.096738
621.167326	2553.518343
621.514868	2554.556821
621.862357	2554.473642
622.209793	2552.885678
622.557176	2551.948023
622.904506	2552.283260
623.251783	2548.197405
623.599007	2552.875596
623.946179	2552.174875
624.293297	2551.879968
624.640363	2552.845349
624.987376	2554.531615
625.334336	2551.829556
625.681243	2552.711758
626.028097	2550.760832
626.374899	2552.704197
626.721647	2551.736295
627.068343	2553.331820
627.414987	2553.346944
627.761577	2554.208981
628.108115	2551.834597
628.454600	2554.428271
628.801032	2551.960626
629.147412	2554.014897
629.493739	2554.062787
629.840014	2554.516491
630.186236	2554.148487
630.532405	2553.150339
630.878521	2552.462221
631.224585	2556.419527
631.570597	2554.597150
631.916556	2552.595812
632.262462	2550.743188
632.608316	2552.116902
632.954117	2551.852242
633.299866	2554.738302
633.645562	2552.063970
633.991206	2553.190668
634.336797	2553.205791
634.682336	2554.453477
635.027823	2554.844166
635.373257	2553.730071
635.718639	2552.109340
636.063968	2550.901984
636.409245	2552.321069
636.754470	2552.157231
637.099642	2553.004145
637.444762	2552.946172
637.789829	2556.159907
638.134845	2553.717468
638.479808	2553.573796
638.824719	2553.714948
639.169577	2553.067160
639.514383	2554.486244
639.859137	2551.741336
640.203839	2552.779814
640.548489	2553.533466
640.893086	2547.932744
641.237632	2549.031716
641.582125	2550.786037
641.926566	2547.859648
642.270955	2552.003476
642.615292	2554.947510
642.959576	2549.765204
643.303809	2554.997922
643.647990	2551.489278
643.992118	2553.336861
644.336195	2553.019269
644.680219	2554.902140
645.024192	2552.351316
645.368112	2552.578168
645.711981	2554.687891
646.055797	2551.663198
646.399562	2554.186296
646.743274	2554.685370
647.086935	2550.753270
647.430544	2554.662685
647.774101	2551.680842
648.117606	2551.499361
648.461059	2552.298384
648.804460	2554.360216
649.147810	2551.176727
649.491108	2555.197047
649.834354	2554.803837
650.177548	2552.429454
650.520690	2551.096068
650.863781	2554.241748
651.206820	2555.900288
651.549807	2552.837787
651.892742	2551.285112
652.235626	2554.282078
652.578458	2551.607746
652.921238	2553.936759
653.263967	2551.033054
653.606644	2553.508261
653.949269	2552.331151
654.291843	2552.379042
654.634365	2552.681511
654.976836	2551.693445
655.319255	2553.082283
655.661622	2551.554813
656.003938	2553.667057
656.346203	2551.269988
656.688416	2554.937428
657.030577	2551.711089
657.372687	2551.988353
657.714746	2553.694783
658.056753	2552.137067
658.398708	2551.154042
658.740612	2552.399207
659.082465	2547.715975
659.424266	2548.426777
659.766016	2546.508618
660.107715	2554.216543
660.449362	2554.347613
660.790958	2551.678322
661.132503	2551.701007
661.473996	2553.881306
661.815438	2554.115720
662.156829	2552.719320
662.498168	2553.039433
662.839456	2553.886347
663.180693	2549.727395
663.521879	2551.511964
663.863013	2553.896429
664.204097	2552.714279
664.545129	2549.820657
664.886110	2552.615976
665.227040	2551.824515
665.567918	2551.769063
665.908746	2554.461039
666.249522	2553.374670
666.590248	2554.670247
666.930922	2551.872406
667.271545	2551.743857
667.612118	2550.997766
667.952639	2550.039947
668.293109	2554.017417
668.633528	2551.504402
668.973896	2551.995914
669.314213	2551.446429
669.654480	2552.109340
669.994695	2553.551110
670.334859	2554.733261
670.674973	2552.142108
671.015035	2553.420040
671.355047	2551.166645
671.695008	2554.385421
672.034918	2552.505071
672.374777	2552.255534
672.714585	2553.795606
673.054342	2553.155380
673.394049	2551.015410
673.733705	2555.096224
674.073310	2553.548590
674.412864	2552.540359
674.752368	2553.609084
675.091820	2552.621018
675.431223	2551.970709
675.770574	2550.511295
676.109875	2548.623382
676.449125	2549.659340
676.788324	2550.082797
677.127473	2553.031872
677.466571	2546.591798
677.805619	2549.765204
678.144616	2553.714948
678.483562	2551.428785
678.822458	2552.459701
679.161303	2553.147818
679.500098	2550.362581
679.838842	2551.247303
680.177535	2550.954916
680.516179	2553.631769
680.854771	2551.378373
681.193314	2552.719320
681.531805	2551.882488
681.870247	2551.219577
682.208638	2552.472303
682.546978	2553.268806
682.885268	2553.016748
683.223508	2550.760832
683.561697	2554.070349
683.899836	2552.384083
684.237925	2552.542880
684.575963	2554.148487
684.913951	2552.590771
685.251889	2554.095555
685.589776	2553.553631
685.927614	2554.531615
686.265401	2551.058260
686.603137	2554.103117
686.940824	2551.330482
687.278460	2553.548590
687.616046	2551.816953
687.953582	2550.851573
688.291068	2550.844011
688.628504	2552.351316
688.965889	2551.383414
689.303224	2550.115564
689.640510	2551.217056
689.977745	2552.976419
690.314930	2551.209494
690.652065	2549.687066
690.989150	2553.500699
691.326185	2552.192519
691.663170	2551.345606
692.000105	2551.814433
692.336990	2550.849052
692.673825	2554.715617
693.010610	2552.759649
693.347345	2549.427447
693.684030	2548.915769
694.020665	2548.056253
694.357251	2546.468289
694.693786	2551.862324
695.030272	2554.667726
695.366707	2551.287632
695.703093	2552.530277
696.039429	2551.973229
696.375716	2552.167314
696.711952	2550.856614
697.048139	2553.137736
697.384276	2551.484237
697.720363	2553.384752
698.056400	2548.462066
698.392388	2553.525905
698.728326	2552.709238
699.064214	2551.489278
699.400053	2552.918446
699.735842	2551.552293
700.071581	2552.278219
700.407270	2550.806202
700.742910	2549.704710
701.078501	2554.471121
701.414042	2551.433826
701.749533	2552.593291
702.084974	2553.014228
702.420366	2550.740667
702.755709	2553.445246
703.091002	2551.890050
703.426246	2550.544062
703.761440	2550.660009
704.096584	2553.384752
704.431679	2551.615307
704.766725	2552.747046
705.101721	2553.059598
705.436668	2551.128836
705.771565	2548.953578
706.106413	2551.000287
706.441212	2552.686553
706.775961	2554.390462
707.110661	2550.871737
707.445311	2552.893240
707.779913	2554.100596
708.114465	2553.266285
708.448967	2552.482386
708.783421	2551.300235
709.117825	2552.487427
709.452180	2550.944834
709.786485	2547.645399
710.120742	2549.689587
710.454949	2554.584547
710.789107	2550.062632
711.123216	2548.678835
711.457275	2549.631613
711.791286	2548.104144
712.125247	2547.012734
712.459159	2551.038095
712.793023	2548.814946
713.126837	2552.918446
713.460602	2551.179248
713.794318	2550.365101
714.127985	2553.261244
714.461602	2552.046326
714.795171	2555.996070
715.128691	2551.859803
715.462162	2553.994732
715.795584	2551.920297
716.128957	2552.646223
716.462281	2550.730585
716.795556	2550.208825
717.128782	2553.057077
717.461960	2551.060780
717.795088	2550.042467
718.128167	2550.675132
718.461198	2552.031202
718.794180	2549.419885
719.127113	2551.617828
719.459997	2553.099927
719.792833	2552.895760
720.125619	2551.741336
720.458357	2549.707231
720.791046	2551.701007
721.123686	2549.157745
721.456278	2551.847200
721.788821	2553.460370
722.121315	2553.314176
722.453761	2551.469114
722.786158	2550.145811
723.118506	2550.266799
723.450805	2550.692776
723.783056	2551.532128
724.115259	2552.026161
724.447412	2549.772766
724.779518	2551.784186
725.111574	2551.559855
725.443582	2551.290153
725.775542	2550.574309
726.107453	2548.865358
726.439315	2551.035575
726.771129	2554.100596
727.102895	2552.706717
727.434612	2551.496840
727.766281	2548.540203
728.097901	2552.255534
728.429473	2548.250337
728.760996	2546.672456
729.092471	2546.735470
729.423897	2550.171017
729.755276	2549.956768
730.086606	2550.070194
730.417887	2550.554144
730.749120	2550.692776
731.080305	2550.808723
731.411442	2552.280740
731.742530	2551.093548
732.073570	2551.267468
732.404562	2550.261757
732.735506	2549.926521
733.066401	2550.788558
733.397249	2549.712272
733.728048	2549.641696
734.058798	2552.817623
734.389501	2551.771583
734.720156	2548.356201
735.050762	2550.652447
735.381320	2550.176058
735.711831	2547.723537
736.042293	2550.508774
736.372707	2552.684032
736.703073	2549.966850
737.033391	2549.369473
737.363661	2550.377704
737.693883	2550.798640
738.024056	2552.915925
738.354182	2549.913918
738.684260	2549.803012
739.014290	2550.750749
739.344272	2549.981973
739.674207	2550.357539
740.004093	2549.061963
740.333931	2550.037426
740.663722	2550.279402
740.993464	2549.737478
741.323159	2553.649413
741.652806	2549.409803
741.982405	2551.554813
742.311956	2550.569268
742.641460	2552.258054
742.970915	2552.247972
743.300323	2551.935421
743.629683	2551.597663
743.958996	2552.230328
744.288260	2550.395348
744.617477	2550.009700
744.946647	2543.957795
745.275768	2548.043650
745.604842	2547.486602
745.933869	2546.274205
746.262847	2546.778320
746.591778	2552.862993
746.920662	2550.667570
747.249498	2550.687735
747.578286	2547.340409
747.907027	2551.602704
748.235720	2549.578681
748.564365	2549.056922
748.892963	2550.619679
749.221514	2550.322251
749.550017	2549.866027
749.878473	2552.018600
750.206881	2550.292004
750.535242	2549.694628
750.863555	2547.204298
751.191821	2552.651264
751.520039	2550.438198
751.848210	2551.272509
752.176334	2549.760163
752.504411	2550.629762
752.832440	2550.090358
753.160421	2549.540872
753.488356	2548.328475
753.816243	2551.527087
754.144082	2549.218239
754.471875	2552.484906
754.799620	2550.513815
755.127318	2550.559186
755.454969	2550.602035
755.782572	2549.172868
756.110129	2549.447611
756.437638	2550.977601
756.765100	2550.584391
757.092515	2549.455173
757.419882	2548.504915
757.747203	2552.820143
758.074477	2551.806871
758.401703	2547.723537
758.728882	2551.910215
759.056014	2549.079607
759.383099	2551.748898
759.710138	2549.442570
760.037129	2551.345606
760.364073	2551.627910
760.690970	2548.351160
761.017820	2548.756973
761.344623	2551.010369
761.671379	2551.471634
761.998088	2547.557178
762.324751	2548.071376
762.651366	2543.713299
762.977935	2548.116747
763.304456	2543.950233
763.630931	2549.359391
763.957359	2550.833928
764.283740	2550.231511
764.610074	2552.913404
764.936362	2552.731923
765.262602	2548.860317
765.588796	2551.615307
765.914943	2548.199926
766.241044	2549.906356
766.567097	2548.840152
766.893104	2550.997766
767.219064	2547.862168
767.544978	2551.080945
767.870845	2549.525749
768.196665	2548.734288
768.522438	2548.270502
768.848165	2551.025492
769.173846	2551.721172
769.499479	2548.908208
769.825066	2549.397200
770.150607	2553.465411
770.476101	2548.300749
770.801548	2550.561706
771.126949	2549.528270
771.452303	2550.980122
771.777611	2549.487940
772.102872	2552.762170
772.428087	2551.156562
772.753256	2551.078424
773.078378	2550.566747
773.403453	2550.584391
773.728482	2546.869061
774.053465	2549.397200
774.378401	2548.134391
774.703291	2549.026675
775.028135	2550.707900
775.352932	2549.543393
775.677683	2551.007848
776.002388	2550.029864
776.327046	2549.001469
776.651658	2549.374514
776.976224	2549.881150
777.300743	2548.928372
777.625216	2551.038095
777.949643	2549.503064
778.274024	2550.934752
778.598359	2547.826880
778.922647	2547.622713
779.246889	2546.894267
779.571086	2545.787733
779.895236	2549.470296
780.219339	2549.374514
780.543397	2550.196223
780.867409	2549.649257
781.191374	2548.767055
781.515294	2548.131870
781.839167	2548.131870
782.162995	2549.034237
782.486776	2548.144473
782.810511	2550.042467
783.134201	2549.752601
783.457844	2548.542724
783.781441	2547.234545
784.104993	2551.385935
784.428498	2551.385935
784.751958	2547.400903
785.075372	2547.597508
785.398739	2547.002652
785.722061	2548.958619
786.045337	2548.020965
786.368568	2548.643547
786.691752	2548.951057
787.014891	2551.456511
787.337983	2548.504915
787.661030	2551.300235
787.984031	2548.890564
788.306987	2551.244782
788.629897	2546.511139
788.952760	2550.118085
789.275579	2548.726726
789.598351	2550.342416
789.921078	2548.998948
790.243759	2548.194884
790.566395	2548.530121
790.888984	2550.395348
791.211529	2547.330327
791.534027	2549.382076
791.856480	2548.202446
792.178888	2549.399720
792.501249	2548.220090
792.823566	2548.575492
793.145836	2551.872406
793.468062	2546.375028
793.790241	2548.109185
794.112375	2547.368135
794.434464	2548.961140
794.756507	2550.228990
795.078505	2550.314690
795.400457	2548.063814
795.722364	2543.746066
796.044226	2549.354350
796.366042	2546.128011
796.687812	2545.485264
797.009538	2549.704710
797.331218	2549.384597
797.652852	2548.920811
797.974442	2548.136911
798.295986	2549.525749
798.617484	2548.822508
798.938938	2548.998948
799.260346	2546.788403
799.581709	2549.994576
799.903026	2547.789072
800.224299	2550.745708
800.545526	2548.751932
800.866708	2552.121943
801.187845	2547.998279
801.508936	2549.492982
801.829983	2548.784699
802.150984	2549.999618
802.471940	2549.311500
802.792851	2548.419216
803.113717	2550.342416
803.434538	2548.278063
803.755314	2550.092879
804.076045	2548.729247
804.396731	2550.314690
804.717372	2548.467107
805.037967	2548.288146
805.358518	2549.528270
805.679024	2546.440563
805.999485	2551.171686
806.319901	2547.380738
806.640272	2549.172868
806.960598	2549.598846
807.280879	2549.104813
807.601115	2548.628424
807.921306	2547.781510
808.241453	2547.310162
808.561554	2547.471479
808.881611	2549.029195
809.201623	2547.935265
809.521590	2546.680018
809.841513	2546.642209
810.161390	2550.077755
810.481223	2548.187323
810.801011	2549.251006
811.120755	2547.884853
811.440453	2548.716644
811.760107	2548.628424
812.079716	2544.398896
812.399281	2544.371169
812.718801	2543.413350
813.038276	2547.017775
813.357707	2548.706562
813.677093	2550.778476
813.996434	2549.286294
814.315731	2545.878474
814.634983	2547.375697
814.954191	2550.438198
815.273354	2548.842673
815.592473	2547.675646
815.911547	2548.537683
816.230577	2550.349978
816.549562	2546.760676
816.868502	2549.722354
817.187399	2548.676315
817.506250	2550.324772
817.825058	2547.847045
818.143821	2547.778989
818.462539	2549.069525
818.781213	2546.591798
819.099843	2547.468958
819.418429	2551.020451
819.736970	2546.470810
820.055466	2547.040460
820.373919	2549.639175
820.692327	2547.284956
821.010691	2547.905018
821.329011	2548.777138
821.647286	2552.951213
821.965517	2546.642209
822.283704	2548.247817
822.601847	2546.697662
822.919945	2546.644730
823.237999	2549.689587
823.556010	2548.769576
823.873976	2546.422919
824.191897	2545.460058
824.509775	2545.142466
824.827609	2548.399051
825.145398	2547.975594
825.463144	2546.992569
825.780845	2548.015923
826.098502	2547.922662
826.416116	2550.970040
826.733685	2549.689587
827.051210	2547.799154
827.368692	2549.805533
827.686129	2545.442414
828.003522	2548.265461
828.320872	2542.188350
828.638177	2546.508618
828.955439	2541.379244
829.272656	2542.939482
829.589830	2543.405788
829.906960	2547.393341
830.224046	2547.970553
830.541088	2546.795964
830.858086	2548.580533
831.175041	2546.685059
831.491952	2549.253527
831.808819	2546.856458
832.125642	2547.390820
832.442421	2547.310162
832.759157	2547.254709
833.075849	2548.336037
833.392497	2551.363250
833.709101	2546.296890
834.025662	2547.237065
834.342179	2550.420554
834.658653	2546.375028
834.975083	2546.566592
835.291469	2552.240410
835.607811	2548.915769
835.924110	2546.417878
836.240366	2548.509957
836.556578	2545.190357
836.872746	2548.399051
837.188871	2546.054915
837.504952	2546.359904
837.820990	2549.823177
838.136984	2547.405944
838.452935	2544.469472
838.768842	2548.993907
839.084706	2548.429298
839.400526	2547.776469
839.716303	2547.960471
840.032037	2548.406613
840.347727	2548.434339
840.663373	2545.248330
840.978977	2547.370656
841.294537	2548.832590
841.610054	2548.013403
841.925527	2546.443083
842.240957	2547.214380
842.556344	2547.935265
842.871687	2547.756304
843.186987	2546.992569
843.502244	2548.570450
843.817458	2548.197405
844.132629	2548.262940
844.447756	2549.770245
844.762840	2543.546941
845.077881	2544.628268
845.392879	2543.514173
845.707833	2545.674307
846.022745	2543.252033
846.337613	2545.273536
846.652438	2545.823022
846.967221	2548.759494
847.281960	2548.013403
847.596656	2548.041129
847.911309	2547.030378
848.225919	2547.562220
848.540485	2546.566592
848.855009	2548.570450
849.169490	2546.387631
849.483928	2547.988197
849.798323	2545.628937
850.112675	2548.131870
850.426984	2546.322096
850.741251	2548.265461
851.055474	2546.750594
851.369654	2545.938968
851.683792	2545.986859
851.997887	2544.865202
852.311938	2547.325285
852.625947	2546.997610
852.939914	2545.812939
853.253837	2548.918290
853.567718	2547.922662
853.881555	2546.894267
854.195350	2547.161448
854.509103	2546.478372
854.822812	2549.603887
855.136479	2548.915769
855.450103	2548.814946
855.763685	2546.032229
856.077224	2546.564071
856.390720	2548.514998
856.704173	2547.726057
857.017584	2546.957281
857.330953	2548.391489
857.644278	2546.816129
857.957561	2550.748229
858.270802	2548.641027
858.584000	2547.113557
858.897155	2547.426108
859.210268	2545.641540
859.523339	2549.067004
859.836367	2548.111705
860.149352	2547.501726
860.462295	2550.307128
860.775195	2545.371838
861.088054	2542.236241
861.400869	2546.359904
861.713642	2539.377906
862.026373	2544.885367
862.339062	2545.155069
862.651708	2545.911242
862.964312	2548.058773
863.276873	2544.308155
863.589392	2546.367466
863.901869	2547.068187
864.214303	2546.445604
864.526696	2547.060625
864.839045	2545.823022
865.151353	2548.315872
865.463619	2547.219421
865.775842	2546.301931
866.088023	2546.231355
866.400162	2544.847558
866.712258	2546.538865
867.024313	2545.923845
867.336325	2546.140614
867.648296	2547.176571
867.960224	2550.392827
868.272110	2549.235883
868.583954	2548.106664
868.895755	2547.196736
869.207515	2547.446273
869.519233	2547.476520
869.830909	2546.576674
870.142542	2547.315203
870.454134	2549.908877
870.765684	2548.583053
871.077191	2547.355532
871.388657	2548.083979
871.700081	2545.722198
872.011463	2545.253371
872.322803	2546.138094
872.634101	2548.121788
872.945357	2546.022147
873.256571	2546.178423
873.567744	2547.244627
873.878874	2547.597508
874.189963	2549.082127
874.501010	2547.564740
874.812015	2545.518032
875.122979	2547.804195
875.433900	2545.336550
875.744780	2549.775286
876.055618	2545.197918
876.366415	2547.698331
876.677169	2546.755635
876.987882	2543.494008
877.298554	2540.219779
877.609183	2544.013247
877.919771	2539.027546
878.230317	2544.194729
878.540822	2548.467107
878.851285	2545.460058
879.161707	2547.123639
879.472087	2548.262940
879.782425	2545.901159
880.092722	2548.832590
880.402977	2544.850079
880.713191	2546.979966
881.023363	2547.663043
881.333494	2548.633465
881.643583	2545.548279
881.953631	2547.020296
882.263637	2547.058104
882.573602	2547.030378
882.883526	2546.276725
883.193408	2545.225645
883.503248	2546.221273
883.813048	2544.824873
884.122806	2550.211346
884.432522	2546.518701
884.742197	2544.754297
885.051831	2546.480892
885.361424	2546.969884
885.670975	2547.194215
885.980485	2544.441745
886.289954	2545.820501
886.599382	2544.892929
886.908768	2545.530635
887.218113	2547.612631
887.527417	2548.509957
887.836680	2546.488454
888.145901	2547.085831
888.455082	2544.411498
888.764221	2546.435522
889.073319	2546.430481
889.382376	2547.027857
889.691392	2547.645399
890.000366	2547.015254
890.309300	2547.564740
890.618193	2545.097095
890.927044	2546.317055
891.235855	2545.591128
891.544625	2545.051725
891.853353	2544.381252
892.162041	2547.201777
892.470687	2546.110367
892.779293	2546.894267
893.087858	2543.020140
893.396381	2541.742207
893.704864	2545.455017
894.013306	2542.810932
894.321707	2543.798998
894.630068	2545.928886
894.938387	2547.116078
895.246665	2546.049873
895.554903	2545.291180
895.863100	2546.185985
896.171256	2544.345963
896.479371	2544.340922
896.787446	2549.306459
897.095480	2546.823691
897.403473	2546.375028
897.711425	2545.926365
898.019336	2545.981818
898.327207	2544.598021
898.635038	2547.405944
898.942827	2548.764535
899.250576	2544.547610
899.558284	2544.106509
899.865952	2547.584905
900.173579	2545.392003
900.481165	2547.594987
900.788711	2544.761859
901.096216	2546.624565
901.403681	2545.036602
901.711105	2548.232693
902.018489	2546.112888
902.325832	2548.220090
902.633135	2545.321427
902.940397	2547.975594
903.247619	2545.109698
903.554800	2546.392672
903.861941	2547.005172
904.169041	2550.125646
904.476101	2545.331509
904.783121	2546.291849
905.090100	2543.108360
905.397039	2545.533155
905.703938	2542.813453
906.010796	2545.550799
906.317614	2545.150028
906.624391	2544.552651
906.931129	2544.716488
907.237826	2545.434853
907.544483	2546.816129
907.851099	2543.713299
908.157675	2545.830583
908.464211	2545.704554
908.770707	2541.545603
909.077163	2541.928730
909.383578	2542.972249
909.689954	2544.459389
909.996289	2539.203987
910.302584	2546.344781
910.608839	2546.112888
910.915054	2548.434339
911.221229	2543.189019
911.527363	2546.798485
911.833458	2546.105326
912.139513	2545.530635
912.445527	2543.811601
912.751502	2545.457538
913.057436	2546.019627
913.363331	2546.937117
913.669186	2544.792106
913.975000	2546.087682
914.280775	2545.213042
914.586510	2544.517363
914.892205	2543.194060
915.197859	2544.000644
915.503475	2542.994934
915.809050	2547.300080
916.114585	2547.814277
916.420081	2545.031560
916.725536	2544.424101
917.030952	2549.014072
917.336328	2546.150697
917.641665	2545.051725
917.946961	2545.460058
918.252218	2543.776313
918.557435	2541.502753
918.862612	2546.778320
919.167750	2544.020809
919.472848	2546.712785
919.777906	2546.543907
920.082925	2545.616334
920.387904	2546.755635
920.692843	2544.761859
920.997743	2546.443083
921.302603	2544.761859
921.607423	2542.974770
921.912204	2546.279246
922.216946	2544.572815
922.521647	2546.485933
922.826310	2547.932744
923.130932	2547.935265
923.435516	2545.109698
923.740059	2547.839483
924.044564	2547.310162
924.349028	2545.402085
924.653454	2538.931764
924.957840	2542.198432
925.262186	2542.924358
925.566493	2541.273380
925.870761	2540.164326
926.174989	2543.219266
926.479178	2545.397044
926.783328	2545.709596
927.087438	2544.308155
927.391509	2545.361756
927.695541	2542.788247
927.999533	2545.039122
928.303486	2544.403937
928.607400	2545.729760
928.911275	2543.622558
929.215110	2548.850234
929.518906	2544.542568
929.822663	2544.603062
930.126381	2545.142466
930.430060	2544.061138
930.733699	2545.505429
931.037299	2545.863351
931.340861	2544.693803
931.644383	2542.909235
931.947866	2546.107847
932.251309	2546.042312
932.554714	2545.175233
932.858080	2548.729247
933.161407	2545.812939
933.464694	2545.455017
933.767943	2545.651622
934.071153	2545.858310
934.374323	2544.116591
934.677455	2544.466951
934.980548	2545.989380
935.283602	2544.444266
935.586617	2544.235058
935.889593	2544.003165
936.192530	2544.645912
936.495428	2544.035932
936.798287	2546.773279
937.101108	2544.403937
937.403890	2541.230530
937.706632	2544.391334
938.009336	2544.625747
938.312002	2546.402754
938.614628	2543.461241
938.917216	2545.059287
939.219765	2545.260933
939.522275	2546.175902
939.824747	2542.195911
940.127179	2543.002496
940.429573	2541.318751
940.731929	2541.810263
941.034246	2540.068544
941.336524	2540.902855
941.638763	2543.231868
941.940964	2543.317568
942.243126	2543.846889
942.545250	2544.260264
942.847335	2543.640202
943.149381	2544.106509
943.451389	2543.753628
943.753359	2543.181457
944.055290	2542.851261
944.357182	2544.424101
944.659036	2545.081972
944.960851	2544.567774
945.262628	2544.388813
945.564367	2544.562733
945.866067	2544.434184
946.167729	2547.438711
946.469352	2543.534338
946.770937	2546.357384
947.072484	2544.207332
947.373992	2542.538710
947.675462	2544.724050
947.976893	2543.592311
948.278286	2541.285983
948.579641	2541.837989
948.880958	2543.015099
949.182236	2543.030222
949.483476	2543.564585
949.784678	2545.669266
950.085841	2544.706406
950.386967	2545.717157
950.688054	2544.376210
950.989103	2543.428473
951.290114	2539.793802
951.591087	2542.281611
951.892021	2544.693803
952.192917	2543.151210
952.493776	2540.764224
952.794596	2545.581046
953.095378	2544.885367
953.396122	2544.222455
953.696828	2545.268495
953.997496	2543.733463
954.298126	2541.946374
954.598718	2544.719009
954.899272	2545.139945
955.199788	2544.903011
955.500266	2542.926879
955.800706	2541.452341
956.101108	2540.557536
956.401472	2544.449307
956.701798	2544.293031
957.002087	2540.897814
957.302337	2543.345294
957.602550	2546.213711
957.902724	2542.742877
958.202861	2543.798998
958.502960	2545.223124
958.803022	2545.696993
959.103045	2545.656663
959.403031	2543.559543
959.702979	2543.988042
960.002889	2544.431663
960.302762	2544.648433
960.602596	2543.798998
960.902393	2541.197763
961.202153	2542.863864
961.501875	2544.603062
961.801559	2544.761859
962.101205	2541.883360
962.400814	2542.427804
962.700385	2542.329502
962.999918	2544.214893
963.299414	2544.015768
963.598873	2543.456200
963.898293	2544.935778
964.197677	2543.897301
964.497022	2542.964687
964.796331	2543.519214
965.095601	2544.378731
965.394835	2545.449976
965.694030	2541.696837
965.993189	2543.942671
966.292309	2542.606765
966.591393	2544.875285
966.890439	2541.285983
967.189447	2544.479554
967.488419	2544.257743
967.787353	2545.898639
968.086249	2545.170192
968.385108	2543.499050
968.683930	2545.366797
968.982714	2545.835624
969.281462	2543.824204
969.580172	2542.342105
969.878844	2541.780016
970.177480	2541.681714
970.476078	2545.202960
970.774639	2544.550130
971.073162	2543.526776
971.371649	2540.171888
971.670098	2538.460416
971.968510	2541.396888
972.266885	2537.709284
972.565223	2542.543751
972.863524	2546.080120
973.161788	2544.479554
973.460014	2545.596170
973.758204	2542.931920
974.056356	2544.015768
974.354471	2544.325799
974.652550	2544.477033
974.950591	2544.081303
975.248595	2543.990562
975.546563	2547.668084
975.844493	2542.306817
976.142386	2543.730943
976.440243	2542.014430
976.738062	2544.935778
977.035845	2542.594162
977.333590	2547.358053
977.631299	2543.398227
977.928971	2542.773123
978.226606	2546.191026
978.524204	2544.887888
978.821765	2544.726571
979.119290	2544.668597
979.416777	2542.712630
979.714228	2542.163144
980.011642	2545.059287
980.309020	2547.297559
980.606360	2542.379913
980.903664	2543.423432
981.200931	2543.859492
981.498162	2543.478885
981.795356	2540.829759
982.092513	2543.937630
982.389633	2542.878988
982.686717	2543.183977
982.983764	2541.873277
983.280775	2543.935109
983.577749	2543.723381
983.874686	2540.882691
984.171587	2543.282280
984.468451	2542.846220
984.765279	2542.579039
985.062070	2541.091899
985.358824	2542.906714
985.655543	2543.826725
985.952224	2544.141797
986.248869	2540.875129
986.545478	2539.267001
986.842050	2541.772454
987.138586	2539.884542
987.435086	2539.241795
987.731549	2537.434542
988.027975	2544.235058
988.324366	2542.513504
988.620719	2543.829245
988.917037	2543.831766
989.213318	2543.327650
989.509563	2542.710109
989.805772	2543.269677
990.101944	2542.626930
990.398080	2544.368649
990.694180	2543.032743
990.990244	2542.929399
991.286271	2544.882846
991.582262	2542.226158
991.878217	2546.019627
992.174136	2542.347146
992.470019	2542.248843
992.765865	2546.332178
993.061676	2540.643236
993.357450	2543.589790
993.653188	2545.089534
993.948890	2542.379913
994.244556	2541.782537
994.540186	2544.693803
994.835780	2544.396375
995.131337	2544.585418
995.426859	2541.432177
995.722345	2542.856302
996.017795	2544.673638
996.313208	2544.766900
996.608586	2540.252547
996.903928	2544.033412
997.199234	2544.008206
997.494504	2541.996786
997.789738	2542.778165
998.084936	2543.201622
998.380099	2542.546272
998.675225	2541.618699
998.970316	2543.778834
999.265371	2541.371683
999.560390	2543.292362
999.855373	2543.771272
1000.150320	2543.269677
1000.445232	2541.641384
1000.740108	2544.514842
1001.034948	2544.313196
1001.329752	2543.161292
1001.624521	2544.517363
1001.919254	2539.098122
1002.213951	2542.755479
1002.508613	2539.806404
1002.803239	2542.170706
1003.097829	2539.176260
1003.392384	2543.625078
1003.686903	2542.493339
1003.981386	2541.704399
1004.275834	2543.367980
1004.570246	2546.906870
1004.864623	2542.430325
1005.158964	2541.573329
1005.453270	2546.254040
1005.747540	2541.870757
1006.041775	2542.445448
1006.335974	2542.947043
1006.630138	2542.957126
1006.924266	2543.501570
1007.218359	2539.624923
1007.512416	2545.530635
1007.806438	2542.881508
1008.100425	2541.651467
1008.394376	2541.772454
1008.688292	2542.085006
1008.982172	2540.567619
1009.276017	2542.276570
1009.569827	2541.316230
1009.863602	2543.491488
1010.157341	2543.514173
1010.451045	2543.919986
1010.744714	2542.354708
1011.038347	2542.377393
1011.331945	2542.127856
1011.625508	2542.420243
1011.919036	2544.439225
1012.212528	2541.643905
1012.505986	2542.213555
1012.799408	2543.262115
1013.092795	2541.666590
1013.386147	2542.523586
1013.679464	2541.341436
1013.972745	2543.970398
1014.265992	2542.137938
1014.559204	2542.324461
1014.852380	2544.106509
1015.145521	2544.572815
1015.438628	2542.929399
1015.731699	2542.284132
1016.024736	2542.694986
1016.317737	2540.943185
1016.610703	2543.310006
1016.903635	2536.519572
1017.196531	2538.505787
1017.489393	2539.816487
1017.782219	2536.257432
1018.075011	2543.186498
1018.367768	2541.361600
1018.660490	2540.313040
1018.953177	2540.313040
1019.245829	2540.313040
