Dividing Wavelength (nm)	Counts (n)	Blue Motor Position (mm): 20.600000	Red Motor Position (mm): 0.000000	
326.493990	2136.234313
326.888308	2136.234313
327.282561	2136.234313
327.676750	2103.978490
328.070874	2104.245671
328.464933	2103.718870
328.858929	2109.294387
329.252859	2120.513474
329.646726	2131.838427
330.040528	2142.916362
330.434265	2162.229023
330.827938	2178.839624
331.221547	2195.157839
331.615091	2216.580223
332.008571	2233.740310
332.401986	2254.892992
332.795338	2271.508635
333.188625	2293.540998
333.581847	2311.792495
333.975006	2328.214054
334.368100	2348.260202
334.761129	2365.009436
335.154095	2381.010058
335.546996	2402.790363
335.939833	2424.583272
336.332606	2439.043821
336.725315	2452.980091
337.117960	2461.303036
337.510540	2470.525827
337.903056	2478.463124
338.295508	2486.448312
338.687896	2496.921309
339.080220	2504.299037
339.472480	2512.715244
339.864676	2515.268588
340.256807	2518.930986
340.648875	2522.051461
341.040879	2528.524302
341.432818	2524.897192
341.824694	2528.730989
342.216506	2528.098325
342.608253	2531.362472
342.999937	2528.710825
343.391557	2527.354754
343.783113	2525.234949
344.174605	2527.039682
344.566033	2524.481297
344.957397	2522.442150
345.348697	2520.067767
345.739934	2516.120543
346.131106	2519.014165
346.522215	2516.594412
346.913260	2513.378155
347.304241	2515.984432
347.695159	2511.664163
348.086012	2508.218534
348.476802	2508.258864
348.867528	2504.644356
349.258191	2502.857267
349.648789	2506.237361
350.039324	2500.414828
350.429796	2500.891217
350.820203	2498.393326
351.210548	2497.889210
351.600828	2499.096567
351.991045	2497.264107
352.381198	2498.852071
352.771288	2497.117914
353.161314	2494.262100
353.551276	2496.439878
353.941175	2493.485762
354.331010	2497.082626
354.720782	2495.169508
355.110490	2499.197390
355.500135	2495.945845
355.889717	2497.740496
356.279235	2494.252018
356.668689	2498.433655
357.058080	2494.108345
357.447408	2492.379229
357.836672	2492.772439
358.225873	2497.463233
358.615010	2491.983498
359.004084	2498.688233
359.393095	2496.666730
359.782043	2497.155722
360.170927	2497.125475
360.559748	2498.572287
360.948505	2500.871053
361.337199	2502.748882
361.725830	2501.886845
362.114398	2501.418018
362.502903	2499.951042
362.891344	2502.925323
363.279722	2501.591938
363.668037	2501.914572
364.056289	2501.347442
364.444478	2504.777947
364.832603	2500.916423
365.220665	2504.840961
365.608665	2504.578821
365.996601	2508.536127
366.384474	2504.510766
366.772284	2507.885818
367.160031	2506.776764
367.547715	2508.339522
367.935336	2508.185767
368.322893	2506.723832
368.710388	2509.350273
369.097820	2507.238030
369.485189	2507.974038
369.872495	2511.001251
370.259738	2509.141066
370.646918	2506.877588
371.034035	2509.849348
371.421090	2511.044101
371.808081	2510.053514
372.195010	2510.164420
372.581875	2511.553258
372.968678	2511.835562
373.355418	2509.798936
373.742096	2513.610048
374.128710	2512.417816
374.515262	2512.170799
374.901751	2510.875222
375.288177	2511.331447
375.674540	2513.947806
376.060841	2512.659791
376.447079	2514.746829
376.833254	2514.030985
377.219367	2509.141066
377.605417	2514.023423
377.991404	2509.002434
378.377329	2512.342198
378.763191	2509.715757
379.148991	2514.903104
379.534727	2514.656088
379.920402	2516.395286
380.306013	2513.998217
380.691563	2516.929648
381.077049	2515.162724
381.462474	2516.017199
381.847835	2516.198681
382.233134	2514.179699
382.618371	2516.218846
383.003545	2515.876047
383.388657	2516.662467
383.773706	2513.612569
384.158693	2519.072139
384.543618	2517.249762
384.928480	2516.516274
385.313280	2518.734381
385.698017	2514.966119
386.082692	2516.672549
386.467305	2516.667508
386.851856	2519.624145
387.236344	2517.020389
387.620770	2519.258661
388.005133	2519.019207
388.389435	2520.627335
388.773674	2518.542818
389.157851	2518.777231
389.541965	2519.152797
389.926018	2521.769156
390.310008	2522.366533
390.693936	2521.307890
391.077802	2520.339989
391.461606	2524.100690
391.845348	2522.308559
392.229027	2521.837212
392.612645	2522.356450
392.996200	2522.263189
393.379694	2522.169928
393.763125	2523.314270
394.146494	2524.574558
394.529801	2524.947603
394.913047	2525.199661
395.296230	2522.013652
395.679351	2524.221677
396.062410	2522.921060
396.445408	2523.364681
396.828343	2523.669671
397.211217	2518.106758
397.594028	2522.285874
397.976778	2522.031296
398.359466	2522.462315
398.742092	2520.491223
399.124656	2523.170597
399.507158	2525.388704
399.889598	2525.744106
400.271977	2526.422141
400.654294	2526.495238
401.036549	2525.668488
401.418742	2527.720238
401.800874	2528.673016
402.182944	2523.828467
402.564952	2527.450536
402.946898	2524.695546
403.328783	2528.491535
403.710606	2527.090094
404.092367	2526.127233
404.474067	2530.457585
404.855705	2529.610671
405.237282	2528.746113
405.618797	2524.574558
406.000250	2526.404497
406.381642	2529.832482
406.762972	2529.010773
407.144240	2528.163860
407.525447	2531.596885
407.906593	2529.648479
408.287677	2527.463139
408.668700	2530.049251
409.049661	2528.630166
409.430560	2527.574045
409.811399	2529.840043
410.192176	2529.832482
410.572891	2530.785260
410.953545	2528.675537
411.334138	2530.941535
411.714669	2530.094622
412.095139	2530.293747
412.475547	2530.507996
412.855894	2530.845753
413.236180	2531.531350
413.616405	2532.602596
413.996568	2532.766433
414.376670	2531.964890
414.756711	2531.049920
415.136691	2534.359438
415.516609	2534.364479
415.896466	2534.319108
416.276262	2535.203831
416.655997	2529.933305
417.035670	2526.686802
417.415283	2531.264169
417.794834	2528.123530
418.174324	2530.591175
418.553753	2531.473377
418.933121	2532.564787
419.312428	2533.310878
419.691674	2533.416742
420.070859	2536.930426
420.449983	2534.677030
420.829045	2535.009747
421.208047	2534.772812
421.586988	2535.985210
421.965867	2533.323481
422.344686	2536.254912
422.723444	2533.749458
423.102141	2532.907585
423.480777	2534.545960
423.859352	2535.428162
424.237866	2536.837165
424.616319	2534.634181
424.994712	2535.604603
425.373044	2535.297092
425.751314	2535.385312
426.129524	2535.604603
426.507673	2537.104346
426.885762	2535.455889
427.263789	2538.462937
427.641756	2535.284489
428.019662	2536.580066
428.397508	2536.834644
428.775292	2538.120138
429.153016	2536.002854
429.530679	2539.950077
429.908282	2535.939839
430.285824	2538.258770
430.663305	2538.115097
431.040726	2539.277083
431.418086	2538.344470
431.795385	2539.511497
432.172624	2534.949253
432.549802	2536.564942
432.926920	2540.224820
433.303977	2540.197094
433.680974	2538.737680
434.057910	2539.103163
434.434786	2536.965714
434.811601	2541.459903
435.188355	2539.556867
435.565050	2538.851106
435.941683	2539.617361
436.318257	2537.298430
436.694770	2535.045035
437.071222	2538.495704
437.447614	2534.588810
437.823946	2536.123842
438.200218	2538.929244
438.576429	2541.303627
438.952580	2540.161806
439.328670	2539.985365
439.704700	2541.926210
440.080670	2541.381765
440.456580	2540.860006
440.832429	2541.054090
441.208218	2539.947557
441.583947	2544.562733
441.959616	2540.479398
442.335224	2540.980993
442.710773	2541.200283
443.086261	2544.477033
443.461689	2543.609955
443.837057	2543.297403
444.212365	2540.648277
444.587612	2543.675490
444.962800	2542.430325
445.337927	2543.884698
445.712995	2540.401261
446.088002	2543.942671
446.462949	2539.728267
446.837837	2544.618186
447.212664	2542.193391
447.587431	2544.686241
447.962139	2543.304965
448.336786	2546.276725
448.711374	2542.926879
449.085901	2543.352856
449.460369	2544.524924
449.834776	2545.316386
450.209124	2544.557692
450.583412	2543.226827
450.957640	2547.088351
451.331808	2544.754297
451.705917	2544.030891
452.079965	2544.724050
452.453954	2541.979142
452.827883	2542.707588
453.201752	2547.668084
453.575562	2546.160779
453.949311	2547.453835
454.323001	2543.443597
454.696632	2546.737991
455.070202	2549.021634
455.443713	2545.071890
455.817164	2541.464944
456.190556	2542.367311
456.563888	2544.522404
456.937160	2541.119625
457.310373	2545.659184
457.683526	2547.080789
458.056619	2545.923845
458.429653	2547.300080
458.802628	2547.998279
459.175542	2546.748073
459.548398	2547.471479
459.921194	2547.494164
460.293930	2547.980635
460.666607	2549.571119
461.039224	2549.782848
461.411782	2548.494833
461.784280	2550.972560
462.156719	2548.346119
462.529099	2548.026006
462.901419	2549.329144
463.273680	2549.281253
463.645882	2551.171686
464.018024	2549.573640
464.390106	2548.192364
464.762130	2549.709751
465.134094	2552.348795
465.505999	2551.333003
465.877845	2553.004145
466.249631	2554.105637
466.621358	2554.355174
466.993026	2553.788045
467.364634	2554.869372
467.736184	2551.514484
468.107674	2549.734957
468.479105	2553.069680
468.850477	2555.444064
469.221790	2550.959957
469.593043	2551.993394
469.964238	2555.935576
470.335373	2552.255534
470.706449	2553.969526
471.077467	2554.261913
471.448425	2556.119578
471.819324	2555.406255
472.190164	2555.917932
472.560945	2557.342058
472.931667	2555.915412
473.302330	2552.827705
473.672934	2552.381563
474.043479	2556.054043
474.413965	2555.247459
474.784393	2553.548590
475.154761	2554.007335
475.525070	2550.160934
475.895321	2554.667726
476.265513	2552.568085
476.635645	2557.977243
477.005719	2559.764332
477.375734	2558.446071
477.745691	2560.172666
478.115588	2563.066288
478.485427	2563.638459
478.855207	2568.462843
479.224928	2568.089798
479.594591	2566.816907
479.964194	2570.146589
480.333739	2571.802608
480.703226	2575.739749
481.072653	2575.041549
481.442022	2578.494740
481.811333	2581.776531
482.180584	2583.034299
482.549777	2584.130750
482.918912	2586.986563
483.287988	2593.053592
483.657005	2591.833633
484.025964	2597.504931
484.394864	2601.177411
484.763706	2601.837802
485.132489	2603.690427
485.501213	2609.971704
485.869879	2616.895729
486.238487	2618.027468
486.607036	2623.487038
486.975527	2631.807462
487.343959	2638.310551
487.712333	2644.072589
488.080648	2649.827067
488.448905	2657.683705
488.817104	2663.786022
489.185244	2676.525017
489.553326	2688.974147
489.921350	2707.066848
490.289315	2738.236302
490.657222	2755.585433
491.025070	2765.967689
491.392861	2773.272321
491.760593	2777.282559
492.128267	2780.990328
492.495883	2781.882612
492.863440	2790.956689
493.230939	2792.995836
493.598380	2806.906900
493.965763	2815.484423
494.333088	2826.731237
494.700354	2840.871674
495.067563	2856.085876
495.434713	2867.703215
495.801805	2891.840260
496.168839	2907.528331
496.535815	2925.598347
496.902733	2941.178033
497.269593	2958.834674
497.636395	2980.693117
498.003139	3009.047087
498.369825	3018.595032
498.736453	3052.527039
499.103023	3069.402301
499.469535	3096.609408
499.835989	3118.457769
500.202385	3143.340905
500.568723	3159.013852
500.935003	3195.610108
501.301226	3223.412072
501.667390	3259.136208
502.033497	3303.450471
502.399546	3317.371618
502.765537	3339.414063
503.131470	3378.031822
503.497345	3427.977054
503.863163	3422.482196
504.228923	3491.046929
504.594625	3527.978423
504.960269	3538.693395
505.325856	3602.279989
505.691385	3620.102988
506.056856	3673.594672
506.422270	3721.079821
506.787625	3744.112853
507.152924	3806.834889
507.518164	3841.296216
507.883347	3876.160836
508.248472	3904.827358
508.613540	3988.742405
508.978550	4025.499978
509.343503	4060.535997
509.708398	4129.103251
510.073236	4193.176317
510.438016	4245.742948
510.802738	4290.054691
511.167403	4354.304196
511.532010	4396.297008
511.896561	4480.486798
512.261053	4560.931010
512.625488	4585.988065
512.989866	4636.155108
513.354186	4687.219476
513.718449	4727.304211
514.082655	4827.096372
514.446803	4867.057598
514.810894	4954.987924
515.174927	4987.412626
515.538904	5035.906005
515.902822	5147.396163
516.266684	5174.499927
516.630488	5222.597576
516.994235	5292.712464
517.357925	5387.765941
517.721558	5476.810362
518.085133	5553.322474
518.448651	5609.065033
518.812112	5641.572913
519.175516	5716.287854
519.538863	5824.715512
519.902152	5853.704667
520.265385	5995.015771
520.628560	6007.122102
520.991678	6081.045582
521.354739	6159.758158
521.717743	6195.217634
522.080690	6255.514876
522.443580	6390.953035
522.806413	6437.981960
523.169189	6514.347879
523.531908	6604.143432
523.894569	6600.959943
524.257174	6665.973183
524.619722	6795.190559
524.982213	6826.125600
525.344647	6929.746517
525.707025	6963.595345
526.069345	7082.037254
526.431608	7121.751464
526.793815	7237.395534
527.155964	7202.316665
527.518057	7282.087883
527.880093	7327.614543
528.242072	7424.210613
528.603995	7454.311342
528.965860	7467.763662
529.327669	7562.439051
529.689421	7592.643125
530.051117	7642.182543
530.412755	7779.334696
530.774337	7759.593537
531.135862	7823.013773
531.497331	7887.701859
531.858743	7864.525154
532.220098	8030.227881
532.581396	8006.100919
532.942638	8055.095893
533.303824	8083.096982
533.664953	8163.417687
534.026025	8157.012901
534.387040	8286.328579
534.747999	8337.589552
535.108902	8439.917413
535.469748	8330.141247
535.830537	8447.645502
536.191270	8480.574319
536.551947	8561.777225
536.912567	8605.874718
537.273131	8604.594265
537.633638	8638.125500
537.994089	8683.775669
538.354483	8690.772790
538.714821	8842.730811
539.075103	8899.234584
539.435328	8926.333307
539.795497	8834.188576
540.155609	9008.957818
540.515665	9119.550651
540.875665	8963.499213
541.235609	9062.494872
541.595496	9096.169780
541.955328	9269.829968
542.315102	9215.579591
542.674821	9216.524807
543.034483	9254.595601
543.394090	9299.184607
543.753640	9277.535372
544.113134	9500.447633
544.472571	9414.253985
544.831953	9576.884128
545.191278	9447.195404
545.550548	9506.648252
545.909761	9656.552003
546.268918	9672.224950
546.628019	9775.104818
546.987064	9693.775883
547.346053	9656.161314
547.704986	9782.744687
548.063863	9792.529566
548.422684	9812.091764
548.781449	9774.227657
549.140158	9888.661850
549.498811	9816.321292
549.857408	9709.907575
550.215949	9939.209499
550.574434	9834.250156
550.932864	9954.519483
551.291237	10031.470176
551.649555	10009.359676
552.007817	10043.319408
552.366022	10031.477738
552.724173	10041.131548
553.082267	10054.775431
553.440305	10202.972751
553.798288	10030.809785
554.156215	10202.430827
554.514086	10195.819353
554.871902	10074.055323
555.229661	10130.599426
555.587365	10124.872675
555.945014	10042.374192
556.302606	10173.000571
556.660143	10095.563406
557.017625	10247.770964
557.375050	10168.647534
557.732421	10308.600047
558.089735	10245.182332
558.446994	10258.241441
558.804197	10304.985540
559.161345	10321.089506
559.518437	10194.720382
559.875474	10296.450867
560.232455	10326.044960
560.589381	10288.140524
560.946251	10298.217791
561.303065	10407.573021
561.659825	10363.520898
562.016528	10311.458382
562.373177	10191.877171
562.729770	10321.074382
563.086307	10247.183670
563.442789	10347.081695
563.799216	10230.041226
564.155587	10286.141707
564.511904	10251.206511
564.868164	10253.399413
565.224370	10267.759139
565.580520	10203.655827
565.936615	10215.316016
566.292654	10098.557852
566.648638	10232.705476
567.004567	10190.145535
567.360441	10178.016519
567.716260	10096.740516
568.072023	10194.049908
568.427732	10152.306634
568.783385	10067.307739
569.138982	10141.720211
569.494525	10158.464403
569.850013	10041.512155
570.205445	10127.249579
570.560823	10019.605821
570.916145	9952.124935
571.271412	10029.413386
571.626625	9967.979364
571.981782	9942.153533
572.336884	9922.913969
572.691931	9938.985168
573.046923	9886.834431
573.401860	9842.900776
573.756743	9786.273494
574.111570	9829.781173
574.466342	9812.553029
574.821059	9839.581176
575.175722	9738.541329
575.530330	9750.171271
575.884882	9744.709181
576.239380	9669.820320
576.593823	9651.407506
576.948211	9663.763374
577.302544	9548.840189
577.656823	9568.467922
578.011047	9570.754085
578.365216	9536.733858
578.719330	9467.813724
579.073389	9480.628337
579.427394	9431.550183
579.781344	9410.679807
580.135239	9359.199543
580.489080	9368.487869
580.842866	9271.178477
581.196597	9274.669476
581.550273	9318.356115
581.903895	9291.413668
582.257463	9350.564047
582.610975	9231.363444
582.964434	9263.830995
583.317837	9186.260240
583.671186	9167.275255
584.024481	9161.087238
584.377721	9081.242923
584.730906	9062.764574
585.084037	9091.910005
585.437113	9032.187455
585.790135	9049.329899
586.143103	8946.966749
586.496016	8923.681660
586.848874	8987.943768
587.201679	8975.527407
587.554428	8853.856638
587.907124	8904.343794
588.259765	8877.706337
588.612352	8876.299855
588.964884	8758.641845
589.317362	8772.084081
589.669786	8770.473433
590.022155	8817.366246
590.374470	8834.639759
590.726731	8770.259184
591.078937	8632.993606
591.431090	8739.540913
591.783188	8615.563816
592.135232	8608.687682
592.487222	8609.814380
592.839157	8655.099065
593.191038	8586.325124
593.542866	8540.395171
593.894639	8435.670241
594.246358	8483.253692
594.598022	8503.519131
594.949633	8406.459275
595.301190	8378.952219
595.652692	8407.775016
596.004141	8514.471037
596.355535	8295.500958
596.706876	8277.683000
597.058162	8210.980973
597.409395	8287.709855
597.760573	8350.792334
598.111698	8259.093745
598.462768	8252.038651
598.813785	8208.422587
599.164748	8180.182044
599.515657	8173.855396
599.866511	8083.260820
600.217312	8204.591311
600.568060	8067.033346
600.918753	8169.981269
601.269392	8143.658884
601.619978	8056.497334
601.970510	8115.975388
602.320988	8119.025286
602.671412	8170.175353
603.021783	8106.271167
603.372100	8079.469872
603.722363	8090.426820
604.072572	8059.161584
604.422728	8067.736587
604.772830	8002.783840
605.122878	8006.095878
605.472872	7996.063982
605.822813	8026.762088
606.172701	7974.903738
606.522534	8054.632107
606.872314	8049.716982
607.222041	8021.015173
607.571714	8079.164882
607.921333	8031.525978
608.270899	8039.919500
608.620411	8131.681102
608.969870	8028.864249
609.319276	8028.702932
609.668627	8042.843369
610.017926	8079.369049
610.367171	8121.162735
610.716362	8098.003674
611.065500	8093.428827
611.414585	8118.952189
611.763616	8113.898432
612.112594	8088.589319
612.461518	8105.124304
612.810389	8165.149323
613.159207	8107.055066
613.507971	8053.467601
613.856682	8176.728853
614.205340	8125.251111
614.553945	8200.709622
614.902496	8104.587421
615.250994	8157.199423
615.599439	8139.454562
615.947830	8153.910070
616.296169	8122.763301
616.644454	8137.400292
616.992686	8134.138665
617.340864	8200.341618
617.688990	8102.588604
618.037063	8187.196809
618.385082	8141.518914
618.733048	8223.699804
619.080961	8157.113724
619.428821	8181.943927
619.776628	8181.596087
620.124382	8133.130434
620.472083	8119.400852
620.819731	8148.213567
621.167326	8036.496556
621.514868	8049.996766
621.862357	7938.045342
622.209793	7956.180893
622.557176	7893.214361
622.904506	7857.714556
623.251783	7798.296996
623.599007	7750.884944
623.946179	7754.509533
624.293297	7708.950106
624.640363	7634.671224
624.987376	7611.139118
625.334336	7554.685757
625.681243	7512.090527
626.028097	7497.438414
626.374899	7478.322358
626.721647	7465.084288
627.068343	7397.222796
627.414987	7374.698920
627.761577	7323.821075
628.108115	7364.679627
628.454600	7257.023266
628.801032	7310.726678
629.147412	7273.011286
629.493739	7263.175994
629.840014	7191.750406
630.186236	7248.672595
630.532405	7133.998948
630.878521	7189.900303
631.224585	7139.082951
631.570597	7069.066366
631.916556	7100.744976
632.262462	7094.975376
632.608316	7057.020528
632.954117	7033.755603
633.299866	7023.819489
633.645562	7015.186513
633.991206	6934.424708
634.336797	6876.464042
634.682336	6840.697055
635.027823	6803.725233
635.373257	6795.102339
635.718639	6725.058027
636.063968	6743.173413
636.409245	6639.575181
636.754470	6630.458255
637.099642	6590.181956
637.444762	6534.898142
637.789829	6547.097735
638.134845	6487.710422
638.479808	6473.970757
638.824719	6476.647610
639.169577	6407.722434
639.514383	6426.420073
639.859137	6357.447006
640.203839	6360.854826
640.548489	6352.652869
640.893086	6329.229148
641.237632	6300.527338
641.582125	6319.267828
641.926566	6291.034846
642.270955	6301.356608
642.615292	6300.728984
642.959576	6314.163659
643.303809	6303.741074
643.647990	6306.934645
643.992118	6299.075486
644.336195	6251.391212
644.680219	6270.093892
645.024192	6260.228354
645.368112	6354.611357
645.711981	6375.058277
646.055797	6452.949145
646.399562	6410.497589
646.743274	6535.200612
647.086935	6587.535350
647.430544	6587.363951
647.774101	6604.728205
648.117606	6612.360512
648.461059	6606.308607
648.804460	6565.548358
649.147810	6476.075439
649.491108	6445.974709
649.834354	6414.890954
650.177548	6334.413974
650.520690	6250.042703
650.863781	6225.608230
651.206820	6250.093115
651.549807	6171.960271
651.892742	6113.934070
652.235626	6124.255832
652.578458	6106.949551
652.921238	6012.077556
653.263967	6054.050203
653.606644	5994.463765
653.949269	5993.947047
654.291843	5940.979643
654.634365	5984.608309
654.976836	5941.037616
655.319255	5937.586947
655.661622	5917.142547
656.003938	5914.039717
656.346203	5876.352051
656.688416	5908.622997
657.030577	5858.400502
657.372687	5826.951264
657.714746	5819.906251
658.056753	5856.820100
658.398708	5801.261544
658.740612	5793.956912
659.082465	5842.016752
659.424266	5828.055276
659.766016	5826.968908
660.107715	5807.172297
660.449362	5821.070758
660.790958	5810.960724
661.132503	5803.686339
661.473996	5841.116906
661.815438	5825.075954
662.156829	5823.021684
662.498168	5815.427186
662.839456	5789.503052
663.180693	5829.917983
663.521879	5826.598383
663.863013	5817.667979
664.204097	5833.724054
664.545129	5875.948758
664.886110	5875.144694
665.227040	5905.900774
665.567918	5868.475248
665.908746	5898.734774
666.249522	5902.684518
666.590248	5889.517024
666.930922	5920.804945
667.271545	5931.514877
667.612118	5933.498571
667.952639	5904.403551
668.293109	5924.376603
668.633528	5888.952415
668.973896	5886.966200
669.314213	5881.736003
669.654480	5861.347056
669.994695	5852.033525
670.334859	5849.641497
670.674973	5836.219425
671.015035	5842.445250
671.355047	5837.736812
671.695008	5824.428166
672.034918	5799.850021
672.374777	5811.051464
672.714585	5797.440349
673.054342	5799.038395
673.394049	5790.503721
673.733705	5827.528476
674.073310	5805.518798
674.412864	5769.202326
674.752368	5764.186378
675.091820	5763.195791
675.431223	5701.376121
675.770574	5698.898394
676.109875	5652.285365
676.449125	5662.183671
676.788324	5629.791737
677.127473	5571.463066
677.466571	5559.397064
677.805619	5549.874325
678.144616	5532.467221
678.483562	5515.859139
678.822458	5490.731508
679.161303	5481.412935
679.500098	5477.987471
679.838842	5453.764727
680.177535	5458.856292
680.516179	5476.875897
680.854771	5485.390405
681.193314	5560.097785
681.531805	5674.073232
681.870247	5818.512372
682.208638	5920.235295
682.546978	5930.441111
682.885268	5911.622484
683.223508	5827.372200
683.561697	5776.784221
683.899836	5743.041258
684.237925	5705.973654
684.575963	5669.576523
684.913951	5630.411799
685.251889	5687.429769
685.589776	5654.120345
685.927614	5630.517663
686.265401	5698.868147
686.603137	5681.876938
686.940824	5756.783443
687.278460	5780.423934
687.616046	5789.888701
687.953582	5860.006109
688.291068	5840.648079
688.628504	5903.080248
688.965889	5865.097675
689.303224	5807.573068
689.640510	5761.023054
689.977745	5685.897258
690.314930	5588.597948
690.652065	5528.512435
690.989150	5439.558755
691.326185	5366.399010
691.663170	5313.514786
692.000105	5238.764556
692.336990	5159.973842
692.673825	5134.745388
693.010610	5065.351385
693.347345	4999.927290
693.684030	4988.080578
694.020665	4946.405360
694.357251	4856.677862
694.693786	4864.184140
695.030272	4833.493596
695.366707	4794.943892
695.703093	4765.042288
696.039429	4786.517604
696.375716	4770.786683
696.711952	4741.114452
697.048139	4732.718410
697.384276	4711.722004
697.720363	4725.444025
698.056400	4732.778904
698.392388	4680.875184
698.728326	4661.161752
699.064214	4636.628976
699.400053	4633.687463
699.735842	4603.788380
700.071581	4579.056479
700.407270	4551.715781
700.742910	4534.941342
701.078501	4482.863702
701.414042	4477.769616
701.749533	4448.878763
702.084974	4385.380389
702.420366	4439.093883
702.755709	4381.281931
703.091002	4327.147501
703.426246	4374.146178
703.761440	4330.704035
704.096584	4299.204385
704.431679	4314.910100
704.766725	4297.157676
705.101721	4289.243065
705.436668	4320.556192
705.771565	4265.027882
706.106413	4289.737098
706.441212	4323.621213
706.775961	4333.650589
707.110661	4310.342814
707.445311	4341.580324
707.779913	4364.431874
708.114465	4379.482239
708.448967	4400.879417
708.783421	4462.860403
709.117825	4500.898430
709.452180	4508.770191
709.786485	4551.556985
710.120742	4637.236435
710.454949	4618.243888
710.789107	4687.378272
711.123216	4757.644395
711.457275	4748.358590
711.791286	4821.548582
712.125247	4840.735213
712.459159	4743.952621
712.793023	4818.894414
713.126837	4780.599289
713.460602	4771.557980
713.794318	4687.486657
714.127985	4701.922001
714.461602	4612.174339
714.795171	4585.516717
715.128691	4520.856358
715.462162	4462.782265
715.795584	4417.986572
716.128957	4399.843460
716.462281	4346.860933
716.795556	4320.198270
717.128782	4283.763331
717.461960	4215.856468
717.795088	4227.683015
718.128167	4182.804143
718.461198	4126.592757
718.794180	4120.757621
719.127113	4105.606433
719.459997	4080.564501
719.792833	4038.327194
720.125619	4028.010472
720.458357	3994.696007
720.791046	3995.946213
721.123686	3973.341680
721.456278	3931.046399
721.788821	3949.202114
722.121315	3919.545006
722.453761	3896.557345
722.786158	3908.167122
723.118506	3931.860545
723.450805	3882.721898
723.783056	3905.326432
724.115259	3920.928803
724.447412	3927.716717
724.779518	3917.016868
725.111574	3923.131787
725.443582	3953.000624
725.775542	3941.562246
726.107453	3989.667456
726.439315	3988.780213
726.771129	4005.042976
727.102895	4037.936504
727.434612	4084.824276
727.766281	4098.077470
728.097901	4096.749126
728.429473	4101.908747
728.760996	4109.800673
729.092471	4106.097946
729.423897	4089.154628
729.755276	4095.083024
730.086606	4096.774332
730.417887	4126.779279
730.749120	4196.979867
731.080305	4261.168879
731.411442	4287.035039
731.742530	4253.526490
732.073570	4258.161831
732.404562	4318.040656
732.735506	4305.042041
733.066401	4266.746916
733.397249	4203.679561
733.728048	4127.966471
734.058798	4047.267680
734.389501	3975.327894
734.720156	3914.894542
735.050762	3871.767471
735.381320	3862.494268
735.711831	3813.915189
736.042293	3786.090541
736.372707	3806.618119
736.703073	3777.139972
737.033391	3767.846605
737.363661	3783.690951
737.693883	3814.023574
738.024056	3820.014985
738.354182	3813.544664
738.684260	3880.420611
739.014290	3899.332500
739.344272	3891.969895
739.674207	3933.100669
740.004093	3944.188687
740.333931	3936.072429
740.663722	3933.912295
740.993464	3932.362140
741.323159	3910.970004
741.652806	3881.877505
741.982405	3856.414637
742.311956	3817.421312
742.641460	3814.386537
742.970915	3788.432157
743.300323	3749.451434
743.629683	3714.866598
743.958996	3705.474929
744.288260	3681.070703
744.617477	3645.344046
744.946647	3632.123620
745.275768	3609.846761
745.604842	3607.066565
745.933869	3556.634862
746.262847	3553.327865
746.591778	3588.661312
746.920662	3558.686611
747.249498	3528.066643
747.578286	3578.732759
747.907027	3592.558124
748.235720	3589.175510
748.564365	3615.346660
748.892963	3617.315230
749.221514	3598.604988
749.550017	3576.980958
749.878473	3572.761513
750.206881	3540.515772
750.535242	3541.098025
750.863555	3544.957029
751.191821	3534.191645
751.520039	3517.770086
751.848210	3495.520953
752.176334	3528.653937
752.504411	3535.172149
752.832440	3497.214781
753.160421	3477.455979
753.488356	3488.818739
753.816243	3502.039165
754.144082	3456.139460
754.471875	3443.793674
754.799620	3462.962661
755.127318	3452.494705
755.454969	3454.632155
755.782572	3459.663226
756.110129	3434.880914
756.437638	3424.281888
756.765100	3438.719753
757.092515	3448.315589
757.419882	3456.114254
757.747203	3428.660130
758.074477	3428.602157
758.401703	3446.568829
758.728882	3467.590441
759.056014	3475.288283
759.383099	3477.355156
759.710138	3474.237202
760.037129	3490.978874
760.364073	3521.251003
760.690970	3506.379599
761.017820	3485.766321
761.344623	3503.322139
761.671379	3544.846123
761.998088	3598.030296
762.324751	3725.493351
762.651366	3970.826144
762.977935	4441.223771
763.304456	4872.824678
763.630931	4963.794820
763.957359	4604.985654
764.283740	4269.126340
764.610074	4082.868309
764.936362	3887.120305
765.262602	3726.554514
765.588796	3617.786578
765.914943	3533.019576
766.241044	3446.813325
766.567097	3414.877615
766.893104	3368.153681
767.219064	3336.268383
767.544978	3310.482881
767.870845	3256.580343
768.196665	3239.934453
768.522438	3252.101278
768.848165	3242.150041
769.173846	3208.747355
769.499479	3189.626259
769.825066	3173.625636
770.150607	3158.635765
770.476101	3174.041532
770.801548	3169.446520
771.126949	3124.411372
771.452303	3106.479988
771.777611	3114.651698
772.102872	3121.835342
772.428087	3092.947010
772.753256	3083.668767
773.078378	3075.955801
773.403453	3043.498332
773.728482	3032.725386
774.053465	3054.687173
774.378401	3042.520348
774.703291	3009.384844
775.028135	3010.907273
775.352932	3004.631036
775.677683	2994.314315
776.002388	2992.839777
776.327046	2994.205930
776.651658	2982.276039
776.976224	2970.131900
777.300743	2968.647280
777.625216	2961.584623
777.949643	2954.458952
778.274024	2958.098665
778.598359	2946.972839
778.922647	2951.976184
779.246889	2952.124898
779.571086	2936.898093
779.895236	2930.442895
780.219339	2942.440842
780.543397	2954.378294
780.867409	2957.294601
781.191374	2949.367387
781.515294	2948.530555
781.839167	2948.490226
782.162995	2937.971859
782.486776	2947.507201
782.810511	2945.029474
783.134201	2934.233843
783.457844	2939.511931
783.781441	2927.796290
784.104993	2907.004051
784.428498	2909.995975
784.751958	2922.374529
785.075372	2918.460073
785.398739	2902.764440
785.722061	2920.055598
786.045337	2929.341403
786.368568	2913.055956
786.691752	2907.089750
787.014891	2955.520115
787.337983	2984.302583
787.661030	3009.470544
787.984031	3076.502766
788.306987	3123.670322
788.629897	3117.958695
788.952760	3101.380861
789.275579	3085.324786
789.598351	3026.275230
789.921078	2980.025164
790.243759	2971.808083
790.566395	2956.490537
790.888984	2932.260231
791.211529	2912.655184
791.534027	2907.818197
791.856480	2894.804458
792.178888	2883.008158
792.501249	2875.582539
792.823566	2869.606251
793.145836	2869.089533
793.468062	2864.179449
793.790241	2862.835981
794.112375	2870.851416
794.434464	2880.863147
794.756507	2885.929507
795.078505	2891.142060
795.400457	2903.921385
795.722364	2939.650563
796.044226	2962.222329
796.366042	2967.422279
796.687812	2956.177986
797.009538	2977.033239
797.331218	2963.275930
797.652852	2948.011317
797.974442	2931.884665
798.295986	2929.081784
798.617484	2922.135074
798.938938	2910.071593
799.260346	2893.506361
799.581709	2888.129971
799.903026	2880.185112
800.224299	2875.766541
800.545526	2866.571476
800.866708	2849.975998
801.187845	2840.884277
801.508936	2841.832014
801.829983	2850.091944
802.150984	2838.986282
802.471940	2822.763849
802.792851	2823.940959
803.113717	2823.787203
803.434538	2827.565548
803.755314	2819.897953
804.076045	2816.522901
804.396731	2815.865030
804.717372	2818.468786
805.037967	2809.692137
805.358518	2816.250678
805.679024	2830.728872
805.999485	2823.852738
806.319901	2827.310970
806.640272	2819.766883
806.960598	2824.525732
807.280879	2835.134841
807.601115	2842.457117
807.921306	2827.802482
808.241453	2823.764518
808.561554	2832.087463
808.881611	2833.486383
809.201623	2825.332317
809.521590	2827.631083
809.841513	2824.087152
810.161390	2823.933397
810.481223	2822.090855
810.801011	2813.069710
811.120755	2808.154585
811.440453	2809.737508
811.760107	2807.622744
812.079716	2809.233392
812.399281	2797.111938
812.718801	2792.259827
813.038276	2787.253962
813.357707	2791.523819
813.677093	2800.923050
813.996434	2794.722431
814.315731	2791.760753
814.634983	2786.039043
814.954191	2786.754887
815.273354	2803.877166
815.592473	2809.792960
815.911547	2809.402271
816.230577	2817.354691
816.549562	2827.467246
816.868502	2823.129333
817.187399	2835.727176
817.506250	2851.952130
817.825058	2843.278825
818.143821	2857.149560
818.462539	2875.829555
818.781213	2898.328225
819.099843	2936.456992
819.418429	2992.219715
819.736970	3053.172306
820.055466	3120.600260
820.373919	3229.385839
820.692327	3366.928681
821.010691	3530.004966
821.329011	3966.082418
821.647286	4853.368345
821.965517	6208.919491
822.283704	6929.043276
822.601847	6905.352374
822.919945	6280.977744
823.237999	5785.361744
823.556010	5214.418304
823.873976	4673.351262
824.191897	4272.738327
824.509775	3982.254440
824.827609	3718.899522
825.145398	3600.823096
825.463144	3589.500664
825.780845	3680.324612
826.098502	3782.700365
826.416116	4063.890885
826.733685	4371.839850
827.051210	4431.375877
827.368692	4313.004543
827.686129	4052.427301
828.003522	3735.835278
828.320872	3482.885301
828.638177	3291.848256
828.955439	3156.145435
829.272656	3075.706264
829.589830	3010.130935
829.906960	2958.925415
830.224046	2916.897315
830.541088	2883.373642
830.858086	2869.472660
831.175041	2853.484641
831.491952	2855.168386
831.808819	2865.885879
832.125642	2892.946793
832.442421	2935.657969
832.759157	3014.751152
833.075849	3187.483768
833.392497	3465.367292
833.709101	3665.911953
834.025662	3614.381279
834.342179	3457.470324
834.658653	3283.792492
834.975083	3137.137765
835.291469	3038.739483
835.607811	2962.817185
835.924110	2901.993144
836.240366	2851.367356
836.556578	2812.084165
836.872746	2789.835032
837.188871	2765.090529
837.504952	2750.083014
837.820990	2740.651015
838.136984	2730.692215
838.452935	2721.245093
838.768842	2719.599156
839.084706	2741.923906
839.400526	2814.811429
839.716303	2947.315637
840.032037	3022.320445
840.347727	3010.597242
840.663373	2950.058025
840.978977	2875.007847
841.294537	2804.512352
841.610054	2759.598192
841.925527	2736.955849
842.240957	2714.895760
842.556344	2696.205682
842.871687	2678.440656
843.186987	2669.706857
843.502244	2667.367761
843.817458	2660.466422
844.132629	2649.859834
844.447756	2639.462454
844.762840	2634.186887
845.077881	2637.428349
845.392879	2635.069089
845.707833	2631.830147
846.022745	2624.959055
846.337613	2628.555918
846.652438	2625.526184
846.967221	2627.421658
847.281960	2623.000566
847.596656	2621.798251
847.911309	2620.588374
848.225919	2621.785648
848.540485	2615.365739
848.855009	2615.012858
849.169490	2615.295163
849.483928	2614.307097
849.798323	2613.291304
850.112675	2612.562857
850.426984	2614.859103
850.741251	2609.540686
851.055474	2612.124277
851.369654	2616.794906
851.683792	2617.200719
851.997887	2613.676952
852.311938	2610.800974
852.625947	2615.741305
852.939914	2617.349433
853.253837	2615.224587
853.567718	2613.165275
853.881555	2612.555296
854.195350	2616.036212
854.509103	2614.400358
854.822812	2611.904987
855.136479	2610.964812
855.450103	2612.678804
855.763685	2613.646705
856.077224	2610.821139
856.390720	2611.847013
856.704173	2610.453134
857.017584	2615.148969
857.330953	2617.188116
857.644278	2619.438991
857.957561	2621.223560
858.270802	2614.755759
858.584000	2616.321037
858.897155	2621.405041
859.210268	2623.492079
859.523339	2617.409927
859.836367	2612.696448
860.149352	2612.091509
860.462295	2615.758949
860.775195	2612.381376
861.088054	2609.215531
861.400869	2610.238885
861.713642	2606.911724
862.026373	2607.975407
862.339062	2610.004472
862.651708	2617.404886
862.964312	2616.447066
863.276873	2614.276850
863.589392	2617.677108
863.901869	2621.135339
864.214303	2624.633900
864.526696	2629.039869
864.839045	2629.279323
865.151353	2629.322173
865.463619	2633.592031
865.775842	2631.240332
866.088023	2633.408028
866.400162	2633.413070
866.712258	2633.612195
867.024313	2628.162708
867.336325	2627.623304
867.648296	2630.910137
867.960224	2634.398615
868.272110	2631.936012
868.583954	2625.533746
868.895755	2628.195475
869.207515	2630.456433
869.519233	2639.273411
869.830909	2635.916002
870.142542	2629.100362
870.454134	2633.503810
870.765684	2639.613689
871.077191	2636.692340
871.388657	2644.448155
871.700081	2642.650984
872.011463	2642.371200
872.322803	2645.748773
872.634101	2646.530152
872.945357	2652.410658
873.256571	2659.800989
873.567744	2656.856956
873.878874	2654.734630
874.189963	2657.910557
874.501010	2659.843839
874.812015	2666.654438
875.122979	2666.848522
875.433900	2658.167656
875.744780	2652.561892
876.055618	2662.855929
876.366415	2665.507576
876.677169	2666.228461
876.987882	2660.942811
877.298554	2658.147491
877.609183	2667.080416
877.919771	2677.513083
878.230317	2680.336130
878.540822	2691.877851
878.851285	2706.451827
879.161707	2731.201372
879.472087	2767.051537
879.782425	2811.660708
880.092722	2924.774118
880.402977	3109.749176
880.713191	3360.362578
881.023363	3642.793222
881.333494	3824.882219
881.643583	3994.380935
881.953631	3993.929752
882.263637	3818.202691
882.573602	3602.637911
882.883526	3475.351297
883.193408	3366.270810
883.503248	3269.596603
883.813048	3156.924294
884.122806	3045.744166
884.432522	2965.826754
884.742197	2902.277969
885.051831	2866.629449
885.361424	2830.224757
885.670975	2796.451547
885.980485	2765.919798
886.289954	2749.561254
886.599382	2734.851167
886.908768	2727.584344
887.218113	2705.975438
887.527417	2692.921370
887.836680	2686.549352
888.145901	2684.338806
888.455082	2674.838751
888.764221	2663.806186
889.073319	2655.846204
889.382376	2655.720175
889.691392	2657.232522
890.000366	2655.768066
890.309300	2652.879485
890.618193	2656.534322
890.927044	2656.899805
891.235855	2658.336534
891.544625	2657.204795
891.853353	2657.532470
892.162041	2667.672751
892.470687	2686.695545
892.779293	2697.246680
893.087858	2703.202803
893.396381	2727.130640
893.704864	2767.086826
894.013306	2835.386898
894.321707	2926.513316
894.630068	2976.120790
894.938387	2994.606702
895.246665	2985.583036
895.554903	2942.524021
895.863100	2903.054307
896.171256	2846.106912
896.479371	2785.282870
896.787446	2745.727457
897.095480	2731.743296
897.403473	2726.440002
897.711425	2712.385265
898.019336	2691.373736
898.327207	2678.949812
898.635038	2675.121056
898.942827	2678.233968
899.250576	2668.877587
899.558284	2655.246307
899.865952	2652.690442
900.173579	2649.358239
900.481165	2646.625934
900.788711	2641.080665
901.096216	2632.364510
901.403681	2628.394601
901.711105	2632.036835
902.018489	2626.095835
902.325832	2633.158491
902.633135	2634.864922
902.940397	2648.231541
903.247619	2684.522808
903.554800	2750.864392
903.861941	2873.044318
904.169041	2993.248111
904.476101	3052.050650
904.783121	3047.826163
905.090100	2990.188130
905.397039	2918.243303
905.703938	2850.250741
906.010796	2790.177831
906.317614	2738.362331
906.624391	2706.398895
906.931129	2678.954853
907.237826	2655.074908
907.544483	2640.082516
907.851099	2625.311935
908.157675	2616.754577
908.464211	2611.625203
908.770707	2596.776484
909.077163	2597.509972
909.383578	2588.940010
909.689954	2588.934969
909.996289	2590.190217
910.302584	2589.285329
910.608839	2586.134608
910.915054	2587.820874
911.221229	2590.883375
911.527363	2591.062336
911.833458	2588.985381
912.139513	2589.116451
912.445527	2592.496544
912.751502	2597.774632
913.057436	2601.792432
913.363331	2610.261571
913.669186	2619.030658
913.975000	2632.704787
914.280775	2647.382107
914.586510	2666.281393
914.892205	2699.268183
915.197859	2764.457864
915.503475	2844.680266
915.809050	2908.697878
916.114585	2922.165321
916.420081	2930.662186
916.725536	2944.316151
917.030952	2917.640885
917.336328	2874.917106
917.641665	2826.973213
917.946961	2779.304062
918.252218	2746.700399
918.557435	2720.720813
918.862612	2700.720035
919.167750	2684.336285
919.472848	2668.023111
919.777906	2652.980308
920.082925	2640.909265
920.387904	2631.333594
920.692843	2625.811010
920.997743	2622.809002
921.302603	2616.016048
921.607423	2610.294338
921.912204	2603.387957
922.216946	2601.963831
922.521647	2600.171701
922.826310	2597.252873
923.130932	2590.885896
923.435516	2586.099320
923.740059	2584.894484
924.044564	2583.480441
924.349028	2579.795357
924.653454	2574.237485
924.957840	2571.381672
925.262186	2572.142886
925.566493	2569.760941
925.870761	2566.133830
926.174989	2566.781619
926.479178	2563.840105
926.783328	2567.376475
927.087438	2563.255332
927.391509	2560.908674
927.695541	2558.856925
927.999533	2560.202913
928.303486	2556.419527
928.607400	2559.537481
928.911275	2557.904147
929.215110	2559.212326
929.518906	2558.632593
929.822663	2558.075546
930.126381	2558.473797
930.430060	2557.551266
930.733699	2554.745864
931.037299	2557.647048
931.340861	2558.652758
931.644383	2560.311298
931.947866	2557.861297
932.251309	2559.509754
932.554714	2559.590413
932.858080	2562.612584
933.161407	2557.178221
933.464694	2557.384908
933.767943	2556.956410
934.071153	2557.894064
934.374323	2556.177552
934.677455	2556.220401
934.980548	2553.175544
935.283602	2555.865000
935.586617	2556.263251
935.889593	2556.752243
936.192530	2557.248797
936.495428	2553.919115
936.798287	2557.279044
937.101108	2559.411452
937.403890	2557.878941
937.706632	2563.905640
938.009336	2566.665672
938.312002	2567.605847
938.614628	2572.805797
938.917216	2577.224369
939.219765	2574.547516
939.522275	2579.137487
939.824747	2577.282342
940.127179	2574.287897
940.429573	2568.362020
940.731929	2569.198852
941.034246	2565.249108
941.336524	2568.251115
941.638763	2567.656259
941.940964	2568.543502
942.243126	2565.007132
942.545250	2563.570404
942.847335	2563.338511
943.149381	2563.910682
943.451389	2562.456309
943.753359	2559.025803
944.055290	2558.221739
944.357182	2558.413303
944.659036	2559.096380
944.960851	2557.374826
945.262628	2556.905998
945.564367	2559.517316
945.866067	2559.101421
946.167729	2560.230639
946.469352	2559.960937
946.770937	2561.579148
947.072484	2557.016904
947.373992	2555.277706
947.675462	2557.337017
947.976893	2557.483210
948.278286	2557.024465
948.579641	2557.344579
948.880958	2553.719989
949.182236	2560.666699
949.483476	2554.062787
949.784678	2554.531615
950.085841	2555.441543
950.386967	2554.808878
950.688054	2554.788714
950.989103	2555.103786
951.290114	2557.639486
951.591087	2558.960268
951.892021	2558.587223
952.192917	2560.142419
952.493776	2560.389436
952.794596	2562.662996
953.095378	2559.328273
953.396122	2562.673078
953.696828	2559.638304
953.997496	2557.594116
954.298126	2560.006308
954.598718	2558.226781
954.899272	2555.650751
955.199788	2554.027499
955.500266	2554.077911
955.800706	2552.973898
956.101108	2545.878474
956.401472	2547.012734
956.701798	2545.104657
957.002087	2546.276725
957.302337	2547.703372
957.602550	2546.957281
957.902724	2546.133052
958.202861	2546.556509
958.502960	2546.513660
958.803022	2545.507949
959.103045	2546.501057
959.403031	2543.108360
959.702979	2544.015768
960.002889	2542.158103
960.302762	2543.625078
960.602596	2545.686910
960.902393	2542.531148
961.202153	2541.648946
961.501875	2541.898483
961.801559	2540.635674
962.101205	2540.499563
962.400814	2542.203473
962.700385	2541.827907
962.999918	2541.071734
963.299414	2540.605427
963.598873	2541.477547
963.898293	2541.880839
964.197677	2540.885211
964.497022	2544.056097
964.796331	2539.604758
965.095601	2540.287835
965.394835	2540.146682
965.694030	2537.777340
965.993189	2543.798998
966.292309	2540.030736
966.591393	2538.843544
966.890439	2537.643749
967.189447	2540.492001
967.488419	2540.081147
967.787353	2539.955118
968.086249	2538.898997
968.385108	2544.426622
968.683930	2539.219110
968.982714	2543.057949
969.281462	2541.172557
969.580172	2540.174409
969.878844	2539.808925
970.177480	2542.851261
970.476078	2541.596014
970.774639	2542.150541
971.073162	2542.034594
971.371649	2537.946219
971.670098	2538.294058
971.968510	2541.908566
972.266885	2538.299099
972.565223	2541.636343
972.863524	2540.262629
973.161788	2544.192208
973.460014	2540.197094
973.758204	2544.308155
974.056356	2541.187681
974.354471	2541.086858
974.652550	2543.297403
974.950591	2542.752959
975.248595	2541.326312
975.546563	2540.923020
975.844493	2539.564429
976.142386	2542.589121
976.440243	2541.051569
976.738062	2540.378575
977.035845	2544.295552
977.333590	2540.154244
977.631299	2540.978473
977.928971	2537.948739
978.226606	2539.052752
978.524204	2541.235572
978.821765	2539.894625
979.119290	2541.835469
979.416777	2540.058462
979.714228	2542.173226
980.011642	2540.910417
980.309020	2542.795809
980.606360	2539.123328
980.903664	2539.766075
981.200931	2539.710622
981.498162	2542.120294
981.795356	2544.903011
982.092513	2546.382590
982.389633	2549.374514
982.686717	2551.043136
982.983764	2552.908363
983.280775	2553.770401
983.577749	2555.796944
983.874686	2553.530946
984.171587	2553.445246
984.468451	2550.823846
984.765279	2547.242106
985.062070	2546.029709
985.358824	2543.292362
985.655543	2543.756148
985.952224	2540.713812
986.248869	2544.960984
986.545478	2536.726259
986.842050	2536.023018
987.138586	2536.874973
987.435086	2532.887421
987.731549	2534.445137
988.027975	2541.217928
988.324366	2536.844727
988.620719	2538.974614
988.917037	2539.824048
989.213318	2538.120138
989.509563	2538.152906
989.805772	2538.578883
990.101944	2535.065199
990.398080	2538.611651
990.694180	2538.616692
990.990244	2537.230375
991.286271	2537.396733
991.582262	2538.765406
991.878217	2537.973945
992.174136	2537.784902
992.470019	2537.300951
992.765865	2535.287010
993.061676	2536.902700
993.357450	2537.305992
993.653188	2538.846065
993.948890	2540.305479
994.244556	2535.569315
994.540186	2538.021836
994.835780	2537.933616
995.131337	2539.942516
995.426859	2539.781199
995.722345	2540.676003
996.017795	2539.173740
996.313208	2539.607279
996.608586	2542.813453
996.903928	2540.902855
997.199234	2542.982331
997.494504	2539.070396
997.789738	2542.021992
998.084936	2540.834800
998.380099	2540.139121
998.675225	2538.059645
998.970316	2541.580891
999.265371	2537.787422
999.560390	2538.004192
999.855373	2538.246167
1000.150320	2535.856660
1000.445232	2539.123328
1000.740108	2534.543440
1001.034948	2534.916485
1001.329752	2537.245498
1001.624521	2539.624923
1001.919254	2532.055630
1002.213951	2537.454706
1002.508613	2533.338604
1002.803239	2535.244160
1003.097829	2534.913965
1003.392384	2536.244829
1003.686903	2537.079140
1003.981386	2537.603420
1004.275834	2534.646783
1004.570246	2538.155427
1004.864623	2537.127031
1005.158964	2534.213244
1005.453270	2538.800694
1005.747540	2538.278935
1006.041775	2534.994623
1006.335974	2535.410518
1006.630138	2533.966228
1006.924266	2536.990920
1007.218359	2535.425642
1007.512416	2534.266176
1007.806438	2538.379758
1008.100425	2533.552853
1008.394376	2533.625950
1008.688292	2533.948584
1008.982172	2537.989068
1009.276017	2535.118131
1009.569827	2536.073430
1009.863602	2537.139634
1010.157341	2535.665097
1010.451045	2535.541588
1010.744714	2535.281969
1011.038347	2535.657535
1011.331945	2533.474715
1011.625508	2535.513862
1011.919036	2533.724252
1012.212528	2534.523275
1012.505986	2534.621578
1012.799408	2536.136444
1013.092795	2534.059489
1013.386147	2536.592669
1013.679464	2534.082174
1013.972745	2535.985210
1014.265992	2533.928419
1014.559204	2538.576363
1014.852380	2530.800383
1015.145521	2535.292051
1015.438628	2534.021680
1015.731699	2535.024870
1016.024736	2536.121321
1016.317737	2536.025539
1016.610703	2535.410518
1016.903635	2534.573687
1017.196531	2530.394570
1017.489393	2532.869777
1017.782219	2529.474560
1018.075011	2531.249046
1018.367768	2532.859694
1018.660490	2533.981351
1018.953177	2533.981351
1019.245829	2533.981351
