Dividing Wavelength (nm)	Counts (n)	Blue Motor Position (mm): 26.100000	Red Motor Position (mm): 0.000000	
326.493990	2133.907820
326.888308	2133.907820
327.282561	2133.907820
327.676750	2101.039497
328.070874	2097.881214
328.464933	2098.236616
328.858929	2107.771958
329.252859	2117.713113
329.646726	2131.709877
330.040528	2140.635240
330.434265	2158.513692
330.827938	2176.994562
331.221547	2194.615915
331.615091	2213.106868
332.008571	2232.220403
332.401986	2252.450553
332.795338	2271.828748
333.188625	2290.556635
333.581847	2309.786116
333.975006	2327.165494
334.368100	2345.338854
334.761129	2362.181349
335.154095	2379.621220
335.546996	2401.441855
335.939833	2427.287851
336.332606	2439.772268
336.725315	2455.069649
337.117960	2459.364712
337.510540	2469.815024
337.903056	2479.133597
338.295508	2490.612305
338.687896	2495.361072
339.080220	2506.464213
339.472480	2510.363545
339.864676	2515.571057
340.256807	2520.231604
340.648875	2523.425175
341.040879	2526.452388
341.432818	2525.736544
341.824694	2525.315608
342.216506	2529.164529
342.608253	2529.711494
342.999937	2528.612522
343.391557	2528.494055
343.783113	2528.292409
344.174605	2524.493900
344.566033	2524.388035
344.957397	2523.984743
345.348697	2523.783097
345.739934	2523.747809
346.131106	2520.256810
346.522215	2516.279339
346.913260	2513.965450
347.304241	2512.543844
347.695159	2509.892197
348.086012	2512.006962
348.476802	2506.880108
348.867528	2504.551095
349.258191	2503.875580
349.648789	2503.978924
350.039324	2502.091012
350.429796	2503.739469
350.820203	2502.428769
351.210548	2499.073881
351.600828	2497.311998
351.991045	2499.434324
352.381198	2494.647748
352.771288	2498.889879
353.161314	2496.921309
353.551276	2497.556494
353.941175	2496.702018
354.331010	2495.265290
354.720782	2493.558859
355.110490	2496.155053
355.500135	2494.703201
355.889717	2494.977944
356.279235	2496.238232
356.668689	2497.974910
357.058080	2498.015239
357.447408	2494.672954
357.836672	2492.719507
358.225873	2493.488283
358.615010	2494.725886
359.004084	2496.132368
359.393095	2500.056906
359.782043	2497.309477
360.170927	2499.751917
360.559748	2503.013543
360.948505	2502.035559
361.337199	2503.875580
361.725830	2502.935405
362.114398	2503.043790
362.502903	2501.803666
362.891344	2503.837772
363.279722	2503.754593
363.668037	2506.388596
364.056289	2503.207628
364.444478	2506.509583
364.832603	2504.432628
365.220665	2505.357680
365.608665	2506.136538
365.996601	2507.205262
366.384474	2505.834069
366.772284	2508.679800
367.160031	2508.798267
367.547715	2506.875067
367.935336	2509.032681
368.322893	2511.278515
368.710388	2507.666528
369.097820	2512.004441
369.485189	2510.310613
369.872495	2509.597290
370.259738	2511.036539
370.646918	2510.292969
371.034035	2509.088133
371.421090	2510.217352
371.808081	2510.983607
372.195010	2509.932527
372.581875	2509.763648
372.968678	2512.427898
373.355418	2513.605007
373.742096	2510.411436
374.128710	2513.277332
374.515262	2514.003258
374.901751	2510.784482
375.288177	2512.987466
375.674540	2513.040398
376.060841	2512.589215
376.447079	2515.016530
376.833254	2514.431757
377.219367	2507.288442
377.605417	2511.258350
377.991404	2511.956550
378.377329	2512.329595
378.763191	2511.376817
379.148991	2516.128105
379.534727	2516.423012
379.920402	2517.337982
380.306013	2515.676922
380.691563	2519.419978
381.077049	2516.029802
381.462474	2518.381501
381.847835	2515.714730
382.233134	2518.462159
382.618371	2519.031809
383.003545	2516.750687
383.388657	2519.659433
383.773706	2519.626666
384.158693	2519.946779
384.543618	2518.520132
384.928480	2519.293949
385.313280	2518.908301
385.698017	2518.139525
386.082692	2522.515247
386.467305	2520.087931
386.851856	2520.526512
387.236344	2520.201357
387.620770	2521.290246
388.005133	2522.195133
388.389435	2520.241686
388.773674	2520.448374
389.157851	2519.787982
389.541965	2520.408044
389.926018	2522.041378
390.310008	2522.764784
390.693936	2524.319980
391.077802	2521.086080
391.461606	2523.180679
391.845348	2522.611029
392.229027	2523.677233
392.612645	2524.519105
392.996200	2522.588343
393.379694	2522.588343
393.763125	2524.125895
394.146494	2523.639424
394.529801	2523.122706
394.913047	2526.429703
395.296230	2527.173273
395.679351	2523.818385
396.062410	2525.267717
396.445408	2523.228570
396.828343	2526.631349
397.211217	2522.079187
397.594028	2523.417613
397.976778	2522.043899
398.359466	2522.810154
398.742092	2521.799403
399.124656	2524.488858
399.507158	2528.010104
399.889598	2529.517409
400.271977	2527.291740
400.654294	2528.133613
401.036549	2525.519774
401.418742	2528.786442
401.800874	2526.923736
402.182944	2527.937008
402.564952	2527.833664
402.946898	2526.318797
403.328783	2529.766947
403.710606	2527.911802
404.092367	2527.896678
404.474067	2530.944056
404.855705	2529.290557
405.237282	2528.098325
405.618797	2528.620084
406.000250	2528.337779
406.381642	2528.819210
406.762972	2530.462626
407.144240	2529.338448
407.525447	2531.985054
407.906593	2530.046731
408.287677	2533.431865
408.668700	2532.282482
409.049661	2531.967410
409.430560	2529.217461
409.811399	2532.713501
410.192176	2534.314067
410.572891	2531.533871
410.953545	2532.383305
411.334138	2536.688451
411.714669	2533.946063
412.095139	2535.430683
412.475547	2531.647297
412.855894	2534.482946
413.236180	2536.398584
413.616405	2535.302133
413.996568	2536.169212
414.376670	2534.072092
414.756711	2533.058820
415.136691	2534.694674
415.516609	2535.234078
415.896466	2532.963038
416.276262	2534.482946
416.655997	2531.753161
417.035670	2532.378264
417.415283	2533.537730
417.794834	2531.304498
418.174324	2537.663914
418.553753	2535.143337
418.933121	2539.186342
419.312428	2535.319777
419.691674	2536.053265
420.070859	2537.341280
420.449983	2535.365148
420.829045	2536.401105
421.208047	2536.882535
421.586988	2539.521579
421.965867	2539.440921
422.344686	2539.937474
422.723444	2536.721218
423.102141	2538.714995
423.480777	2540.421425
423.859352	2540.416384
424.237866	2539.889583
424.616319	2540.686086
424.994712	2540.612989
425.373044	2539.269522
425.751314	2539.856816
426.129524	2539.899666
426.507673	2539.897145
426.885762	2542.533669
427.263789	2541.510314
427.641756	2540.187012
428.019662	2540.774306
428.397508	2541.492670
428.775292	2542.395037
429.153016	2545.253371
429.530679	2543.806560
429.908282	2541.298586
430.285824	2544.456869
430.663305	2541.976621
431.040726	2543.390665
431.418086	2542.919317
431.795385	2546.513660
432.172624	2542.405119
432.549802	2543.766231
432.926920	2544.923176
433.303977	2547.380738
433.680974	2542.011909
434.057910	2544.444266
434.434786	2544.822353
434.811601	2547.836962
435.188355	2547.849565
435.565050	2547.534493
435.941683	2549.702189
436.318257	2547.713454
436.694770	2543.052907
437.071222	2547.007693
437.447614	2544.887887
437.823946	2543.851930
438.200218	2549.984494
438.576429	2552.356357
438.952580	2551.907694
439.328670	2551.580019
439.704700	2551.141439
440.080670	2552.810061
440.456580	2552.414330
440.832429	2552.583209
441.208218	2551.915256
441.583947	2556.384239
441.959616	2556.449774
442.335224	2558.713252
442.710773	2561.196020
443.086261	2562.022769
443.461689	2563.787173
443.837057	2566.769016
444.212365	2566.920250
444.587612	2569.067782
444.962800	2572.894018
445.337927	2578.577919
445.712995	2576.017012
446.088002	2584.728126
446.462949	2587.263827
446.837837	2591.841194
447.212664	2596.698346
447.587431	2605.346446
447.962139	2621.773045
448.336786	2645.905049
448.711374	2646.699031
449.085901	2636.765437
449.460369	2641.158802
449.834776	2648.448311
450.209124	2669.149809
450.583412	2687.542459
450.957640	2697.690302
451.331808	2703.099460
451.705917	2700.215920
452.079965	2708.770758
452.453954	2728.844632
452.827883	2737.107084
453.201752	2751.280288
453.575562	2757.604415
453.949311	2785.759259
454.323001	2791.208747
454.696632	2807.252219
455.070202	2840.186077
455.443713	2864.693646
455.817164	2893.254303
456.190556	2919.183478
456.563888	2949.710185
456.937160	2969.516879
457.310373	2966.648462
457.683526	2989.043788
458.056619	3009.316788
458.429653	3030.625746
458.802628	3048.592418
459.175542	3085.826380
459.548398	3159.701969
459.921194	3217.370249
460.293930	3256.116557
460.666607	3375.642315
461.039224	3471.434320
461.411782	3528.704349
461.784280	3566.767581
462.156719	3586.312134
462.529099	3608.788119
462.901419	3572.562387
463.273680	3591.769183
463.645882	3632.519350
464.018024	3662.362981
464.390106	3734.842171
464.762130	3872.747975
465.134094	4052.326478
465.505999	4393.670567
465.877845	4794.074293
466.249631	5027.381414
466.621358	4991.211135
466.993026	4891.439139
467.364634	4876.696284
467.736184	4839.873176
468.107674	4812.366120
468.479105	4913.053086
468.850477	4889.997369
469.221790	4884.449579
469.593043	4840.316797
469.964238	4866.921487
470.335373	4934.785500
470.706449	5027.048698
471.077467	5087.998768
471.448425	5702.011307
471.819324	6242.992649
472.190164	6326.302758
472.560945	5875.212750
472.931667	5606.340289
473.302330	5605.737871
473.672934	5509.774467
474.043479	5757.728660
474.413965	5794.786182
474.784393	5811.243028
475.154761	5959.994875
475.525070	6076.410241
475.895321	6057.941974
476.265513	6218.255707
476.635645	6382.438527
477.005719	6469.186702
477.375734	6601.779130
477.745691	6812.955586
478.115588	6970.587425
478.485427	7201.434463
478.855207	7611.207174
479.224928	8218.338537
479.594591	8696.053399
479.964194	8677.169237
480.333739	8728.601609
480.703226	8795.152401
481.072653	8924.954551
481.442022	9178.360752
481.811333	9382.353563
482.180584	9337.116769
482.549777	9219.867092
482.918912	9166.877004
483.287988	9255.694573
483.657005	9341.752110
484.025964	9180.072224
484.394864	9364.293629
484.763706	9413.583511
485.132489	9277.116956
485.501213	9325.572527
485.869879	9432.258466
486.238487	9386.933451
486.607036	9524.695583
486.975527	9411.062934
487.343959	9623.865162
487.712333	9719.039626
488.080648	9714.253050
488.448905	9807.824427
488.817104	9803.234457
489.185244	10089.584598
489.553326	10272.250807
489.921350	10781.876173
490.289315	11734.306411
490.657222	12070.616907
491.025070	12054.586038
491.392861	11990.749907
491.760593	11723.591438
492.128267	11473.829991
492.495883	11218.208203
492.863440	10942.872983
493.230939	10675.971613
493.598380	10647.602520
493.965763	10564.955323
494.333088	10493.252472
494.700354	10454.700247
495.067563	10537.314677
495.434713	10402.816692
495.801805	10544.735255
496.168839	10494.568213
496.535815	10458.380290
496.902733	10472.767743
497.269593	10430.870713
497.636395	10544.339525
498.003139	10558.674046
498.369825	10442.931674
498.736453	10604.147774
499.103023	10551.336646
499.469535	10597.533780
499.835989	10590.962636
500.202385	10572.519575
500.568723	10440.743813
500.935003	10658.128449
501.301226	10486.346091
501.667390	10743.664227
502.033497	10852.089364
502.399546	10724.482637
502.765537	10634.548452
503.131470	10715.521986
503.497345	10892.307689
503.863163	10516.804742
504.228923	10825.426701
504.594625	10898.969574
504.960269	10651.801801
505.325856	10874.522499
505.691385	10673.133444
506.056856	10833.086735
506.422270	10861.375169
506.787625	10753.118911
507.152924	10870.298012
507.518164	10857.848882
507.883347	10779.562284
508.248472	10703.645027
508.613540	10936.218660
508.978550	10822.069293
509.343503	10808.692591
509.708398	10922.151320
510.073236	11037.301356
510.438016	11047.025742
510.802738	10987.134314
511.167403	11048.396936
511.532010	10947.364651
511.896561	11177.359734
512.261053	11248.233316
512.625488	11123.873091
512.989866	11097.520460
513.354186	11094.929307
513.718449	10997.042702
514.082655	11195.293638
514.446803	11096.088772
514.810894	11207.858714
515.174927	11080.861967
515.538904	11102.362488
515.902822	11256.520972
516.266684	11147.768161
516.630488	11085.502349
516.994235	11146.701957
517.357925	11202.925945
517.721558	11296.209977
518.085133	11306.365381
518.448651	11320.417597
518.812112	11207.147912
519.175516	11216.451361
519.538863	11340.647748
519.902152	11256.198339
520.265385	11421.429718
520.628560	11329.012765
520.991678	11307.900412
521.354739	11367.043229
521.717743	11298.133177
522.080690	11282.354365
522.443580	11420.885273
522.806413	11375.086390
523.169189	11405.275340
523.531908	11460.602004
523.894569	11285.268152
524.257174	11286.120107
524.619722	11406.923797
524.982213	11357.606189
525.344647	11408.259703
525.707025	11356.401354
526.069345	11453.677979
526.431608	11365.606501
526.793815	11483.098153
527.155964	11270.255596
527.518057	11312.838223
527.880093	11271.389856
528.242072	11339.979795
528.603995	11248.755075
528.965860	11167.839515
529.327669	11219.891949
529.689421	11164.842549
530.051117	11140.897068
530.412755	11241.866338
530.774337	11132.097734
531.135862	11115.313212
531.497331	11140.645010
531.858743	10996.072280
532.220098	11154.649336
532.581396	11029.984122
532.942638	11011.994764
533.303824	10977.987140
533.664953	10991.358801
534.026025	10902.339586
534.387040	11006.477221
534.747999	11004.659885
535.108902	11061.360263
535.469748	10820.556947
535.830537	10927.663822
536.191270	10904.918136
536.551947	10926.302710
536.912567	10929.982753
537.273131	10847.345638
537.633638	10828.940386
537.994089	10823.410240
538.354483	10772.547518
538.714821	10914.307285
539.075103	10928.873699
539.435328	10883.382327
539.795497	10709.371778
540.155609	10865.536642
540.515665	10954.384458
540.875665	10694.220590
541.235609	10763.816240
541.595496	10753.406257
541.955328	10917.243757
542.315102	10800.044492
542.674821	10747.777809
543.034483	10745.247149
543.394090	10748.907027
543.753640	10686.467296
544.113134	10896.519573
544.472571	10756.418346
544.831953	10898.783052
545.191278	10702.770387
545.550548	10740.967210
545.909761	10871.296160
546.268918	10842.551501
546.628019	10928.147773
546.987064	10792.160127
547.346053	10712.709022
547.704986	10814.154681
548.063863	10798.327979
548.422684	10781.291399
548.781449	10707.947652
549.140158	10808.374998
549.498811	10689.345794
549.857408	10550.028467
550.215949	10776.981213
550.574434	10617.952974
550.932864	10726.418440
551.291237	10789.037132
551.649555	10733.952444
552.007817	10739.701880
552.366022	10703.912208
552.724173	10703.491272
553.082267	10691.100116
553.440305	10824.330250
553.798288	10622.918510
554.156215	10773.031469
554.514086	10756.206618
554.871902	10597.826167
555.229661	10639.009873
555.587365	10612.548857
555.945014	10508.867446
556.302606	10631.427978
556.660143	10528.928717
557.017625	10684.327326
557.375050	10582.964845
557.732421	10721.858716
558.089735	10629.961002
558.446994	10631.400252
558.804197	10670.529688
559.161345	10668.883751
559.518437	10514.936995
559.875474	10605.584503
560.232455	10630.145004
560.589381	10583.773951
560.946251	10582.037273
561.303065	10688.526607
561.659825	10619.145207
562.016528	10550.063755
562.373177	10438.316497
562.729770	10548.178363
563.086307	10461.803233
563.442789	10560.708151
563.799216	10441.013515
564.155587	10485.398354
564.511904	10433.446743
564.868164	10430.301063
565.224370	10447.758579
565.580520	10369.330828
565.936615	10370.422237
566.292654	10243.342311
566.648638	10384.187108
567.004567	10331.759108
567.360441	10319.274691
567.716260	10223.858251
568.072023	10320.978601
568.427732	10271.421538
568.783385	10182.097333
569.138982	10249.532848
569.494525	10266.206464
569.850013	10148.505604
570.205445	10228.322193
570.560823	10124.625658
570.916145	10041.428976
571.271412	10112.426066
571.626625	10053.139576
571.981782	10026.928097
572.336884	10008.467391
572.691931	10017.256643
573.046923	9962.345875
573.401860	9906.590713
573.756743	9850.550727
574.111570	9890.055729
574.466342	9874.576866
574.821059	9911.289069
575.175722	9794.853538
575.530330	9805.659252
575.884882	9802.879055
576.239380	9722.986849
576.593823	9707.628974
576.948211	9726.061953
577.302544	9597.260472
577.656823	9611.481567
578.011047	9620.112022
578.365216	9591.884082
578.719330	9518.376497
579.073389	9529.867807
579.427394	9470.631729
579.781344	9452.357546
580.135239	9400.441223
580.489080	9405.290813
580.842866	9310.567532
581.196597	9323.014141
581.550273	9353.699645
581.903895	9320.352412
582.257463	9392.433350
582.610975	9269.177139
582.964434	9295.277713
583.317837	9221.187875
583.671186	9202.026449
584.024481	9192.382722
584.377721	9116.457903
584.730906	9088.837422
585.084037	9119.139797
585.437113	9061.113596
585.790135	9075.281759
586.143103	8976.407088
586.496016	8953.674005
586.848874	9010.520576
587.201679	9000.871808
587.554428	8881.343529
587.907124	8931.250952
588.259765	8899.358092
588.612352	8908.245647
588.964884	8782.370556
589.317362	8794.020662
589.669786	8796.208523
590.022155	8841.147889
590.374470	8858.993574
590.726731	8793.284654
591.078937	8648.364084
591.431090	8762.969675
591.783188	8630.258780
592.135232	8628.892627
592.487222	8627.823902
592.839157	8677.796860
593.191038	8610.948640
593.542866	8558.775218
593.894639	8464.659396
594.246358	8511.985749
594.598022	8522.163838
594.949633	8426.606247
595.301190	8399.202534
595.652692	8432.184283
596.004141	8536.367289
596.355535	8317.225811
596.706876	8295.531205
597.058162	8229.590392
597.409395	8302.606465
597.760573	8368.327988
598.111698	8277.551930
598.462768	8266.347966
598.813785	8231.437975
599.164748	8198.252060
599.515657	8187.095986
599.866511	8102.976772
600.217312	8226.661482
600.568060	8089.579906
600.918753	8189.760236
601.269392	8156.465935
601.619978	8070.284890
601.970510	8132.953994
602.320988	8129.049620
602.671412	8183.307559
603.021783	8124.709187
603.372100	8096.062830
603.722363	8098.764888
604.072572	8073.395282
604.422728	8083.119667
604.772830	8019.218001
605.122878	8026.414248
605.472872	8012.296497
605.822813	8044.527114
606.172701	7990.518712
606.522534	8064.270793
606.872314	8060.101759
607.222041	8036.874643
607.571714	8091.482942
607.921333	8049.207826
608.270899	8053.933907
608.620411	8142.975808
608.969870	8049.278402
609.319276	8038.414715
609.668627	8057.641676
610.017926	8095.843540
610.367171	8137.148234
610.716362	8117.056715
611.065500	8106.082123
611.414585	8135.376268
611.763616	8124.873024
612.112594	8103.218748
612.461518	8118.609391
612.810389	8178.478134
613.159207	8117.583516
613.507971	8068.122235
613.856682	8185.636572
614.205340	8143.404306
614.553945	8222.739464
614.902496	8122.808672
615.250994	8173.474788
615.599439	8154.368815
615.947830	8175.511415
616.296169	8135.149416
616.644454	8152.715317
616.992686	8153.186665
617.340864	8205.982669
617.688990	8110.641847
618.037063	8201.475877
618.385082	8152.009555
618.733048	8238.218327
619.080961	8175.670211
619.428821	8193.823406
619.776628	8196.180145
620.124382	8140.823235
620.472083	8127.759085
620.819731	8159.508272
621.167326	8051.725882
621.514868	8065.019405
621.862357	7948.200747
622.209793	7967.362172
622.557176	7903.001761
622.904506	7872.412040
623.251783	7813.594377
623.599007	7762.290554
623.946179	7766.555371
624.293297	7725.285965
624.640363	7636.775906
624.987376	7624.357023
625.334336	7569.146307
625.681243	7521.194851
626.028097	7506.542738
626.374899	7481.611711
626.721647	7480.744633
627.068343	7411.078407
627.414987	7381.806947
627.761577	7336.328178
628.108115	7374.875361
628.454600	7267.334946
628.801032	7320.824109
629.147412	7279.942872
629.493739	7271.871985
629.840014	7204.675925
630.186236	7265.058865
630.532405	7144.565206
630.878521	7200.348094
631.224585	7156.026269
631.570597	7078.921821
631.916556	7113.277285
632.262462	7106.282684
632.608316	7065.875315
632.954117	7044.528549
633.299866	7033.138062
633.645562	7025.092381
633.991206	6948.514733
634.336797	6891.025415
634.682336	6849.405648
635.027823	6815.019938
635.373257	6800.725746
635.718639	6736.884574
636.063968	6749.840339
636.409245	6650.282592
636.754470	6642.231869
637.099642	6605.071004
637.444762	6547.203599
637.789829	6558.326905
638.134845	6497.157544
638.479808	6482.931408
638.824719	6484.882334
639.169577	6415.122848
639.514383	6434.201094
639.859137	6365.301124
640.203839	6371.035437
640.548489	6361.505135
640.893086	6337.020251
641.237632	6309.619059
641.582125	6329.309806
641.926566	6301.384334
642.270955	6312.308515
642.615292	6306.896836
642.959576	6322.310164
643.303809	6312.626107
643.647990	6322.940308
643.992118	6306.932124
644.336195	6255.673672
644.680219	6283.160563
645.024192	6269.635147
645.368112	6365.858172
645.711981	6389.523868
646.055797	6465.947761
646.399562	6424.320433
646.743274	6547.722838
647.086935	6601.292659
647.430544	6594.000630
647.774101	6619.793694
648.117606	6617.021059
648.461059	6615.334793
648.804460	6575.766777
649.147810	6481.172045
649.491108	6448.079391
649.834354	6430.755466
650.177548	6348.572055
650.520690	6261.294558
650.863781	6237.908646
651.206820	6258.479074
651.549807	6177.608884
651.892742	6123.461851
652.235626	6131.167254
652.578458	6117.735100
652.921238	6026.775040
653.263967	6066.479168
653.606644	6003.288305
653.949269	6008.652092
654.291843	5944.470642
654.634365	5993.372355
654.976836	5957.126459
655.319255	5948.019614
655.661622	5928.079330
656.003938	5927.061017
656.346203	5884.546446
656.688416	5915.466363
657.030577	5874.270054
657.372687	5840.390980
657.714746	5824.939843
658.056753	5869.133118
658.398708	5807.668850
658.740612	5799.577798
659.082465	5847.493966
659.424266	5840.683367
659.766016	5844.560014
660.107715	5817.486497
660.449362	5832.814126
660.790958	5823.939174
661.132503	5812.876362
661.473996	5851.267269
661.815438	5834.518036
662.156829	5834.737326
662.498168	5828.743394
662.839456	5802.922604
663.180693	5837.237738
663.521879	5841.568089
663.863013	5820.783412
664.204097	5846.659655
664.545129	5885.158947
664.886110	5882.446806
665.227040	5913.064254
665.567918	5875.958841
665.908746	5906.271299
666.249522	5915.466363
666.590248	5902.462707
666.930922	5926.970277
667.271545	5938.272543
667.612118	5942.287823
667.952639	5917.150109
668.293109	5942.197082
668.633528	5896.962808
668.973896	5894.215379
669.314213	5889.592641
669.654480	5868.676894
669.994695	5865.765628
670.334859	5853.714749
670.674973	5844.386094
671.015035	5852.688875
671.355047	5851.630232
671.695008	5837.580537
672.034918	5811.331248
672.374777	5822.366334
672.714585	5808.238501
673.054342	5805.186082
673.394049	5805.352440
673.733705	5834.265978
674.073310	5821.612682
674.412864	5783.166322
674.752368	5770.523108
675.091820	5775.221463
675.431223	5715.377926
675.770574	5715.335076
676.109875	5664.381614
676.449125	5670.856976
676.788324	5637.305577
677.127473	5582.230971
677.466571	5574.828036
677.805619	5565.474175
678.144616	5547.368871
678.483562	5525.331467
678.822458	5498.802395
679.161303	5495.034133
679.500098	5483.963759
679.838842	5465.437518
680.177535	5468.172344
680.516179	5486.958204
680.854771	5493.476416
681.193314	5576.126133
681.531805	5686.852557
681.870247	5836.466442
682.208638	5933.954795
682.546978	5951.059430
682.885268	5928.764927
683.223508	5839.357543
683.561697	5788.620850
683.899836	5758.225213
684.237925	5715.713163
684.575963	5676.203120
684.913951	5639.301873
685.251889	5702.286050
685.589776	5664.913456
685.927614	5640.110979
686.265401	5705.706472
686.603137	5694.026119
686.940824	5771.576709
687.278460	5792.217714
687.616046	5803.404034
687.953582	5864.253282
688.291068	5851.705850
688.628504	5913.003760
688.965889	5872.548500
689.303224	5820.032280
689.640510	5773.031082
689.977745	5694.673907
690.314930	5603.973467
690.652065	5543.202358
690.989150	5452.842196
691.326185	5375.510896
691.663170	5319.894366
692.000105	5247.644549
692.336990	5169.690666
692.673825	5144.994054
693.010610	5080.184980
693.347345	5009.669320
693.684030	4996.889995
694.020665	4955.928099
694.357251	4865.925859
694.693786	4874.941963
695.030272	4841.085573
695.366707	4805.318587
695.703093	4770.204430
696.039429	4792.357780
696.375716	4779.036531
696.711952	4749.366820
697.048139	4741.421962
697.384276	4721.945464
697.720363	4734.339141
698.056400	4741.605964
698.392388	4690.372717
698.728326	4672.285057
699.064214	4652.380062
699.400053	4643.994102
699.735842	4608.133854
700.071581	4583.061676
700.407270	4555.970515
700.742910	4541.540212
701.078501	4492.686390
701.414042	4487.814115
701.749533	4458.235145
702.084974	4389.073034
702.420366	4446.524544
702.755709	4391.049167
703.091002	4336.710569
703.426246	4383.726891
703.761440	4338.802648
704.096584	4301.432575
704.431679	4325.461235
704.766725	4307.867608
705.101721	4295.521822
705.436668	4324.021985
705.771565	4275.689923
706.106413	4298.559117
706.441212	4331.966844
706.775961	4342.147454
707.110661	4322.050894
707.445311	4352.005430
707.779913	4375.580386
708.114465	4384.276377
708.448967	4406.787649
708.783421	4472.128565
709.117825	4509.296992
709.452180	4515.666490
709.786485	4558.995207
710.120742	4646.630626
710.454949	4628.111947
710.789107	4696.948903
711.123216	4765.367443
711.457275	4759.580198
711.791286	4833.695242
712.125247	4848.483467
712.459159	4752.686420
712.793023	4830.118543
713.126837	4787.195639
713.460602	4783.266059
713.794318	4697.563923
714.127985	4706.511972
714.461602	4622.753200
714.795171	4591.019137
715.128691	4528.171072
715.462162	4468.229232
715.795584	4426.097789
716.128957	4401.507040
716.462281	4351.070296
716.795556	4329.191688
717.128782	4289.248106
717.461960	4224.050863
717.795088	4232.842636
718.128167	4191.737067
718.461198	4134.177173
718.794180	4131.291112
719.127113	4106.987709
719.459997	4088.146397
719.792833	4046.304820
720.125619	4034.216133
720.458357	4000.374867
720.791046	4008.221423
721.123686	3980.754696
721.456278	3932.357099
721.788821	3955.473310
722.121315	3928.646810
722.453761	3901.933735
722.786158	3916.323709
723.118506	3936.884055
723.450805	3884.975294
723.783056	3913.021753
724.115259	3928.994649
724.447412	3932.863735
724.779518	3926.138836
725.111574	3932.334414
725.443582	3960.375832
725.775542	3943.916465
726.107453	3992.919001
726.439315	3996.987212
726.771129	4008.125641
727.102895	4047.091240
727.434612	4092.018003
727.766281	4102.128037
728.097901	4105.669448
728.429473	4109.664562
728.760996	4114.703195
729.092471	4112.212865
729.423897	4098.047223
729.755276	4104.714149
730.086606	4102.717852
730.417887	4138.590703
730.749120	4206.742062
731.080305	4266.202471
731.411442	4296.847645
731.742530	4264.465794
732.073570	4268.198768
732.404562	4323.497705
732.735506	4313.057476
733.066401	4277.189666
733.397249	4211.763051
733.728048	4133.274806
734.058798	4052.150038
734.389501	3980.394254
734.720156	3921.180861
735.050762	3878.089078
735.381320	3872.407697
735.711831	3821.494564
736.042293	3791.045995
736.372707	3813.451403
736.703073	3787.355870
737.033391	3775.615023
737.363661	3792.886016
737.693883	3818.197649
738.024056	3828.211902
738.354182	3822.671673
738.684260	3886.396899
739.014290	3906.513624
739.344272	3901.933735
739.674207	3943.888738
740.004093	3948.882001
740.333931	3945.365796
740.663722	3947.649439
740.993464	3943.251032
741.323159	3918.894697
741.652806	3887.349677
741.982405	3859.278012
742.311956	3830.238445
742.641460	3819.278977
742.970915	3801.224084
743.300323	3750.873040
743.629683	3720.865572
743.958996	3713.283676
744.288260	3684.866692
744.617477	3653.558606
744.946647	3640.801966
745.275768	3615.593676
745.604842	3613.108387
745.933869	3562.263310
746.262847	3559.228535
746.591778	3598.153805
746.920662	3567.344793
747.249498	3534.632746
747.578286	3581.480188
747.907027	3596.369236
748.235720	3593.193309
748.564365	3618.600725
748.892963	3622.691621
749.221514	3602.849639
749.550017	3581.253336
749.878473	3576.996082
750.206881	3547.641443
750.535242	3545.083057
750.863555	3547.611196
751.191821	3541.881925
751.520039	3523.148997
751.848210	3499.521109
752.176334	3531.575286
752.504411	3539.099208
752.832440	3501.867766
753.160421	3482.431598
753.488356	3497.310563
753.816243	3501.744258
754.144082	3458.579378
754.471875	3448.290383
754.799620	3466.375523
755.127318	3458.798668
755.454969	3458.481076
755.782572	3464.485090
756.110129	3440.605144
756.437638	3429.549894
756.765100	3442.273766
757.092515	3456.162145
757.419882	3461.979636
757.747203	3434.195317
758.074477	3438.132458
758.401703	3450.606793
758.728882	3472.966831
759.056014	3479.679128
759.383099	3483.480158
759.710138	3478.996051
760.037129	3498.396932
760.364073	3528.265768
760.690970	3513.031401
761.017820	3490.608349
761.344623	3505.792304
761.671379	3552.884243
761.998088	3605.549177
762.324751	3731.953589
762.651366	3976.656238
762.977935	4447.517652
763.304456	4888.462337
763.630931	4976.334690
763.957359	4621.835710
764.283740	4278.719656
764.610074	4090.336778
764.936362	3895.448291
765.262602	3737.246801
765.588796	3623.692290
765.914943	3536.792880
766.241044	3450.107719
766.567097	3420.548913
766.893104	3378.354456
767.219064	3343.192408
767.544978	3317.618634
767.870845	3261.669388
768.196665	3243.927047
768.522438	3252.774272
768.848165	3247.498705
769.173846	3211.328426
769.499479	3196.560366
769.825066	3179.760721
770.150607	3163.631549
770.476101	3178.913807
770.801548	3175.390040
771.126949	3128.373719
771.452303	3111.072479
771.777611	3116.481637
772.102872	3121.248048
772.428087	3097.166456
772.753256	3086.118767
773.078378	3079.562747
773.403453	3046.974208
773.728482	3035.162784
774.053465	3052.227090
774.378401	3043.896583
774.703291	3013.823580
775.028135	3013.926924
775.352932	3011.308044
775.677683	2997.712052
776.002388	2995.443533
776.327046	2993.974037
776.651658	2984.358036
776.976224	2973.554843
777.300743	2974.489977
777.625216	2962.305508
777.949643	2958.496917
778.274024	2963.628811
778.598359	2949.294290
778.922647	2955.026082
779.246889	2957.592029
779.571086	2941.278856
779.895236	2933.497835
780.219339	2944.739608
780.543397	2957.476083
780.867409	2959.938687
781.191374	2953.054991
781.515294	2949.269084
781.839167	2950.436112
782.162995	2944.142231
782.486776	2950.625155
782.810511	2947.149279
783.134201	2934.488421
783.457844	2941.329267
783.781441	2929.464912
784.104993	2912.234248
784.428498	2911.967067
784.751958	2926.810744
785.075372	2920.743715
785.398739	2903.082033
785.722061	2920.905032
786.045337	2931.146136
786.368568	2918.392017
786.691752	2907.924061
787.014891	2956.815692
787.337983	2985.000783
787.661030	3014.065555
787.984031	3081.944692
788.306987	3126.742906
788.629897	3118.094806
788.952760	3103.011674
789.275579	3084.233376
789.598351	3029.526774
789.921078	2981.338385
790.243759	2976.846717
790.566395	2956.425002
790.888984	2934.324584
791.211529	2917.756832
791.534027	2908.329874
791.856480	2898.665982
792.178888	2883.051008
792.501249	2879.020606
792.823566	2870.289327
793.145836	2869.805376
793.468062	2867.710777
793.790241	2865.054089
794.112375	2868.053575
794.434464	2881.694938
794.756507	2889.871689
795.078505	2892.379663
795.400457	2907.495563
795.722364	2943.605348
796.044226	2966.053606
796.366042	2970.462095
796.687812	2959.132102
797.009538	2979.533652
797.331218	2962.802062
797.652852	2950.007613
797.974442	2931.188986
798.295986	2929.235539
798.617484	2924.365784
798.938938	2909.388516
799.260346	2894.839746
799.581709	2888.712224
799.903026	2881.321892
800.224299	2878.970194
800.545526	2868.030890
800.866708	2853.391379
801.187845	2841.665656
801.508936	2843.160358
801.829983	2851.190916
802.150984	2838.817404
802.471940	2825.591937
802.792851	2825.556648
803.113717	2822.710917
803.434538	2828.639314
803.755314	2822.063129
804.076045	2819.053560
804.396731	2818.869558
804.717372	2816.538024
805.037967	2810.750780
805.358518	2817.836121
805.679024	2833.009994
805.999485	2826.784169
806.319901	2831.858091
806.640272	2822.781493
806.960598	2830.348265
807.280879	2837.831858
807.601115	2841.685820
807.921306	2828.956907
808.241453	2827.003460
808.561554	2833.730879
808.881611	2836.165757
809.201623	2828.697287
809.521590	2828.909016
809.841513	2824.245948
810.161390	2829.443378
810.481223	2823.951041
810.801011	2812.474854
811.120755	2810.783547
811.440453	2812.842858
811.760107	2812.363949
812.079716	2809.238433
812.399281	2799.231743
812.718801	2793.174797
813.038276	2787.740433
813.357707	2795.428192
813.677093	2800.718883
813.996434	2794.997174
814.315731	2792.315280
814.634983	2788.781431
814.954191	2790.656740
815.273354	2803.204172
815.592473	2811.320430
815.911547	2812.459731
816.230577	2820.097079
816.549562	2828.155363
816.868502	2829.450940
817.187399	2840.170953
817.506250	2856.673171
817.825058	2849.068590
818.143821	2859.844056
818.462539	2877.619165
818.781213	2902.151940
819.099843	2937.568566
819.418429	2995.594768
819.736970	3058.243707
820.055466	3130.211219
820.373919	3236.302302
820.692327	3374.238354
821.010691	3537.188611
821.329011	3979.323009
821.647286	4873.273341
821.965517	6247.481797
822.283704	6989.090980
822.601847	6956.358768
822.919945	6321.959804
823.237999	5825.713660
823.556010	5245.766719
823.873976	4700.157597
824.191897	4293.369249
824.509775	4000.589116
824.827609	3732.770256
825.145398	3608.329374
825.463144	3601.027262
825.780845	3691.495809
826.098502	3795.847694
826.416116	4077.796908
826.733685	4388.599166
827.051210	4452.997386
827.368692	4340.088143
827.686129	4072.546546
828.003522	3749.746342
828.320872	3493.635562
828.638177	3298.832774
828.955439	3166.809996
829.272656	3083.141966
829.589830	3013.808457
829.906960	2966.905561
830.224046	2920.360588
830.541088	2890.075856
830.858086	2872.688916
831.175041	2855.551514
831.491952	2860.055785
831.808819	2868.154398
832.125642	2894.834705
832.442421	2936.441868
832.759157	3020.722399
833.075849	3195.151363
833.392497	3473.412973
833.709101	3673.153571
834.025662	3624.186323
834.342179	3464.724545
834.658653	3290.509829
834.975083	3143.391316
835.291469	3047.833724
835.607811	2965.108390
835.924110	2905.012795
836.240366	2855.301977
836.556578	2814.987869
836.872746	2790.250927
837.188871	2769.128493
837.504952	2751.242479
837.820990	2745.051942
838.136984	2730.717421
838.452935	2721.693756
838.768842	2718.827860
839.084706	2737.888462
839.400526	2817.841162
839.716303	2949.611883
840.032037	3028.190868
840.347727	3013.810977
840.663373	2952.094651
840.978977	2880.502705
841.294537	2807.738690
841.610054	2760.661875
841.925527	2737.023905
842.240957	2716.740822
842.556344	2694.829447
842.871687	2679.990811
843.186987	2668.862463
843.502244	2667.052689
843.817458	2661.028510
844.132629	2647.598877
844.447756	2641.161323
844.762840	2633.599592
845.077881	2636.364665
845.392879	2636.909110
845.707833	2629.546505
846.022745	2622.380504
846.337613	2626.685650
846.652438	2626.491565
846.967221	2624.795217
847.281960	2625.150618
847.596656	2621.755401
847.911309	2620.757253
848.225919	2620.119547
848.540485	2615.511932
848.855009	2615.665688
849.169490	2614.952364
849.483928	2616.767180
849.798323	2616.154679
850.112675	2613.054370
850.426984	2614.513784
850.741251	2611.068155
851.055474	2611.942795
851.369654	2617.578805
851.683792	2617.140225
851.997887	2615.242231
852.311938	2611.421036
852.625947	2615.895060
852.939914	2616.857920
853.253837	2618.980246
853.567718	2611.116046
853.881555	2612.346088
854.195350	2616.764659
854.509103	2612.767024
854.822812	2611.867178
855.136479	2611.161417
855.450103	2614.571757
855.763685	2616.242900
856.077224	2610.788371
856.390720	2609.911210
856.704173	2611.161417
857.017584	2616.764659
857.330953	2617.377159
857.644278	2619.615432
857.957561	2617.702314
858.270802	2617.246089
858.584000	2616.124432
858.897155	2622.158694
859.210268	2621.372274
859.523339	2615.073352
859.836367	2610.337188
860.149352	2609.339039
860.462295	2615.668208
860.775195	2607.829214
861.088054	2608.804677
861.400869	2609.384410
861.713642	2606.982300
862.026373	2607.821652
862.339062	2611.231993
862.651708	2616.258023
862.964312	2616.560492
863.276873	2616.149638
863.589392	2617.049484
863.901869	2621.226080
864.214303	2628.155146
864.526696	2627.756895
864.839045	2629.738068
865.151353	2635.172432
865.463619	2632.266207
865.775842	2632.939201
866.088023	2632.467853
866.400162	2633.844088
866.712258	2632.848460
867.024313	2631.578090
867.336325	2628.432410
867.648296	2630.169087
867.960224	2635.651342
868.272110	2632.735034
868.583954	2628.634056
868.895755	2628.906278
869.207515	2634.207051
869.519233	2640.828607
869.830909	2639.172588
870.142542	2631.484828
870.454134	2634.592700
870.765684	2638.764254
871.077191	2641.420942
871.388657	2643.122332
871.700081	2642.484626
872.011463	2642.149389
872.322803	2645.700882
872.634101	2646.499905
872.945357	2654.895947
873.256571	2659.077584
873.567744	2655.931904
873.878874	2655.954589
874.189963	2655.410144
874.501010	2661.333500
874.812015	2664.118738
875.122979	2665.270641
875.433900	2657.063643
875.744780	2654.792603
876.055618	2661.517502
876.366415	2667.047648
876.677169	2666.702329
876.987882	2658.896102
877.298554	2659.798469
877.609183	2670.052176
877.919771	2679.090965
878.230317	2683.144052
878.540822	2691.346010
878.851285	2706.688761
879.161707	2731.486197
879.472087	2769.698143
879.782425	2817.594146
880.092722	2929.840478
880.402977	3116.335443
880.713191	3373.716594
881.023363	3665.818692
881.333494	3851.121425
881.643583	4023.801109
881.953631	4022.533259
882.263637	3844.928368
882.573602	3624.776138
882.883526	3497.489524
883.193408	3383.564488
883.503248	3283.754683
883.813048	3172.141017
884.122806	3056.476783
884.432522	2969.010243
884.742197	2906.487332
885.051831	2872.983824
885.361424	2837.388237
885.670975	2801.240643
885.980485	2771.765016
886.289954	2753.899167
886.599382	2738.742938
886.908768	2728.529560
887.218113	2709.647919
887.527417	2698.824561
887.836680	2690.161338
888.145901	2681.835873
888.455082	2678.402847
888.764221	2663.647390
889.073319	2656.846873
889.382376	2658.086997
889.691392	2656.105824
890.000366	2657.517347
890.309300	2656.428457
890.618193	2658.147491
890.927044	2663.602019
891.235855	2660.882317
891.544625	2658.336534
891.853353	2660.741165
892.162041	2667.075374
892.470687	2689.836184
892.779293	2697.407997
893.087858	2708.231354
893.396381	2730.785477
893.704864	2769.758637
894.013306	2841.925275
894.321707	2934.004471
894.630068	2983.450628
894.938387	3002.491066
895.246665	2993.986640
895.554903	2951.225052
895.863100	2908.100502
896.171256	2850.434743
896.479371	2791.801082
896.787446	2751.456728
897.095480	2734.165570
897.403473	2728.847153
897.711425	2712.347457
898.019336	2692.129909
898.327207	2678.569205
898.635038	2679.506860
898.942827	2677.908814
899.250576	2667.972700
899.558284	2656.332676
899.865952	2651.495688
900.173579	2649.106182
900.481165	2648.365132
900.788711	2639.868267
901.096216	2634.038173
901.403681	2630.380816
901.711105	2632.757720
902.018489	2627.895527
902.325832	2632.735034
902.633135	2632.919037
902.940397	2650.769762
903.247619	2685.636903
903.554800	2754.723396
903.861941	2883.308107
904.169041	3003.912672
904.476101	3064.885427
904.783121	3058.520971
905.090100	3002.448216
905.397039	2926.523398
905.703938	2856.983202
906.010796	2793.852832
906.317614	2742.352404
906.624391	2704.173226
906.931129	2681.261181
907.237826	2659.846360
907.544483	2640.568987
907.851099	2626.909981
908.157675	2617.767849
908.464211	2610.710233
908.770707	2601.449634
909.077163	2595.538881
909.383578	2593.159456
909.689954	2594.094590
909.996289	2591.384970
910.302584	2589.807089
910.608839	2589.670978
910.915054	2586.638724
911.221229	2588.425813
911.527363	2591.649631
911.833458	2586.986563
912.139513	2590.853128
912.445527	2593.096442
912.751502	2598.117431
913.057436	2604.348297
913.363331	2608.789554
913.669186	2620.086779
913.975000	2633.566825
914.280775	2647.215749
914.586510	2665.205106
914.892205	2703.984182
915.197859	2770.789553
915.503475	2854.994466
915.809050	2918.739857
916.114585	2931.640169
916.420081	2942.213990
916.725536	2953.803602
917.030952	2929.797628
917.336328	2884.984291
917.641665	2836.483349
917.946961	2784.929990
918.252218	2750.108219
918.557435	2723.861452
918.862612	2703.351517
919.167750	2687.660926
919.472848	2672.708864
919.777906	2655.533653
920.082925	2642.739204
920.387904	2630.000208
920.692843	2628.629015
920.997743	2624.649024
921.302603	2617.588888
921.607423	2610.075048
921.912204	2603.977772
922.216946	2602.193204
922.521647	2601.883173
922.826310	2596.524426
923.130932	2592.506627
923.435516	2588.367839
923.740059	2585.237283
924.044564	2583.871130
924.349028	2583.558579
924.653454	2575.908628
924.957840	2572.324367
925.262186	2568.934191
925.566493	2574.449214
925.870761	2563.812379
926.174989	2567.399160
926.479178	2567.089129
926.783328	2562.549570
927.087438	2563.517472
927.391509	2562.665517
927.695541	2562.012687
927.999533	2559.751730
928.303486	2557.621842
928.607400	2556.230484
928.911275	2557.321893
929.215110	2554.231666
929.518906	2556.653941
929.822663	2556.301060
930.126381	2556.621173
930.430060	2558.768705
930.733699	2557.654610
931.037299	2557.372305
931.340861	2558.544373
931.644383	2557.011863
931.947866	2556.943807
932.251309	2557.384908
932.554714	2557.576472
932.858080	2558.161246
933.161407	2559.953376
933.464694	2554.229146
933.767943	2556.439692
934.071153	2555.650751
934.374323	2555.272664
934.677455	2552.678991
934.980548	2555.050854
935.283602	2554.720658
935.586617	2553.102448
935.889593	2553.004145
936.192530	2552.542880
936.495428	2557.687377
936.798287	2555.673436
937.101108	2556.517829
937.403890	2559.769374
937.706632	2563.204920
938.009336	2565.556618
938.312002	2570.491908
938.614628	2572.374779
938.917216	2574.229923
939.219765	2579.321489
939.522275	2576.904256
939.824747	2577.257136
940.127179	2570.020560
940.429573	2567.905796
940.731929	2567.830179
941.034246	2568.241033
941.336524	2568.271280
941.638763	2567.137020
941.940964	2570.194480
942.243126	2564.359344
942.545250	2562.650393
942.847335	2562.670558
943.149381	2560.374312
943.451389	2559.355999
943.753359	2557.843653
944.055290	2558.219219
944.357182	2557.216029
944.659036	2557.659651
944.960851	2556.338868
945.262628	2555.865000
945.564367	2554.602191
945.866067	2554.914743
946.167729	2556.356512
946.469352	2557.521019
946.770937	2554.428271
947.072484	2558.410783
947.373992	2556.933725
947.675462	2553.989691
947.976893	2554.435833
948.278286	2553.674619
948.579641	2550.523897
948.880958	2553.011707
949.182236	2553.591440
949.483476	2552.414330
949.784678	2553.089845
950.085841	2554.657644
950.386967	2554.027499
950.688054	2555.403734
950.989103	2555.938097
951.290114	2556.240566
951.591087	2556.943807
951.892021	2558.617470
952.192917	2560.908674
952.493776	2558.151163
952.794596	2560.490259
953.095378	2562.912533
953.396122	2563.514951
953.696828	2562.506720
953.997496	2558.433468
954.298126	2559.479507
954.598718	2556.361554
954.899272	2552.671429
955.199788	2554.461039
955.500266	2554.657644
955.800706	2547.721016
956.101108	2545.092054
956.401472	2547.721016
956.701798	2544.146838
957.002087	2545.424770
957.302337	2543.166333
957.602550	2546.039791
957.902724	2546.553989
958.202861	2545.356715
958.502960	2544.081303
958.803022	2543.146169
959.103045	2542.044677
959.403031	2545.276056
959.702979	2544.197249
960.002889	2544.900490
960.302762	2542.475695
960.602596	2542.952084
960.902393	2540.991076
961.202153	2540.726415
961.501875	2541.396888
961.801559	2543.778834
962.101205	2540.267670
962.400814	2539.163657
962.700385	2541.343956
962.999918	2540.817156
963.299414	2537.379089
963.598873	2540.711292
963.898293	2541.374203
964.197677	2538.571322
964.497022	2540.136600
964.796331	2539.831610
965.095601	2539.846734
965.394835	2540.897814
965.694030	2538.044521
965.993189	2539.723225
966.292309	2537.230375
966.591393	2537.890766
966.890439	2536.060827
967.189447	2540.484440
967.488419	2537.673996
967.787353	2539.798843
968.086249	2540.880170
968.385108	2539.314892
968.683930	2538.604089
968.982714	2539.319933
969.281462	2538.533513
969.580172	2536.905220
969.878844	2537.061496
970.177480	2536.544778
970.476078	2542.236241
970.774639	2542.069882
971.073162	2539.330015
971.371649	2538.568801
971.670098	2537.484953
971.968510	2536.572504
972.266885	2537.759696
972.565223	2541.253216
972.863524	2541.147351
973.161788	2537.124511
973.460014	2541.762372
973.758204	2541.646426
974.056356	2540.187012
974.354471	2540.643236
974.652550	2543.189019
974.950591	2542.034594
975.248595	2539.909748
975.546563	2540.486960
975.844493	2537.409336
976.142386	2540.015612
976.440243	2537.787422
976.738062	2538.082330
977.035845	2541.041487
977.333590	2539.569470
977.631299	2536.660724
977.928971	2536.307844
978.226606	2539.589635
978.524204	2537.434542
978.821765	2535.985210
979.119290	2537.673996
979.416777	2538.213400
979.714228	2535.055117
980.011642	2536.789274
980.309020	2539.541744
980.606360	2538.979655
980.903664	2537.822710
981.200931	2539.113246
981.498162	2537.714326
981.795356	2542.352187
982.092513	2544.305634
982.389633	2548.502395
982.686717	2551.605225
982.983764	2552.005997
983.280775	2553.513302
983.577749	2551.804351
983.874686	2550.660009
984.171587	2549.886192
984.468451	2547.158927
984.765279	2547.295038
985.062070	2546.183464
985.358824	2546.135573
985.655543	2538.820859
985.952224	2541.288504
986.248869	2540.209697
986.545478	2535.395395
986.842050	2535.919675
987.138586	2532.653007
987.435086	2533.996475
987.731549	2534.026722
988.027975	2540.237423
988.324366	2535.566794
988.620719	2536.703574
988.917037	2534.540919
989.213318	2538.541075
989.509563	2534.800539
989.805772	2535.498738
990.101944	2534.266176
990.398080	2537.167360
990.694180	2536.953111
990.990244	2535.592000
991.286271	2537.361445
991.582262	2536.398584
991.878217	2536.688451
992.174136	2536.144006
992.470019	2535.670138
992.765865	2537.532844
993.061676	2535.259284
993.357450	2533.381454
993.653188	2536.401105
993.948890	2536.529654
994.244556	2535.476053
994.540186	2537.542926
994.835780	2534.523275
995.131337	2536.542257
995.426859	2538.382278
995.722345	2536.784233
996.017795	2538.934285
996.313208	2539.803884
996.608586	2539.864378
996.903928	2539.231713
997.199234	2537.976466
997.494504	2537.953780
997.789738	2537.048893
998.084936	2539.057793
998.380099	2535.143337
998.675225	2535.420601
998.970316	2537.588297
999.265371	2534.921526
999.560390	2537.467309
999.855373	2533.754499
1000.150320	2533.711649
1000.445232	2534.898841
1000.740108	2537.729449
1001.034948	2533.630991
1001.329752	2535.317257
1001.624521	2534.886238
1001.919254	2529.456916
1002.213951	2531.649818
1002.508613	2529.653521
1002.803239	2532.317770
1003.097829	2530.381967
1003.392384	2534.142668
1003.686903	2535.143337
1003.981386	2533.401618
1004.275834	2531.899355
1004.570246	2534.810621
1004.864623	2532.315250
1005.158964	2532.277441
1005.453270	2533.409180
1005.747540	2534.026722
1006.041775	2533.265507
1006.335974	2533.136958
1006.630138	2533.068902
1006.924266	2533.903213
1007.218359	2531.866587
1007.512416	2533.326001
1007.806438	2536.506969
1008.100425	2535.377751
1008.394376	2534.692154
1008.688292	2532.239632
1008.982172	2534.228368
1009.276017	2533.751979
1009.569827	2532.456402
1009.863602	2535.586959
1010.157341	2534.331711
1010.451045	2534.188038
1010.744714	2532.867256
1011.038347	2534.435055
1011.331945	2533.661238
1011.625508	2534.591331
1011.919036	2533.431865
1012.212528	2534.079654
1012.505986	2533.376413
1012.799408	2534.319108
1013.092795	2535.019829
1013.386147	2532.481608
1013.679464	2535.387833
1013.972745	2534.737524
1014.265992	2532.491690
1014.559204	2533.686444
1014.852380	2534.011598
1015.145521	2533.701567
1015.438628	2532.615198
1015.731699	2534.195600
1016.024736	2533.391536
1016.317737	2537.805066
1016.610703	2532.529499
1016.903635	2531.120496
1017.196531	2527.914322
1017.489393	2531.927081
1017.782219	2529.749302
1018.075011	2532.716022
1018.367768	2532.680733
1018.660490	2533.840199
1018.953177	2533.840199
1019.245829	2533.840199
