Dividing Wavelength (nm)	Counts (n)	Blue Motor Position (mm): 39.500000	Red Motor Position (mm): 0.000000	
326.493990	2132.632408
326.888308	2132.632408
327.282561	2132.632408
327.676750	2100.515217
328.070874	2096.086563
328.464933	2101.331884
328.858929	2106.332709
329.252859	2115.991559
329.646726	2125.093363
330.040528	2139.516104
330.434265	2156.119144
330.827938	2173.538851
331.221547	2192.047448
331.615091	2210.951774
332.008571	2229.273848
332.401986	2252.140522
332.795338	2270.996958
333.188625	2290.521347
333.581847	2309.158493
333.975006	2324.493683
334.368100	2343.939933
334.761129	2359.164218
335.154095	2379.727085
335.546996	2400.819272
335.939833	2426.579568
336.332606	2439.656322
336.725315	2452.508743
337.117960	2462.109621
337.510540	2471.889459
337.903056	2481.303814
338.295508	2488.069043
338.687896	2494.758654
339.080220	2506.491939
339.472480	2515.011489
339.864676	2517.030471
340.256807	2518.636079
340.648875	2521.761594
341.040879	2526.941380
341.432818	2527.896678
341.824694	2527.934487
342.216506	2533.096629
342.608253	2529.918181
342.999937	2531.009591
343.391557	2529.179652
343.783113	2528.257121
344.174605	2530.124868
344.566033	2525.960875
344.957397	2524.967768
345.348697	2525.116482
345.739934	2520.400483
346.131106	2518.615914
346.522215	2518.928466
346.913260	2513.496623
347.304241	2514.938393
347.695159	2510.507218
348.086012	2510.618124
348.476802	2508.659635
348.867528	2508.321878
349.258191	2505.014881
349.648789	2504.344408
350.039324	2501.491115
350.429796	2502.980776
350.820203	2500.311485
351.210548	2500.049345
351.600828	2502.237205
351.991045	2500.639160
352.381198	2498.700836
352.771288	2497.924498
353.161314	2494.824189
353.551276	2498.015239
353.941175	2495.635814
354.331010	2496.717142
354.720782	2496.510455
355.110490	2495.202275
355.500135	2496.210506
355.889717	2496.618839
356.279235	2500.535816
356.668689	2497.720332
357.058080	2496.603716
357.447408	2496.139930
357.836672	2497.601864
358.225873	2495.960969
358.615010	2496.782677
359.004084	2499.225116
359.393095	2498.491628
359.782043	2500.734942
360.170927	2502.728718
360.559748	2502.988337
360.948505	2501.942298
361.337199	2503.036228
361.725830	2501.942298
362.114398	2505.206445
362.502903	2503.437000
362.891344	2507.124604
363.279722	2506.171826
363.668037	2506.980931
364.056289	2505.773575
364.444478	2505.324912
364.832603	2507.157372
365.220665	2508.647032
365.608665	2509.904800
365.996601	2508.916734
366.384474	2511.792712
366.772284	2513.315141
367.160031	2510.976046
367.547715	2512.460665
367.935336	2510.570233
368.322893	2511.235665
368.710388	2511.623834
369.097820	2516.458300
369.485189	2511.056704
369.872495	2511.946468
370.259738	2513.728516
370.646918	2512.196005
371.034035	2511.661642
371.421090	2512.949657
371.808081	2514.943434
372.195010	2515.445028
372.581875	2513.715913
372.968678	2516.412930
373.355418	2519.896367
373.742096	2515.782786
374.128710	2516.879237
374.515262	2518.691532
374.901751	2515.243382
375.288177	2518.683970
375.674540	2518.739423
376.060841	2518.346212
376.447079	2516.773373
376.833254	2520.251769
377.219367	2518.343692
377.605417	2520.597088
377.991404	2513.869668
378.377329	2516.594412
378.763191	2518.149608
379.148991	2522.129598
379.534727	2521.869979
379.920402	2523.341996
380.306013	2522.542973
380.691563	2524.506503
381.077049	2525.194620
381.462474	2525.544980
381.847835	2523.707480
382.233134	2527.352234
382.618371	2528.060516
383.003545	2526.787625
383.388657	2524.907274
383.773706	2529.570342
384.158693	2528.060516
384.543618	2528.564631
384.928480	2525.708818
385.313280	2528.592358
385.698017	2528.927594
386.082692	2530.903727
386.467305	2529.212420
386.851856	2528.426000
387.236344	2530.762574
387.620770	2530.974303
388.005133	2532.698378
388.389435	2536.506969
388.773674	2537.570653
389.157851	2537.242978
389.541965	2543.879657
389.926018	2545.432332
390.310008	2552.036244
390.693936	2555.466749
391.077802	2567.217678
391.461606	2574.960891
391.845348	2586.303487
392.229027	2597.935949
392.612645	2609.717126
392.996200	2627.290588
393.379694	2645.743732
393.763125	2667.271979
394.146494	2682.065245
394.529801	2705.287321
394.913047	2732.063409
395.296230	2750.173754
395.679351	2780.070317
396.062410	2805.329019
396.445408	2826.390959
396.828343	2857.177286
397.211217	2883.280381
397.594028	2898.096332
397.976778	2940.114349
398.359466	2981.109012
398.742092	3016.835669
399.124656	3027.119623
399.507158	3083.545258
399.889598	3122.089921
400.271977	3180.716019
400.654294	3201.422559
401.036549	3244.191708
401.418742	3268.595934
401.800874	3348.004189
402.182944	3392.212588
402.564952	3462.856797
402.946898	3498.759895
403.328783	3532.243239
403.710606	3524.132022
404.092367	3673.541740
404.474067	3687.530942
404.855705	3729.889237
405.237282	3719.340623
405.618797	3830.329186
406.000250	3886.139800
406.381642	3977.924088
406.762972	3988.374400
407.144240	4031.173797
407.525447	4063.855597
407.906593	4143.460457
408.287677	4209.912947
408.668700	4190.007951
409.049661	4256.997324
409.430560	4317.894463
409.811399	4290.246254
410.192176	4451.429587
410.572891	4428.535187
410.953545	4543.173546
411.334138	4461.935352
411.714669	4543.443247
412.095139	4470.081856
412.475547	4621.351760
412.855894	4624.048777
413.236180	4646.847395
413.616405	4620.338488
413.996568	4716.874063
414.376670	4676.960728
414.756711	4649.211696
415.136691	4692.386658
415.516609	4773.886993
415.896466	4822.524045
416.276262	4863.624572
416.655997	4851.631667
417.035670	5037.299884
417.415283	5134.132888
417.794834	5083.408798
418.174324	5050.127100
418.553753	4963.021003
418.933121	5148.371627
419.312428	5216.679261
419.691674	5162.534748
420.070859	5289.294562
420.449983	5204.663671
420.829045	5320.045600
421.208047	5234.363629
421.586988	5306.951203
421.965867	5317.792205
422.344686	5448.098470
422.723444	5308.473632
423.102141	5130.072238
423.480777	5428.185912
423.859352	5198.488258
424.237866	5455.312361
424.616319	5447.581752
424.994712	5559.399585
425.373044	5432.183547
425.751314	5579.377678
426.129524	5379.697574
426.507673	5577.278037
426.885762	5663.222148
427.263789	5588.585345
427.641756	5471.277695
428.019662	5596.557930
428.397508	5601.793168
428.775292	5549.234098
429.153016	5655.625130
429.530679	5578.356844
429.908282	5660.023536
430.285824	5536.401841
430.663305	5807.832688
431.040726	5541.750505
431.418086	5543.003232
431.795385	5651.345190
432.172624	5660.199977
432.549802	5650.624305
432.926920	5667.015617
433.303977	5676.682029
433.680974	5716.532350
434.057910	5732.885853
434.434786	5737.332151
434.811601	5708.537080
435.188355	5940.047030
435.565050	5812.659593
435.941683	5799.771883
436.318257	6012.064953
436.694770	5996.392006
437.071222	6031.952305
437.447614	5966.442511
437.823946	5875.424478
438.200218	6028.151275
438.576429	5893.325616
438.952580	5994.367983
439.328670	6034.964395
439.704700	5945.972906
440.080670	5934.582419
440.456580	6203.419592
440.832429	6084.150933
441.208218	5931.610659
441.583947	6090.286017
441.959616	6089.955822
442.335224	6017.925295
442.710773	6154.860677
443.086261	6176.235170
443.461689	5975.319983
443.837057	6124.243229
444.212365	6278.978926
444.587612	6171.733419
444.962800	6323.167160
445.337927	6300.272760
445.712995	5917.185397
446.088002	6498.027143
446.462949	6324.167829
446.837837	6256.747438
447.212664	6426.919147
447.587431	6572.089255
447.962139	7113.095803
448.336786	8038.676855
448.711374	7784.277547
449.085901	6857.612647
449.460369	6769.440346
449.834776	6713.435647
450.209124	7098.506704
450.583412	7251.508244
450.957640	7400.416367
451.331808	7158.317474
451.705917	6707.776952
452.079965	6637.588967
452.453954	6848.805751
452.827883	6725.877215
453.201752	6816.859959
453.575562	6620.814527
453.949311	6820.751730
454.323001	6709.259051
454.696632	6787.238139
455.070202	6927.024294
455.443713	7076.612973
455.817164	7181.519384
456.190556	7259.077536
456.563888	7335.574525
456.937160	7376.213787
457.310373	7034.514297
457.683526	7062.591003
458.056619	6950.011956
458.429653	6937.638444
458.802628	6876.151490
459.175542	6976.551110
459.548398	7343.365629
459.921194	7503.543251
460.293930	7502.038467
460.666607	8026.454578
461.039224	8334.925302
461.411782	8468.137793
461.784280	8480.823856
462.156719	8380.081438
462.529099	8246.321982
462.901419	7841.650919
463.273680	7730.669917
463.645882	7748.439984
464.018024	7613.637010
464.390106	7785.011035
464.762130	8165.507245
465.134094	8642.176067
465.505999	9657.857662
465.877845	10873.501665
466.249631	11525.844617
466.621358	11141.181893
466.993026	10510.712508
467.364634	10254.460576
467.736184	9894.040761
468.107674	9561.768228
468.479105	9601.605947
468.850477	9359.922949
469.221790	9128.380232
469.593043	8804.781005
469.964238	8659.593254
470.335373	8676.589504
470.706449	8736.506138
471.077467	8719.477120
471.448425	10028.715186
471.819324	11097.422157
472.190164	11117.314550
472.560945	9868.212409
472.931667	9081.968849
473.302330	8950.712327
473.672934	8596.142771
474.043479	8953.908418
474.413965	8893.464984
474.784393	8778.907283
475.154761	8937.796891
475.525070	9021.220425
475.895321	8844.225513
476.265513	9033.508238
476.635645	9194.379018
477.005719	9195.798103
477.375734	9305.269280
477.745691	9543.110918
478.115588	9678.629736
478.485427	9925.177447
478.855207	10463.466814
479.224928	11277.439240
479.594591	11907.081876
479.964194	11710.658358
480.333739	11655.472847
480.703226	11566.743498
481.072653	11657.305306
481.442022	11896.195505
481.811333	12083.741551
482.180584	11887.010522
482.549777	11602.497882
482.918912	11426.715367
483.287988	11447.104314
483.657005	11455.747372
484.025964	11138.721810
484.394864	11268.047571
484.763706	11242.201575
485.132489	10995.444656
485.501213	10964.991046
485.869879	11036.779597
486.238487	10882.994158
486.607036	10991.941054
486.975527	10768.295305
487.343959	10955.770775
487.712333	11007.016625
488.080648	10937.983064
488.448905	10981.092491
488.817104	10921.881618
489.185244	11185.178563
489.553326	11337.325627
489.921350	11878.992567
490.289315	12946.897995
490.657222	13286.858287
491.025070	13197.541644
491.392861	13055.746589
491.760593	12691.964324
492.128267	12329.419663
492.495883	12003.415806
492.863440	11670.520691
493.230939	11333.801861
493.598380	11266.729309
493.965763	11136.554114
494.333088	11036.061233
494.700354	10962.437701
495.067563	11013.431493
495.434713	10846.554177
495.801805	10975.058230
496.168839	10900.267671
496.535815	10838.964720
496.902733	10837.795172
497.269593	10769.021231
497.636395	10867.800120
498.003139	10861.798626
498.369825	10727.310724
498.736453	10883.490711
499.103023	10811.465226
499.469535	10838.752992
499.835989	10824.257154
500.202385	10791.512339
500.568723	10638.835953
500.935003	10859.648574
501.301226	10673.937508
501.667390	10931.416961
502.033497	11029.028823
502.399546	10893.071424
502.765537	10790.778851
503.131470	10862.731240
503.497345	11036.376305
503.863163	10649.767696
504.228923	10956.227000
504.594625	11019.637153
504.960269	10773.457446
505.325856	10995.462300
505.691385	10786.934971
506.056856	10946.434558
506.422270	10964.151693
506.787625	10854.690599
507.152924	10967.536828
507.518164	10952.297420
507.883347	10871.167611
508.248472	10790.826742
508.613540	11031.345233
508.978550	10910.355020
509.343503	10882.555577
509.708398	11000.137970
510.073236	11113.553849
510.438016	11125.135900
510.802738	11076.327449
511.167403	11124.969542
511.532010	11020.380723
511.896561	11258.202197
512.261053	11320.412556
512.625488	11194.711385
512.989866	11177.684888
513.354186	11162.299287
513.718449	11065.562065
514.082655	11254.708678
514.446803	11150.492904
514.810894	11275.314394
515.174927	11142.497634
515.538904	11168.038640
515.902822	11322.560088
516.266684	11200.493589
516.630488	11147.208593
516.994235	11206.885772
517.357925	11267.840883
517.721558	11358.836231
518.085133	11371.290402
518.448651	11378.312729
518.812112	11257.307392
519.175516	11274.764908
519.538863	11400.317365
519.902152	11308.638942
520.265385	11469.645834
520.628560	11373.712676
520.991678	11367.867458
521.354739	11433.510843
521.717743	11356.156858
522.080690	11335.357057
522.443580	11470.449898
522.806413	11429.112436
523.169189	11455.381889
523.531908	11516.543688
523.894569	11338.956441
524.257174	11343.717811
524.619722	11459.969339
524.982213	11400.977757
525.344647	11462.028650
525.707025	11408.564693
526.069345	11504.228149
526.431608	11426.294431
526.793815	11530.973991
527.155964	11312.840743
527.518057	11373.155628
527.880093	11327.858341
528.242072	11388.758000
528.603995	11297.606376
528.965860	11221.008564
529.327669	11267.240986
529.689421	11220.799356
530.051117	11188.029336
530.412755	11288.426435
530.774337	11181.465753
531.135862	11161.840542
531.497331	11185.874243
531.858743	11042.541636
532.220098	11207.379805
532.581396	11074.247973
532.942638	11061.577033
533.303824	11022.487926
533.664953	11033.588547
534.026025	10950.492687
534.387040	11047.857532
534.747999	11051.419108
535.108902	11109.029414
535.469748	10867.275840
535.830537	10967.733433
536.191270	10946.086719
536.551947	10969.089504
536.912567	10973.167797
537.273131	10900.965871
537.633638	10876.465863
537.994089	10863.353822
538.354483	10810.600668
538.714821	10956.037956
539.075103	10969.031530
539.435328	10930.275140
539.795497	10762.913873
540.155609	10910.778477
540.515665	11007.535863
540.875665	10738.378577
541.235609	10807.747375
541.595496	10802.313011
541.955328	10958.573657
542.315102	10845.611481
542.674821	10796.649275
543.034483	10794.307659
543.394090	10799.484924
543.753640	10724.553213
544.113134	10953.053593
544.472571	10803.018772
544.831953	10939.031624
545.191278	10749.426266
545.550548	10777.197983
545.909761	10917.175701
546.268918	10893.643595
546.628019	10974.080246
546.987064	10833.207722
547.346053	10760.693245
547.704986	10861.324758
548.063863	10847.043169
548.422684	10834.790645
548.781449	10750.578170
549.140158	10859.431805
549.498811	10731.530170
549.857408	10591.320558
550.215949	10816.622326
550.574434	10672.951962
550.932864	10768.282702
551.291237	10836.242497
551.649555	10775.927612
552.007817	10789.576536
552.366022	10753.320557
552.724173	10746.457026
553.082267	10731.230221
553.440305	10868.490758
553.798288	10666.645479
554.156215	10823.150620
554.514086	10797.586929
554.871902	10649.152675
555.229661	10688.461072
555.587365	10662.610035
555.945014	10552.952336
556.302606	10685.327995
556.660143	10575.103166
557.017625	10725.783254
557.375050	10630.656681
557.732421	10759.705179
558.089735	10669.471045
558.446994	10668.346868
558.804197	10714.833868
559.161345	10712.310771
559.518437	10563.722761
559.875474	10648.020936
560.232455	10682.578045
560.589381	10630.906218
560.946251	10623.798192
561.303065	10737.451005
561.659825	10672.258803
562.016528	10600.311456
562.373177	10479.742179
562.729770	10593.112688
563.086307	10512.731490
563.442789	10601.849008
563.799216	10478.018105
564.155587	10528.391834
564.511904	10481.897272
564.868164	10471.388987
565.224370	10495.400003
565.580520	10410.753989
565.936615	10411.800028
566.292654	10288.427870
566.648638	10420.412840
567.004567	10377.825172
567.360441	10362.545435
567.716260	10269.947000
568.072023	10359.631648
568.427732	10323.627727
568.783385	10228.672553
569.138982	10294.318458
569.494525	10308.645418
569.850013	10188.484475
570.205445	10269.052195
570.560823	10165.002780
570.916145	10084.082178
571.271412	10153.090533
571.626625	10102.149674
571.981782	10074.385519
572.336884	10044.390654
572.691931	10055.927334
573.046923	10000.371298
573.401860	9954.325399
573.756743	9894.532273
574.111570	9931.246997
574.466342	9923.012272
574.821059	9949.012023
575.175722	9834.446761
575.530330	9853.109112
575.884882	9843.775416
576.239380	9768.077450
576.593823	9743.721115
576.948211	9762.138970
577.302544	9641.252101
577.656823	9657.766921
578.011047	9658.689452
578.365216	9638.565166
578.719330	9551.645592
579.073389	9563.477180
579.427394	9510.923151
579.781344	9496.669288
580.135239	9436.724928
580.489080	9449.985683
580.842866	9346.763017
581.196597	9360.580820
581.550273	9396.390656
581.903895	9366.680616
582.257463	9434.416079
582.610975	9308.606523
582.964434	9333.706428
583.317837	9259.886292
583.671186	9241.944826
584.024481	9237.785874
584.377721	9155.456270
584.730906	9130.134554
585.084037	9158.128081
585.437113	9095.020397
585.790135	9112.359445
586.143103	9013.956122
586.496016	8986.501998
586.848874	9052.581443
587.201679	9036.207775
587.554428	8921.342564
587.907124	8968.920974
588.259765	8936.816386
588.612352	8939.843599
588.964884	8816.128642
589.317362	8838.450872
589.669786	8835.484153
590.022155	8882.006441
590.374470	8897.316425
590.726731	8834.571704
591.078937	8685.524949
591.431090	8798.267834
591.783188	8671.024070
592.135232	8663.326228
592.487222	8664.894027
592.839157	8718.536945
593.191038	8650.355339
593.542866	8596.588913
593.894639	8492.947831
594.246358	8543.014051
594.598022	8562.092297
594.949633	8456.948952
595.301190	8437.351466
595.652692	8462.668141
596.004141	8577.815656
596.355535	8347.379473
596.706876	8331.656114
597.058162	8270.872401
597.409395	8339.845468
597.760573	8411.351715
598.111698	8317.601377
598.462768	8300.935322
598.813785	8266.078264
599.164748	8234.649190
599.515657	8224.619815
599.866511	8138.199314
600.217312	8256.043847
600.568060	8117.865820
600.918753	8221.007828
601.269392	8189.795524
601.619978	8102.573480
601.970510	8168.589910
602.320988	8164.365423
602.671412	8220.927170
603.021783	8161.411307
603.372100	8133.863922
603.722363	8138.524469
604.072572	8104.146320
604.422728	8118.911860
604.772830	8048.088689
605.122878	8055.559679
605.472872	8055.037920
605.822813	8081.153617
606.172701	8018.996191
606.522534	8101.640867
606.872314	8100.867050
607.222041	8071.787154
607.571714	8122.483517
607.921333	8079.558092
608.270899	8090.031089
608.620411	8180.207249
608.969870	8083.442301
609.319276	8078.073472
609.668627	8094.454702
610.017926	8131.484497
610.367171	8178.054677
610.716362	8149.151221
611.065500	8145.423288
611.414585	8164.239395
611.763616	8155.661871
612.112594	8141.473544
612.461518	8159.130185
612.810389	8218.628403
613.159207	8154.346130
613.507971	8100.524251
613.856682	8217.292498
614.205340	8180.464348
614.553945	8251.902539
614.902496	8159.077253
615.250994	8214.214873
615.599439	8194.007408
615.947830	8204.810601
616.296169	8175.609717
616.644454	8188.721758
616.992686	8189.404835
617.340864	8243.740911
617.688990	8148.667270
618.037063	8244.393741
618.385082	8187.509361
618.733048	8274.665870
619.080961	8214.935758
619.428821	8232.605002
619.776628	8229.343376
620.124382	8182.173299
620.472083	8164.433479
620.819731	8196.308695
621.167326	8091.356913
621.514868	8095.321780
621.862357	7985.258268
622.209793	8001.599169
622.557176	7933.672141
622.904506	7906.863285
623.251783	7840.796443
623.599007	7794.455637
623.946179	7799.612737
624.293297	7756.362157
624.640363	7673.377203
624.987376	7652.945407
625.334336	7604.749456
625.681243	7551.935807
626.028097	7544.547996
626.374899	7520.766353
626.721647	7506.144486
627.068343	7443.533356
627.414987	7416.190137
627.761577	7365.443362
628.108115	7408.197388
628.454600	7302.756614
628.801032	7357.155705
629.147412	7310.497306
629.493739	7298.393495
629.840014	7236.470482
630.186236	7293.954759
630.532405	7173.249372
630.878521	7228.888587
631.224585	7181.849580
631.570597	7108.959537
631.916556	7139.191336
632.262462	7135.642364
632.608316	7098.947805
632.954117	7079.856955
633.299866	7066.714667
633.645562	7055.692184
633.991206	6973.859134
634.336797	6922.681340
634.682336	6880.701132
635.027823	6843.429361
635.373257	6834.592218
635.718639	6771.648371
636.063968	6776.860924
636.409245	6675.218660
636.754470	6670.653895
637.099642	6630.208718
637.444762	6573.851138
637.789829	6584.384629
638.134845	6526.542430
638.479808	6509.626838
638.824719	6516.013980
639.169577	6435.844510
639.514383	6462.512214
639.859137	6392.011678
640.203839	6400.964767
640.548489	6387.514968
640.893086	6360.902717
641.237632	6334.287946
641.582125	6358.999682
641.926566	6327.820145
642.270955	6330.224776
642.615292	6332.848696
642.959576	6347.866293
643.303809	6334.161917
643.647990	6342.220201
643.992118	6335.286094
644.336195	6285.537467
644.680219	6304.441794
645.024192	6294.344363
645.368112	6391.845320
645.711981	6413.179483
646.055797	6488.504403
646.399562	6449.987468
646.743274	6577.069915
647.086935	6628.608151
647.430544	6624.066072
647.774101	6646.993239
648.117606	6649.352499
648.461059	6641.745398
648.804460	6606.036385
649.147810	6514.030286
649.491108	6481.771942
649.834354	6459.411905
650.177548	6370.801023
650.520690	6288.539474
650.863781	6264.682214
651.206820	6289.514938
651.549807	6209.489141
651.892742	6147.215768
652.235626	6156.257077
652.578458	6142.340972
652.921238	6054.340070
653.263967	6086.719401
653.606644	6026.079361
653.949269	6030.019023
654.291843	5972.207071
654.634365	6023.165574
654.976836	5975.433409
655.319255	5978.780735
655.661622	5950.764523
656.003938	5945.133554
656.346203	5912.716414
656.688416	5935.053767
657.030577	5892.864350
657.372687	5867.361153
657.714746	5851.252146
658.056753	5893.527262
658.398708	5828.264484
658.740612	5823.034287
659.082465	5869.909456
659.424266	5862.597263
659.766016	5864.732191
660.107715	5840.953068
660.449362	5857.399833
660.790958	5846.427762
661.132503	5835.823694
661.473996	5870.658068
661.815438	5858.362693
662.156829	5852.164595
662.498168	5847.194017
662.839456	5825.264998
663.180693	5863.895360
663.521879	5857.707343
663.863013	5851.771385
664.204097	5862.819073
664.545129	5911.032669
664.886110	5902.404734
665.227040	5939.958809
665.567918	5899.932048
665.908746	5935.452018
666.249522	5931.882881
666.590248	5921.737559
666.930922	5952.244101
667.271545	5963.349763
667.612118	5960.685513
667.952639	5938.343120
668.293109	5965.731708
668.633528	5920.883083
668.973896	5916.318318
669.314213	5909.979068
669.654480	5893.060955
669.994695	5882.474532
670.334859	5878.169387
670.674973	5869.052460
671.015035	5871.691504
671.355047	5873.337441
671.695008	5858.115677
672.034918	5830.548127
672.374777	5843.317370
672.714585	5825.305327
673.054342	5832.675494
673.394049	5825.892621
673.733705	5858.486202
674.073310	5846.500858
674.412864	5801.823632
674.752368	5797.694927
675.091820	5799.610566
675.431223	5733.357201
675.770574	5736.417182
676.109875	5688.279204
676.449125	5687.092012
676.788324	5659.771479
677.127473	5601.654537
677.466571	5594.327219
677.805619	5584.323050
678.144616	5571.092541
678.483562	5546.206885
678.822458	5518.472977
679.161303	5514.929046
679.500098	5500.526470
679.838842	5485.612216
680.177535	5492.122866
680.516179	5505.802037
680.854771	5514.994581
681.193314	5594.299493
681.531805	5705.404003
681.870247	5854.440676
682.208638	5956.697961
682.546978	5971.501309
682.885268	5944.944511
683.223508	5860.842941
683.561697	5808.793028
683.899836	5778.601557
684.237925	5732.830401
684.575963	5700.146080
684.913951	5657.598741
685.251889	5724.726746
685.589776	5690.255336
685.927614	5659.716026
686.265401	5729.893929
686.603137	5712.353234
686.940824	5793.135204
687.278460	5814.907947
687.616046	5822.598227
687.953582	5889.517024
688.291068	5871.172265
688.628504	5934.267347
688.965889	5898.293673
689.303224	5843.251835
689.640510	5794.428260
689.977745	5717.722063
690.314930	5622.187156
690.652065	5562.804884
690.989150	5472.404393
691.326185	5399.978136
691.663170	5342.970248
692.000105	5264.587867
692.336990	5185.824879
692.673825	5167.039019
693.010610	5097.962609
693.347345	5031.419378
693.684030	5011.582438
694.020665	4969.566941
694.357251	4885.417480
694.693786	4890.100712
695.030272	4861.708934
695.366707	4822.201411
695.703093	4788.486174
696.039429	4810.059792
696.375716	4793.280312
696.711952	4764.437350
697.048139	4751.970576
697.384276	4734.467690
697.720363	4745.570832
698.056400	4757.909056
698.392388	4702.806723
698.728326	4686.594373
699.064214	4663.969674
699.400053	4655.964322
699.735842	4628.147235
700.071581	4597.829736
700.407270	4574.060695
700.742910	4553.175195
701.078501	4500.684181
701.414042	4500.986650
701.749533	4468.514057
702.084974	4403.533584
702.420366	4460.717913
702.755709	4401.386053
703.091002	4347.692723
703.426246	4396.276843
703.761440	4352.023074
704.096584	4317.307168
704.431679	4336.082946
704.766725	4320.644412
705.101721	4305.379798
705.436668	4337.474304
705.771565	4286.364566
706.106413	4311.013288
706.441212	4345.945963
706.775961	4354.357128
707.110661	4331.868541
707.445311	4361.298797
707.779913	4385.173702
708.114465	4397.398500
708.448967	4422.374897
708.783421	4482.248681
709.117825	4524.304507
709.452180	4527.104868
709.786485	4571.041044
710.120742	4658.621010
710.454949	4641.879338
710.789107	4711.437179
711.123216	4781.473929
711.457275	4777.655255
711.791286	4851.699723
712.125247	4864.247155
712.459159	4767.207464
712.793023	4845.945246
713.126837	4804.229698
713.460602	4797.537566
713.794318	4717.433631
714.127985	4725.817070
714.461602	4636.621415
714.795171	4610.283906
715.128691	4545.487435
715.462162	4485.618692
715.795584	4435.255045
716.128957	4421.109567
716.462281	4367.892627
716.795556	4340.836754
717.128782	4302.385353
717.461960	4236.434458
717.795088	4244.487701
718.128167	4204.977658
718.461198	4144.841733
718.794180	4139.591372
719.127113	4122.406078
719.459997	4097.270885
719.792833	4055.963671
720.125619	4046.461096
720.458357	4009.932895
720.791046	4013.799460
721.123686	3990.665605
721.456278	3947.341929
721.788821	3963.569403
722.121315	3939.944035
722.453761	3911.554778
722.786158	3925.637241
723.118506	3949.612968
723.450805	3899.728231
723.783056	3923.741767
724.115259	3937.093263
724.447412	3942.283131
724.779518	3935.870783
725.111574	3941.907565
725.443582	3970.138026
725.775542	3958.157724
726.107453	4006.819982
726.439315	4008.264273
726.771129	4021.709030
727.102895	4054.620203
727.434612	4102.990074
727.766281	4117.463227
728.097901	4120.316520
728.429473	4123.295842
728.760996	4129.067963
729.092471	4122.332982
729.423897	4107.186835
729.755276	4111.610447
730.086606	4113.140438
730.417887	4153.063855
730.749120	4218.800502
731.080305	4275.185807
731.411442	4308.318791
731.742530	4279.196045
732.073570	4281.008340
732.404562	4337.963296
732.735506	4325.710772
733.066401	4286.876243
733.397249	4226.576481
733.728048	4145.229902
734.058798	4065.229311
734.389501	3993.602077
734.720156	3929.657561
735.050762	3890.008886
735.381320	3877.312740
735.711831	3829.371367
736.042293	3798.232160
736.372707	3826.507992
736.703073	3794.035399
737.033391	3788.296045
737.363661	3799.605874
737.693883	3828.229546
738.024056	3836.736493
738.354182	3834.228519
738.684260	3898.881317
739.014290	3915.769182
739.344272	3913.926640
739.674207	3952.831745
740.004093	3957.709062
740.333931	3954.225624
740.663722	3956.199236
740.993464	3949.035756
741.323159	3930.978343
741.652806	3897.358888
741.982405	3871.265876
742.311956	3842.095239
742.641460	3828.957992
742.970915	3808.775733
743.300323	3763.455760
743.629683	3733.725555
743.958996	3721.704924
744.288260	3696.698280
744.617477	3660.349040
744.946647	3651.232113
745.275768	3625.209677
745.604842	3621.806898
745.933869	3574.682192
746.262847	3563.921849
746.591778	3603.409207
746.920662	3573.255546
747.249498	3540.687171
747.578286	3587.249789
747.907027	3608.609158
748.235720	3602.320318
748.564365	3630.868372
748.892963	3629.887868
749.221514	3612.016978
749.550017	3586.208791
749.878473	3585.820622
750.206881	3553.398441
750.535242	3555.508164
750.863555	3553.932803
751.191821	3552.370045
751.520039	3529.551262
751.848210	3506.709794
752.176334	3543.409394
752.504411	3549.073131
752.832440	3506.669465
753.160421	3489.970643
753.488356	3500.655369
753.816243	3515.461237
754.144082	3470.365596
754.471875	3455.307669
754.799620	3475.464723
755.127318	3465.006849
755.454969	3466.322590
755.782572	3472.349290
756.110129	3446.727625
756.437638	3437.681275
756.765100	3449.979170
757.092515	3461.994760
757.419882	3470.234526
757.747203	3441.454578
758.074477	3443.216462
758.401703	3463.071046
758.728882	3481.325064
759.056014	3485.819253
759.383099	3491.127588
759.710138	3486.887978
760.037129	3505.946060
760.364073	3536.548384
760.690970	3519.363091
761.017820	3498.686798
761.344623	3515.025178
761.671379	3560.080490
761.998088	3614.310703
762.324751	3739.230495
762.651366	3987.068742
762.977935	4461.985763
763.304456	4906.403804
763.630931	5000.801930
763.957359	4640.898834
764.283740	4297.525681
764.610074	4102.196092
764.936362	3904.933222
765.262602	3749.312803
765.588796	3636.320380
765.914943	3548.942061
766.241044	3460.353864
766.567097	3428.687856
766.893104	3380.126421
767.219064	3349.778675
767.544978	3324.449398
767.870845	3268.013680
768.196665	3250.702358
768.522438	3257.833070
768.848165	3253.989190
769.173846	3215.928479
769.499479	3199.247301
769.825066	3181.701565
770.150607	3166.963752
770.476101	3180.811801
770.801548	3176.705781
771.126949	3132.373874
771.452303	3116.242182
771.777611	3123.277112
772.102872	3125.311218
772.428087	3103.639297
772.753256	3092.019438
773.078378	3085.619693
773.403453	3052.222049
773.728482	3038.527754
774.053465	3058.430230
774.378401	3048.882284
774.703291	3016.815505
775.028135	3015.822398
775.352932	3010.105729
775.677683	2996.585354
776.002388	2998.226250
776.327046	2996.184583
776.651658	2987.576813
776.976224	2977.126501
777.300743	2976.372848
777.625216	2967.066878
777.949643	2960.962041
778.274024	2965.108390
778.598359	2953.685135
778.922647	2957.496248
779.246889	2957.428192
779.571086	2941.992179
779.895236	2937.961776
780.219339	2948.109619
780.543397	2961.821558
780.867409	2961.451033
781.191374	2954.884930
781.515294	2949.979887
781.839167	2953.264199
782.162995	2944.295986
782.486776	2953.753191
782.810511	2952.160186
783.134201	2937.613937
783.457844	2942.554268
783.781441	2934.894234
784.104993	2916.163827
784.428498	2918.147521
784.751958	2929.190169
785.075372	2923.251689
785.398739	2908.460944
785.722061	2923.987698
786.045337	2938.869184
786.368568	2921.275557
786.691752	2912.534196
787.014891	2957.539097
787.337983	2988.832060
787.661030	3014.673014
787.984031	3084.941658
788.306987	3131.247177
788.629897	3123.413223
788.952760	3106.621140
789.275579	3091.651434
789.598351	3033.022814
789.921078	2985.794765
790.243759	2981.255206
790.566395	2961.877010
790.888984	2937.949173
791.211529	2921.842687
791.534027	2912.761048
791.856480	2901.458781
792.178888	2885.223745
792.501249	2879.398692
792.823566	2876.915924
793.145836	2871.496683
793.468062	2867.635160
793.790241	2866.460571
794.112375	2872.240254
794.434464	2885.450597
794.756507	2888.520660
795.078505	2894.839746
795.400457	2909.549833
795.722364	2946.153651
796.044226	2970.351190
796.366042	2973.330512
796.687812	2963.772484
797.009538	2981.575319
797.331218	2970.570480
797.652852	2959.832822
797.974442	2937.389605
798.295986	2934.397681
798.617484	2928.769232
798.938938	2912.629978
799.260346	2898.295457
799.581709	2892.462842
799.903026	2885.987480
800.224299	2879.461707
800.545526	2870.042311
800.866708	2858.329190
801.187845	2844.851665
801.508936	2847.596573
801.829983	2855.430526
802.150984	2838.174657
802.471940	2827.227791
802.792851	2827.021104
803.113717	2828.374653
803.434538	2833.017556
803.755314	2824.669405
804.076045	2820.094558
804.396731	2817.694969
804.717372	2820.245793
805.037967	2814.642550
805.358518	2820.185299
805.679024	2832.694922
805.999485	2828.649396
806.319901	2833.534274
806.640272	2823.545228
806.960598	2830.360868
807.280879	2838.865295
807.601115	2845.239834
807.921306	2832.087463
808.241453	2830.686022
808.561554	2837.239522
808.881611	2837.599965
809.201623	2830.902792
809.521590	2831.255673
809.841513	2826.285095
810.161390	2829.085456
810.481223	2824.495486
810.801011	2815.295380
811.120755	2809.437559
811.440453	2813.107519
811.760107	2815.174392
812.079716	2813.762869
812.399281	2801.530509
812.718801	2796.401135
813.038276	2790.548356
813.357707	2795.818882
813.677093	2804.141827
813.996434	2799.304840
814.315731	2793.910805
814.634983	2788.602470
814.954191	2789.686318
815.273354	2807.103505
815.592473	2814.365287
815.911547	2814.690441
816.230577	2822.970537
816.549562	2832.246260
816.868502	2831.401866
817.187399	2840.607013
817.506250	2858.394725
817.825058	2852.199147
818.143821	2862.707432
818.462539	2879.683517
818.781213	2907.263670
819.099843	2941.896397
819.418429	2999.907475
819.736970	3059.395611
820.055466	3134.140799
820.373919	3240.095770
820.692327	3384.542472
821.010691	3550.978687
821.329011	3997.405627
821.647286	4903.275768
821.965517	6288.511748
822.283704	7043.797582
822.601847	7021.099787
822.919945	6386.239557
823.237999	5875.537904
823.556010	5288.240961
823.873976	4728.738419
824.191897	4320.704906
824.509775	4020.491592
824.827609	3748.896907
825.145398	3626.515336
825.463144	3613.922534
825.780845	3704.895196
826.098502	3811.815549
826.416116	4093.621090
826.733685	4413.953649
827.051210	4484.237416
827.368692	4368.444633
827.686129	4094.528498
828.003522	3767.012294
828.320872	3508.736338
828.638177	3313.111843
828.955439	3173.527334
829.272656	3089.297215
829.589830	3021.339940
829.906960	2972.355048
830.224046	2926.407452
830.541088	2892.162894
830.858086	2878.665204
831.175041	2858.924046
831.491952	2864.983513
831.808819	2872.507435
832.125642	2897.299829
832.442421	2942.405553
832.759157	3027.008718
833.075849	3202.672765
833.392497	3484.432936
833.709101	3692.493958
834.025662	3640.703664
834.342179	3481.924962
834.658653	3301.736479
834.975083	3156.457987
835.291469	3056.058367
835.607811	2970.663741
835.924110	2911.775503
836.240366	2859.856659
836.556578	2817.808395
836.872746	2796.156639
837.188871	2774.283073
837.504952	2754.105854
837.820990	2746.113105
838.136984	2735.161198
838.452935	2724.922615
838.768842	2721.292984
839.084706	2742.465830
839.400526	2818.998107
839.716303	2953.793520
840.032037	3037.174205
840.347727	3022.693490
840.663373	2959.129581
840.978977	2884.422202
841.294537	2808.646098
841.610054	2763.426948
841.925527	2741.195459
842.240957	2719.717623
842.556344	2695.026052
842.871687	2681.117508
843.186987	2674.100222
843.502244	2669.424552
843.817458	2664.401042
844.132629	2648.425626
844.447756	2640.901704
844.762840	2633.276958
845.077881	2637.105715
845.392879	2635.469860
845.707833	2629.443161
846.022745	2625.508540
846.337613	2629.478449
846.652438	2624.865793
846.967221	2625.465691
847.281960	2623.106431
847.596656	2622.083076
847.911309	2621.581482
848.225919	2620.628703
848.540485	2617.246089
848.855009	2616.578136
849.169490	2614.425564
849.483928	2616.905811
849.798323	2612.187291
850.112675	2612.099071
850.426984	2613.487909
850.741251	2612.124277
851.055474	2611.060593
851.369654	2617.296501
851.683792	2613.939092
851.997887	2615.832046
852.311938	2611.743670
852.625947	2615.464041
852.939914	2617.833384
853.253837	2618.806326
853.567718	2613.571088
853.881555	2611.547065
854.195350	2616.701645
854.509103	2616.182406
854.822812	2612.948506
855.136479	2612.182250
855.450103	2613.835749
855.763685	2617.898919
856.077224	2612.767024
856.390720	2608.386261
856.704173	2614.291973
857.017584	2616.361367
857.330953	2618.965123
857.644278	2621.473097
857.957561	2618.022427
858.270802	2615.287601
858.584000	2614.705348
858.897155	2618.897067
859.210268	2622.209105
859.523339	2615.932869
859.836367	2611.594956
860.149352	2613.424895
860.462295	2611.733587
860.775195	2613.041767
861.088054	2607.302413
861.400869	2609.543206
861.713642	2607.083123
862.026373	2608.088833
862.339062	2608.915582
862.651708	2616.716768
862.964312	2614.649895
863.276873	2615.990842
863.589392	2616.860441
863.901869	2621.263889
864.214303	2629.201186
864.526696	2628.944087
864.839045	2630.501803
865.151353	2633.803759
865.463619	2633.526496
865.775842	2632.382154
866.088023	2631.820065
866.400162	2636.334418
866.712258	2634.433903
867.024313	2632.856022
867.336325	2627.514920
867.648296	2631.608337
867.960224	2636.354583
868.272110	2635.043883
868.583954	2630.141361
868.895755	2628.629015
869.207515	2634.312916
869.519233	2640.773154
869.830909	2636.606641
870.142542	2634.141516
870.454134	2636.672176
870.765684	2640.591673
871.077191	2645.342960
871.388657	2644.675007
871.700081	2642.096457
872.011463	2644.700213
872.322803	2645.622744
872.634101	2648.208856
872.945357	2654.684218
873.256571	2661.804848
873.567744	2660.312667
873.878874	2658.722182
874.189963	2659.770742
874.501010	2664.469098
874.812015	2667.455982
875.122979	2666.979592
875.433900	2659.057419
875.744780	2658.097079
876.055618	2664.895075
876.366415	2669.850530
876.677169	2669.963956
876.987882	2662.843326
877.298554	2662.659324
877.609183	2671.985458
877.919771	2681.288908
878.230317	2686.337623
878.540822	2694.383305
878.851285	2711.750080
879.161707	2734.599110
879.472087	2771.931374
879.782425	2823.094045
880.092722	2939.058227
880.402977	3127.718369
880.713191	3393.256107
881.023363	3691.200902
881.333494	3882.684089
881.643583	4056.674473
881.953631	4057.060122
882.263637	3874.945918
882.573602	3654.632372
882.883526	3520.971219
883.193408	3408.117428
883.503248	3304.057930
883.813048	3189.971578
884.122806	3071.270049
884.432522	2985.502378
884.742197	2918.137439
885.051831	2881.130328
885.361424	2844.944926
885.670975	2806.952270
885.980485	2775.465223
886.289954	2757.682553
886.599382	2741.021540
886.908768	2731.917216
887.218113	2713.685883
887.527417	2701.561908
887.836680	2692.765094
888.145901	2686.478776
888.455082	2677.939061
888.764221	2667.014881
889.073319	2661.794766
889.382376	2658.054230
889.691392	2657.416524
890.000366	2660.340393
890.309300	2658.631442
890.618193	2657.971051
890.927044	2662.598830
891.235855	2662.944149
891.544625	2659.833757
891.853353	2659.806031
892.162041	2669.275838
892.470687	2691.661082
892.779293	2701.919830
893.087858	2712.115563
893.396381	2734.778071
893.704864	2778.343722
894.013306	2851.505988
894.321707	2945.095009
894.630068	2993.384222
894.938387	3015.880371
895.246665	3009.049607
895.554903	2963.971610
895.863100	2917.388828
896.171256	2863.327494
896.479371	2800.849953
896.787446	2760.830754
897.095480	2739.783936
897.403473	2734.064747
897.711425	2718.442212
898.019336	2698.527133
898.327207	2686.055319
898.635038	2683.320493
898.942827	2680.169772
899.250576	2671.496466
899.558284	2660.993222
899.865952	2654.021307
900.173579	2652.191368
900.481165	2653.088693
900.788711	2642.842548
901.096216	2637.919861
901.403681	2634.602782
901.711105	2632.563635
902.018489	2629.034828
902.325832	2634.191928
902.633135	2638.229892
902.940397	2653.751605
903.247619	2691.482121
903.554800	2760.334200
903.861941	2889.377656
904.169041	3018.844569
904.476101	3082.597521
904.783121	3078.103333
905.090100	3017.289373
905.397039	2940.631067
905.703938	2868.408977
906.010796	2799.438430
906.317614	2745.750142
906.624391	2710.739328
906.931129	2685.339475
907.237826	2661.961124
907.544483	2640.947074
907.851099	2627.842595
908.157675	2619.675925
908.464211	2612.325923
908.770707	2600.063316
909.077163	2598.556011
909.383578	2596.108531
909.689954	2592.337748
909.996289	2594.739858
910.302584	2591.362285
910.608839	2587.364650
910.915054	2586.530339
911.221229	2589.930597
911.527363	2592.262131
911.833458	2587.036975
912.139513	2591.579054
912.445527	2594.321442
912.751502	2597.270517
913.057436	2602.783019
913.363331	2609.822990
913.669186	2621.866307
913.975000	2637.597227
914.280775	2654.633807
914.586510	2672.731549
914.892205	2705.269677
915.197859	2779.926644
915.503475	2863.655169
915.809050	2932.592948
916.114585	2949.614403
916.420081	2958.731330
916.725536	2972.506283
917.030952	2944.207766
917.336328	2891.749519
917.641665	2846.853003
917.946961	2795.193779
918.252218	2760.825712
918.557435	2732.922926
918.862612	2712.927189
919.167750	2694.776515
919.472848	2678.087775
919.777906	2657.260248
920.082925	2645.975625
920.387904	2634.002885
920.692843	2628.941566
920.997743	2629.233953
921.302603	2622.398148
921.607423	2613.132508
921.912204	2605.893411
922.216946	2604.557505
922.521647	2600.738831
922.826310	2598.374530
923.130932	2592.463777
923.435516	2586.734506
923.740059	2586.149732
924.044564	2583.198136
924.349028	2583.508167
924.653454	2573.466189
924.957840	2570.131465
925.262186	2568.845971
925.566493	2570.378482
925.870761	2566.642987
926.174989	2567.361351
926.479178	2563.015877
926.783328	2564.911351
927.087438	2561.309446
927.391509	2564.109807
927.695541	2559.000598
927.999533	2556.006152
928.303486	2558.567058
928.607400	2558.012532
928.911275	2556.913560
929.215110	2558.488921
929.518906	2557.964641
929.822663	2559.343396
930.126381	2554.665205
930.430060	2556.303580
930.733699	2556.343910
931.037299	2557.135371
931.340861	2555.799465
931.644383	2558.688046
931.947866	2556.265772
932.251309	2556.028838
932.554714	2555.058415
932.858080	2556.855587
933.161407	2557.294167
933.464694	2558.176369
933.767943	2556.719476
934.071153	2553.783003
934.374323	2555.862479
934.677455	2555.053374
934.980548	2553.538507
935.283602	2555.945658
935.586617	2552.653785
935.889593	2550.256716
936.192530	2552.852911
936.495428	2551.958106
936.798287	2556.094372
937.101108	2555.978426
937.403890	2560.860783
937.706632	2563.280537
938.009336	2564.626525
938.312002	2572.455437
938.614628	2573.420818
938.917216	2576.284194
939.219765	2572.828483
939.522275	2577.783937
939.824747	2576.821077
940.127179	2573.022567
940.429573	2567.076526
940.731929	2572.024419
941.034246	2564.893707
941.336524	2567.699109
941.638763	2565.213820
941.940964	2569.050138
942.243126	2565.357493
942.545250	2563.245249
942.847335	2563.635939
943.149381	2562.000084
943.451389	2560.638973
943.753359	2559.721483
944.055290	2559.020762
944.357182	2557.657130
944.659036	2556.805175
944.960851	2557.689898
945.262628	2559.275341
945.564367	2557.999929
945.866067	2558.244425
946.167729	2558.453632
946.469352	2556.270813
946.770937	2554.829043
947.072484	2557.079918
947.373992	2560.636452
947.675462	2557.102603
947.976893	2556.008673
948.278286	2554.685370
948.579641	2556.457336
948.880958	2553.483055
949.182236	2553.462890
949.483476	2553.041954
949.784678	2555.421378
950.085841	2554.524053
950.386967	2552.580688
950.688054	2553.359547
950.989103	2553.961964
951.290114	2557.642007
951.591087	2557.009342
951.892021	2556.187634
952.192917	2561.455640
952.493776	2560.240722
952.794596	2561.228788
953.095378	2561.314487
953.396122	2562.819272
953.696828	2560.207954
953.997496	2560.548232
954.298126	2557.009342
954.598718	2555.464228
954.899272	2555.328117
955.199788	2554.821481
955.500266	2554.861810
955.800706	2546.087682
956.101108	2544.938299
956.401472	2546.677497
956.701798	2545.512991
957.002087	2543.531817
957.302337	2544.940820
957.602550	2545.039122
957.902724	2541.638864
958.202861	2543.448638
958.502960	2543.597352
958.803022	2543.793957
959.103045	2540.121477
959.403031	2541.079296
959.702979	2540.973432
960.002889	2542.382434
960.302762	2540.270191
960.602596	2540.701209
960.902393	2539.342618
961.202153	2538.699871
961.501875	2539.544264
961.801559	2538.755324
962.101205	2541.953936
962.400814	2537.696682
962.700385	2539.080478
962.999918	2541.086858
963.299414	2538.185673
963.598873	2536.537216
963.898293	2539.503935
964.197677	2543.070552
964.497022	2539.771116
964.796331	2538.659542
965.095601	2538.261291
965.394835	2539.629964
965.694030	2536.038142
965.993189	2534.644263
966.292309	2539.695499
966.591393	2537.064017
966.890439	2534.145189
967.189447	2539.728267
967.488419	2538.099974
967.787353	2538.102494
968.086249	2536.237267
968.385108	2537.986548
968.683930	2536.489325
968.982714	2536.025539
969.281462	2536.569984
969.580172	2538.891435
969.878844	2534.757689
970.177480	2539.771116
970.476078	2535.750796
970.774639	2541.003678
971.073162	2538.001671
971.371649	2537.316074
971.670098	2533.814993
971.968510	2536.733821
972.266885	2532.781557
972.565223	2540.144162
972.863524	2540.176929
973.161788	2540.678524
973.460014	2539.723225
973.758204	2539.352701
974.056356	2538.500746
974.354471	2541.538041
974.652550	2540.522248
974.950591	2539.982845
975.248595	2535.856660
975.546563	2539.476209
975.844493	2536.995961
976.142386	2538.596527
976.440243	2537.104346
976.738062	2538.402443
977.035845	2536.562422
977.333590	2537.278266
977.631299	2538.226003
977.928971	2537.810107
978.226606	2538.523431
978.524204	2535.032432
978.821765	2538.415046
979.119290	2538.097453
979.416777	2535.801208
979.714228	2536.328008
980.011642	2538.289017
980.309020	2540.673483
980.606360	2537.474871
980.903664	2540.247505
981.200931	2538.427649
981.498162	2538.457896
981.795356	2542.233720
982.092513	2544.222455
982.389633	2544.464431
982.686717	2550.775955
982.983764	2552.348795
983.280775	2554.725699
983.577749	2551.108671
983.874686	2554.622356
984.171587	2550.506253
984.468451	2546.717826
984.765279	2545.122301
985.062070	2541.424615
985.358824	2538.649460
985.655543	2542.589121
985.952224	2538.833462
986.248869	2538.417567
986.545478	2532.121165
986.842050	2533.530168
987.138586	2530.712163
987.435086	2532.597554
987.731549	2529.587986
988.027975	2538.135262
988.324366	2534.898841
988.620719	2534.109901
988.917037	2533.852802
989.213318	2534.649304
989.509563	2537.973945
989.805772	2534.437576
990.101944	2532.106042
990.398080	2534.298944
990.694180	2534.132586
990.990244	2533.033614
991.286271	2534.074612
991.582262	2532.894983
991.878217	2534.855991
992.174136	2533.424304
992.470019	2535.468492
992.765865	2535.644932
993.061676	2534.861033
993.357450	2537.984027
993.653188	2536.166691
993.948890	2534.805580
994.244556	2533.845240
994.540186	2534.155271
994.835780	2536.045704
995.131337	2535.221475
995.426859	2535.566794
995.722345	2536.680889
996.017795	2537.038811
996.313208	2537.273225
996.608586	2536.711136
996.903928	2539.032587
997.199234	2538.757844
997.494504	2537.111908
997.789738	2534.109901
998.084936	2537.643749
998.380099	2533.716691
998.675225	2533.865405
998.970316	2536.912782
999.265371	2532.562266
999.560390	2534.984541
999.855373	2534.586290
1000.150320	2532.400949
1000.445232	2535.735673
1000.740108	2534.036804
1001.034948	2532.156453
1001.329752	2532.736186
1001.624521	2534.702236
1001.919254	2528.103366
1002.213951	2534.056968
1002.508613	2529.300640
1002.803239	2530.298788
1003.097829	2527.019518
1003.392384	2531.039838
1003.686903	2533.666279
1003.981386	2532.375744
1004.275834	2531.997657
1004.570246	2533.754499
1004.864623	2531.296937
1005.158964	2531.428007
1005.453270	2532.353058
1005.747540	2532.277441
1006.041775	2532.600075
1006.335974	2529.784591
1006.630138	2530.664272
1006.924266	2532.176618
1007.218359	2534.777853
1007.512416	2530.384488
1007.806438	2529.837523
1008.100425	2534.535878
1008.394376	2532.826927
1008.688292	2532.781557
1008.982172	2530.555887
1009.276017	2531.680064
1009.569827	2535.050076
1009.863602	2536.149047
1010.157341	2530.452543
1010.451045	2532.773995
1010.744714	2530.447502
1011.038347	2532.390867
1011.331945	2531.526309
1011.625508	2531.904396
1011.919036	2532.378264
1012.212528	2530.787780
1012.505986	2532.037986
1012.799408	2529.134282
1013.092795	2529.877852
1013.386147	2532.675692
1013.679464	2533.998995
1013.972745	2531.004550
1014.265992	2530.024045
1014.559204	2532.847092
1014.852380	2534.286341
1015.145521	2531.496062
1015.438628	2534.346835
1015.731699	2530.288706
1016.024736	2530.639066
1016.317737	2531.811134
1016.610703	2532.093439
1016.903635	2531.422966
1017.196531	2526.767460
1017.489393	2528.625125
1017.782219	2526.573376
1018.075011	2529.323325
1018.367768	2529.351051
1018.660490	2531.367513
1018.953177	2531.367513
1019.245829	2531.367513
