Dividing Wavelength (nm)	Counts (n)	Blue Motor Position (mm): 11.800000	Red Motor Position (mm): 0.000000	
326.493990	2140.836886
326.888308	2140.836886
327.282561	2140.836886
327.676750	2107.623244
328.070874	2106.176433
328.464933	2108.492843
328.858929	2113.244131
329.252859	2124.743003
329.646726	2137.562657
330.040528	2145.109264
330.434265	2164.747079
330.827938	2180.871209
331.221547	2199.392409
331.615091	2219.937631
332.008571	2239.232648
332.401986	2259.006573
332.795338	2277.684048
333.188625	2297.190793
333.581847	2316.906746
333.975006	2334.969200
334.368100	2352.782117
334.761129	2370.060672
335.154095	2387.218239
335.546996	2409.016188
335.939833	2424.358940
336.332606	2438.065837
336.725315	2450.630913
337.117960	2459.155505
337.510540	2467.095322
337.903056	2483.650471
338.295508	2488.094248
338.687896	2494.801503
339.080220	2505.652587
339.472480	2509.007475
339.864676	2518.131963
340.256807	2520.219001
340.648875	2522.457273
341.040879	2525.318128
341.432818	2526.409538
341.824694	2526.051616
342.216506	2530.853315
342.608253	2528.211751
342.999937	2527.863911
343.391557	2531.203675
343.783113	2526.502799
344.174605	2526.404497
344.566033	2525.678571
344.957397	2525.045906
345.348697	2521.353261
345.739934	2522.036337
346.131106	2518.225225
346.522215	2514.048629
346.913260	2514.746829
347.304241	2512.732888
347.695159	2509.952691
348.086012	2509.277177
348.476802	2507.963956
348.867528	2507.764831
349.258191	2504.838441
349.648789	2504.039418
350.039324	2501.218892
350.429796	2502.484222
350.820203	2496.964158
351.210548	2498.519354
351.600828	2496.649086
351.991045	2496.845691
352.381198	2497.932060
352.771288	2494.572131
353.161314	2496.001298
353.551276	2495.729076
353.941175	2494.786380
354.331010	2493.629435
354.720782	2495.023314
355.110490	2490.370329
355.500135	2494.982985
355.889717	2496.139930
356.279235	2495.847543
356.668689	2496.767553
357.058080	2496.520537
357.447408	2494.181442
357.836672	2492.248159
358.225873	2492.348982
358.615010	2492.792604
359.004084	2498.592451
359.393095	2497.576659
359.782043	2498.504231
360.170927	2498.786536
360.559748	2499.230157
360.948505	2499.588079
361.337199	2501.536485
361.725830	2501.755775
362.114398	2499.530106
362.502903	2503.116887
362.891344	2502.824500
363.279722	2502.932885
363.668037	2503.870539
364.056289	2502.481701
364.444478	2505.219048
364.832603	2502.027997
365.220665	2504.798112
365.608665	2507.129645
365.996601	2506.766682
366.384474	2505.944974
366.772284	2506.892711
367.160031	2506.212155
367.547715	2509.861951
367.935336	2506.562515
368.322893	2510.444204
368.710388	2506.580159
369.097820	2513.267250
369.485189	2507.646363
369.872495	2507.921106
370.259738	2510.308093
370.646918	2508.480674
371.034035	2508.208452
371.421090	2510.292969
371.808081	2508.669718
372.195010	2511.696931
372.581875	2511.442352
372.968678	2514.842611
373.355418	2510.527383
373.742096	2512.276663
374.128710	2509.793895
374.515262	2514.467045
374.901751	2514.283043
375.288177	2512.808505
375.674540	2512.001920
376.060841	2513.322703
376.447079	2515.225738
376.833254	2515.074504
377.219367	2508.644512
377.605417	2511.210459
377.991404	2508.382372
378.377329	2512.460665
378.763191	2511.855727
379.148991	2516.455780
379.534727	2515.772703
379.920402	2516.478465
380.306013	2516.062570
380.691563	2516.251613
381.077049	2516.302025
381.462474	2517.106089
381.847835	2513.685666
382.233134	2514.514936
382.618371	2514.575429
383.003545	2517.337982
383.388657	2515.238341
383.773706	2517.592560
384.158693	2517.174144
384.543618	2516.848990
384.928480	2518.557941
385.313280	2519.631707
385.698017	2517.950482
386.082692	2518.275636
386.467305	2517.458969
386.851856	2519.951820
387.236344	2517.950482
387.620770	2521.396111
388.005133	2518.812519
388.389435	2522.739578
388.773674	2518.721778
389.157851	2519.321676
389.541965	2520.259330
389.926018	2520.264372
390.310008	2519.966943
390.693936	2519.777900
391.077802	2523.052130
391.461606	2523.236132
391.845348	2520.292098
392.229027	2520.690349
392.612645	2523.326872
392.996200	2521.985926
393.379694	2523.347037
393.763125	2522.646317
394.146494	2522.938704
394.529801	2523.823426
394.913047	2522.825278
395.296230	2524.418282
395.679351	2522.258148
396.062410	2525.502130
396.445408	2523.818385
396.828343	2525.648324
397.211217	2519.853517
397.594028	2521.524660
397.976778	2522.714372
398.359466	2523.475587
398.742092	2520.823940
399.124656	2525.912984
399.507158	2525.759229
399.889598	2525.030783
400.271977	2527.594209
400.654294	2526.845598
401.036549	2524.887110
401.418742	2526.404497
401.800874	2524.887110
402.182944	2528.501617
402.564952	2523.929290
402.946898	2526.684281
403.328783	2527.994981
403.710606	2527.042203
404.092367	2528.186545
404.474067	2527.488345
404.855705	2528.042872
405.237282	2526.790145
405.618797	2529.310722
406.000250	2530.150074
406.381642	2527.700073
406.762972	2529.351051
407.144240	2526.596061
407.525447	2530.666793
407.906593	2529.353572
408.287677	2529.996319
408.668700	2529.698891
409.049661	2532.375744
409.430560	2528.978006
409.811399	2531.249046
410.192176	2528.972965
410.572891	2528.874662
410.953545	2527.372398
411.334138	2530.646628
411.714669	2529.703932
412.095139	2529.567821
412.475547	2529.388860
412.855894	2530.797863
413.236180	2531.876669
413.616405	2529.812317
413.996568	2530.591175
414.376670	2531.531350
414.756711	2532.915147
415.136691	2531.591844
415.516609	2532.952956
415.896466	2531.548994
416.276262	2533.706608
416.655997	2530.384488
417.035670	2528.526823
417.415283	2533.237781
417.794834	2529.877852
418.174324	2532.743748
418.553753	2532.705939
418.933121	2532.869777
419.312428	2533.073943
419.691674	2532.756351
420.070859	2535.501259
420.449983	2531.261649
420.829045	2536.091074
421.208047	2534.253573
421.586988	2534.288862
421.965867	2536.819521
422.344686	2531.198634
422.723444	2533.489839
423.102141	2531.574200
423.480777	2536.222144
423.859352	2536.491846
424.237866	2534.611495
424.616319	2533.303316
424.994712	2534.946732
425.373044	2535.173584
425.751314	2534.167874
426.129524	2534.760209
426.507673	2536.968235
426.885762	2538.914120
427.263789	2535.183666
427.641756	2536.882535
428.019662	2536.885056
428.397508	2536.849768
428.775292	2535.970086
429.153016	2535.133255
429.530679	2536.428831
429.908282	2533.429345
430.285824	2535.571835
430.663305	2537.903369
431.040726	2536.963194
431.418086	2536.217103
431.795385	2539.236754
432.172624	2535.758358
432.549802	2536.368337
432.926920	2535.655014
433.303977	2538.289017
433.680974	2537.311033
434.057910	2536.106198
434.434786	2537.454706
434.811601	2539.163657
435.188355	2540.562578
435.565050	2536.970755
435.941683	2537.827752
436.318257	2536.943029
436.694770	2536.529654
437.071222	2534.974458
437.447614	2535.662576
437.823946	2535.798687
438.200218	2540.428987
438.576429	2539.587114
438.952580	2537.537885
439.328670	2538.457896
439.704700	2538.195756
440.080670	2540.290355
440.456580	2538.881353
440.832429	2538.775488
441.208218	2542.085006
441.583947	2538.427649
441.959616	2540.544933
442.335224	2539.584594
442.710773	2541.686755
443.086261	2538.717515
443.461689	2539.708102
443.837057	2541.906045
444.212365	2539.461085
444.587612	2536.259953
444.962800	2540.043339
445.337927	2538.064686
445.712995	2541.946374
446.088002	2542.011909
446.462949	2542.405119
446.837837	2540.466796
447.212664	2539.415715
447.587431	2540.630633
447.962139	2542.405119
448.336786	2540.408822
448.711374	2542.642053
449.085901	2542.062321
449.460369	2538.810777
449.834776	2542.722712
450.209124	2542.752959
450.583412	2542.238761
450.957640	2541.359080
451.331808	2542.049718
451.705917	2540.612989
452.079965	2541.076775
452.453954	2543.204142
452.827883	2543.448638
453.201752	2544.182126
453.575562	2541.951415
453.949311	2542.521066
454.323001	2543.985521
454.696632	2543.504091
455.070202	2543.627599
455.443713	2542.894111
455.817164	2537.938657
456.190556	2538.042001
456.563888	2539.415715
456.937160	2537.661393
457.310373	2541.533000
457.683526	2542.384955
458.056619	2545.016437
458.429653	2542.218597
458.802628	2542.183308
459.175542	2542.286652
459.548398	2543.859492
459.921194	2542.281611
460.293930	2542.052238
460.666607	2542.193391
461.039224	2544.721529
461.411782	2541.533000
461.784280	2543.859492
462.156719	2543.519214
462.529099	2543.851930
462.901419	2544.592980
463.273680	2544.474513
463.645882	2542.241282
464.018024	2543.705737
464.390106	2547.158927
464.762130	2545.707075
465.134094	2547.537014
465.505999	2545.074410
465.877845	2546.821170
466.249631	2546.503577
466.621358	2545.394523
466.993026	2546.241437
467.364634	2548.250337
467.736184	2546.642209
468.107674	2545.860830
468.479105	2544.282949
468.850477	2545.588608
469.221790	2543.660367
469.593043	2544.759338
469.964238	2545.311344
470.335373	2547.181613
470.706449	2547.592467
471.077467	2546.017106
471.448425	2547.342929
471.819324	2547.126160
472.190164	2545.888557
472.560945	2547.156407
472.931667	2543.602393
473.302330	2544.194729
473.672934	2548.119267
474.043479	2546.932075
474.413965	2548.676315
474.784393	2542.886549
475.154761	2543.932589
475.525070	2542.286652
475.895321	2543.158772
476.265513	2545.155069
476.635645	2550.869217
477.005719	2547.042981
477.375734	2547.978115
477.745691	2547.040460
478.115588	2546.760676
478.485427	2548.194884
478.855207	2548.807385
479.224928	2549.245965
479.594591	2546.634647
479.964194	2549.208156
480.333739	2549.621531
480.703226	2548.641027
481.072653	2551.610266
481.442022	2547.093392
481.811333	2549.387117
482.180584	2547.680687
482.549777	2547.199257
482.918912	2544.885367
483.287988	2549.130018
483.657005	2544.645912
484.025964	2548.207487
484.394864	2548.608259
484.763706	2551.249824
485.132489	2549.530790
485.501213	2550.506253
485.869879	2548.583053
486.238487	2548.610780
486.607036	2546.322096
486.975527	2550.932231
487.343959	2549.336706
487.712333	2550.851572
488.080648	2551.169165
488.448905	2550.881819
488.817104	2547.683207
489.185244	2548.915769
489.553326	2551.269988
489.921350	2549.276212
490.289315	2550.448280
490.657222	2550.324772
491.025070	2547.390820
491.392861	2553.795606
491.760593	2551.607746
492.128267	2551.428785
492.495883	2551.164124
492.863440	2551.317879
493.230939	2548.946016
493.598380	2550.680173
493.965763	2547.234545
494.333088	2548.613300
494.700354	2546.821170
495.067563	2547.405944
495.434713	2547.108516
495.801805	2554.259393
496.168839	2548.605738
496.535815	2551.602704
496.902733	2549.576161
497.269593	2556.616132
497.636395	2550.430636
498.003139	2548.847714
498.369825	2551.358208
498.736453	2553.069680
499.103023	2552.396686
499.469535	2554.156049
499.835989	2549.994576
500.202385	2552.905843
500.568723	2549.734957
500.935003	2551.653116
501.301226	2551.310317
501.667390	2550.309648
502.033497	2555.194527
502.399546	2551.721172
502.765537	2553.452808
503.131470	2553.541028
503.497345	2550.155893
503.863163	2551.542211
504.228923	2551.438867
504.594625	2553.170503
504.960269	2550.627241
505.325856	2551.448949
505.691385	2549.762683
506.056856	2551.239741
506.422270	2552.789896
506.787625	2551.779145
507.152924	2550.838970
507.518164	2553.430123
507.883347	2551.600184
508.248472	2551.247303
508.613540	2550.228990
508.978550	2552.563044
509.343503	2552.086655
509.708398	2551.146480
510.073236	2552.540359
510.438016	2555.020607
510.802738	2550.407951
511.167403	2556.540515
511.532010	2553.296532
511.896561	2554.342572
512.261053	2554.755946
512.625488	2550.929710
512.989866	2549.903836
513.354186	2549.714792
513.718449	2549.331665
514.082655	2552.303425
514.446803	2555.189485
514.810894	2554.377860
515.174927	2555.635627
515.538904	2555.476831
515.902822	2554.294681
516.266684	2554.095555
516.630488	2556.263251
516.994235	2555.209650
517.357925	2554.788714
517.721558	2554.145967
518.085133	2555.005483
518.448651	2556.343910
518.812112	2557.465566
519.175516	2557.536143
519.538863	2556.898437
519.902152	2555.504557
520.265385	2555.824671
520.628560	2556.598488
520.991678	2558.115875
521.354739	2556.076728
521.717743	2556.278375
522.080690	2559.413972
522.443580	2558.627552
522.806413	2556.560679
523.169189	2558.829198
523.531908	2559.489590
523.894569	2559.280382
524.257174	2560.560835
524.619722	2558.209137
524.982213	2560.878427
525.344647	2558.055381
525.707025	2560.139898
526.069345	2560.384394
526.431608	2562.209292
526.793815	2560.449929
527.155964	2560.674261
527.518057	2562.267265
527.880093	2562.937739
528.242072	2558.987995
528.603995	2564.366906
528.965860	2560.754919
529.327669	2560.835578
529.689421	2563.756926
530.051117	2561.770712
530.412755	2564.419838
530.774337	2566.779098
531.135862	2562.428582
531.497331	2563.462019
531.858743	2557.430278
532.220098	2561.387584
532.581396	2560.694425
532.942638	2562.292471
533.303824	2564.818089
533.664953	2566.769016
534.026025	2564.923953
534.387040	2567.121897
534.747999	2566.055692
535.108902	2567.240364
535.469748	2566.544684
535.830537	2566.791701
536.191270	2568.162895
536.551947	2566.166598
536.912567	2567.686506
537.273131	2567.517627
537.633638	2566.774057
537.994089	2570.048286
538.354483	2568.790518
538.714821	2571.101887
539.075103	2570.244891
539.435328	2571.366548
539.795497	2569.408060
540.155609	2568.979562
540.515665	2570.685992
540.875665	2568.964438
541.235609	2571.989131
541.595496	2572.626837
541.955328	2569.904613
542.315102	2571.865622
542.674821	2572.362176
543.034483	2573.607341
543.394090	2570.592731
543.753640	2571.669017
544.113134	2573.418298
544.472571	2571.250602
544.831953	2572.977197
545.191278	2572.203380
545.550548	2570.759089
545.909761	2571.495097
546.268918	2572.402505
546.628019	2571.641291
546.987064	2571.754717
547.346053	2573.337639
547.704986	2571.502659
548.063863	2572.818400
548.422684	2572.546178
548.781449	2572.969635
549.140158	2574.234965
549.498811	2573.211610
549.857408	2574.303020
550.215949	2573.335119
550.574434	2570.996023
550.932864	2572.846127
551.291237	2567.482339
551.649555	2575.790161
552.007817	2574.061045
552.366022	2575.432239
552.724173	2570.381002
553.082267	2575.575912
553.440305	2575.704461
553.798288	2574.981055
554.156215	2572.825962
554.514086	2574.638257
554.871902	2573.188925
555.229661	2572.780592
555.587365	2572.442834
555.945014	2572.243709
556.302606	2575.263360
556.660143	2575.091961
557.017625	2573.887125
557.375050	2573.453586
557.732421	2575.800243
558.089735	2576.682445
558.446994	2576.057342
558.804197	2574.073648
559.161345	2572.909141
559.518437	2573.221693
559.875474	2575.706982
560.232455	2576.256467
560.589381	2571.028791
560.946251	2575.175140
561.303065	2572.339491
561.659825	2575.356621
562.016528	2574.731518
562.373177	2571.757237
562.729770	2573.667835
563.086307	2574.935685
563.442789	2574.398802
563.799216	2575.951478
564.155587	2574.691189
564.511904	2576.097671
564.868164	2573.811508
565.224370	2574.703792
565.580520	2573.032649
565.936615	2573.894687
566.292654	2573.849316
566.648638	2573.849316
567.004567	2575.114646
567.360441	2574.570201
567.716260	2574.058524
568.072023	2573.987948
568.427732	2568.730025
568.783385	2573.526682
569.138982	2571.159861
569.494525	2572.715057
569.850013	2570.323029
570.205445	2576.138000
570.560823	2576.700089
570.916145	2576.470716
571.271412	2575.979204
571.626625	2576.982393
571.981782	2575.396951
572.336884	2575.747311
572.691931	2574.620613
573.046923	2574.323185
573.401860	2576.931982
573.756743	2576.379976
574.111570	2576.072465
574.466342	2576.548854
574.821059	2578.661098
575.175722	2574.431570
575.530330	2576.949626
575.884882	2577.413412
576.239380	2577.267219
576.593823	2576.561457
576.948211	2577.884760
577.302544	2578.603124
577.656823	2578.325861
578.011047	2578.925758
578.365216	2579.444997
578.719330	2578.537589
579.073389	2579.727302
579.427394	2579.679411
579.781344	2579.003896
580.135239	2579.855851
580.489080	2580.826273
580.842866	2580.148238
581.196597	2582.411716
581.550273	2582.678897
581.903895	2579.876016
582.257463	2582.315934
582.610975	2585.731316
582.964434	2583.402303
583.317837	2584.360122
583.671186	2585.358271
584.024481	2586.326172
584.377721	2585.683425
584.730906	2586.583271
585.084037	2586.404310
585.437113	2587.140318
585.790135	2588.468662
586.143103	2588.284660
586.496016	2589.978488
586.848874	2586.222828
587.201679	2589.865062
587.554428	2588.146029
587.907124	2590.817840
588.259765	2589.441605
588.612352	2594.555856
588.964884	2592.771287
589.317362	2597.073912
589.669786	2599.929726
590.022155	2598.654314
590.374470	2601.560539
590.726731	2604.776795
591.078937	2602.846033
591.431090	2604.023143
591.783188	2602.808225
592.135232	2605.195211
592.487222	2605.157402
592.839157	2605.598503
593.191038	2604.376023
593.542866	2607.930037
593.894639	2611.105964
594.246358	2613.167796
594.598022	2612.419184
594.949633	2614.778444
595.301190	2615.388424
595.652692	2615.796757
596.004141	2619.383538
596.355535	2620.696759
596.706876	2622.355299
597.058162	2620.195164
597.409395	2623.809672
597.760573	2627.535084
598.111698	2626.496607
598.462768	2629.901906
598.813785	2628.646659
599.164748	2632.830816
599.515657	2632.699746
599.866511	2634.532206
600.217312	2638.640746
600.568060	2638.769296
600.918753	2643.472692
601.269392	2644.433032
601.619978	2644.062507
601.970510	2647.382107
602.320988	2651.619197
602.671412	2658.263437
603.021783	2655.268992
603.372100	2660.247132
603.722363	2660.925167
604.072572	2664.879952
604.422728	2668.373472
604.772830	2666.810714
605.122878	2668.587721
605.472872	2672.272804
605.822813	2676.646005
606.172701	2679.511901
606.522534	2686.085566
606.872314	2690.138653
607.222041	2695.222657
607.571714	2697.866742
607.921333	2702.333204
608.270899	2706.892928
608.620411	2712.914586
608.969870	2717.176882
609.319276	2719.969681
609.668627	2725.996381
610.017926	2735.035169
610.367171	2743.032960
610.716362	2743.907600
611.065500	2750.788775
611.414585	2756.432347
611.763616	2760.639190
612.112594	2762.668254
612.461518	2770.035901
612.810389	2775.918927
613.159207	2781.847324
613.507971	2783.715072
613.856682	2796.045734
614.205340	2799.020015
614.553945	2811.539720
614.902496	2815.870071
615.250994	2824.482883
615.599439	2829.594613
615.947830	2841.159020
616.296169	2846.774865
616.644454	2855.382635
616.992686	2860.824561
617.340864	2876.411808
617.688990	2879.544886
618.037063	2895.351423
618.385082	2900.664800
618.733048	2917.860175
619.080961	2924.398552
619.428821	2935.857095
619.776628	2942.463527
620.124382	2951.068776
620.472083	2959.157308
620.819731	2968.924543
621.167326	2967.870942
621.514868	2975.160451
621.862357	2974.258084
622.209793	2982.097078
622.557176	2986.387100
622.904506	2990.493120
623.251783	2989.457163
623.599007	2996.040910
623.946179	3002.501148
624.293297	3007.726304
624.640363	3013.707633
624.987376	3022.030578
625.334336	3023.774818
625.681243	3032.485932
626.028097	3033.857125
626.374899	3040.962632
626.721647	3053.774724
627.068343	3057.182544
627.414987	3065.240829
627.761577	3067.811817
628.108115	3081.128025
628.454600	3083.981318
628.801032	3102.321036
629.147412	3100.423041
629.493739	3113.653550
629.840014	3117.263016
630.186236	3134.700367
630.532405	3131.602578
630.878521	3147.136893
631.224585	3157.496465
631.570597	3157.637617
631.916556	3173.981038
632.262462	3182.432532
632.608316	3189.054088
632.954117	3196.431816
633.299866	3204.807693
633.645562	3215.525187
633.991206	3215.850341
634.336797	3214.960577
634.682336	3214.814384
635.027823	3223.545662
635.373257	3224.934500
635.718639	3224.105230
636.063968	3237.854977
636.409245	3228.412896
636.754470	3238.333887
637.099642	3240.463775
637.444762	3241.300606
637.789829	3249.253026
638.134845	3249.374014
638.479808	3258.808533
638.824719	3266.113165
639.169577	3262.854059
639.514383	3278.756379
639.859137	3272.104577
640.203839	3285.037657
640.548489	3294.376394
640.893086	3295.450160
641.237632	3302.898465
641.582125	3316.121412
641.926566	3320.108964
642.270955	3334.188907
642.615292	3344.238447
642.959576	3362.356354
643.303809	3366.729555
643.647990	3384.638254
643.992118	3388.925755
644.336195	3385.732184
644.680219	3406.794125
645.024192	3409.365114
645.368112	3443.939867
645.711981	3463.305460
646.055797	3489.285046
646.399562	3501.991274
646.743274	3538.748848
647.086935	3566.465112
647.430544	3581.263419
647.774101	3600.172787
648.117606	3605.017336
648.461059	3618.126856
648.804460	3622.835294
649.147810	3601.614557
649.491108	3609.050259
649.834354	3616.281794
650.177548	3602.350565
650.520690	3588.396651
650.863781	3593.258844
651.206820	3615.389510
651.549807	3599.507354
651.892742	3596.502827
652.235626	3606.209568
652.578458	3614.585446
652.921238	3597.566510
653.263967	3617.184160
653.606644	3609.589662
653.949269	3620.599542
654.291843	3607.270731
654.634365	3633.940956
654.976836	3639.148468
655.319255	3641.812718
655.661622	3647.725991
656.003938	3659.179493
656.346203	3650.155827
656.688416	3675.228006
657.030577	3666.106038
657.372687	3666.370698
657.714746	3669.314732
658.056753	3694.863300
658.398708	3688.314841
658.740612	3685.196888
659.082465	3721.636868
659.424266	3721.785582
659.766016	3732.293867
660.107715	3740.904158
660.449362	3755.342023
660.790958	3762.117333
661.132503	3770.031945
661.473996	3795.792241
661.815438	3794.751243
662.156829	3806.976041
662.498168	3814.129438
662.839456	3808.198521
663.180693	3838.090042
663.521879	3845.132534
663.863013	3846.203780
664.204097	3873.312584
664.545129	3894.931573
664.886110	3911.660642
665.227040	3933.960186
665.567918	3920.154986
665.908746	3950.621199
666.249522	3961.779793
666.590248	3964.015545
666.930922	3983.834841
667.271545	4003.031555
667.612118	4011.598996
667.952639	4009.398532
668.293109	4033.785114
668.633528	4025.396634
668.973896	4032.570196
669.314213	4033.112120
669.654480	4048.462434
669.994695	4049.485788
670.334859	4052.954102
670.674973	4068.473294
671.015035	4072.728028
671.355047	4085.835028
671.695008	4086.535748
672.034918	4079.843616
672.374777	4097.724589
672.714585	4097.049074
673.054342	4105.845888
673.394049	4113.684882
673.733705	4138.729334
674.073310	4153.056294
674.412864	4127.996718
674.752368	4139.306547
675.091820	4153.809946
675.431223	4126.557468
675.770574	4139.687154
676.109875	4120.840800
676.449125	4134.963593
676.788324	4123.716778
677.127473	4105.271196
677.466571	4112.117083
677.805619	4118.733598
678.144616	4118.221921
678.483562	4119.547744
678.822458	4108.568111
679.161303	4114.867033
679.500098	4115.681179
679.838842	4113.478195
680.177535	4125.057725
680.516179	4139.765292
680.854771	4152.796674
681.193314	4205.053275
681.531805	4269.917802
681.870247	4362.866596
682.208638	4423.942696
682.546978	4436.127164
682.885268	4435.738996
683.223508	4397.874889
683.561697	4376.109707
683.899836	4370.945045
684.237925	4354.639433
684.575963	4334.406762
684.913951	4317.531500
685.251889	4370.481259
685.589776	4345.464533
685.927614	4333.890044
686.265401	4387.898446
686.603137	4385.377869
686.940824	4438.070529
687.278460	4455.472592
687.616046	4467.654541
687.953582	4508.976879
688.291068	4502.519161
688.628504	4555.481523
688.965889	4533.988563
689.303224	4504.669213
689.640510	4490.722861
689.977745	4455.908652
690.314930	4406.671703
690.652065	4376.825551
690.989150	4329.320238
691.326185	4297.568530
691.663170	4278.812918
692.000105	4237.001588
692.336990	4194.771842
692.673825	4196.793344
693.010610	4153.222652
693.347345	4107.572483
693.684030	4120.341726
694.020665	4096.529836
694.357251	4042.486146
694.693786	4053.891756
695.030272	4037.560938
695.366707	4027.546686
695.703093	4005.794107
696.039429	4028.345709
696.375716	4024.572406
696.711952	4009.091022
697.048139	4002.751771
697.384276	3996.906553
697.720363	4011.757792
698.056400	4026.054505
698.392388	3989.513701
698.728326	3978.269407
699.064214	3971.337821
699.400053	3970.937049
699.735842	3959.904484
700.071581	3946.794963
700.407270	3932.210905
700.742910	3931.845422
701.078501	3895.302097
701.414042	3901.802665
701.749533	3888.998135
702.084974	3844.794777
702.420366	3889.903022
702.755709	3854.453628
703.091002	3818.668997
703.426246	3861.281871
703.761440	3830.142663
704.096584	3803.621153
704.431679	3828.000173
704.766725	3820.055315
705.101721	3818.245540
705.436668	3843.968028
705.771565	3803.931184
706.106413	3829.013445
706.441212	3861.705328
706.775961	3874.464488
707.110661	3856.321375
707.445311	3875.964231
707.779913	3907.463881
708.114465	3915.111312
708.448967	3926.063218
708.783421	3978.836537
709.117825	4011.399871
709.452180	4016.282228
709.786485	4047.590314
710.120742	4116.155047
710.454949	4097.114609
710.789107	4152.940347
711.123216	4200.906926
711.457275	4193.524156
711.791286	4248.155140
712.125247	4268.395373
712.459159	4190.796892
712.793023	4250.380810
713.126837	4235.675764
713.460602	4230.798448
713.794318	4169.011546
714.127985	4192.130277
714.461602	4136.201196
714.795171	4114.022639
715.128691	4074.714242
715.462162	4036.577913
715.795584	4009.617823
716.128957	3999.056605
716.462281	3962.420020
716.795556	3947.720015
717.128782	3919.383689
717.461960	3873.915002
717.795088	3888.733474
718.128167	3857.102754
718.461198	3814.827638
718.794180	3814.547854
719.127113	3804.037048
719.459997	3786.488792
719.792833	3756.516612
720.125619	3747.576125
720.458357	3723.096282
720.791046	3736.558683
721.123686	3711.937688
721.456278	3678.141793
721.788821	3696.476469
722.121315	3671.875638
722.453761	3655.096158
722.786158	3669.899506
723.118506	3693.393804
723.450805	3650.128101
723.783056	3667.361285
724.115259	3687.924152
724.447412	3694.896067
724.779518	3687.233514
725.111574	3692.574616
725.443582	3718.392886
725.775542	3706.820917
726.107453	3750.804984
726.439315	3751.084768
726.771129	3759.937034
727.102895	3792.830563
727.434612	3833.026203
727.766281	3846.017257
728.097901	3845.316537
728.429473	3852.356508
728.760996	3857.478320
729.092471	3857.334647
729.423897	3849.218390
729.755276	3858.940255
730.086606	3859.003269
730.417887	3890.981829
730.749120	3949.832259
731.080305	4007.054396
731.411442	4031.713200
731.742530	4008.455837
732.073570	4013.106301
732.404562	4064.997418
732.735506	4053.617013
733.066401	4022.470244
733.397249	3978.206393
733.728048	3916.653905
734.058798	3854.332640
734.389501	3795.930873
734.720156	3739.979106
735.050762	3705.956359
735.381320	3702.054506
735.711831	3658.942558
736.042293	3634.760143
736.372707	3655.597753
736.703073	3631.765698
737.033391	3622.542907
737.363661	3644.411432
737.693883	3663.282992
738.024056	3671.341276
738.354182	3663.237621
738.684260	3724.321283
739.014290	3737.859301
739.344272	3729.533836
739.674207	3767.871811
740.004093	3776.522431
740.333931	3767.125720
740.663722	3772.544960
740.993464	3771.564456
741.323159	3751.515787
741.652806	3728.404617
741.982405	3709.727142
742.311956	3684.922145
742.641460	3678.277904
742.970915	3661.415244
743.300323	3629.479535
743.629683	3595.766818
743.958996	3594.196499
744.288260	3572.264959
744.617477	3540.160371
744.946647	3534.569731
745.275768	3514.490815
745.604842	3509.865557
745.933869	3467.154381
746.262847	3462.113227
746.591778	3498.303670
746.920662	3470.526913
747.249498	3444.648149
747.578286	3487.833194
747.907027	3504.675689
748.235720	3499.879031
748.564365	3523.012886
748.892963	3524.391642
749.221514	3511.922347
749.550017	3485.932679
749.878473	3488.203719
750.206881	3466.239411
750.535242	3460.621045
750.863555	3463.587764
751.191821	3460.242959
751.520039	3439.828806
751.848210	3422.981270
752.176334	3455.957978
752.504411	3459.927887
752.832440	3425.476641
753.160421	3408.954260
753.488356	3418.108995
753.816243	3428.576951
754.144082	3387.710837
754.471875	3374.485370
754.799620	3395.716190
755.127318	3384.912997
755.454969	3387.776372
755.782572	3395.375912
756.110129	3372.693240
756.437638	3362.091693
756.765100	3376.753889
757.092515	3387.884757
757.419882	3392.726785
757.747203	3366.694267
758.074477	3370.056717
758.401703	3387.219325
758.728882	3404.127355
759.056014	3410.209507
759.383099	3414.706216
759.710138	3410.325453
760.037129	3428.312290
760.364073	3460.767239
760.690970	3441.447017
761.017820	3421.894902
761.344623	3442.523303
761.671379	3482.572750
761.998088	3531.653424
762.324751	3649.795385
762.651366	3879.064541
762.977935	4313.319616
763.304456	4715.797777
763.630931	4799.974964
763.957359	4472.360458
764.283740	4164.655989
764.610074	3992.135101
764.936362	3804.183242
765.262602	3657.964574
765.588796	3558.341292
765.914943	3474.022953
766.241044	3394.506313
766.567097	3368.778784
766.893104	3325.273626
767.219064	3296.259265
767.544978	3274.108435
767.870845	3219.958881
768.196665	3205.110163
768.522438	3212.359342
768.848165	3210.438662
769.173846	3174.341480
769.499479	3159.936383
769.825066	3143.880308
770.150607	3126.644603
770.476101	3144.555823
770.801548	3144.069351
771.126949	3097.352979
771.452303	3082.027871
771.777611	3090.575147
772.102872	3095.996908
772.428087	3071.015470
772.753256	3062.715211
773.078378	3055.206412
773.403453	3022.017976
773.728482	3010.405678
774.053465	3032.702701
774.378401	3019.565454
774.703291	2987.778459
775.028135	2990.740137
775.352932	2986.535814
775.677683	2975.299082
776.002388	2970.749441
776.327046	2977.650781
776.651658	2965.725931
776.976224	2952.664302
777.300743	2955.923408
777.625216	2944.653908
777.949643	2943.466716
778.274024	2944.197684
778.598359	2931.917433
778.922647	2937.119904
779.246889	2940.555450
779.571086	2923.226484
779.895236	2917.419074
780.219339	2929.507761
780.543397	2941.576284
780.867409	2940.956222
781.191374	2933.644028
781.515294	2933.853236
781.839167	2934.750561
782.162995	2923.118099
782.486776	2932.489604
782.810511	2930.510951
783.134201	2918.800351
783.457844	2927.753440
783.781441	2916.307500
784.104993	2900.299316
784.428498	2899.888462
784.751958	2908.322312
785.075372	2906.182343
785.398739	2891.973850
785.722061	2907.709812
786.045337	2920.829415
786.368568	2901.433576
786.691752	2897.398132
787.014891	2942.758434
787.337983	2972.624750
787.661030	2995.962772
787.984031	3059.743450
788.306987	3103.427569
788.629897	3096.322063
788.952760	3084.268664
789.275579	3066.291909
789.598351	3009.752848
789.921078	2965.998153
790.243759	2960.949438
790.566395	2944.429577
790.888984	2921.643561
791.211529	2909.058321
791.534027	2899.578431
791.856480	2888.752553
792.178888	2872.777137
792.501249	2866.586600
792.823566	2863.735827
793.145836	2859.344982
793.468062	2857.903212
793.790241	2854.197964
794.112375	2861.807586
794.434464	2874.113042
794.756507	2878.009854
795.078505	2880.474978
795.400457	2895.628687
795.722364	2930.155550
796.044226	2954.771504
796.366042	2954.980712
796.687812	2943.345729
797.009538	2965.191569
797.331218	2952.495423
797.652852	2939.300203
797.974442	2921.835125
798.295986	2917.056111
798.617484	2912.617375
798.938938	2899.961559
799.260346	2883.232490
799.581709	2879.610421
799.903026	2871.156406
800.224299	2866.140457
800.545526	2859.158459
800.866708	2842.505008
801.187845	2835.444872
801.508936	2833.458657
801.829983	2842.860409
802.150984	2831.434634
802.471940	2818.872078
802.792851	2815.171872
803.113717	2816.825370
803.434538	2821.057419
803.755314	2815.910401
804.076045	2812.661377
804.396731	2809.798002
804.717372	2807.179122
805.037967	2806.352373
805.358518	2812.414360
805.679024	2823.005825
805.999485	2818.957778
806.319901	2822.045485
806.640272	2815.013075
806.960598	2820.369301
807.280879	2829.340034
807.601115	2838.804801
807.921306	2822.831905
808.241453	2819.557675
808.561554	2825.748212
808.881611	2828.049499
809.201623	2822.433654
809.521590	2821.208653
809.841513	2816.570792
810.161390	2821.311997
810.481223	2815.365956
810.801011	2807.441262
811.120755	2800.900365
811.440453	2802.379944
811.760107	2806.848927
812.079716	2806.019657
812.399281	2795.702935
812.718801	2788.274795
813.038276	2781.534772
813.357707	2790.573561
813.677093	2795.423151
813.996434	2788.751184
814.315731	2787.006945
814.634983	2783.137859
814.954191	2782.492592
815.273354	2796.910292
815.592473	2806.133083
815.911547	2804.787095
816.230577	2812.184988
816.549562	2823.729230
816.868502	2820.843170
817.187399	2831.704336
817.506250	2847.944413
817.825058	2840.039883
818.143821	2852.783920
818.462539	2866.495859
818.781213	2891.351268
819.099843	2928.237391
819.418429	2981.789568
819.736970	3043.760472
820.055466	3111.747993
820.373919	3214.635423
820.692327	3350.159282
821.010691	3511.463603
821.329011	3941.519396
821.647286	4799.722906
821.965517	6108.419048
822.283704	6797.801877
822.601847	6772.979236
822.919945	6170.495816
823.237999	5701.827305
823.556010	5146.803828
823.873976	4618.216162
824.191897	4235.254828
824.509775	3949.827217
824.827609	3690.225438
825.145398	3573.983992
825.463144	3569.419228
825.780845	3659.527332
826.098502	3762.442488
826.416116	4035.899878
826.733685	4336.329962
827.051210	4387.525400
827.368692	4277.373668
827.686129	4019.374976
828.003522	3710.866443
828.320872	3463.328145
828.638177	3276.397119
828.955439	3145.286790
829.272656	3067.209399
829.589830	3002.619616
829.906960	2953.380145
830.224046	2911.193249
830.541088	2878.927344
830.858086	2864.512165
831.175041	2848.272088
831.491952	2849.628158
831.808819	2860.088552
832.125642	2884.580998
832.442421	2929.633790
832.759157	3007.373424
833.075849	3180.353056
833.392497	3453.313893
833.709101	3647.095847
834.025662	3592.653906
834.342179	3437.570369
834.658653	3269.246242
834.975083	3126.488327
835.291469	3035.067002
835.607811	2954.879889
835.924110	2894.476783
836.240366	2849.154290
836.556578	2806.438072
836.872746	2785.862603
837.188871	2763.603388
837.504952	2746.594535
837.820990	2741.628999
838.136984	2725.215002
838.452935	2719.294167
838.768842	2716.050184
839.084706	2737.071796
839.400526	2812.109371
839.716303	2942.236675
840.032037	3015.116636
840.347727	2998.190962
840.663373	2942.813887
840.978977	2871.879811
841.294537	2800.618060
841.610054	2751.497057
841.925527	2732.123903
842.240957	2712.909545
842.556344	2692.354240
842.871687	2676.114163
843.186987	2668.902793
843.502244	2665.893224
843.817458	2660.360557
844.132629	2647.772796
844.447756	2641.302475
844.762840	2633.813841
845.077881	2637.390540
845.392879	2634.368368
845.707833	2630.267390
846.022745	2622.559465
846.337613	2626.937707
846.652438	2623.436626
846.967221	2625.533746
847.281960	2623.020731
847.596656	2623.585340
847.911309	2622.914867
848.225919	2617.916563
848.540485	2616.560492
848.855009	2616.983949
849.169490	2615.423712
849.483928	2614.423043
849.798323	2616.220214
850.112675	2613.341716
850.426984	2615.713578
850.741251	2612.769545
851.055474	2612.651077
851.369654	2616.505040
851.683792	2614.821294
851.997887	2612.635954
852.311938	2611.501694
852.625947	2615.680811
852.939914	2615.900101
853.253837	2616.747015
853.567718	2611.302569
853.881555	2610.122939
854.195350	2615.436315
854.509103	2614.259206
854.822812	2612.419184
855.136479	2609.167640
855.450103	2613.729884
855.763685	2614.354988
856.077224	2614.218876
856.390720	2607.476333
856.704173	2616.280708
857.017584	2614.115533
857.330953	2614.836418
857.644278	2618.488734
857.957561	2618.617283
858.270802	2615.451438
858.584000	2614.155862
858.897155	2621.803292
859.210268	2619.749022
859.523339	2615.746346
859.836367	2612.474637
860.149352	2611.410954
860.462295	2612.444390
860.775195	2611.428598
861.088054	2609.457507
861.400869	2609.470109
861.713642	2606.253853
862.026373	2606.294182
862.339062	2610.652260
862.651708	2613.167796
862.964312	2614.977570
863.276873	2612.308279
863.589392	2614.725512
863.901869	2622.259517
864.214303	2625.185907
864.526696	2628.387039
864.839045	2627.918212
865.151353	2630.519447
865.463619	2632.301495
865.775842	2632.470374
866.088023	2630.930301
866.400162	2633.143368
866.712258	2633.965076
867.024313	2630.917698
867.336325	2626.315125
867.648296	2628.218161
867.960224	2634.005405
868.272110	2633.186218
868.583954	2623.131636
868.895755	2627.396452
869.207515	2631.252935
869.519233	2639.389357
869.830909	2634.847278
870.142542	2628.344189
870.454134	2632.964407
870.765684	2637.977834
871.077191	2639.827938
871.388657	2641.569657
871.700081	2637.877011
872.011463	2642.300624
872.322803	2642.792136
872.634101	2646.777168
872.945357	2650.000986
873.256571	2661.169663
873.567744	2655.662202
873.878874	2655.984836
874.189963	2654.084321
874.501010	2659.158242
874.812015	2663.934736
875.122979	2663.891886
875.433900	2653.512150
875.744780	2654.112047
876.055618	2659.634631
876.366415	2665.308450
876.677169	2662.480363
876.987882	2660.126144
877.298554	2657.013231
877.609183	2664.572442
877.919771	2674.064934
878.230317	2681.288908
878.540822	2688.245700
878.851285	2702.066023
879.161707	2726.823130
879.472087	2763.749582
879.782425	2806.705254
880.092722	2915.609300
880.402977	3098.895572
880.713191	3345.420598
881.023363	3617.534521
881.333494	3796.324083
881.643583	3964.872541
881.953631	3962.672077
882.263637	3790.004997
882.573602	3578.863829
882.883526	3457.266158
883.193408	3350.824715
883.503248	3257.593615
883.813048	3145.465751
884.122806	3033.970551
884.432522	2952.729837
884.742197	2894.595250
885.051831	2857.943541
885.361424	2826.948007
885.670975	2793.094138
885.980485	2761.556680
886.289954	2747.799371
886.599382	2733.505179
886.908768	2721.567727
887.218113	2706.973587
887.527417	2693.662420
887.836680	2684.716892
888.145901	2680.164730
888.455082	2672.633247
888.764221	2658.870897
889.073319	2654.104486
889.382376	2654.593477
889.691392	2654.333858
890.000366	2654.076759
890.309300	2652.224135
890.618193	2656.642707
890.927044	2655.455515
891.235855	2655.221101
891.544625	2655.717655
891.853353	2655.750422
892.162041	2663.826351
892.470687	2682.536593
892.779293	2694.118644
893.087858	2698.849767
893.396381	2722.291132
893.704864	2761.420569
894.013306	2832.410097
894.321707	2919.254054
894.630068	2965.000005
894.938387	2985.119250
895.246665	2976.440904
895.554903	2933.810386
895.863100	2895.127092
896.171256	2843.167919
896.479371	2779.394803
896.787446	2742.995151
897.095480	2729.648697
897.403473	2721.048488
897.711425	2706.154399
898.019336	2687.754187
898.327207	2676.880419
898.635038	2674.677434
898.942827	2673.031498
899.250576	2664.748882
899.558284	2651.253713
899.865952	2649.885040
900.173579	2648.148362
900.481165	2646.018475
900.788711	2636.014305
901.096216	2631.557925
901.403681	2627.416617
901.711105	2629.710342
902.018489	2623.592902
902.325832	2631.033645
902.633135	2634.277627
902.940397	2646.439411
903.247619	2681.344360
903.554800	2746.818867
903.861941	2866.342104
904.169041	2986.298880
904.476101	3041.418856
904.783121	3035.039276
905.090100	2982.485247
905.397039	2911.543610
905.703938	2842.426870
906.010796	2784.655247
906.317614	2732.020559
906.624391	2700.609130
906.931129	2674.599297
907.237826	2656.136071
907.544483	2637.408184
907.851099	2625.538787
908.157675	2617.024278
908.464211	2608.734101
908.770707	2598.961824
909.077163	2593.091401
909.383578	2591.873962
909.689954	2592.045361
909.996289	2588.970257
910.302584	2588.756008
910.608839	2583.432550
910.915054	2588.007397
911.221229	2588.511512
911.527363	2591.500917
911.833458	2589.930597
912.139513	2589.716348
912.445527	2589.192068
912.751502	2595.513675
913.057436	2601.772267
913.363331	2607.824173
913.669186	2617.470421
913.975000	2631.547843
914.280775	2644.165851
914.586510	2664.098573
914.892205	2696.777853
915.197859	2761.745723
915.503475	2842.439473
915.809050	2900.904254
916.114585	2910.517735
916.420081	2925.396700
916.725536	2935.451282
917.030952	2911.702406
917.336328	2868.696322
917.641665	2816.805205
917.946961	2769.299892
918.252218	2742.889287
918.557435	2717.633106
918.862612	2697.097966
919.167750	2681.747653
919.472848	2664.020435
919.777906	2650.313538
920.082925	2636.654532
920.387904	2627.845115
920.692843	2626.509209
920.997743	2620.371605
921.302603	2613.442539
921.607423	2610.165789
921.912204	2602.404932
922.216946	2600.075919
922.521647	2601.472319
922.826310	2595.480908
923.130932	2591.984867
923.435516	2583.672005
923.740059	2583.122519
924.044564	2582.081521
924.349028	2581.486664
924.653454	2571.220355
924.957840	2570.312947
925.262186	2567.457133
925.566493	2569.720611
925.870761	2566.917730
926.174989	2567.252967
926.479178	2562.708366
926.783328	2561.939590
927.087438	2561.914385
927.391509	2565.982596
927.695541	2559.943293
927.999533	2559.292985
928.303486	2557.241235
928.607400	2558.491441
928.911275	2557.122768
929.215110	2557.349620
929.518906	2556.734599
929.822663	2561.127965
930.126381	2558.521688
930.430060	2556.139743
930.733699	2555.257541
931.037299	2556.169990
931.340861	2560.558314
931.644383	2561.301884
931.947866	2555.547407
932.251309	2559.618139
932.554714	2554.279557
932.858080	2558.559497
933.161407	2557.387428
933.464694	2558.967830
933.767943	2554.821481
934.071153	2558.105793
934.374323	2556.459856
934.677455	2554.050185
934.980548	2554.876934
935.283602	2555.002963
935.586617	2552.691594
935.889593	2556.114537
936.192530	2554.103117
936.495428	2555.570093
936.798287	2556.169990
937.101108	2556.716955
937.403890	2561.019580
937.706632	2563.348593
938.009336	2565.360013
938.312002	2568.120045
938.614628	2570.436455
938.917216	2574.897876
939.219765	2575.384348
939.522275	2576.994996
939.824747	2574.620613
940.127179	2568.997206
940.429573	2566.801783
940.731929	2569.186249
941.034246	2565.360013
941.336524	2568.477967
941.638763	2566.806824
941.940964	2565.685168
942.243126	2563.953531
942.545250	2564.271124
942.847335	2565.511248
943.149381	2562.352965
943.451389	2559.545042
943.753359	2559.335834
944.055290	2557.019424
944.357182	2559.056050
944.659036	2557.979764
944.960851	2559.920608
945.262628	2559.292985
945.564367	2559.736606
945.866067	2556.157387
946.167729	2559.585372
946.469352	2556.580844
946.770937	2557.175700
947.072484	2559.681153
947.373992	2556.480021
947.675462	2557.752912
947.976893	2555.781821
948.278286	2557.236194
948.579641	2556.437171
948.880958	2555.978426
949.182236	2557.246276
949.483476	2555.721327
949.784678	2555.282747
950.085841	2556.205278
950.386967	2553.097407
950.688054	2553.732592
950.989103	2556.565720
951.290114	2556.807696
951.591087	2558.756102
951.892021	2558.052861
952.192917	2559.144271
952.493776	2561.276679
952.794596	2563.225085
953.095378	2564.908830
953.396122	2564.530743
953.696828	2560.119734
953.997496	2560.644014
954.298126	2559.587892
954.598718	2558.740978
954.899272	2557.402552
955.199788	2555.376008
955.500266	2556.520350
955.800706	2551.070863
956.101108	2545.707075
956.401472	2549.714792
956.701798	2548.255378
957.002087	2548.210008
957.302337	2542.901673
957.602550	2547.872251
957.902724	2542.884029
958.202861	2547.947868
958.502960	2546.921993
958.803022	2544.625747
959.103045	2543.589790
959.403031	2544.991231
959.702979	2543.834286
960.002889	2544.600542
960.302762	2543.771272
960.602596	2544.426622
960.902393	2543.340253
961.202153	2544.600542
961.501875	2545.066848
961.801559	2540.391178
962.101205	2540.849923
962.400814	2542.551313
962.700385	2540.746580
962.999918	2545.127342
963.299414	2542.281611
963.598873	2541.545602
963.898293	2542.205994
964.197677	2545.334030
964.497022	2541.343956
964.796331	2543.030222
965.095601	2542.760521
965.394835	2542.488298
965.694030	2540.759182
965.993189	2542.556354
966.292309	2543.171375
966.591393	2542.815973
966.890439	2538.916641
967.189447	2537.956301
967.488419	2540.484440
967.787353	2541.379244
968.086249	2541.835469
968.385108	2543.221786
968.683930	2542.032074
968.982714	2543.766231
969.281462	2542.856303
969.580172	2542.246323
969.878844	2541.802701
970.177480	2541.555685
970.476078	2543.269677
970.774639	2544.222455
971.073162	2544.209852
971.371649	2541.676672
971.670098	2541.122146
971.968510	2542.516025
972.266885	2538.702392
972.565223	2544.434184
972.863524	2541.575849
973.161788	2544.048535
973.460014	2543.660367
973.758204	2543.960315
974.056356	2544.494678
974.354471	2543.869574
974.652550	2542.200953
974.950591	2545.812939
975.248595	2541.888401
975.546563	2541.921168
975.844493	2543.662887
976.142386	2542.316899
976.440243	2541.359080
976.738062	2542.631971
977.035845	2543.433515
977.333590	2541.321271
977.631299	2542.261446
977.928971	2540.857485
978.226606	2542.647095
978.524204	2539.597197
978.821765	2542.243802
979.119290	2539.506456
979.416777	2541.616179
979.714228	2543.002496
980.011642	2542.886549
980.309020	2543.161292
980.606360	2541.228010
980.903664	2541.878319
981.200931	2543.509132
981.498162	2541.404450
981.795356	2546.120450
982.092513	2549.238403
982.389633	2549.314021
982.686717	2553.389793
982.983764	2554.708055
983.280775	2556.316183
983.577749	2555.509599
983.874686	2555.277706
984.171587	2554.879454
984.468451	2551.438867
984.765279	2547.708413
985.062070	2547.615152
985.358824	2547.204298
985.655543	2546.705223
985.952224	2543.733463
986.248869	2543.325130
986.545478	2539.403112
986.842050	2539.690458
987.138586	2536.612833
987.435086	2540.701209
987.731549	2536.844727
988.027975	2541.114584
988.324366	2538.883873
988.620719	2538.490663
988.917037	2539.259439
989.213318	2539.597197
989.509563	2543.035263
989.805772	2541.568288
990.101944	2538.243647
990.398080	2538.241126
990.694180	2541.815304
990.990244	2540.607948
991.286271	2539.393030
991.582262	2541.517876
991.878217	2540.197094
992.174136	2539.229192
992.470019	2539.798843
992.765865	2541.772454
993.061676	2540.184491
993.357450	2541.210366
993.653188	2541.480067
993.948890	2541.873278
994.244556	2538.299099
994.540186	2541.648946
994.835780	2539.695499
995.131337	2542.523586
995.426859	2539.743390
995.722345	2539.897145
996.017795	2541.152392
996.313208	2546.508618
996.608586	2545.129863
996.903928	2542.521066
997.199234	2543.529297
997.494504	2541.391847
997.789738	2540.396219
998.084936	2541.613658
998.380099	2543.814122
998.675225	2541.853113
998.970316	2541.961498
999.265371	2541.132228
999.560390	2537.099305
999.855373	2541.170037
1000.150320	2538.231044
1000.445232	2540.988555
1000.740108	2539.619882
1001.034948	2543.410829
1001.329752	2539.183822
1001.624521	2537.227854
1001.919254	2536.466640
1002.213951	2536.935467
1002.508613	2536.668286
1002.803239	2537.898328
1003.097829	2532.988244
1003.392384	2539.493853
1003.686903	2538.110056
1003.981386	2540.527289
1004.275834	2539.508976
1004.570246	2539.960160
1004.864623	2539.750952
1005.158964	2537.671476
1005.453270	2537.938657
1005.747540	2538.543595
1006.041775	2541.311189
1006.335974	2539.138452
1006.630138	2536.877494
1006.924266	2540.975952
1007.218359	2537.653832
1007.512416	2539.040149
1007.806438	2536.859850
1008.100425	2537.079140
1008.394376	2536.075951
1008.688292	2539.803884
1008.982172	2538.150385
1009.276017	2539.577032
1009.569827	2538.614172
1009.863602	2538.742721
1010.157341	2538.503266
1010.451045	2539.781199
1010.744714	2537.036290
1011.038347	2537.878163
1011.331945	2541.018802
1011.625508	2539.216589
1011.919036	2536.270035
1012.212528	2539.211548
1012.505986	2538.236085
1012.799408	2538.457896
1013.092795	2538.450334
1013.386147	2538.309182
1013.679464	2537.129552
1013.972745	2537.721887
1014.265992	2537.295910
1014.559204	2541.069213
1014.852380	2538.594007
1015.145521	2535.962525
1015.438628	2538.359593
1015.731699	2539.357742
1016.024736	2537.726928
1016.317737	2536.222144
1016.610703	2539.506456
1016.903635	2534.840868
1017.196531	2535.052596
1017.489393	2537.242978
1017.782219	2533.888090
1018.075011	2537.013605
1018.367768	2538.417567
1018.660490	2538.238606
1018.953177	2538.238606
1019.245829	2538.238606
