Dividing Wavelength (nm)	Counts (n)	Blue Motor Position (mm): 33.400000	Red Motor Position (mm): 0.000000	
326.493990	2131.059568
326.888308	2131.059568
327.282561	2131.059568
327.676750	2099.098653
328.070874	2097.493045
328.464933	2099.002871
328.858929	2107.197267
329.252859	2115.908380
329.646726	2125.738630
330.040528	2141.156999
330.434265	2159.970586
330.827938	2174.544561
331.221547	2191.503003
331.615091	2213.101827
332.008571	2231.423900
332.401986	2252.490882
332.795338	2269.376227
333.188625	2289.107303
333.581847	2309.997845
333.975006	2324.718014
334.368100	2343.458503
334.761129	2362.630011
335.154095	2378.013092
335.546996	2401.139386
335.939833	2423.796852
336.332606	2438.622885
336.725315	2451.679473
337.117960	2462.074333
337.510540	2471.972638
337.903056	2483.544607
338.295508	2486.128198
338.687896	2496.250835
339.080220	2504.987155
339.472480	2511.434791
339.864676	2516.231448
340.256807	2522.142201
340.648875	2522.593385
341.040879	2525.265196
341.432818	2526.051616
341.824694	2531.574200
342.216506	2528.100845
342.608253	2527.488345
342.999937	2528.494055
343.391557	2527.687471
343.783113	2527.029600
344.174605	2525.416431
344.566033	2523.619259
344.957397	2523.173117
345.348697	2522.661440
345.739934	2521.040709
346.131106	2519.636748
346.522215	2517.259844
346.913260	2514.056191
347.304241	2512.995028
347.695159	2511.409585
348.086012	2511.563340
348.476802	2508.208452
348.867528	2506.799450
349.258191	2503.036228
349.648789	2504.672083
350.039324	2501.594458
350.429796	2502.073368
350.820203	2500.853409
351.210548	2499.237719
351.600828	2495.759323
351.991045	2498.708398
352.381198	2500.805518
352.771288	2494.723366
353.161314	2497.261587
353.551276	2496.747389
353.941175	2497.848881
354.331010	2498.756289
354.720782	2494.642707
355.110490	2497.158243
355.500135	2496.770074
355.889717	2493.261431
356.279235	2496.603716
356.668689	2497.697646
357.058080	2496.986844
357.447408	2499.472133
357.836672	2495.721514
358.225873	2497.238901
358.615010	2492.444764
359.004084	2497.674961
359.393095	2497.581700
359.782043	2502.007833
360.170927	2500.172853
360.559748	2503.671414
360.948505	2501.339880
361.337199	2499.956083
361.725830	2503.512617
362.114398	2506.063441
362.502903	2504.934223
362.891344	2502.275014
363.279722	2503.893224
363.668037	2505.786178
364.056289	2506.819614
364.444478	2505.075375
364.832603	2505.957577
365.220665	2505.750890
365.608665	2508.654594
365.996601	2509.017557
366.384474	2508.735253
366.772284	2507.404388
367.160031	2507.928668
367.547715	2508.838596
367.935336	2507.727022
368.322893	2510.655932
368.710388	2509.962774
369.097820	2511.805315
369.485189	2510.703823
369.872495	2512.168278
370.259738	2511.812877
370.646918	2511.341529
371.034035	2514.222549
371.421090	2513.279853
371.808081	2511.591066
372.195010	2512.506036
372.581875	2513.128618
372.968678	2512.115346
373.355418	2511.028978
373.742096	2513.428567
374.128710	2514.144411
374.515262	2515.450070
374.901751	2514.305728
375.288177	2515.903773
375.674540	2514.477127
376.060841	2515.840759
376.447079	2513.499143
376.833254	2516.397807
377.219367	2509.314985
377.605417	2515.077024
377.991404	2510.971004
378.377329	2513.305059
378.763191	2511.223062
379.148991	2515.744977
379.534727	2513.617610
379.920402	2519.407375
380.306013	2518.053826
380.691563	2521.375946
381.077049	2517.895029
381.462474	2517.063239
381.847835	2517.577437
382.233134	2521.300329
382.618371	2519.409896
383.003545	2520.526512
383.388657	2519.493075
383.773706	2521.751512
384.158693	2521.171779
384.543618	2520.458456
384.928480	2519.598939
385.313280	2519.609022
385.698017	2523.231091
386.082692	2522.018693
386.467305	2521.552386
386.851856	2523.039527
387.236344	2524.158663
387.620770	2521.731347
388.005133	2521.096162
388.389435	2524.491379
388.773674	2522.633714
389.157851	2522.195133
389.541965	2526.167563
389.926018	2526.472552
390.310008	2523.271420
390.693936	2524.284692
391.077802	2523.957017
391.461606	2525.991122
391.845348	2524.168745
392.229027	2526.638911
392.612645	2525.492048
392.996200	2527.324507
393.379694	2527.831143
393.763125	2527.503468
394.146494	2529.736700
394.529801	2529.887934
394.913047	2529.724097
395.296230	2527.755526
395.679351	2529.729138
396.062410	2530.752492
396.445408	2528.524302
396.828343	2528.899868
397.211217	2526.490197
397.594028	2526.056657
397.976778	2528.473891
398.359466	2530.571011
398.742092	2525.827285
399.124656	2534.916485
399.507158	2531.919519
399.889598	2535.022349
400.271977	2536.391023
400.654294	2534.616537
401.036549	2533.567977
401.418742	2534.989582
401.800874	2534.402287
402.182944	2536.663245
402.564952	2538.092412
402.946898	2535.655014
403.328783	2535.869263
403.710606	2535.191228
404.092367	2540.149203
404.474067	2538.256250
404.855705	2541.222969
405.237282	2538.788091
405.618797	2538.556198
406.000250	2542.034594
406.381642	2542.090047
406.762972	2541.711961
407.144240	2540.431508
407.525447	2544.406457
407.906593	2543.632640
408.287677	2546.468289
408.668700	2546.415357
409.049661	2553.944320
409.430560	2553.493137
409.811399	2558.067984
410.192176	2563.842626
410.572891	2566.658110
410.953545	2569.922257
411.334138	2577.443659
411.714669	2584.183682
412.095139	2588.690473
412.475547	2601.313522
412.855894	2610.654781
413.236180	2618.972684
413.616405	2627.424179
413.996568	2643.104688
414.376670	2652.771100
414.756711	2662.011535
415.136691	2677.820594
415.516609	2697.057637
415.896466	2715.364587
416.276262	2735.461147
416.655997	2744.643609
417.035670	2783.344547
417.415283	2812.890749
417.794834	2827.560507
418.174324	2844.493743
418.553753	2855.443129
418.933121	2906.257960
419.312428	2941.349432
419.691674	2962.570169
420.070859	3008.477436
420.449983	3025.367822
420.829045	3074.423290
421.208047	3088.286463
421.586988	3136.671458
421.965867	3174.593538
422.344686	3250.041967
422.723444	3246.460227
423.102141	3234.671489
423.480777	3350.197091
423.859352	3332.187569
424.237866	3449.835497
424.616319	3486.184737
424.994712	3569.280596
425.373044	3570.775298
425.751314	3666.857170
426.129524	3644.401350
426.507673	3762.525667
426.885762	3839.695650
427.263789	3870.915516
427.641756	3859.492261
428.019662	3967.395639
428.397508	4017.280377
428.775292	4052.041653
429.153016	4147.296775
429.530679	4154.487981
429.908282	4252.193105
430.285824	4226.894074
430.663305	4430.685239
431.040726	4331.760156
431.418086	4378.163978
431.795385	4488.323271
432.172624	4544.748906
432.549802	4581.408177
432.926920	4640.273731
433.303977	4693.180640
433.680974	4762.829222
434.057910	4823.640661
434.434786	4874.299216
434.811601	4889.767996
435.188355	5104.276654
435.565050	5049.093663
435.941683	5072.046037
436.318257	5283.288027
436.694770	5308.224095
437.071222	5378.908633
437.447614	5359.495150
437.823946	5322.099871
438.200218	5483.804962
438.576429	5405.228497
438.952580	5525.984297
439.328670	5595.078351
439.704700	5540.616246
440.080670	5556.987393
440.456580	5828.153579
440.832429	5750.242546
441.208218	5634.089320
441.583947	5796.782478
441.959616	5825.219627
442.335224	5777.610970
442.710773	5923.552374
443.086261	5972.242359
443.461689	5791.580008
443.837057	5949.990706
444.212365	6113.084635
444.587612	6021.723804
444.962800	6187.688671
445.337927	6179.206930
445.712995	5816.059851
446.088002	6383.449278
446.462949	6228.330453
446.837837	6172.035888
447.212664	6346.157342
447.587431	6495.819118
447.962139	7032.644029
448.336786	7951.366591
448.711374	7695.772529
449.085901	6793.952956
449.460369	6723.308747
449.834776	6667.742628
450.209124	7058.235447
450.583412	7210.261523
450.957640	7356.702001
451.331808	7126.717001
451.705917	6685.648807
452.079965	6611.248938
452.453954	6821.263407
452.827883	6703.781837
453.201752	6798.764737
453.575562	6594.940805
453.949311	6800.526621
454.323001	6694.922009
454.696632	6763.461537
455.070202	6905.362456
455.443713	7063.243833
455.817164	7164.301323
456.190556	7244.967347
456.563888	7320.400652
456.937160	7366.524689
457.310373	7025.490632
457.683526	7043.774897
458.056619	6940.698424
458.429653	6928.123266
458.802628	6863.422577
459.175542	6977.380380
459.548398	7332.688465
459.921194	7490.428689
460.293930	7492.684606
460.666607	8018.000563
461.039224	8325.551277
461.411782	8461.117986
461.784280	8471.885890
462.156719	8365.356227
462.529099	8238.162875
462.901419	7834.653797
463.273680	7723.703042
463.645882	7739.189467
464.018024	7607.123839
464.390106	7774.636340
464.762130	8160.405597
465.134094	8624.837019
465.505999	9646.076485
465.877845	10860.109840
466.249631	11513.894562
466.621358	11128.551282
466.993026	10503.919553
467.364634	10251.899669
467.736184	9884.661694
468.107674	9551.189367
468.479105	9583.851003
468.850477	9355.436322
469.221790	9124.937124
469.593043	8797.183986
469.964238	8658.635435
470.335373	8665.012494
470.706449	8729.393070
471.077467	8707.358187
471.448425	10016.228248
471.819324	11087.463358
472.190164	11106.471028
472.560945	9858.684628
472.931667	9069.028208
473.302330	8938.283362
473.672934	8582.244310
474.043479	8938.676572
474.413965	8885.081545
474.784393	8764.008153
475.154761	8920.238552
475.525070	9011.629630
475.895321	8835.615223
476.265513	9017.784879
476.635645	9182.043315
477.005719	9178.378396
477.375734	9297.059761
477.745691	9530.563486
478.115588	9665.290843
478.485427	9910.565663
478.855207	10449.638929
479.224928	11263.233269
479.594591	11885.089843
479.964194	11698.204187
480.333739	11639.048767
480.703226	11543.856659
481.072653	11645.254428
481.442022	11881.114893
481.811333	12067.398130
482.180584	11874.793286
482.549777	11574.965620
482.918912	11401.517160
483.287988	11428.953640
483.657005	11443.010897
484.025964	11123.923503
484.394864	11252.324212
484.763706	11223.163657
485.132489	10984.709519
485.501213	10946.235433
485.869879	11023.773420
486.238487	10862.232166
486.607036	10974.957407
486.975527	10757.134190
487.343959	10950.855650
487.712333	10990.763945
488.080648	10923.335991
488.448905	10968.877775
488.817104	10902.803372
489.185244	11167.756336
489.553326	11328.924545
489.921350	11869.051412
490.289315	12920.709201
490.657222	13269.118467
491.025070	13171.138600
491.392861	13046.097820
491.760593	12660.331084
492.128267	12323.299703
492.495883	11989.146820
492.863440	11654.323464
493.230939	11324.591673
493.598380	11257.304872
493.965763	11123.827721
494.333088	11023.730570
494.700354	10946.812645
495.067563	11007.150215
495.434713	10839.751140
495.801805	10966.820984
496.168839	10884.027594
496.535815	10821.411422
496.902733	10823.022071
497.269593	10755.155537
497.636395	10855.527431
498.003139	10845.709784
498.369825	10712.721625
498.736453	10870.698783
499.103023	10796.550972
499.469535	10830.591363
499.835989	10814.416821
500.202385	10784.462285
500.568723	10625.202153
500.935003	10855.867709
501.301226	10661.692545
501.667390	10915.678479
502.033497	11015.722697
502.399546	10872.296829
502.765537	10779.038004
503.131470	10853.422749
503.497345	11021.038594
503.863163	10636.411158
504.228923	10946.232912
504.594625	11015.838644
504.960269	10760.378173
505.325856	10981.629374
505.691385	10774.934504
506.056856	10926.582494
506.422270	10950.679210
506.787625	10839.063023
507.152924	10952.993099
507.518164	10936.195975
507.883347	10865.392969
508.248472	10781.188056
508.613540	11018.452482
508.978550	10900.862527
509.343503	10875.122396
509.708398	11000.574030
510.073236	11104.275606
510.438016	11110.158632
510.802738	11058.779192
511.167403	11106.110586
511.532010	11005.431182
511.896561	11240.233004
512.261053	11305.979733
512.625488	11181.317039
512.989866	11160.257619
513.354186	11152.330405
513.718449	11054.219469
514.082655	11245.314487
514.446803	11142.122068
514.810894	11270.311049
515.174927	11121.355035
515.538904	11155.191260
515.902822	11303.088631
516.266684	11191.701816
516.630488	11131.901129
516.994235	11183.739314
517.357925	11250.385888
517.721558	11340.420896
518.085133	11360.822446
518.448651	11366.075328
518.812112	11249.254149
519.175516	11256.866292
519.538863	11373.949610
519.902152	11299.713579
520.265385	11466.061573
520.628560	11366.849145
520.991678	11343.637152
521.354739	11408.494117
521.717743	11344.269817
522.080690	11329.874802
522.443580	11456.112856
522.806413	11419.138513
523.169189	11448.982144
523.531908	11507.545228
523.894569	11323.560757
524.257174	11337.915443
524.619722	11437.269023
524.982213	11385.834130
525.344647	11446.822010
525.707025	11394.356201
526.069345	11487.128555
526.431608	11403.548745
526.793815	11516.226095
527.155964	11307.799589
527.518057	11355.672907
527.880093	11303.207098
528.242072	11372.769980
528.603995	11285.598348
528.965860	11206.384177
529.327669	11259.898546
529.689421	11199.523167
530.051117	11177.367295
530.412755	11269.101172
530.774337	11164.681232
531.135862	11144.100721
531.497331	11174.813951
531.858743	11021.804849
532.220098	11194.391272
532.581396	11060.954450
532.942638	11044.487521
533.303824	11004.569144
533.664953	11018.901145
534.026025	10936.669843
534.387040	11031.350274
534.747999	11039.395956
535.108902	11090.785478
535.469748	10855.348470
535.830537	10963.380397
536.191270	10936.329565
536.551947	10953.461927
536.912567	10959.324789
537.273131	10879.510720
537.633638	10855.194715
537.994089	10846.849085
538.354483	10801.082969
538.714821	10941.378281
539.075103	10955.465785
539.435328	10917.342059
539.795497	10743.923847
540.155609	10896.045705
540.515665	10987.386372
540.875665	10729.533873
541.235609	10791.282966
541.595496	10787.464292
541.955328	10947.220978
542.315102	10825.245220
542.674821	10781.215782
543.034483	10780.126893
543.394090	10781.031780
543.753640	10708.681140
544.113134	10933.067939
544.472571	10789.493357
544.831953	10928.921590
545.191278	10738.917981
545.550548	10765.928483
545.909761	10906.115410
546.268918	10869.622497
546.628019	10958.152720
546.987064	10822.737246
547.346053	10744.972407
547.704986	10848.495021
548.063863	10828.993318
548.422684	10823.248923
548.781449	10738.759184
549.140158	10846.221461
549.498811	10720.779909
549.857408	10580.393857
550.215949	10797.264295
550.574434	10650.856585
550.932864	10755.352142
551.291237	10816.513941
551.649555	10756.468758
552.007817	10779.063209
552.366022	10737.070398
552.724173	10734.847249
553.082267	10718.213962
553.440305	10854.861999
553.798288	10658.279684
554.156215	10809.693260
554.514086	10788.422112
554.871902	10629.320776
555.229661	10670.224698
555.587365	10638.359564
555.945014	10542.907837
556.302606	10671.404328
556.660143	10559.009282
557.017625	10708.865142
557.375050	10607.875707
557.732421	10746.593138
558.089735	10655.580146
558.446994	10660.903604
558.804197	10695.256547
559.161345	10700.748884
559.518437	10549.925123
559.875474	10633.792279
560.232455	10671.351396
560.589381	10615.152613
560.946251	10617.776533
561.303065	10716.646163
561.659825	10650.549074
562.016528	10586.561709
562.373177	10466.657864
562.729770	10578.959649
563.086307	10491.629220
563.442789	10593.841135
563.799216	10471.683895
564.155587	10516.048569
564.511904	10465.936979
564.868164	10454.901894
565.224370	10473.728083
565.580520	10399.615559
565.936615	10401.523636
566.292654	10273.997567
566.648638	10413.418239
567.004567	10365.418892
567.360441	10348.468013
567.716260	10251.178784
568.072023	10351.255771
568.427732	10305.640890
568.783385	10211.295696
569.138982	10280.243557
569.494525	10297.204519
569.850013	10175.427886
570.205445	10260.767059
570.560823	10150.317899
570.916145	10066.959899
571.271412	10144.414708
571.626625	10081.748124
571.981782	10061.966637
572.336884	10031.865907
572.691931	10036.508810
573.046923	9987.266819
573.401860	9935.917626
573.756743	9881.889059
574.111570	9922.094782
574.466342	9906.048789
574.821059	9932.368653
575.175722	9827.116923
575.530330	9834.756792
575.884882	9826.320421
576.239380	9751.741591
576.593823	9730.780473
576.948211	9754.262167
577.302544	9632.876224
577.656823	9644.201176
578.011047	9647.349377
578.365216	9617.717474
578.719330	9548.724243
579.073389	9552.167351
579.427394	9502.645576
579.781344	9476.010640
580.135239	9422.889481
580.489080	9439.621071
580.842866	9338.924023
581.196597	9344.126493
581.550273	9391.435202
581.903895	9349.253347
582.257463	9420.802443
582.610975	9303.124269
582.964434	9321.867279
583.317837	9239.588086
583.671186	9223.232063
584.024481	9221.102175
584.377721	9147.191298
584.730906	9118.121484
585.084037	9150.178182
585.437113	9088.265251
585.790135	9104.419628
586.143103	9004.624947
586.496016	8977.284249
586.848874	9037.745327
587.201679	9026.168317
587.554428	8911.993745
587.907124	8955.950086
588.259765	8930.217516
588.612352	8929.045448
588.964884	8809.819638
589.317362	8820.020413
589.669786	8823.007297
590.022155	8871.659473
590.374470	8889.631186
590.726731	8827.259510
591.078937	8675.029267
591.431090	8789.357595
591.783188	8660.180548
592.135232	8655.048654
592.487222	8654.035382
592.839157	8704.207465
593.191038	8638.062486
593.542866	8581.137777
593.894639	8488.315011
594.246358	8537.753607
594.598022	8554.339003
594.949633	8447.106099
595.301190	8419.168024
595.652692	8457.480793
596.004141	8569.475067
596.355535	8341.836724
596.706876	8320.220256
597.058162	8259.187007
597.409395	8337.259356
597.760573	8393.253973
598.111698	8306.699882
598.462768	8289.534753
598.813785	8258.503930
599.164748	8220.034885
599.515657	8214.696303
599.866511	8124.502499
600.217312	8249.618897
600.568060	8109.908359
600.918753	8211.215387
601.269392	8182.591715
601.619978	8098.351514
601.970510	8155.321593
602.320988	8153.784042
602.671412	8211.588432
603.021783	8145.851786
603.372100	8117.807847
603.722363	8125.997202
604.072572	8097.010567
604.422728	8112.789378
604.772830	8036.446145
605.122878	8049.316210
605.472872	8042.210704
605.822813	8067.484529
606.172701	8013.367742
606.522534	8094.600895
606.872314	8085.715862
607.222041	8059.093528
607.571714	8116.129143
607.921333	8072.165240
608.270899	8077.418122
608.620411	8160.750916
608.969870	8075.545334
609.319276	8062.168632
609.668627	8087.460101
610.017926	8118.785831
610.367171	8167.977410
610.716362	8141.642422
611.065500	8128.691698
611.414585	8165.850043
611.763616	8140.361969
612.112594	8131.313098
612.461518	8144.790623
612.810389	8206.917803
613.159207	8149.456211
613.507971	8097.010567
613.856682	8209.382927
614.205340	8168.552102
614.553945	8242.904080
614.902496	8147.742219
615.250994	8199.151906
615.599439	8182.256478
615.947830	8192.565638
616.296169	8164.231833
616.644454	8183.705810
616.992686	8180.154317
617.340864	8238.039366
617.688990	8138.214438
618.037063	8232.058037
618.385082	8176.060900
618.733048	8265.364941
619.080961	8202.945374
619.428821	8222.520174
619.776628	8222.772232
620.124382	8179.193977
620.472083	8161.670927
620.819731	8189.646810
621.167326	8082.794513
621.514868	8086.903053
621.862357	7975.801064
622.209793	7990.957293
622.557176	7926.092766
622.904506	7894.391470
623.251783	7835.069693
623.599007	7789.825337
623.946179	7788.280223
624.293297	7747.106599
624.640363	7665.724732
624.987376	7647.001887
625.334336	7593.278310
625.681243	7539.857203
626.028097	7529.006119
626.374899	7505.983169
626.721647	7502.154413
627.068343	7433.715708
627.414987	7405.923827
627.761577	7363.706684
628.108115	7395.344966
628.454600	7294.912578
628.801032	7344.913263
629.147412	7302.819628
629.493739	7290.279758
629.840014	7226.819193
630.186236	7287.035776
630.532405	7170.723753
630.878521	7222.118317
631.224585	7181.411000
631.570597	7100.767662
631.916556	7137.124463
632.262462	7129.419059
632.608316	7086.143274
632.954117	7067.967394
633.299866	7056.879376
633.645562	7045.428395
633.991206	6965.107691
634.336797	6909.279433
634.682336	6868.216714
635.027823	6836.679256
635.373257	6828.033677
635.718639	6759.932729
636.063968	6772.507888
636.409245	6666.381517
636.754470	6663.634088
637.099642	6625.417101
637.444762	6572.419450
637.789829	6572.177475
638.134845	6523.762233
638.479808	6503.443863
638.824719	6509.478124
639.169577	6437.724861
639.514383	6456.165402
639.859137	6382.430965
640.203839	6392.384723
640.548489	6378.100614
640.893086	6357.240319
641.237632	6324.563560
641.582125	6347.931828
641.926566	6318.955276
642.270955	6328.795608
642.615292	6325.488612
642.959576	6342.318504
643.303809	6334.048491
643.647990	6339.692062
643.992118	6324.860988
644.336195	6272.543893
644.680219	6297.837883
645.024192	6289.076357
645.368112	6387.101594
645.711981	6406.726806
646.055797	6483.238918
646.399562	6437.808040
646.743274	6570.559265
647.086935	6620.827130
647.430544	6611.513598
647.774101	6636.547968
648.117606	6642.221787
648.461059	6632.036136
648.804460	6596.110353
649.147810	6507.950654
649.491108	6476.322455
649.834354	6451.782118
650.177548	6367.224324
650.520690	6283.241222
650.863781	6258.405977
651.206820	6280.685357
651.549807	6201.592173
651.892742	6141.115971
652.235626	6147.891282
652.578458	6131.084075
652.921238	6044.230036
653.263967	6082.056333
653.606644	6022.961408
653.949269	6028.204207
654.291843	5965.736750
654.634365	6013.395818
654.976836	5966.823118
655.319255	5967.501153
655.661622	5944.140447
656.003938	5941.322442
656.346203	5900.289970
656.688416	5935.227687
657.030577	5888.392847
657.372687	5857.341860
657.714746	5842.261248
658.056753	5887.946705
658.398708	5826.290873
658.740612	5822.061344
659.082465	5866.226893
659.424266	5856.694071
659.766016	5857.740111
660.107715	5829.799516
660.449362	5851.226940
660.790958	5837.724209
661.132503	5829.413867
661.473996	5867.993818
661.815438	5854.816242
662.156829	5853.215675
662.498168	5843.685374
662.839456	5820.692671
663.180693	5851.569738
663.521879	5849.162588
663.863013	5844.746537
664.204097	5863.981059
664.545129	5902.523201
664.886110	5895.697479
665.227040	5932.845741
665.567918	5902.014044
665.908746	5928.384320
666.249522	5930.347850
666.590248	5913.976703
666.930922	5942.391166
667.271545	5954.200069
667.612118	5958.628723
667.952639	5929.226193
668.293109	5949.899965
668.633528	5908.496968
668.973896	5915.103400
669.314213	5909.560652
669.654480	5886.310850
669.994695	5881.554522
670.334859	5871.265527
670.674973	5865.445514
671.015035	5868.324013
671.355047	5868.848293
671.695008	5854.322208
672.034918	5827.835986
672.374777	5836.930228
672.714585	5825.348177
673.054342	5828.022509
673.394049	5815.349048
673.733705	5852.141909
674.073310	5835.564075
674.412864	5796.079238
674.752368	5783.632629
675.091820	5790.044976
675.431223	5730.206480
675.770574	5732.210339
676.109875	5680.495662
676.449125	5688.122928
676.788324	5653.573380
677.127473	5595.605152
677.466571	5590.876550
677.805619	5578.981947
678.144616	5565.474175
678.483562	5543.391401
678.822458	5507.765567
679.161303	5504.645092
679.500098	5499.462786
679.838842	5480.780270
680.177535	5486.552391
680.516179	5499.314072
680.854771	5509.794631
681.193314	5589.888483
681.531805	5699.604156
681.870247	5847.428431
682.208638	5952.659997
682.546978	5961.892870
682.885268	5940.636845
683.223508	5856.699113
683.561697	5805.675074
683.899836	5775.569303
684.237925	5725.651798
684.575963	5696.082910
684.913951	5651.216641
685.251889	5714.115117
685.589776	5682.025652
685.927614	5653.112114
686.265401	5727.456531
686.603137	5707.435588
686.940824	5784.693792
687.278460	5808.982071
687.616046	5817.405839
687.953582	5885.171549
688.291068	5864.946440
688.628504	5931.298107
688.965889	5889.509462
689.303224	5838.187996
689.640510	5791.186798
689.977745	5712.386001
690.314930	5614.693481
690.652065	5555.041507
690.989150	5466.065142
691.326185	5393.999327
691.663170	5339.794321
692.000105	5260.738946
692.336990	5184.209189
692.673825	5156.427391
693.010610	5088.986834
693.347345	5022.209190
693.684030	5009.104711
694.020665	4963.210046
694.357251	4875.529257
694.693786	4887.509559
695.030272	4856.418243
695.366707	4817.848375
695.703093	4782.857726
696.039429	4807.957631
696.375716	4785.121204
696.711952	4765.821147
697.048139	4747.902365
697.384276	4728.882092
697.720363	4741.346345
698.056400	4752.489815
698.392388	4702.443760
698.728326	4680.945760
699.064214	4657.678314
699.400053	4654.633457
699.735842	4618.768168
700.071581	4599.362247
700.407270	4569.074994
700.742910	4553.974218
701.078501	4498.569417
701.414042	4496.154704
701.749533	4464.952482
702.084974	4399.644334
702.420366	4460.402841
702.755709	4399.435126
703.091002	4344.055531
703.426246	4393.844487
703.761440	4346.140048
704.096584	4312.018998
704.431679	4333.022965
704.766725	4318.963187
705.101721	4303.607833
705.436668	4331.984488
705.771565	4281.212507
706.106413	4310.239471
706.441212	4342.422197
706.775961	4351.639947
707.110661	4328.314528
707.445311	4358.223693
707.779913	4381.176067
708.114465	4394.459507
708.448967	4414.790481
708.783421	4477.260459
709.117825	4519.389382
709.452180	4522.754352
709.786485	4565.571392
710.120742	4654.232686
710.454949	4639.308350
710.789107	4707.903330
711.123216	4777.612405
711.457275	4769.289460
711.791286	4845.607488
712.125247	4858.250702
712.459159	4762.093213
712.793023	4838.176828
713.126837	4800.446312
713.460602	4791.825939
713.794318	4710.290316
714.127985	4717.786512
714.461602	4629.359633
714.795171	4602.949028
715.128691	4537.981157
715.462162	4481.152230
715.795584	4431.617852
716.128957	4414.654370
716.462281	4362.927090
716.795556	4335.863656
717.128782	4297.356802
717.461960	4232.409096
717.795088	4249.009616
718.128167	4201.292574
718.461198	4142.999192
718.794180	4137.174138
719.127113	4119.867857
719.459997	4096.471862
719.792833	4049.823545
720.125619	4044.200138
720.458357	4009.040611
720.791046	4012.692927
721.123686	3985.977332
721.456278	3943.619037
721.788821	3960.839618
722.121315	3932.911626
722.453761	3907.501690
722.786158	3922.050460
723.118506	3944.438224
723.450805	3897.381573
723.783056	3916.245571
724.115259	3932.399949
724.447412	3939.414714
724.779518	3933.503961
725.111574	3938.522430
725.443582	3964.000422
725.775542	3952.259574
726.107453	4001.867049
726.439315	4002.650948
726.771129	4016.723329
727.102895	4053.024678
727.434612	4101.775156
727.766281	4108.603399
728.097901	4114.809059
728.429473	4117.455665
728.760996	4125.486223
729.092471	4119.580512
729.423897	4102.085187
729.755276	4110.120786
730.086606	4111.108852
730.417887	4148.095798
730.749120	4212.249522
731.080305	4276.050365
731.411442	4301.838388
731.742530	4275.957104
732.073570	4276.841826
732.404562	4329.305114
732.735506	4321.256912
733.066401	4283.113022
733.397249	4220.587591
733.728048	4142.427021
734.058798	4064.120258
734.389501	3990.340450
734.720156	3926.897529
735.050762	3883.205849
735.381320	3879.772823
735.711831	3828.799196
736.042293	3798.312818
736.372707	3815.888801
736.703073	3791.976088
737.033391	3779.857154
737.363661	3799.197541
737.693883	3822.596056
738.024056	3832.602747
738.354182	3828.393383
738.684260	3895.841501
739.014290	3914.549223
739.344272	3909.737442
739.674207	3950.144810
740.004093	3958.213177
740.333931	3948.882001
740.663722	3954.381900
740.993464	3949.875108
741.323159	3922.451232
741.652806	3896.940472
741.982405	3869.085577
742.311956	3836.582737
742.641460	3826.311387
742.970915	3801.587047
743.300323	3762.293774
743.629683	3727.340934
743.958996	3718.947413
744.288260	3690.618648
744.617477	3656.716889
744.946647	3644.048469
745.275768	3619.518215
745.604842	3616.702730
745.933869	3570.601378
746.262847	3561.517219
746.591778	3600.467694
746.920662	3571.138261
747.249498	3540.208262
747.578286	3587.653081
747.907027	3604.568673
748.235720	3598.562138
748.564365	3626.777476
748.892963	3625.580202
749.221514	3608.669652
749.550017	3583.753749
749.878473	3582.735436
750.206881	3552.483471
750.535242	3548.470713
750.863555	3549.272256
751.191821	3548.387534
751.520039	3527.945655
751.848210	3505.464629
752.176334	3536.911347
752.504411	3544.717574
752.832440	3503.463291
753.160421	3488.087772
753.488356	3499.203516
753.816243	3511.670290
754.144082	3464.540543
754.471875	3454.732978
754.799620	3474.373313
755.127318	3464.006180
755.454969	3463.426447
755.782572	3467.461891
756.110129	3443.284517
756.437638	3434.064247
756.765100	3449.170064
757.092515	3460.656333
757.419882	3469.964824
757.747203	3439.720422
758.074477	3438.823096
758.401703	3456.323462
758.728882	3476.024291
759.056014	3485.267247
759.383099	3488.148266
759.710138	3483.225579
760.037129	3501.771984
760.364073	3532.296171
760.690970	3517.155065
761.017820	3493.559945
761.344623	3511.934950
761.671379	3558.840366
761.998088	3611.550671
762.324751	3737.405597
762.651366	3981.621775
762.977935	4455.028971
763.304456	4896.797885
763.630931	4993.930838
763.957359	4635.373729
764.283740	4290.606697
764.610074	4097.139815
764.936362	3903.564549
765.262602	3742.819797
765.588796	3631.707725
765.914943	3545.929971
766.241044	3455.836990
766.567097	3426.270623
766.893104	3378.261194
767.219064	3348.410002
767.544978	3319.355312
767.870845	3266.115686
768.196665	3248.040629
768.522438	3256.832401
768.848165	3250.278901
769.173846	3214.494271
769.499479	3198.415510
769.825066	3181.194929
770.150607	3163.558452
770.476101	3177.315761
770.801548	3177.807273
771.126949	3126.309366
771.452303	3112.017695
771.777611	3119.697893
772.102872	3125.202833
772.428087	3100.284410
772.753256	3087.593305
773.078378	3081.617017
773.403453	3047.241389
773.728482	3037.910213
774.053465	3057.979047
774.378401	3044.826676
774.703291	3015.494723
775.028135	3015.562778
775.352932	3010.612365
775.677683	2999.463853
776.002388	2994.871362
776.327046	2996.025786
776.651658	2985.744353
776.976224	2973.257415
777.300743	2975.349494
777.625216	2965.400777
777.949643	2961.869448
778.274024	2963.875828
778.598359	2953.677573
778.922647	2954.408541
779.246889	2955.152111
779.571086	2942.831531
779.895236	2934.498504
780.219339	2944.543003
780.543397	2955.164714
780.867409	2963.933801
781.191374	2952.921400
781.515294	2948.228086
781.839167	2952.424847
782.162995	2948.137345
782.486776	2952.886112
782.810511	2949.397634
783.134201	2935.466405
783.457844	2943.249947
783.781441	2933.379368
784.104993	2913.043353
784.428498	2914.399423
784.751958	2927.652617
785.075372	2923.808737
785.398739	2904.949780
785.722061	2924.078439
786.045337	2934.117897
786.368568	2918.996956
786.691752	2910.608476
787.014891	2957.592029
787.337983	2986.387100
787.661030	3012.454907
787.984031	3081.556523
788.306987	3128.091414
788.629897	3119.864251
788.952760	3101.569904
789.275579	3090.933069
789.598351	3032.274203
789.921078	2987.410454
790.243759	2981.159424
790.566395	2958.186886
790.888984	2936.429266
791.211529	2918.500402
791.534027	2911.508322
791.856480	2900.755540
792.178888	2888.185423
792.501249	2879.202087
792.823566	2874.717981
793.145836	2871.511807
793.468062	2869.276055
793.790241	2863.692977
794.112375	2872.139431
794.434464	2886.307593
794.756507	2891.454612
795.078505	2893.261865
795.400457	2911.520924
795.722364	2942.942436
796.044226	2969.713484
796.366042	2970.494863
796.687812	2962.066053
797.009538	2980.806543
797.331218	2969.075778
797.652852	2954.738736
797.974442	2936.068823
798.295986	2931.589758
798.617484	2924.406114
798.938938	2912.277098
799.260346	2896.205899
799.581709	2890.605177
799.903026	2884.205432
800.224299	2878.980276
800.545526	2869.797815
800.866708	2851.402644
801.187845	2844.216479
801.508936	2844.952488
801.829983	2854.255937
802.150984	2838.835048
802.471940	2823.779642
802.792851	2828.009170
803.113717	2825.357523
803.434538	2832.662155
803.755314	2823.169662
804.076045	2816.565751
804.396731	2816.822849
804.717372	2817.689928
805.037967	2814.025009
805.358518	2821.049857
805.679024	2831.117041
805.999485	2827.777277
806.319901	2832.715087
806.640272	2823.560352
806.960598	2828.558656
807.280879	2840.307065
807.601115	2845.542303
807.921306	2828.102431
808.241453	2827.608398
808.561554	2834.063596
808.881611	2834.681137
809.201623	2832.964624
809.521590	2828.369612
809.841513	2826.038079
810.161390	2826.476659
810.481223	2824.543377
810.801011	2813.921665
811.120755	2809.132569
811.440453	2813.573826
811.760107	2811.804381
812.079716	2814.203970
812.399281	2804.688792
812.718801	2794.475414
813.038276	2788.297480
813.357707	2794.402318
813.677093	2802.241312
813.996434	2797.482463
814.315731	2795.269396
814.634983	2787.881585
814.954191	2789.928294
815.273354	2801.429686
815.592473	2814.203970
815.911547	2813.104998
816.230577	2820.034064
816.549562	2829.219047
816.868502	2829.365240
817.187399	2840.806139
817.506250	2855.869107
817.825058	2847.528517
818.143821	2862.878831
818.462539	2879.658312
818.781213	2907.319123
819.099843	2941.271294
819.418429	2997.699449
819.736970	3059.065415
820.055466	3131.307670
820.373919	3236.292220
820.692327	3376.234651
821.010691	3545.519117
821.329011	3988.636540
821.647286	4885.510742
821.965517	6263.716833
822.283704	7010.757860
822.601847	6992.420663
822.919945	6356.655545
823.237999	5852.610737
823.556010	5270.624649
823.873976	4714.101429
824.191897	4304.926094
824.509775	4010.996578
824.827609	3744.196032
825.145398	3616.163327
825.463144	3606.728807
825.780845	3702.765309
826.098502	3804.258859
826.416116	4083.710181
826.733685	4399.397318
827.051210	4466.129592
827.368692	4351.503835
827.686129	4084.655398
828.003522	3758.028958
828.320872	3501.567818
828.638177	3305.953404
828.955439	3167.203206
829.272656	3087.701690
829.589830	3018.733664
829.906960	2969.088381
830.224046	2923.004673
830.541088	2887.562841
830.858086	2877.853578
831.175041	2856.847090
831.491952	2860.910260
831.808819	2870.606920
832.125642	2895.134654
832.442421	2940.608382
832.759157	3024.170548
833.075849	3200.986499
833.392497	3479.366576
833.709101	3683.828214
834.025662	3631.901809
834.342179	3474.920278
834.658653	3300.526602
834.975083	3146.355515
835.291469	3049.971174
835.607811	2966.663586
835.924110	2908.385327
836.240366	2855.725434
836.556578	2815.958292
836.872746	2794.878707
837.188871	2769.340221
837.504952	2753.110227
837.820990	2743.012795
838.136984	2731.067781
838.452935	2725.111658
838.768842	2722.951524
839.084706	2736.958370
839.400526	2818.506595
839.716303	2951.071297
840.032037	3031.633977
840.347727	3017.135618
840.663373	2957.087914
840.978977	2881.430277
841.294537	2806.112918
841.610054	2761.415527
841.925527	2738.201014
842.240957	2716.234186
842.556344	2696.470342
842.871687	2677.273629
843.186987	2670.077382
843.502244	2665.585713
843.817458	2662.949190
844.132629	2649.922848
844.447756	2638.439100
844.762840	2631.384005
845.077881	2637.501445
845.392879	2635.358955
845.707833	2628.908799
846.022745	2623.585340
846.337613	2622.274640
846.652438	2625.495937
846.967221	2626.335290
847.281960	2623.479476
847.596656	2620.938734
847.911309	2620.792541
848.225919	2618.445884
848.540485	2616.787344
848.855009	2616.681480
849.169490	2615.164093
849.483928	2619.282715
849.798323	2615.159052
850.112675	2611.761314
850.426984	2612.267950
850.741251	2612.096551
851.055474	2611.393310
851.369654	2611.942795
851.683792	2615.020420
851.997887	2612.255347
852.311938	2612.346088
852.625947	2614.211315
852.939914	2618.216511
853.253837	2616.658795
853.567718	2611.484050
853.881555	2612.585542
854.195350	2616.283229
854.509103	2611.635285
854.822812	2613.518156
855.136479	2611.219390
855.450103	2614.596963
855.763685	2615.121243
856.077224	2613.989504
856.390720	2609.603700
856.704173	2612.472117
857.017584	2617.029320
857.330953	2616.426902
857.644278	2621.730196
857.957561	2618.370267
858.270802	2616.547889
858.584000	2617.180554
858.897155	2617.125102
859.210268	2620.376646
859.523339	2614.400358
859.836367	2609.485233
860.149352	2612.288114
860.462295	2611.408433
860.775195	2608.045983
861.088054	2608.073710
861.400869	2608.857609
861.713642	2603.256887
862.026373	2604.696137
862.339062	2608.098916
862.651708	2615.330451
862.964312	2615.388424
863.276873	2614.274329
863.589392	2615.625358
863.901869	2621.707510
864.214303	2624.679271
864.526696	2630.763943
864.839045	2628.739920
865.151353	2634.149078
865.463619	2633.985241
865.775842	2632.944242
866.088023	2633.864253
866.400162	2632.775364
866.712258	2631.847791
867.024313	2631.167236
867.336325	2629.569190
867.648296	2629.876700
867.960224	2636.059675
868.272110	2633.735703
868.583954	2627.000722
868.895755	2628.351751
869.207515	2631.530199
869.519233	2640.899183
869.830909	2635.535395
870.142542	2632.001547
870.454134	2634.242339
870.765684	2639.722074
871.077191	2638.923051
871.388657	2644.851448
871.700081	2640.838689
872.011463	2641.451189
872.322803	2643.308855
872.634101	2647.891263
872.945357	2652.929897
873.256571	2657.328303
873.567744	2659.896771
873.878874	2653.497027
874.189963	2657.086328
874.501010	2659.919457
874.812015	2665.321053
875.122979	2663.682678
875.433900	2657.981133
875.744780	2656.294867
876.055618	2663.072698
876.366415	2667.939932
876.677169	2665.757113
876.987882	2660.627739
877.298554	2661.313336
877.609183	2671.481343
877.919771	2677.387055
878.230317	2683.045750
878.540822	2695.512523
878.851285	2710.036087
879.161707	2731.695405
879.472087	2773.083278
879.782425	2819.950885
880.092722	2931.204110
880.402977	3121.177472
880.713191	3377.701626
881.023363	3674.834796
881.333494	3865.690360
881.643583	4036.111607
881.953631	4037.523130
882.263637	3859.479658
882.573602	3640.260042
882.883526	3506.919002
883.193408	3392.255438
883.503248	3292.332207
883.813048	3177.948426
884.122806	3064.414079
884.432522	2976.919813
884.742197	2915.064856
885.051831	2874.077754
885.361424	2840.473423
885.670975	2804.567804
885.980485	2774.547733
886.289954	2757.014600
886.599382	2743.317785
886.908768	2729.966289
887.218113	2711.714792
887.527417	2696.460260
887.836680	2689.238807
888.145901	2686.461132
888.455082	2676.691375
888.764221	2663.929694
889.073319	2657.469456
889.382376	2653.517191
889.691392	2657.562717
890.000366	2658.563386
890.309300	2654.850576
890.618193	2661.754437
890.927044	2660.292502
891.235855	2661.822492
891.544625	2658.565907
891.853353	2659.927018
892.162041	2667.992864
892.470687	2686.834177
892.779293	2697.932277
893.087858	2708.674976
893.396381	2731.992833
893.704864	2773.257198
894.013306	2843.724967
894.321707	2936.693926
894.630068	2986.682008
894.938387	3004.973834
895.246665	2998.087618
895.554903	2953.937193
895.863100	2912.355235
896.171256	2855.440608
896.479371	2791.533901
896.787446	2752.323807
897.095480	2736.371075
897.403473	2729.091649
897.711425	2713.083465
898.019336	2696.114941
898.327207	2680.731860
898.635038	2678.997703
898.942827	2679.186747
899.250576	2668.416321
899.558284	2657.121616
899.865952	2653.875113
900.173579	2652.025010
900.481165	2648.758342
900.788711	2641.088226
901.096216	2638.076137
901.403681	2630.194293
901.711105	2628.671864
902.018489	2629.685136
902.325832	2634.065899
902.633135	2632.150261
902.940397	2649.567447
903.247619	2687.078673
903.554800	2755.298087
903.861941	2881.984804
904.169041	3009.828466
904.476101	3072.517734
904.783121	3066.501117
905.090100	3007.713702
905.397039	2932.880293
905.703938	2862.195755
906.010796	2797.542957
906.317614	2744.426839
906.624391	2706.192208
906.931129	2682.138342
907.237826	2658.825526
907.544483	2642.590490
907.851099	2629.385188
908.157675	2616.411778
908.464211	2609.921293
908.770707	2599.367637
909.077163	2596.078284
909.383578	2594.021493
909.689954	2591.011925
909.996289	2587.674681
910.302584	2586.618559
910.608839	2584.231573
910.915054	2584.755853
911.221229	2589.706266
911.527363	2594.596185
911.833458	2587.415061
912.139513	2590.843046
912.445527	2592.269692
912.751502	2597.893100
913.057436	2601.431990
913.363331	2608.781992
913.669186	2621.568879
913.975000	2633.198821
914.280775	2651.629279
914.586510	2667.498831
914.892205	2703.265818
915.197859	2772.551436
915.503475	2855.992615
915.809050	2920.595001
916.114585	2936.341045
916.420081	2948.744804
916.725536	2961.566979
917.030952	2935.295006
917.336328	2888.051833
917.641665	2839.450068
917.946961	2789.025927
918.252218	2753.634507
918.557435	2730.714901
918.862612	2705.025181
919.167750	2689.296781
919.472848	2673.855726
919.777906	2656.020124
920.082925	2641.940181
920.387904	2632.356948
920.692843	2628.520630
920.997743	2623.413941
921.302603	2618.516460
921.607423	2611.836931
921.912204	2605.570777
922.216946	2602.152875
922.521647	2599.854108
922.826310	2596.710949
923.130932	2591.858838
923.435516	2587.778024
923.740059	2584.264340
924.044564	2582.676377
924.349028	2584.392890
924.653454	2572.263873
924.957840	2571.921075
925.262186	2565.934705
925.566493	2569.662638
925.870761	2562.844477
926.174989	2566.607699
926.479178	2563.633418
926.783328	2561.349775
927.087438	2560.840619
927.391509	2561.495969
927.695541	2559.333314
927.999533	2560.646534
928.303486	2556.860628
928.607400	2558.725855
928.911275	2555.421378
929.215110	2558.531770
929.518906	2555.847356
929.822663	2556.525391
930.126381	2553.432643
930.430060	2554.176213
930.733699	2554.002294
931.037299	2557.339537
931.340861	2558.055381
931.644383	2555.963303
931.947866	2559.023283
932.251309	2555.834753
932.554714	2559.522357
932.858080	2558.554456
933.161407	2554.957592
933.464694	2554.183775
933.767943	2554.549259
934.071153	2554.408107
934.374323	2550.380225
934.677455	2555.408776
934.980548	2551.017931
935.283602	2551.627910
935.586617	2553.341902
935.889593	2554.708055
936.192530	2552.386604
936.495428	2552.361398
936.798287	2553.190668
937.101108	2557.389949
937.403890	2557.878941
937.706632	2560.477656
938.009336	2564.129972
938.312002	2570.000395
938.614628	2572.304203
938.917216	2574.534913
939.219765	2574.169430
939.522275	2579.770152
939.824747	2571.926116
940.127179	2567.535271
940.429573	2565.808676
940.731929	2569.990313
941.034246	2563.414128
941.336524	2567.028635
941.638763	2565.788511
941.940964	2565.173491
942.243126	2563.507389
942.545250	2562.726010
942.847335	2561.175856
943.149381	2562.214333
943.451389	2559.600495
943.753359	2558.504044
944.055290	2557.490772
944.357182	2555.257541
944.659036	2554.755946
944.960851	2558.075546
945.262628	2555.829712
945.564367	2556.747202
945.866067	2556.616132
946.167729	2558.350289
946.469352	2556.210319
946.770937	2558.567058
947.072484	2557.092521
947.373992	2557.437840
947.675462	2555.166800
947.976893	2557.543704
948.278286	2551.723692
948.579641	2555.310473
948.880958	2553.296532
949.182236	2552.787376
949.483476	2551.403579
949.784678	2555.328117
950.085841	2551.272509
950.386967	2553.495658
950.688054	2553.127653
950.989103	2553.488096
951.290114	2555.413817
951.591087	2556.066646
951.892021	2557.183262
952.192917	2559.015721
952.493776	2557.490772
952.794596	2563.119220
953.095378	2561.700136
953.396122	2561.092677
953.696828	2557.868859
953.997496	2556.442212
954.298126	2555.857438
954.598718	2556.805175
954.899272	2556.190154
955.199788	2554.309804
955.500266	2554.450956
955.800706	2547.985677
956.101108	2547.451314
956.401472	2546.332178
956.701798	2544.540048
957.002087	2545.792775
957.302337	2544.489636
957.602550	2546.163299
957.902724	2543.264636
958.202861	2545.485264
958.502960	2543.569626
958.803022	2543.788916
959.103045	2543.390665
959.403031	2542.664739
959.702979	2538.641898
960.002889	2539.937474
960.302762	2539.226672
960.602596	2541.467465
960.902393	2539.640046
961.202153	2539.390509
961.501875	2539.012423
961.801559	2538.226003
962.101205	2539.687937
962.400814	2539.297248
962.700385	2538.223482
962.999918	2540.360931
963.299414	2538.495704
963.598873	2538.200797
963.898293	2538.717515
964.197677	2539.415715
964.497022	2536.665766
964.796331	2539.650129
965.095601	2536.983358
965.394835	2538.599048
965.694030	2534.271217
965.993189	2537.709284
966.292309	2537.873122
966.591393	2536.053265
966.890439	2537.454706
967.189447	2538.566281
967.488419	2538.846065
967.787353	2535.138296
968.086249	2536.678368
968.385108	2537.492515
968.683930	2540.353370
968.982714	2538.314223
969.281462	2537.537885
969.580172	2537.971424
969.878844	2537.636188
970.177480	2537.578214
970.476078	2537.076620
970.774639	2539.629964
971.073162	2536.297761
971.371649	2537.636188
971.670098	2534.608975
971.968510	2537.023688
972.266885	2532.146371
972.565223	2540.711292
972.863524	2536.945550
973.161788	2537.401774
973.460014	2539.559388
973.758204	2541.540561
974.056356	2538.755324
974.354471	2538.566281
974.652550	2538.762886
974.950591	2539.927392
975.248595	2538.641898
975.546563	2538.974614
975.844493	2537.857998
976.142386	2537.547967
976.440243	2535.037473
976.738062	2538.226003
977.035845	2537.300951
977.333590	2538.500746
977.631299	2538.941847
977.928971	2538.936805
978.226606	2536.179294
978.524204	2536.506969
978.821765	2535.453368
979.119290	2538.440252
979.416777	2533.651156
979.714228	2536.227185
980.011642	2534.291382
980.309020	2540.507125
980.606360	2534.366999
980.903664	2537.489994
981.200931	2538.195756
981.498162	2537.245498
981.795356	2540.630633
982.092513	2542.878988
982.389633	2546.440563
982.686717	2549.886192
982.983764	2551.706048
983.280775	2550.007179
983.577749	2552.608415
983.874686	2550.783517
984.171587	2545.278577
984.468451	2544.822352
984.765279	2544.953422
985.062070	2540.292876
985.358824	2539.849254
985.655543	2540.129038
985.952224	2537.149716
986.248869	2537.608461
986.545478	2534.964376
986.842050	2532.554705
987.138586	2535.110570
987.435086	2533.862884
987.731549	2530.036648
988.027975	2536.496887
988.324366	2532.443799
988.620719	2537.570653
988.917037	2534.213244
989.213318	2533.048738
989.509563	2533.018491
989.805772	2536.181815
990.101944	2533.593182
990.398080	2537.111908
990.694180	2534.072092
990.990244	2534.457740
991.286271	2534.175436
991.582262	2532.857174
991.878217	2535.455889
992.174136	2536.002854
992.470019	2533.968748
992.765865	2535.304654
993.061676	2532.532019
993.357450	2535.032432
993.653188	2534.518234
993.948890	2534.286341
994.244556	2533.222658
994.540186	2534.656866
994.835780	2534.175436
995.131337	2538.767927
995.426859	2536.506969
995.722345	2533.920857
996.017795	2538.604089
996.313208	2541.308668
996.608586	2536.517052
996.903928	2538.972093
997.199234	2538.077289
997.494504	2538.374717
997.789738	2537.129552
998.084936	2538.185673
998.380099	2534.671989
998.675225	2536.504449
998.970316	2535.385312
999.265371	2534.626619
999.560390	2536.438914
999.855373	2533.467153
1000.150320	2535.423121
1000.445232	2533.003367
1000.740108	2533.008408
1001.034948	2533.247863
1001.329752	2532.660569
1001.624521	2531.228881
1001.919254	2529.414066
1002.213951	2531.175949
1002.508613	2529.436751
1002.803239	2530.586134
1003.097829	2529.509848
1003.392384	2532.710980
1003.686903	2532.574869
1003.981386	2533.424304
1004.275834	2531.730476
1004.570246	2532.763913
1004.864623	2531.584283
1005.158964	2531.924560
1005.453270	2531.680064
1005.747540	2532.045548
1006.041775	2533.885569
1006.335974	2531.856505
1006.630138	2530.119827
1006.924266	2532.199303
1007.218359	2532.595034
1007.512416	2532.290044
1007.806438	2530.926412
1008.100425	2533.184849
1008.394376	2530.999509
1008.688292	2532.153933
1008.982172	2531.579241
1009.276017	2531.498583
1009.569827	2531.755682
1009.863602	2534.886238
1010.157341	2531.312060
1010.451045	2529.315763
1010.744714	2531.216278
1011.038347	2532.234591
1011.331945	2528.794004
1011.625508	2533.126876
1011.919036	2532.393388
1012.212528	2530.127389
1012.505986	2531.637215
1012.799408	2532.831968
1013.092795	2532.040507
1013.386147	2532.637884
1013.679464	2530.505476
1013.972745	2533.993954
1014.265992	2530.475229
1014.559204	2531.884231
1014.852380	2531.022194
1015.145521	2531.175949
1015.438628	2532.385826
1015.731699	2532.373223
1016.024736	2531.692667
1016.317737	2531.359951
1016.610703	2531.289375
1016.903635	2528.052954
1017.196531	2528.778880
1017.489393	2526.666637
1017.782219	2529.860208
1018.075011	2530.492873
1018.367768	2530.933974
1018.660490	2531.952287
1018.953177	2531.952287
1019.245829	2531.952287
