Dividing Wavelength (nm)	Counts (n)	Blue Motor Position (mm): 36.400000	Red Motor Position (mm): 0.000000	
326.493990	2129.842130
326.888308	2129.842130
327.282561	2129.842130
327.676750	2097.528333
328.070874	2093.634042
328.464933	2097.404825
328.858929	2105.568974
329.252859	2114.842176
329.646726	2126.714094
330.040528	2138.543161
330.434265	2158.337252
330.827938	2173.269149
331.221547	2189.007632
331.615091	2211.738194
332.008571	2229.404918
332.401986	2247.744636
332.795338	2270.810435
333.188625	2287.536984
333.581847	2305.501135
333.975006	2322.109217
334.368100	2342.851044
334.761129	2358.539115
335.154095	2376.543596
335.546996	2397.968500
335.939833	2421.097314
336.332606	2437.206321
336.725315	2451.119905
337.117960	2460.055351
337.510540	2469.207565
337.903056	2481.659215
338.295508	2485.248517
338.687896	2495.643376
339.080220	2504.450272
339.472480	2512.102743
339.864676	2515.986952
340.256807	2517.108609
340.648875	2522.086749
341.040879	2525.993643
341.432818	2528.511699
341.824694	2528.846936
342.216506	2528.748633
342.608253	2529.091432
342.999937	2528.690660
343.391557	2530.820548
343.783113	2528.219312
344.174605	2525.847449
344.566033	2525.489528
344.957397	2521.214629
345.348697	2522.842922
345.739934	2519.251100
346.131106	2516.901922
346.522215	2517.728671
346.913260	2510.003103
347.304241	2517.088445
347.695159	2511.457476
348.086012	2510.625685
348.476802	2506.595283
348.867528	2505.554285
349.258191	2505.662669
349.648789	2502.953049
350.039324	2503.431959
350.429796	2503.331136
350.820203	2499.164622
351.210548	2498.663027
351.600828	2497.085146
351.991045	2498.673110
352.381198	2493.793273
352.771288	2497.932060
353.161314	2495.842502
353.551276	2497.415342
353.941175	2495.734117
354.331010	2497.828716
354.720782	2495.499703
355.110490	2492.757316
355.500135	2495.136740
355.889717	2494.519199
356.279235	2495.139261
356.668689	2499.018429
357.058080	2495.897954
357.447408	2496.303767
357.836672	2495.580362
358.225873	2493.508447
358.615010	2496.102121
359.004084	2499.376351
359.393095	2498.660507
359.782043	2497.654797
360.170927	2499.232678
360.559748	2503.202586
360.948505	2498.158912
361.337199	2501.324757
361.725830	2500.802997
362.114398	2503.711743
362.502903	2502.630415
362.891344	2504.228461
363.279722	2503.184942
363.668037	2504.936743
364.056289	2501.324757
364.444478	2504.084788
364.832603	2505.748369
365.220665	2505.861795
365.608665	2503.857936
365.996601	2506.098729
366.384474	2505.251815
366.772284	2510.928155
367.160031	2505.957577
367.547715	2509.153668
367.935336	2507.227948
368.322893	2507.686693
368.710388	2510.174502
369.097820	2511.790192
369.485189	2509.556961
369.872495	2510.852537
370.259738	2508.382372
370.646918	2509.428411
371.034035	2510.595438
371.421090	2512.614421
371.808081	2511.570902
372.195010	2510.935716
372.581875	2511.432270
372.968678	2509.836745
373.355418	2512.833711
373.742096	2514.184740
374.128710	2514.779596
374.515262	2513.345388
374.901751	2515.117353
375.288177	2514.303207
375.674540	2514.774555
376.060841	2514.204905
376.447079	2515.152642
376.833254	2516.972498
377.219367	2509.372959
377.605417	2514.875378
377.991404	2511.396982
378.377329	2516.717920
378.763191	2512.304390
379.148991	2519.122550
379.534727	2516.856552
379.920402	2517.106089
380.306013	2518.152128
380.691563	2518.956192
381.077049	2517.010307
381.462474	2516.165913
381.847835	2520.176151
382.233134	2521.756553
382.618371	2518.265554
383.003545	2523.846111
383.388657	2519.951820
383.773706	2519.974505
384.158693	2521.673374
384.543618	2525.239990
384.928480	2521.012983
385.313280	2521.282685
385.698017	2523.377284
386.082692	2523.591533
386.467305	2526.056657
386.851856	2523.284023
387.236344	2522.467356
387.620770	2523.352078
388.005133	2525.862573
388.389435	2525.776873
388.773674	2527.183355
389.157851	2523.679753
389.541965	2526.661596
389.926018	2527.271575
390.310008	2526.964065
390.693936	2529.270393
391.077802	2527.954652
391.461606	2528.103366
391.845348	2528.955321
392.229027	2530.412214
392.612645	2532.030425
392.996200	2529.756864
393.379694	2531.057482
393.763125	2531.352389
394.146494	2532.617719
394.529801	2535.420601
394.913047	2530.709642
395.296230	2534.261135
395.679351	2532.897503
396.062410	2534.311547
396.445408	2536.383461
396.828343	2535.602082
397.211217	2532.887421
397.594028	2535.493697
397.976778	2536.484284
398.359466	2539.463606
398.742092	2541.238092
399.124656	2547.499205
399.507158	2552.197561
399.889598	2558.012532
400.271977	2565.475960
400.654294	2569.907134
401.036549	2576.735377
401.418742	2585.577561
401.800874	2598.210692
402.182944	2609.328957
402.564952	2624.281019
402.946898	2637.564460
403.328783	2649.506953
403.710606	2659.995074
404.092367	2691.877851
404.474067	2702.590303
404.855705	2723.558983
405.237282	2733.124572
405.618797	2766.507093
406.000250	2792.927780
406.381642	2826.428768
406.762972	2850.215452
407.144240	2874.478526
407.525447	2902.126734
407.906593	2935.756272
408.287677	2973.885039
408.668700	2988.794251
409.049661	3032.324615
409.430560	3076.717015
409.811399	3090.315528
410.192176	3171.079854
410.572891	3188.204653
410.953545	3254.294180
411.334138	3257.419696
411.714669	3315.929848
412.095139	3317.137204
412.475547	3410.370824
412.855894	3444.857357
413.236180	3488.982577
413.616405	3507.841533
413.996568	3588.479830
414.376670	3602.642952
414.756711	3618.441928
415.136691	3679.770085
415.516609	3761.482148
415.896466	3820.569512
416.276262	3881.559912
416.655997	3915.716250
417.035670	4062.222263
417.415283	4161.769928
417.794834	4172.041279
418.174324	4182.758772
418.553753	4165.457532
418.933121	4333.166638
419.312428	4422.679887
419.691674	4427.398407
420.070859	4557.558478
420.449983	4532.662740
420.829045	4655.281246
421.208047	4622.228920
421.586988	4719.505546
421.965867	4766.748719
422.344686	4909.126027
422.723444	4822.753417
423.102141	4702.143812
423.480777	4977.852077
423.859352	4818.463396
424.237866	5067.924894
424.616319	5086.032718
424.994712	5212.164908
425.373044	5127.896980
425.751314	5278.917347
426.129524	5126.679542
426.507673	5324.438966
426.885762	5419.494963
427.263789	5378.502820
427.641756	5286.287514
428.019662	5417.992699
428.397508	5441.239980
428.775292	5404.273199
429.153016	5513.169684
429.530679	5455.312361
429.908282	5547.968769
430.285824	5438.132109
430.663305	5710.074632
431.040726	5462.281756
431.418086	5471.504547
431.795385	5582.861115
432.172624	5600.051450
432.549802	5599.073466
432.926920	5618.126507
433.303977	5632.549248
433.680974	5671.129198
434.057910	5696.856727
434.434786	5706.508016
434.811601	5676.276216
435.188355	5906.775414
435.565050	5787.680675
435.941683	5772.731133
436.318257	5987.484287
436.694770	5970.016689
437.071222	6010.308111
437.447614	5944.261434
437.823946	5855.751376
438.200218	6011.583523
438.576429	5877.763574
438.952580	5977.530529
439.328670	6024.302354
439.704700	5929.747952
440.080670	5919.443834
440.456580	6192.124887
440.832429	6072.611732
441.208218	5921.442651
441.583947	6072.258851
441.959616	6080.420479
442.335224	6005.569427
442.710773	6145.786600
443.086261	6169.792575
443.461689	5965.187264
443.837057	6111.970540
444.212365	6268.727740
444.587612	6160.325288
444.962800	6313.730120
445.337927	6293.081554
445.712995	5907.874386
446.088002	6480.854452
446.462949	6314.826571
446.837837	6244.260500
447.212664	6416.345327
447.587431	6564.398975
447.962139	7102.290090
448.336786	8026.048765
448.711374	7760.052282
449.085901	6835.061045
449.460369	6762.821311
449.834776	6697.740014
450.209124	7086.975065
450.583412	7237.352684
450.957640	7382.908439
451.331808	7144.053529
451.705917	6704.293514
452.079965	6624.948273
452.453954	6839.860224
452.827883	6714.045627
453.201752	6805.545089
453.575562	6607.939420
453.949311	6812.711090
454.323001	6700.535334
454.696632	6772.399503
455.070202	6910.983343
455.443713	7067.241468
455.817164	7170.572519
456.190556	7250.076556
456.563888	7323.695046
456.937160	7370.275308
457.310373	7023.766557
457.683526	7053.819396
458.056619	6940.837056
458.429653	6930.016219
458.802628	6863.009202
459.175542	6972.036757
459.548398	7324.451219
459.921194	7492.336766
460.293930	7488.873493
460.666607	8018.343361
461.039224	8324.848036
461.411782	8454.622459
461.784280	8472.039646
462.156719	8357.779373
462.529099	8239.909634
462.901419	7827.886048
463.273680	7720.764050
463.645882	7731.816779
464.018024	7599.854495
464.390106	7771.286493
464.762130	8151.308835
465.134094	8620.123540
465.505999	9642.807297
465.877845	10859.136897
466.249631	11504.575989
466.621358	11121.455858
466.993026	10498.880920
467.364634	10234.424510
467.736184	9877.525941
468.107674	9544.295589
468.479105	9576.732894
468.850477	9340.736318
469.221790	9114.900187
469.593043	8782.743601
469.964238	8647.108836
470.335373	8664.410076
470.706449	8716.205412
471.077467	8705.301396
471.448425	10009.750365
471.819324	11077.809548
472.190164	11102.254103
472.560945	9846.119552
472.931667	9068.488804
473.302330	8933.630377
473.672934	8583.449146
474.043479	8937.101211
474.413965	8878.399495
474.784393	8755.312163
475.154761	8917.851565
475.525070	8999.787959
475.895321	8833.694543
476.265513	9005.262653
476.635645	9172.951594
477.005719	9177.160958
477.375734	9289.566085
477.745691	9524.531746
478.115588	9662.888733
478.485427	9899.054188
478.855207	10433.560169
479.224928	11256.410067
479.594591	11880.514996
479.964194	11690.687827
480.333739	11618.150664
480.703226	11541.948583
481.072653	11635.580454
481.442022	11872.612987
481.811333	12059.612068
482.180584	11871.776155
482.549777	11575.850342
482.918912	11402.979095
483.287988	11421.275962
483.657005	11429.240986
484.025964	11112.958993
484.394864	11243.761812
484.763706	11218.508152
485.132489	10974.468415
485.501213	10932.878896
485.869879	11019.680003
486.238487	10853.268994
486.607036	10973.787859
486.975527	10746.850236
487.343959	10942.583117
487.712333	10988.399643
488.080648	10921.790878
488.448905	10967.183948
488.817104	10902.132898
489.185244	11166.561582
489.553326	11322.744090
489.921350	11859.367355
490.289315	12915.529415
490.657222	13260.876180
491.025070	13174.150690
491.392861	13041.507850
491.760593	12659.549705
492.128267	12313.973568
492.495883	11981.683392
492.863440	11652.155768
493.230939	11314.446351
493.598380	11248.613923
493.965763	11118.476536
494.333088	11015.011895
494.700354	10939.853332
495.067563	10999.568320
495.434713	10826.896198
495.801805	10950.522934
496.168839	10879.447706
496.535815	10818.890845
496.902733	10808.816099
497.269593	10743.699515
497.636395	10846.796152
498.003139	10835.733340
498.369825	10699.425582
498.736453	10865.445901
499.103023	10795.998966
499.469535	10815.402367
499.835989	10807.807869
500.202385	10766.735068
500.568723	10624.077976
500.935003	10843.617705
501.301226	10657.556278
501.667390	10910.992726
502.033497	11004.261634
502.399546	10862.774090
502.765537	10768.449060
503.131470	10846.539054
503.497345	11015.405105
503.863163	10628.166351
504.228923	10940.296953
504.594625	11003.956644
504.960269	10758.028995
505.325856	10969.848197
505.691385	10769.041396
506.056856	10925.609552
506.422270	10943.888776
506.787625	10841.739875
507.152924	10950.031422
507.518164	10927.840262
507.883347	10856.626403
508.248472	10767.702969
508.613540	10999.311221
508.978550	10888.168902
509.343503	10868.039575
509.708398	10985.100208
510.073236	11095.561971
510.438016	11100.184709
510.802738	11059.011085
511.167403	11096.744122
511.532010	10996.394913
511.896561	11235.101110
512.261053	11307.492079
512.625488	11166.730461
512.989866	11150.434931
513.354186	11140.027469
513.718449	11042.029959
514.082655	11237.460370
514.446803	11127.401899
514.810894	11251.038718
515.174927	11119.562905
515.538904	11149.835034
515.902822	11293.081941
516.266684	11185.770899
516.630488	11124.049532
516.994235	11178.965341
517.357925	11234.556665
517.721558	11332.372694
518.085133	11349.537823
518.448651	11353.560663
518.812112	11234.153373
519.175516	11250.869839
519.538863	11372.396935
519.902152	11291.052876
520.265385	11457.133690
520.628560	11362.191119
520.991678	11334.646254
521.354739	11406.001266
521.717743	11338.545587
522.080690	11320.188225
522.443580	11448.362082
522.806413	11403.057232
523.169189	11440.959148
523.531908	11489.167702
523.894569	11310.247070
524.257174	11318.436424
524.619722	11441.402769
524.982213	11383.474870
525.344647	11440.639034
525.707025	11387.711960
526.069345	11478.924077
526.431608	11396.281922
526.793815	11507.676298
527.155964	11302.738271
527.518057	11353.638801
527.880093	11306.103241
528.242072	11371.018179
528.603995	11269.965730
528.965860	11189.226610
529.327669	11249.138203
529.689421	11193.430932
530.051117	11168.494865
530.412755	11269.701069
530.774337	11162.652167
531.135862	11136.024793
531.497331	11165.447487
531.858743	11008.198775
532.220098	11184.714777
532.581396	11056.445138
532.942638	11033.608711
533.303824	10997.408185
533.664953	11010.820175
534.026025	10932.609194
534.387040	11026.379697
534.747999	11029.172496
535.108902	11091.019892
535.469748	10844.424290
535.830537	10951.289189
536.191270	10927.026116
536.551947	10958.374531
536.912567	10953.219951
537.273131	10873.597447
537.633638	10862.164110
537.994089	10845.031749
538.354483	10793.120467
538.714821	10937.743609
539.075103	10948.917327
539.435328	10911.862325
539.795497	10739.580893
540.155609	10893.058821
540.515665	10982.917389
540.875665	10718.957532
541.235609	10786.967739
541.595496	10780.136975
541.955328	10941.476583
542.315102	10819.944447
542.674821	10774.848805
543.034483	10770.831005
543.394090	10774.624473
543.753640	10702.891375
544.113134	10930.234810
544.472571	10782.644949
544.831953	10927.189953
545.191278	10741.511654
545.550548	10766.815726
545.909761	10893.197453
546.268918	10870.250121
546.628019	10953.255239
546.987064	10814.477315
547.346053	10744.309495
547.704986	10842.548980
548.063863	10830.503143
548.422684	10821.829838
548.781449	10732.026723
549.140158	10838.586633
549.498811	10719.988448
549.857408	10576.474360
550.215949	10796.913935
550.574434	10652.815073
550.932864	10752.985321
551.291237	10807.265945
551.649555	10758.044118
552.007817	10769.364029
552.366022	10735.404297
552.724173	10729.518749
553.082267	10705.895903
553.440305	10845.891265
553.798288	10645.802828
554.156215	10800.457866
554.514086	10779.980699
554.871902	10624.738367
555.229661	10659.693728
555.587365	10637.588268
555.945014	10533.783348
556.302606	10664.830663
556.660143	10558.348891
557.017625	10707.640142
557.375050	10609.350245
557.732421	10739.752292
558.089735	10656.114508
558.446994	10655.653243
558.804197	10696.426095
559.161345	10691.684890
559.518437	10540.180573
559.875474	10631.289346
560.232455	10662.564665
560.589381	10609.776222
560.946251	10606.456622
561.303065	10709.069309
561.659825	10644.676130
562.016528	10581.271018
562.373177	10467.101486
562.729770	10571.649976
563.086307	10494.230455
563.442789	10585.394682
563.799216	10463.486979
564.155587	10509.968938
564.511904	10465.599222
564.868164	10452.527510
565.224370	10473.191200
565.580520	10396.268233
565.936615	10405.032279
566.292654	10269.954562
566.648638	10400.069263
567.004567	10357.040495
567.360441	10343.167239
567.716260	10249.048897
568.072023	10346.955666
568.427732	10298.222832
568.783385	10210.776457
569.138982	10279.850347
569.494525	10290.396441
569.850013	10169.242390
570.205445	10251.451007
570.560823	10149.455862
570.916145	10070.657586
571.271412	10143.958483
571.626625	10080.946581
571.981782	10060.101410
572.336884	10032.115444
572.691931	10037.809427
573.046923	9981.461930
573.401860	9937.419890
573.756743	9875.219613
574.111570	9919.798536
574.466342	9905.690867
574.821059	9933.749930
575.175722	9826.670781
575.530330	9826.149021
575.884882	9823.396551
576.239380	9752.840562
576.593823	9733.646369
576.948211	9746.922247
577.302544	9625.581674
577.656823	9641.489035
578.011047	9641.662955
578.365216	9618.808884
578.719330	9541.114621
579.073389	9548.782216
579.427394	9502.554835
579.781344	9480.530034
580.135239	9424.265716
580.489080	9432.513044
580.842866	9332.635183
581.196597	9342.934261
581.550273	9378.091267
581.903895	9349.081948
582.257463	9417.712216
582.610975	9294.277044
582.964434	9322.033637
583.317837	9243.925999
583.671186	9224.038647
584.024481	9217.964057
584.377721	9143.823807
584.730906	9117.390517
585.084037	9153.833018
585.437113	9082.057070
585.790135	9105.301830
586.143103	9000.191252
586.496016	8974.619999
586.848874	9033.372126
587.201679	9022.894088
587.554428	8914.166482
587.907124	8953.295918
588.259765	8920.029344
588.612352	8929.317670
588.964884	8808.163619
589.317362	8818.810536
589.669786	8819.712903
590.022155	8868.874235
590.374470	8875.641984
590.726731	8823.776073
591.078937	8670.933329
591.431090	8785.249055
591.783188	8661.256835
592.135232	8647.983477
592.487222	8654.680649
592.839157	8706.695275
593.191038	8635.791446
593.542866	8581.934279
593.894639	8486.170000
594.246358	8533.690437
594.598022	8556.453767
594.949633	8448.401675
595.301190	8420.420751
595.652692	8448.613404
596.004141	8557.449395
596.355535	8342.955860
596.706876	8328.175197
597.058162	8251.136284
597.409395	8328.782656
597.760573	8392.386894
598.111698	8306.357083
598.462768	8289.698590
598.813785	8254.818847
599.164748	8227.273982
599.515657	8214.577836
599.866511	8124.124413
600.217312	8246.256447
600.568060	8111.435829
600.918753	8212.228659
601.269392	8180.852517
601.619978	8092.740710
601.970510	8158.106831
602.320988	8150.288001
602.671412	8208.329326
603.021783	8144.155438
603.372100	8121.409752
603.722363	8122.899412
604.072572	8099.412677
604.422728	8112.643185
604.772830	8039.891773
605.122878	8046.707413
605.472872	8040.133749
605.822813	8066.879590
606.172701	8013.564347
606.522534	8084.831139
606.872314	8087.490348
607.222041	8061.392294
607.571714	8109.757124
607.921333	8073.929644
608.270899	8079.300993
608.620411	8167.233840
608.969870	8073.559119
609.319276	8065.460506
609.668627	8084.115295
610.017926	8118.964792
610.367171	8164.239395
610.716362	8137.266701
611.065500	8133.264025
611.414585	8155.490472
611.763616	8151.437384
612.112594	8127.459136
612.461518	8145.047722
612.810389	8208.178092
613.159207	8144.142835
613.507971	8100.723377
613.856682	8213.796458
614.205340	8168.415991
614.553945	8248.096468
614.902496	8141.602093
615.250994	8195.290382
615.599439	8184.998866
615.947830	8188.878034
616.296169	8164.846854
616.644454	8178.735233
616.992686	8175.992845
617.340864	8230.999395
617.688990	8133.448027
618.037063	8225.522181
618.385082	8177.565685
618.733048	8267.867874
619.080961	8204.505611
619.428821	8224.319866
619.776628	8225.930515
620.124382	8174.793050
620.472083	8161.323087
620.819731	8184.290584
621.167326	8081.929955
621.514868	8082.338289
621.862357	7973.235117
622.209793	7993.787901
622.557176	7931.403622
622.904506	7896.967500
623.251783	7830.346131
623.599007	7784.509440
623.946179	7786.021786
624.293297	7750.761436
624.640363	7660.910430
624.987376	7645.582802
625.334336	7599.184022
625.681243	7543.880043
626.028097	7538.145731
626.374899	7505.176585
626.721647	7502.270360
627.068343	7436.667304
627.414987	7405.349136
627.761577	7361.072682
628.108115	7398.228506
628.454600	7290.713297
628.801032	7343.554672
629.147412	7307.132335
629.493739	7295.514996
629.840014	7223.668472
630.186236	7289.067361
630.532405	7168.062024
630.878521	7223.285344
631.224585	7175.210380
631.570597	7101.604493
631.916556	7136.327961
632.262462	7128.756148
632.608316	7091.973369
632.954117	7066.805408
633.299866	7058.840385
633.645562	7043.727006
633.991206	6966.541899
634.336797	6916.725217
634.682336	6867.432815
635.027823	6834.995510
635.373257	6827.259860
635.718639	6761.094715
636.063968	6774.927642
636.409245	6667.283883
636.754470	6665.073338
637.099642	6623.322501
637.444762	6569.452731
637.789829	6577.558907
638.134845	6520.624115
638.479808	6504.131980
638.824719	6505.954357
639.169577	6436.681342
639.514383	6453.415452
639.859137	6385.564042
640.203839	6393.592079
640.548489	6380.679164
640.893086	6353.915678
641.237632	6326.206976
641.582125	6351.435430
641.926566	6320.618857
642.270955	6332.339540
642.615292	6323.716646
642.959576	6344.408062
643.303809	6329.506411
643.647990	6338.189799
643.992118	6329.647563
644.336195	6277.827023
644.680219	6303.052956
645.024192	6292.839579
645.368112	6387.797273
645.711981	6409.716210
646.055797	6480.163814
646.399562	6439.469100
646.743274	6566.206228
647.086935	6621.754703
647.430544	6615.342355
647.774101	6641.284133
648.117606	6637.321786
648.461059	6635.645602
648.804460	6601.627896
649.147810	6506.072825
649.491108	6476.632486
649.834354	6450.249607
650.177548	6365.522935
650.520690	6285.224916
650.863781	6256.414722
651.206820	6283.142919
651.549807	6202.938162
651.892742	6145.360623
652.235626	6150.908413
652.578458	6136.785620
652.921238	6040.116454
653.263967	6086.893321
653.606644	6026.371748
653.949269	6028.897366
654.291843	5963.778261
654.634365	6017.837075
654.976836	5969.913346
655.319255	5967.244055
655.661622	5946.373678
656.003938	5941.945024
656.346203	5907.236680
656.688416	5937.634838
657.030577	5889.499380
657.372687	5857.712384
657.714746	5843.758471
658.056753	5892.871912
658.398708	5827.500749
658.740612	5819.253422
659.082465	5865.664805
659.424266	5860.182550
659.766016	5855.612744
660.107715	5832.274722
660.449362	5850.319532
660.790958	5841.893244
661.132503	5833.479558
661.473996	5869.554055
661.815438	5851.489080
662.156829	5850.072516
662.498168	5841.459704
662.839456	5818.265356
663.180693	5854.004616
663.521879	5853.888669
663.863013	5844.514644
664.204097	5862.793868
664.545129	5904.176699
664.886110	5899.495988
665.227040	5931.759373
665.567918	5897.771913
665.908746	5929.571512
666.249522	5932.747439
666.590248	5919.348052
666.930922	5945.546928
667.271545	5956.524041
667.612118	5961.706347
667.952639	5935.653664
668.293109	5956.655111
668.633528	5916.051137
668.973896	5918.488535
669.314213	5905.542852
669.654480	5889.149020
669.994695	5882.104007
670.334859	5878.728955
670.674973	5868.785279
671.015035	5868.737388
671.355047	5870.136308
671.695008	5854.349935
672.034918	5828.559392
672.374777	5839.508778
672.714585	5826.875646
673.054342	5829.371018
673.394049	5818.857691
673.733705	5853.485377
674.073310	5839.118088
674.412864	5794.695441
674.752368	5790.337363
675.091820	5794.284587
675.431223	5729.939299
675.770574	5731.958281
676.109875	5683.051527
676.449125	5688.286765
676.788324	5653.724615
677.127473	5598.103044
677.466571	5590.949646
677.805619	5581.671403
678.144616	5561.761366
678.483562	5541.304363
678.822458	5512.927708
679.161303	5505.280278
679.500098	5497.993290
679.838842	5484.344366
680.177535	5488.526003
680.516179	5500.690307
680.854771	5511.637173
681.193314	5593.172795
681.531805	5703.916863
681.870247	5853.636612
682.208638	5955.374658
682.546978	5964.075689
682.885268	5944.329490
683.223508	5858.831521
683.561697	5806.723634
683.899836	5771.992604
684.237925	5730.148507
684.575963	5696.433270
684.913951	5653.903576
685.251889	5717.333894
685.589776	5684.989851
685.927614	5659.814328
686.265401	5723.244647
686.603137	5709.741916
686.940824	5788.603206
687.278460	5815.021373
687.616046	5820.155788
687.953582	5887.765223
688.291068	5867.056163
688.628504	5932.926400
688.965889	5892.471140
689.303224	5839.443243
689.640510	5790.707888
689.977745	5713.633687
690.314930	5615.827741
690.652065	5560.483433
690.989150	5468.147139
691.326185	5396.121653
691.663170	5338.397921
692.000105	5263.458648
692.336990	5188.869736
692.673825	5159.706661
693.010610	5089.377524
693.347345	5022.025188
693.684030	5013.309033
694.020665	4969.398062
694.357251	4878.301892
694.693786	4886.075351
695.030272	4852.047562
695.366707	4818.095391
695.703093	4782.819917
696.039429	4809.190193
696.375716	4787.520793
696.711952	4766.035396
697.048139	4750.306996
697.384276	4732.945262
697.720363	4743.347683
698.056400	4750.490998
698.392388	4700.535684
698.728326	4681.066747
699.064214	4660.277029
699.400053	4652.846368
699.735842	4620.550216
700.071581	4595.311679
700.407270	4570.547011
700.742910	4549.719484
701.078501	4497.064632
701.414042	4495.736288
701.749533	4466.558090
702.084974	4404.627515
702.420366	4460.707831
702.755709	4399.949324
703.091002	4348.799256
703.426246	4393.020258
703.761440	4354.039536
704.096584	4312.260973
704.431679	4336.105631
704.766725	4315.978824
705.101721	4308.338956
705.436668	4334.285774
705.771565	4279.843833
706.106413	4309.886590
706.441212	4339.538657
706.775961	4348.085933
707.110661	4334.724355
707.445311	4359.766287
707.779913	4384.762848
708.114465	4396.297008
708.448967	4415.702930
708.783421	4479.816324
709.117825	4516.800749
709.452180	4525.526987
709.786485	4571.698915
710.120742	4651.210514
710.454949	4637.238956
710.789107	4708.362075
711.123216	4782.396460
711.457275	4772.389770
711.791286	4849.111090
712.125247	4861.633317
712.459159	4762.988018
712.793023	4842.184545
713.126837	4798.361795
713.460602	4792.322492
713.794318	4710.257549
714.127985	4721.852203
714.461602	4633.742916
714.795171	4605.202423
715.128691	4539.309501
715.462162	4480.522086
715.795584	4432.192544
716.128957	4418.276439
716.462281	4365.598902
716.795556	4335.737627
717.128782	4298.191113
717.461960	4233.548397
717.795088	4240.371599
718.128167	4201.879869
718.461198	4141.474243
718.794180	4140.271928
719.127113	4121.541520
719.459997	4097.041513
719.792833	4054.111047
720.125619	4042.586969
720.458357	4009.385930
720.791046	4017.718957
721.123686	3989.115450
721.456278	3945.317905
721.788821	3960.300215
722.121315	3935.439764
722.453761	3908.202410
722.786158	3921.100202
723.118506	3943.384623
723.450805	3894.961820
723.783056	3919.083741
724.115259	3936.377419
724.447412	3941.516875
724.779518	3932.994805
725.111574	3938.766926
725.443582	3965.321204
725.775542	3953.265284
726.107453	4002.834950
726.439315	4002.638345
726.771129	4018.661653
727.102895	4054.531983
727.434612	4102.702728
727.766281	4113.319398
728.097901	4113.062300
728.429473	4124.087303
728.760996	4124.500678
729.092471	4120.976911
729.423897	4106.047534
729.755276	4112.439717
730.086606	4111.242443
730.417887	4146.843072
730.749120	4214.906210
731.080305	4278.946508
731.411442	4304.686640
731.742530	4269.958131
732.073570	4278.122279
732.404562	4331.918953
732.735506	4326.217408
733.066401	4287.839103
733.397249	4222.006675
733.728048	4142.510200
734.058798	4060.041964
734.389501	3991.086541
734.720156	3931.432047
735.050762	3885.343298
735.381320	3879.079664
735.711831	3824.632682
736.042293	3795.726706
736.372707	3822.717044
736.703073	3787.870068
737.033391	3778.735497
737.363661	3801.201399
737.693883	3825.194771
738.024056	3833.288343
738.354182	3829.073939
738.684260	3894.004000
739.014290	3915.950664
739.344272	3906.190990
739.674207	3952.642702
740.004093	3955.334678
740.333931	3950.568267
740.663722	3956.620172
740.993464	3949.449131
741.323159	3926.915173
741.652806	3896.413672
741.982405	3869.695557
742.311956	3837.222964
742.641460	3828.179134
742.970915	3804.268941
743.300323	3761.285543
743.629683	3731.983836
743.958996	3718.816343
744.288260	3693.802137
744.617477	3661.929442
744.946647	3648.424191
745.275768	3617.211887
745.604842	3617.587453
745.933869	3571.786049
746.262847	3562.273392
746.591778	3601.866614
746.920662	3573.109352
747.249498	3538.842109
747.578286	3584.361208
747.907027	3604.813169
748.235720	3600.762602
748.564365	3625.779328
748.892963	3627.473155
749.221514	3607.487501
749.550017	3584.351125
749.878473	3582.705189
750.206881	3555.079666
750.535242	3551.213101
750.863555	3552.672515
751.191821	3548.674880
751.520039	3533.478321
751.848210	3506.619054
752.176334	3539.381512
752.504411	3546.224879
752.832440	3507.302130
753.160421	3486.303204
753.488356	3497.265193
753.816243	3511.387985
754.144082	3465.684884
754.471875	3450.039663
754.799620	3470.917602
755.127318	3466.302426
755.454969	3461.730099
755.782572	3470.426090
756.110129	3445.623613
756.437638	3434.880914
756.765100	3448.970939
757.092515	3458.637351
757.419882	3465.243783
757.747203	3440.595062
758.074477	3440.101029
758.401703	3459.181796
758.728882	3477.912203
759.056014	3484.599294
759.383099	3489.736229
759.710138	3483.328923
760.037129	3501.356089
760.364073	3529.311808
760.690970	3518.009541
761.017820	3495.457939
761.344623	3513.628778
761.671379	3560.350192
761.998088	3610.534878
762.324751	3738.481884
762.651366	3985.122856
762.977935	4457.380669
763.304456	4902.416251
763.630931	4999.337475
763.957359	4635.245180
764.283740	4292.262716
764.610074	4100.812296
764.936362	3903.408273
765.262602	3745.098398
765.588796	3636.277531
765.914943	3544.528531
766.241044	3458.629790
766.567097	3428.907147
766.893104	3381.653891
767.219064	3348.783047
767.544978	3320.731547
767.870845	3266.771036
768.196665	3246.583735
768.522438	3256.600508
768.848165	3251.413161
769.173846	3216.364539
769.499479	3199.320397
769.825066	3181.895649
770.150607	3164.848987
770.476101	3179.569157
770.801548	3174.540606
771.126949	3129.313894
771.452303	3112.073148
771.777611	3118.054477
772.102872	3125.679222
772.428087	3101.632918
772.753256	3090.789396
773.078378	3088.785538
773.403453	3048.274825
773.728482	3035.931560
774.053465	3057.585837
774.378401	3045.280380
774.703291	3011.436594
775.028135	3014.796523
775.352932	3008.358969
775.677683	2998.314470
776.002388	2994.357164
776.327046	2996.323214
776.651658	2985.565392
776.976224	2975.672128
777.300743	2975.732622
777.625216	2964.551342
777.949643	2960.160497
778.274024	2960.568831
778.598359	2951.928293
778.922647	2956.913994
779.246889	2953.949796
779.571086	2942.259360
779.895236	2935.693257
780.219339	2946.506532
780.543397	2957.531536
780.867409	2962.091259
781.191374	2951.136832
781.515294	2950.743622
781.839167	2950.718416
782.162995	2941.099895
782.486776	2951.504836
782.810511	2949.816050
783.134201	2934.674944
783.457844	2944.263219
783.781441	2937.243412
784.104993	2913.340781
784.428498	2913.849938
784.751958	2927.259407
785.075372	2920.632810
785.398739	2904.859040
785.722061	2924.615322
786.045337	2935.998247
786.368568	2915.858837
786.691752	2909.441448
787.014891	2957.924746
787.337983	2988.403562
787.661030	3014.879702
787.984031	3082.794126
788.306987	3129.268524
788.629897	3120.643109
788.952760	3107.987293
789.275579	3092.047164
789.598351	3030.479552
789.921078	2985.451966
790.243759	2976.708085
790.566395	2960.062195
790.888984	2938.120573
791.211529	2919.932090
791.534027	2909.254926
791.856480	2901.589851
792.178888	2886.844476
792.501249	2876.590769
792.823566	2873.964328
793.145836	2871.713453
793.468062	2868.688761
793.790241	2865.296064
794.112375	2872.618340
794.434464	2884.822974
794.756507	2890.398490
795.078505	2893.929818
795.400457	2908.770975
795.722364	2945.142900
796.044226	2969.539564
796.366042	2970.084009
796.687812	2962.723924
797.009538	2978.928713
797.331218	2968.354893
797.652852	2956.145218
797.974442	2934.082608
798.295986	2931.574634
798.617484	2926.765374
798.938938	2911.611665
799.260346	2896.644479
799.581709	2888.054353
799.903026	2884.316338
800.224299	2878.748383
800.545526	2868.509800
800.866708	2853.658561
801.187845	2845.244875
801.508936	2845.174299
801.829983	2850.694362
802.150984	2836.911847
802.471940	2826.401042
802.792851	2824.818119
803.113717	2826.159066
803.434538	2829.975220
803.755314	2822.131184
804.076045	2817.417706
804.396731	2815.943168
804.717372	2817.999959
805.037967	2812.605924
805.358518	2818.085658
805.679024	2832.266424
805.999485	2826.516988
806.319901	2831.091835
806.640272	2822.789055
806.960598	2828.654437
807.280879	2838.638443
807.601115	2842.177333
807.921306	2832.142916
808.241453	2825.712924
808.561554	2834.736590
808.881611	2836.460664
809.201623	2831.187617
809.521590	2829.327432
809.841513	2824.926504
810.161390	2829.186279
810.481223	2823.998932
810.801011	2813.599032
811.120755	2808.406643
811.440453	2812.880667
811.760107	2812.069041
812.079716	2808.777168
812.399281	2803.098308
812.718801	2793.126906
813.038276	2789.852676
813.357707	2794.503141
813.677093	2802.392547
813.996434	2794.084725
814.315731	2789.966102
814.634983	2786.865793
814.954191	2788.690690
815.273354	2803.244502
815.592473	2812.832776
815.911547	2812.265646
816.230577	2822.416010
816.549562	2830.794407
816.868502	2826.327945
817.187399	2839.364369
817.506250	2856.499251
817.825058	2848.433405
818.143821	2860.138964
818.462539	2877.306613
818.781213	2904.685120
819.099843	2942.256839
819.418429	3000.330932
819.736970	3060.718914
820.055466	3132.976292
820.373919	3238.260790
820.692327	3381.580794
821.010691	3548.107750
821.329011	3993.017303
821.647286	4895.252772
821.965517	6287.095184
822.283704	7037.143259
822.601847	7016.978643
822.919945	6382.849381
823.237999	5871.184868
823.556010	5284.278614
823.873976	4722.041246
824.191897	4313.680058
824.509775	4021.565357
824.827609	3744.690065
825.145398	3624.025006
825.463144	3609.534209
825.780845	3703.178683
826.098502	3807.838078
826.416116	4090.447683
826.733685	4410.883587
827.051210	4474.152588
827.368692	4363.751319
827.686129	4088.448866
828.003522	3762.437447
828.320872	3508.068385
828.638177	3310.107315
828.955439	3171.004236
829.272656	3088.341916
829.589830	3019.570495
829.906960	2968.223823
830.224046	2924.474169
830.541088	2891.368912
830.858086	2875.832076
831.175041	2857.562934
831.491952	2857.406658
831.808819	2872.028525
832.125642	2893.203892
832.442421	2941.167950
832.759157	3022.980836
833.075849	3197.949204
833.392497	3484.095178
833.709101	3689.260058
834.025662	3638.755258
834.342179	3479.341370
834.658653	3300.309833
834.975083	3149.980104
835.291469	3051.750701
835.607811	2968.324646
835.924110	2908.191242
836.240366	2859.619725
836.556578	2816.422078
836.872746	2794.528347
837.188871	2768.495828
837.504952	2750.624938
837.820990	2746.266860
838.136984	2730.359499
838.452935	2721.154352
838.768842	2720.294836
839.084706	2739.851992
839.400526	2816.364104
839.716303	2953.768314
840.032037	3034.610778
840.347727	3019.837677
840.663373	2957.634879
840.978977	2882.105792
841.294537	2806.763227
841.610054	2762.794283
841.925527	2738.279152
842.240957	2718.694269
842.556344	2692.313911
842.871687	2678.324709
843.186987	2669.026301
843.502244	2667.120745
843.817458	2662.470280
844.132629	2651.525935
844.447756	2640.430356
844.762840	2633.768471
845.077881	2636.684778
845.392879	2633.095477
845.707833	2632.651855
846.022745	2623.063581
846.337613	2626.902419
846.652438	2623.242542
846.967221	2624.885958
847.281960	2622.476286
847.596656	2621.389918
847.911309	2621.722634
848.225919	2614.564195
848.540485	2611.640326
848.855009	2614.365070
849.169490	2613.233331
849.483928	2612.971191
849.798323	2613.152672
850.112675	2611.108484
850.426984	2610.105295
850.741251	2610.380038
851.055474	2610.190994
851.369654	2614.344905
851.683792	2613.724843
851.997887	2609.628906
852.311938	2607.753597
852.625947	2612.661160
852.939914	2616.817591
853.253837	2614.748197
853.567718	2610.775768
853.881555	2610.780809
854.195350	2613.001438
854.509103	2614.652416
854.822812	2610.679986
855.136479	2607.740994
855.450103	2610.773248
855.763685	2614.491099
856.077224	2608.938268
856.390720	2608.918103
856.704173	2611.143772
857.017584	2615.121243
857.330953	2617.193157
857.644278	2618.410596
857.957561	2621.016872
858.270802	2616.681480
858.584000	2616.179885
858.897155	2617.606532
859.210268	2618.927314
859.523339	2616.328599
859.836367	2611.569750
860.149352	2610.211159
860.462295	2610.097733
860.775195	2607.433483
861.088054	2609.102105
861.400869	2608.913062
861.713642	2604.174377
862.026373	2607.630088
862.339062	2611.542024
862.651708	2615.814402
862.964312	2616.341202
863.276873	2612.729215
863.589392	2618.244238
863.901869	2622.723303
864.214303	2625.662296
864.526696	2624.376801
864.839045	2627.956021
865.151353	2628.535753
865.463619	2631.797380
865.775842	2632.225878
866.088023	2630.395939
866.400162	2632.997174
866.712258	2632.810652
867.024313	2628.155146
867.336325	2625.992491
867.648296	2628.712194
867.960224	2633.120683
868.272110	2631.351238
868.583954	2625.747995
868.895755	2625.518623
869.207515	2633.087915
869.519233	2637.612351
869.830909	2635.353914
870.142542	2632.946763
870.454134	2632.399798
870.765684	2638.852475
871.077191	2640.115284
871.388657	2643.664256
871.700081	2643.591159
872.011463	2641.368010
872.322803	2642.542599
872.634101	2646.343629
872.945357	2653.839825
873.256571	2659.798469
873.567744	2656.783859
873.878874	2657.623211
874.189963	2657.300577
874.501010	2661.472132
874.812015	2667.128307
875.122979	2663.765857
875.433900	2658.281082
875.744780	2655.987357
876.055618	2660.910043
876.366415	2668.607885
876.677169	2669.502690
876.987882	2659.475835
877.298554	2657.928201
877.609183	2669.432114
877.919771	2676.832528
878.230317	2685.455421
878.540822	2696.286340
878.851285	2709.234544
879.161707	2731.506362
879.472087	2772.972373
879.782425	2820.444918
880.092722	2935.524378
880.402977	3123.967750
880.713191	3388.938358
881.023363	3684.995241
881.333494	3879.253584
881.643583	4055.726736
881.953631	4049.299265
882.263637	3869.509034
882.573602	3646.831186
882.883526	3517.114736
883.193408	3401.642066
883.503248	3298.255562
883.813048	3182.427491
884.122806	3067.554718
884.432522	2980.763693
884.742197	2916.221800
885.051831	2876.298382
885.361424	2841.527024
885.670975	2806.196097
885.980485	2773.093360
886.289954	2756.507964
886.599382	2742.506159
886.908768	2731.042576
887.218113	2712.670090
887.527417	2696.813141
887.836680	2691.555217
888.145901	2682.508867
888.455082	2674.952177
888.764221	2664.728717
889.073319	2654.832932
889.382376	2658.742347
889.691392	2659.349806
890.000366	2660.174035
890.309300	2655.306801
890.618193	2659.485917
890.927044	2662.031700
891.235855	2662.676968
891.544625	2659.432985
891.853353	2659.334683
892.162041	2667.597134
892.470687	2687.350895
892.779293	2698.184335
893.087858	2709.806715
893.396381	2731.231619
893.704864	2774.169647
894.013306	2845.307889
894.321707	2936.431786
894.630068	2992.368429
894.938387	3014.045391
895.246665	3006.370234
895.554903	2961.398101
895.863100	2918.742377
896.171256	2858.659385
896.479371	2795.713018
896.787446	2757.780856
897.095480	2736.834861
897.403473	2728.529560
897.711425	2714.063969
898.019336	2697.949921
898.327207	2683.121367
898.635038	2683.426357
898.942827	2680.235307
899.250576	2670.289110
899.558284	2657.214878
899.865952	2652.629948
900.173579	2649.264978
900.481165	2648.491161
900.788711	2640.939512
901.096216	2634.512041
901.403681	2631.197482
901.711105	2632.389715
902.018489	2629.745630
902.325832	2632.856022
902.633135	2633.715539
902.940397	2650.109371
903.247619	2689.448015
903.554800	2758.355547
903.861941	2885.848848
904.169041	3015.386338
904.476101	3078.168868
904.783121	3073.004206
905.090100	3014.577232
905.397039	2936.061261
905.703938	2862.528471
906.010796	2798.498255
906.317614	2745.641757
906.624391	2710.774617
906.931129	2683.247396
907.237826	2657.487100
907.544483	2640.531179
907.851099	2626.519292
908.157675	2618.478651
908.464211	2610.309462
908.770707	2598.782863
909.077163	2593.497213
909.383578	2591.536205
909.689954	2588.670309
909.996289	2590.033941
910.302584	2589.935638
910.608839	2584.821388
910.915054	2587.178127
911.221229	2588.120823
911.527363	2592.627614
911.833458	2588.650144
912.139513	2589.033272
912.445527	2591.125351
912.751502	2599.032400
913.057436	2603.080447
913.363331	2608.237547
913.669186	2621.208436
913.975000	2632.309057
914.280775	2648.239103
914.586510	2670.067299
914.892205	2707.618854
915.197859	2774.772065
915.503475	2862.110055
915.809050	2926.573810
916.114585	2942.224072
916.420081	2952.664302
916.725536	2967.626446
917.030952	2939.912703
917.336328	2891.638614
917.641665	2843.954339
917.946961	2791.644807
918.252218	2757.498551
918.557435	2730.122565
918.862612	2706.696323
919.167750	2689.722758
919.472848	2673.855726
919.777906	2655.440391
920.082925	2642.676190
920.387904	2633.594551
920.692843	2629.470887
920.997743	2623.219857
921.302603	2618.057715
921.607423	2607.052876
921.912204	2603.584562
922.216946	2601.376537
922.521647	2599.292020
922.826310	2594.686926
923.130932	2588.829105
923.435516	2587.021851
923.740059	2584.355081
924.044564	2583.533373
924.349028	2581.542117
924.653454	2571.485015
924.957840	2569.587021
925.262186	2566.998388
925.566493	2570.459140
925.870761	2563.837585
926.174989	2567.689026
926.479178	2564.044272
926.783328	2561.609395
927.087438	2557.909188
927.391509	2561.301884
927.695541	2554.889537
927.999533	2558.037737
928.303486	2554.897098
928.607400	2554.771070
928.911275	2555.799465
929.215110	2556.734599
929.518906	2554.796275
929.822663	2557.337017
930.126381	2554.307283
930.430060	2557.420196
930.733699	2556.003632
931.037299	2555.940617
931.340861	2555.643189
931.644383	2556.018755
931.947866	2555.607901
932.251309	2557.732748
932.554714	2556.008673
932.858080	2557.740309
933.161407	2554.017417
933.464694	2550.712941
933.767943	2553.858621
934.071153	2551.101110
934.374323	2551.438867
934.677455	2553.135215
934.980548	2551.264947
935.283602	2550.493651
935.586617	2552.618497
935.889593	2553.483055
936.192530	2550.627241
936.495428	2551.514484
936.798287	2553.709907
937.101108	2555.539846
937.403890	2556.422047
937.706632	2560.250804
938.009336	2560.828016
938.312002	2566.335477
938.614628	2569.219017
938.917216	2575.522979
939.219765	2576.311920
939.522275	2576.543813
939.824747	2575.328895
940.127179	2570.804459
940.429573	2569.002247
940.731929	2567.099211
941.034246	2566.199365
941.336524	2565.249108
941.638763	2565.173491
941.940964	2565.002091
942.243126	2563.000753
942.545250	2565.473439
942.847335	2562.476473
943.149381	2559.282902
943.451389	2557.589075
943.753359	2558.478838
944.055290	2556.326266
944.357182	2555.978426
944.659036	2556.691749
944.960851	2556.986657
945.262628	2555.592778
945.564367	2556.359033
945.866067	2556.545556
946.167729	2556.343910
946.469352	2558.589744
946.770937	2556.946327
947.072484	2556.374157
947.373992	2556.926163
947.675462	2552.661347
947.976893	2555.882644
948.278286	2554.201419
948.579641	2552.061449
948.880958	2553.535987
949.182236	2550.775955
949.483476	2555.824671
949.784678	2552.263096
950.085841	2549.724875
950.386967	2554.690411
950.688054	2552.605894
950.989103	2554.733261
951.290114	2555.474311
951.591087	2558.188972
951.892021	2558.388097
952.192917	2558.672923
952.493776	2558.730896
952.794596	2557.972202
953.095378	2558.861966
953.396122	2560.828016
953.696828	2559.534960
953.997496	2556.802655
954.298126	2554.357695
954.598718	2555.000442
954.899272	2552.968857
955.199788	2554.362736
955.500266	2551.138918
955.800706	2549.601366
956.101108	2540.784388
956.401472	2543.884698
956.701798	2541.424615
957.002087	2542.379913
957.302337	2544.935778
957.602550	2542.770603
957.902724	2541.424615
958.202861	2542.634492
958.502960	2542.364790
958.803022	2541.343956
959.103045	2541.233051
959.403031	2540.502084
959.702979	2539.987886
960.002889	2539.299768
960.302762	2538.725077
960.602596	2539.745911
960.902393	2536.065868
961.202153	2537.164840
961.501875	2536.378420
961.801559	2536.466640
962.101205	2537.570653
962.400814	2535.866743
962.700385	2538.455375
962.999918	2536.799356
963.299414	2536.995961
963.598873	2536.922864
963.898293	2536.685930
964.197677	2537.242978
964.497022	2534.119983
964.796331	2536.050745
965.095601	2537.003523
965.394835	2536.078471
965.694030	2539.955118
965.993189	2536.726259
966.292309	2535.352545
966.591393	2534.956814
966.890439	2535.546629
967.189447	2537.268183
967.488419	2534.901362
967.787353	2537.472350
968.086249	2536.421270
968.385108	2534.170394
968.683930	2535.380271
968.982714	2538.309182
969.281462	2536.469161
969.580172	2539.294727
969.878844	2536.784233
970.177480	2533.991433
970.476078	2538.359593
970.774639	2535.186187
971.073162	2538.583925
971.371649	2535.251722
971.670098	2533.636032
971.968510	2535.435724
972.266885	2535.586959
972.565223	2540.313040
972.863524	2538.745242
973.161788	2536.222144
973.460014	2538.609130
973.758204	2537.737011
974.056356	2538.407484
974.354471	2538.094933
974.652550	2537.273225
974.950591	2539.244316
975.248595	2536.864891
975.546563	2537.553009
975.844493	2535.554191
976.142386	2535.728111
976.440243	2537.578214
976.738062	2536.030580
977.035845	2536.121321
977.333590	2536.436393
977.631299	2535.816331
977.928971	2536.685930
978.226606	2536.368338
978.524204	2534.830786
978.821765	2535.062679
979.119290	2534.845909
979.416777	2536.761548
979.714228	2533.885569
980.011642	2534.283820
980.309020	2539.728267
980.606360	2538.147865
980.903664	2534.813142
981.200931	2539.249357
981.498162	2537.142155
981.795356	2540.766744
982.092513	2543.335212
982.389633	2543.105840
982.686717	2546.279246
982.983764	2550.324772
983.280775	2552.101779
983.577749	2552.497509
983.874686	2552.273178
984.171587	2546.748073
984.468451	2547.370656
984.765279	2542.069882
985.062070	2542.362269
985.358824	2540.403781
985.655543	2539.551826
985.952224	2536.582587
986.248869	2536.151568
986.545478	2533.620909
986.842050	2536.388502
987.138586	2530.142513
987.435086	2530.694519
987.731549	2530.623943
988.027975	2532.920188
988.324366	2535.544109
988.620719	2534.588810
988.917037	2533.734335
989.213318	2533.762061
989.509563	2534.911444
989.805772	2535.586959
990.101944	2533.499921
990.398080	2530.964221
990.694180	2534.868594
990.990244	2532.544622
991.286271	2532.574869
991.582262	2531.864067
991.878217	2532.373223
992.174136	2532.864736
992.470019	2532.446320
992.765865	2534.160312
993.061676	2531.382636
993.357450	2531.811134
993.653188	2533.124355
993.948890	2535.143337
994.244556	2532.048069
994.540186	2533.522606
994.835780	2536.476722
995.131337	2537.679037
995.426859	2531.796011
995.722345	2536.232226
996.017795	2535.584438
996.313208	2537.719367
996.608586	2536.733821
996.903928	2537.036290
997.199234	2534.780374
997.494504	2538.445293
997.789738	2533.671320
998.084936	2534.182997
998.380099	2537.132072
998.675225	2535.324819
998.970316	2534.301464
999.265371	2534.125024
999.560390	2533.220137
999.855373	2535.337422
1000.150320	2531.382636
1000.445232	2534.510672
1000.740108	2531.218799
1001.034948	2533.890610
1001.329752	2534.351876
1001.624521	2531.838861
1001.919254	2527.183355
1002.213951	2531.155784
1002.508613	2529.240146
1002.803239	2528.743592
1003.097829	2526.013807
1003.392384	2532.211906
1003.686903	2528.743592
1003.981386	2531.881711
1004.275834	2533.404139
1004.570246	2530.384488
1004.864623	2531.049920
1005.158964	2533.426824
1005.453270	2530.626463
1005.747540	2529.487163
1006.041775	2532.466484
1006.335974	2527.122861
1006.630138	2530.911288
1006.924266	2528.526823
1007.218359	2531.662420
1007.512416	2533.812472
1007.806438	2533.015970
1008.100425	2527.528674
1008.394376	2532.073274
1008.688292	2532.282482
1008.982172	2531.034797
1009.276017	2530.026566
1009.569827	2530.160157
1009.863602	2529.537574
1010.157341	2529.368695
1010.451045	2527.942049
1010.744714	2529.860208
1011.038347	2531.236443
1011.331945	2529.605630
1011.625508	2529.739220
1011.919036	2528.874662
1012.212528	2527.745444
1012.505986	2530.001360
1012.799408	2528.315094
1013.092795	2528.035310
1013.386147	2531.347348
1013.679464	2527.853829
1013.972745	2529.497245
1014.265992	2528.347862
1014.559204	2530.739889
1014.852380	2531.218799
1015.145521	2532.456402
1015.438628	2529.386339
1015.731699	2531.037317
1016.024736	2531.289375
1016.317737	2530.457585
1016.610703	2530.197965
1016.903635	2528.199148
1017.196531	2524.171266
1017.489393	2529.300640
1017.782219	2523.309228
1018.075011	2529.403983
1018.367768	2526.245701
1018.660490	2532.897503
1018.953177	2532.897503
1019.245829	2532.897503
