Dividing Wavelength (nm)	Counts (n)	Blue Motor Position (mm): 1.500000	Red Motor Position (mm): 0.000000	
326.493990	2143.881743
326.888308	2143.881743
327.282561	2143.881743
327.676750	2112.918976
328.070874	2111.517535
328.464933	2113.032402
328.858929	2120.493310
329.252859	2130.477315
329.646726	2141.855199
330.040528	2155.851963
330.434265	2171.504746
330.827938	2187.885975
331.221547	2203.967256
331.615091	2223.728579
332.008571	2245.476117
332.401986	2264.662748
332.795338	2281.331323
333.188625	2302.292441
333.581847	2320.922025
333.975006	2340.829542
334.368100	2357.508199
334.761129	2376.692310
335.154095	2392.682850
335.546996	2409.845458
335.939833	2424.661409
336.332606	2441.007351
336.725315	2452.642334
337.117960	2462.502831
337.510540	2467.032308
337.903056	2482.002014
338.295508	2487.801861
338.687896	2494.579693
339.080220	2506.176867
339.472480	2508.095026
339.864676	2517.211953
340.256807	2520.665143
340.648875	2522.280833
341.040879	2526.318797
341.432818	2524.627490
341.824694	2526.961544
342.216506	2527.659744
342.608253	2528.378109
342.999937	2529.645959
343.391557	2528.446164
343.783113	2530.064375
344.174605	2527.513551
344.566033	2527.828623
344.957397	2523.828467
345.348697	2520.161028
345.739934	2520.029958
346.131106	2519.233456
346.522215	2517.269926
346.913260	2515.714730
347.304241	2514.036026
347.695159	2512.750532
348.086012	2508.551251
348.476802	2507.664008
348.867528	2506.048318
349.258191	2505.413132
349.648789	2506.217196
350.039324	2502.635457
350.429796	2501.276866
350.820203	2501.531444
351.210548	2499.262925
351.600828	2498.317708
351.991045	2496.051710
352.381198	2496.815444
352.771288	2495.265290
353.161314	2496.507934
353.551276	2495.587923
353.941175	2496.326452
354.331010	2494.388129
354.720782	2497.334683
355.110490	2494.975423
355.500135	2496.666730
355.889717	2495.043479
356.279235	2496.886021
356.668689	2499.000785
357.058080	2496.278562
357.447408	2494.622543
357.836672	2494.224291
358.225873	2493.878972
358.615010	2492.825371
359.004084	2499.315857
359.393095	2498.695795
359.782043	2500.674448
360.170927	2501.854078
360.559748	2502.726197
360.948505	2500.379540
361.337199	2503.086640
361.725830	2501.523882
362.114398	2502.693430
362.502903	2502.789212
362.891344	2504.553616
363.279722	2501.735611
363.668037	2503.789881
364.056289	2505.176198
364.444478	2505.985303
364.832603	2504.107473
365.220665	2506.436487
365.608665	2507.611075
365.996601	2506.496980
366.384474	2506.902793
366.772284	2506.023112
367.160031	2509.529234
367.547715	2509.400685
367.935336	2508.999913
368.322893	2510.171982
368.710388	2509.257012
369.097820	2512.770696
369.485189	2507.548061
369.872495	2512.992507
370.259738	2509.045284
370.646918	2510.166940
371.034035	2509.410767
371.421090	2507.968997
371.808081	2508.039573
372.195010	2511.611231
372.581875	2509.791374
372.968678	2513.786489
373.355418	2510.071158
373.742096	2514.850172
374.128710	2512.327075
374.515262	2512.107785
374.901751	2513.874709
375.288177	2511.633916
375.674540	2512.049811
376.060841	2513.965450
376.447079	2514.525018
376.833254	2516.536438
377.219367	2508.999913
377.605417	2511.386900
377.991404	2508.137876
378.377329	2512.843793
378.763191	2508.745335
379.148991	2515.407220
379.534727	2515.286232
379.920402	2515.971829
380.306013	2513.685666
380.691563	2514.489730
381.077049	2519.591377
381.462474	2517.285050
381.847835	2517.433764
382.233134	2516.047446
382.618371	2517.358146
383.003545	2519.225894
383.388657	2515.755059
383.773706	2516.803619
384.158693	2519.041892
384.543618	2517.784124
384.928480	2518.618435
385.313280	2518.590708
385.698017	2518.227745
386.082692	2518.507529
386.467305	2518.570544
386.851856	2520.700431
387.236344	2521.035668
387.620770	2519.598939
388.005133	2522.248066
388.389435	2522.953827
388.773674	2521.239835
389.157851	2518.005935
389.541965	2523.319311
389.926018	2522.910977
390.310008	2518.550379
390.693936	2521.126409
391.077802	2521.693539
391.461606	2521.930473
391.845348	2523.425175
392.229027	2522.013652
392.612645	2520.155987
392.996200	2522.873169
393.379694	2521.333096
393.763125	2523.654547
394.146494	2522.885772
394.529801	2522.981553
394.913047	2524.201513
395.296230	2524.425844
395.679351	2522.646317
396.062410	2523.415093
396.445408	2523.369722
396.828343	2523.876358
397.211217	2518.441994
397.594028	2521.038189
397.976778	2519.394773
398.359466	2522.863086
398.742092	2520.808816
399.124656	2522.069105
399.507158	2524.425844
399.889598	2527.642100
400.271977	2527.644621
400.654294	2527.747964
401.036549	2526.515402
401.418742	2526.754857
401.800874	2528.703263
402.182944	2527.216123
402.564952	2527.541277
402.946898	2527.810979
403.328783	2526.618746
403.710606	2524.834178
404.092367	2529.945908
404.474067	2528.703263
404.855705	2530.626463
405.237282	2528.254600
405.618797	2526.941380
406.000250	2525.786956
406.381642	2526.419620
406.762972	2531.173428
407.144240	2529.446833
407.525447	2531.851464
407.906593	2528.904909
408.287677	2529.875331
408.668700	2530.664272
409.049661	2530.044210
409.430560	2529.063706
409.811399	2533.303316
410.192176	2531.876669
410.572891	2530.946577
410.953545	2529.877852
411.334138	2530.361803
411.714669	2530.127389
412.095139	2531.238963
412.475547	2530.470188
412.855894	2529.340969
413.236180	2530.886083
413.616405	2532.315250
413.996568	2531.957328
414.376670	2532.806762
414.756711	2532.675692
415.136691	2529.552698
415.516609	2534.162833
415.896466	2532.668131
416.276262	2533.719211
416.655997	2526.182686
417.035670	2527.218643
417.415283	2531.123017
417.794834	2528.456247
418.174324	2533.409180
418.553753	2533.812472
418.933121	2534.452699
419.312428	2533.378933
419.691674	2534.427493
420.070859	2535.395395
420.449983	2534.036804
420.829045	2529.290558
421.208047	2534.656866
421.586988	2533.305837
421.965867	2534.208203
422.344686	2532.524458
422.723444	2537.812628
423.102141	2533.721732
423.480777	2538.150385
423.859352	2533.361289
424.237866	2537.043852
424.616319	2534.694674
424.994712	2536.229706
425.373044	2536.118800
425.751314	2534.646783
426.129524	2533.573018
426.507673	2538.140303
426.885762	2539.372865
427.263789	2537.915972
427.641756	2534.137627
428.019662	2538.251208
428.397508	2536.995961
428.775292	2538.848585
429.153016	2537.464788
429.530679	2538.389840
429.908282	2537.006043
430.285824	2536.963194
430.663305	2536.179294
431.040726	2537.807587
431.418086	2539.710622
431.795385	2538.382278
432.172624	2539.652649
432.549802	2539.637526
432.926920	2539.060314
433.303977	2540.045859
433.680974	2539.277083
434.057910	2539.267001
434.434786	2537.157278
434.811601	2538.528472
435.188355	2538.213400
435.565050	2539.302289
435.941683	2540.484440
436.318257	2535.087884
436.694770	2534.644263
437.071222	2537.038811
437.447614	2536.491846
437.823946	2535.642411
438.200218	2539.524100
438.576429	2539.977804
438.952580	2538.848585
439.328670	2539.188863
439.704700	2542.637012
440.080670	2540.383617
440.456580	2538.291538
440.832429	2538.803215
441.208218	2538.339429
441.583947	2540.655839
441.959616	2539.267001
442.335224	2540.030736
442.710773	2539.496373
443.086261	2540.340767
443.461689	2540.484440
443.837057	2541.389327
444.212365	2541.860675
444.587612	2540.413863
444.962800	2540.882691
445.337927	2543.088196
445.712995	2540.703730
446.088002	2540.928061
446.462949	2541.396888
446.837837	2541.081816
447.212664	2539.919830
447.587431	2540.053421
447.962139	2542.689944
448.336786	2545.835624
448.711374	2541.023843
449.085901	2542.306817
449.460369	2543.062990
449.834776	2540.741538
450.209124	2543.322609
450.583412	2544.645912
450.957640	2542.274049
451.331808	2543.115922
451.705917	2544.724050
452.079965	2543.602393
452.453954	2544.434184
452.827883	2543.151210
453.201752	2544.862682
453.575562	2545.074410
453.949311	2540.925541
454.323001	2544.043494
454.696632	2546.818649
455.070202	2546.054915
455.443713	2542.843700
455.817164	2541.162475
456.190556	2545.490305
456.563888	2537.885725
456.937160	2540.300438
457.310373	2540.872608
457.683526	2544.517363
458.056619	2543.730943
458.429653	2544.711447
458.802628	2544.628268
459.175542	2541.795140
459.548398	2542.279090
459.921194	2542.296734
460.293930	2544.817311
460.666607	2545.568443
461.039224	2542.616848
461.411782	2544.260264
461.784280	2544.376210
462.156719	2544.696324
462.529099	2545.578526
462.901419	2543.181457
463.273680	2545.346632
463.645882	2541.971580
464.018024	2546.417878
464.390106	2545.696993
464.762130	2545.800336
465.134094	2546.115408
465.505999	2546.402754
465.877845	2546.289328
466.249631	2546.410316
466.621358	2546.354863
466.993026	2547.511808
467.364634	2549.094730
467.736184	2546.380069
468.107674	2544.540048
468.479105	2544.625747
468.850477	2546.511139
469.221790	2544.918134
469.593043	2549.384597
469.964238	2545.371838
470.335373	2547.060625
470.706449	2547.398382
471.077467	2547.148845
471.448425	2547.224462
471.819324	2544.489636
472.190164	2547.950388
472.560945	2545.044163
472.931667	2549.445091
473.302330	2546.906870
473.672934	2546.397713
474.043479	2547.728578
474.413965	2548.260419
474.784393	2542.301776
475.154761	2545.089534
475.525070	2541.575849
475.895321	2543.670449
476.265513	2545.538196
476.635645	2546.722867
477.005719	2546.715306
477.375734	2550.581871
477.745691	2546.548948
478.115588	2549.175389
478.485427	2548.681356
478.855207	2547.753783
479.224928	2548.956099
479.594591	2546.889226
479.964194	2544.799667
480.333739	2546.755635
480.703226	2545.200439
481.072653	2550.203784
481.442022	2547.209339
481.811333	2547.353012
482.180584	2546.067517
482.549777	2548.507436
482.918912	2547.010213
483.287988	2548.255378
483.657005	2545.182795
484.025964	2549.576161
484.394864	2547.915100
484.763706	2547.718495
485.132489	2548.479710
485.501213	2549.555996
485.869879	2546.531304
486.238487	2548.625903
486.607036	2550.627241
486.975527	2550.052550
487.343959	2551.048178
487.712333	2548.462066
488.080648	2547.209339
488.448905	2549.122457
488.817104	2547.501726
489.185244	2547.995759
489.553326	2549.457693
489.921350	2549.326623
490.289315	2549.606407
490.657222	2551.789227
491.025070	2546.634647
491.392861	2549.155224
491.760593	2550.962478
492.128267	2551.317879
492.495883	2547.937786
492.863440	2550.944834
493.230939	2548.411654
493.598380	2548.472148
493.965763	2545.326468
494.333088	2546.654812
494.700354	2546.173382
495.067563	2550.473486
495.434713	2546.133053
495.801805	2549.702189
496.168839	2548.328475
496.535815	2550.788558
496.902733	2549.172868
497.269593	2548.308310
497.636395	2548.109185
498.003139	2549.624052
498.369825	2550.468445
498.736453	2550.226469
499.103023	2547.113557
499.469535	2551.683363
499.835989	2550.465924
500.202385	2551.726213
500.568723	2550.322251
500.935003	2551.819474
501.301226	2550.765873
501.667390	2548.600697
502.033497	2549.293856
502.399546	2551.637993
502.765537	2550.889381
503.131470	2550.753270
503.497345	2550.271840
503.863163	2552.119423
504.228923	2551.698486
504.594625	2549.480379
504.960269	2549.003990
505.325856	2552.447098
505.691385	2549.550955
506.056856	2552.691594
506.422270	2548.436860
506.787625	2552.079093
507.152924	2549.079607
507.518164	2547.965512
507.883347	2548.729247
508.248472	2552.018600
508.613540	2551.252344
508.978550	2548.613300
509.343503	2551.501881
509.708398	2551.985832
510.073236	2553.062118
510.438016	2549.976932
510.802738	2550.672612
511.167403	2549.969371
511.532010	2546.553989
511.896561	2551.585060
512.261053	2551.658157
512.625488	2548.595656
512.989866	2548.434339
513.354186	2547.589946
513.718449	2548.368804
514.082655	2551.401058
514.446803	2552.953734
514.810894	2548.598177
515.174927	2553.170503
515.538904	2551.648075
515.902822	2552.585729
516.266684	2549.840821
516.630488	2553.233518
516.994235	2550.596994
517.357925	2553.261244
517.721558	2554.319886
518.085133	2549.561037
518.448651	2551.229659
518.812112	2552.797458
519.175516	2553.624207
519.538863	2552.668908
519.902152	2553.107489
520.265385	2552.673950
520.628560	2554.110678
520.991678	2549.835780
521.354739	2551.368291
521.717743	2550.476007
522.080690	2552.802499
522.443580	2552.885678
522.806413	2551.406099
523.169189	2550.259237
523.531908	2552.966337
523.894569	2551.988353
524.257174	2551.632951
524.619722	2554.108158
524.982213	2556.815258
525.344647	2549.682025
525.707025	2549.893753
526.069345	2551.552293
526.431608	2551.554813
526.793815	2551.015410
527.155964	2552.573127
527.518057	2552.177396
527.880093	2553.659495
528.242072	2553.649413
528.603995	2550.234031
528.965860	2550.566747
529.327669	2554.357695
529.689421	2554.645041
530.051117	2551.668239
530.412755	2553.631769
530.774337	2553.851059
531.135862	2556.986657
531.497331	2548.257899
531.858743	2547.836962
532.220098	2549.924000
532.581396	2549.308979
532.942638	2549.631613
533.303824	2552.003476
533.664953	2552.205122
534.026025	2549.654298
534.387040	2553.427602
534.747999	2553.392314
535.108902	2552.313507
535.469748	2554.138405
535.830537	2554.042623
536.191270	2555.817109
536.551947	2553.442726
536.912567	2554.571944
537.273131	2553.079762
537.633638	2554.670247
537.994089	2553.009186
538.354483	2551.373332
538.714821	2552.424412
539.075103	2554.801317
539.435328	2551.887530
539.795497	2551.282591
540.155609	2551.232180
540.515665	2554.340051
540.875665	2553.359547
541.235609	2551.960626
541.595496	2554.844166
541.955328	2554.824002
542.315102	2554.254351
542.674821	2554.072870
543.034483	2556.583364
543.394090	2551.196892
543.753640	2553.581357
544.113134	2550.717982
544.472571	2552.351316
544.831953	2551.791748
545.191278	2556.429609
545.550548	2554.571944
545.909761	2553.021789
546.268918	2554.486244
546.628019	2551.955585
546.987064	2553.573796
547.346053	2551.670760
547.704986	2552.434495
548.063863	2553.465411
548.422684	2553.931718
548.781449	2553.667057
549.140158	2553.220915
549.498811	2556.157387
549.857408	2555.444064
550.215949	2548.822508
550.574434	2549.467776
550.932864	2553.722510
551.291237	2548.204967
551.649555	2553.846018
552.007817	2553.357026
552.366022	2554.176213
552.724173	2555.335679
553.082267	2553.848538
553.440305	2553.523384
553.798288	2553.117571
554.156215	2554.491286
554.514086	2555.002963
554.871902	2552.852911
555.229661	2554.657644
555.587365	2553.626728
555.945014	2554.208981
556.302606	2553.790565
556.660143	2553.367108
557.017625	2554.032541
557.375050	2555.227294
557.732421	2554.037582
558.089735	2554.687891
558.446994	2554.201419
558.804197	2553.341902
559.161345	2553.230997
559.518437	2555.106306
559.875474	2553.725030
560.232455	2553.719989
560.589381	2552.762170
560.946251	2556.527912
561.303065	2554.571944
561.659825	2553.465411
562.016528	2552.752087
562.373177	2555.348282
562.729770	2556.996739
563.086307	2554.277037
563.442789	2552.109340
563.799216	2554.569423
564.155587	2552.497509
564.511904	2553.755277
564.868164	2557.422717
565.224370	2555.512119
565.580520	2554.367777
565.936615	2556.449774
566.292654	2553.992211
566.648638	2554.650082
567.004567	2552.658826
567.360441	2553.115051
567.716260	2553.919115
568.072023	2551.892571
568.427732	2548.464586
568.783385	2552.280740
569.138982	2549.382076
569.494525	2548.038609
569.850013	2549.659340
570.205445	2553.541028
570.560823	2552.908363
570.916145	2553.684701
571.271412	2555.222253
571.626625	2557.309291
571.981782	2550.450801
572.336884	2555.000442
572.691931	2553.334341
573.046923	2552.497509
573.401860	2552.878116
573.756743	2555.597819
574.111570	2551.683363
574.466342	2551.998435
574.821059	2556.409445
575.175722	2554.201419
575.530330	2552.492468
575.884882	2554.448436
576.239380	2554.123281
576.593823	2555.537325
576.948211	2554.019938
577.302544	2554.385421
577.656823	2555.396173
578.011047	2554.513971
578.365216	2555.461708
578.719330	2555.479352
579.073389	2552.288301
579.427394	2551.837118
579.781344	2552.605894
580.135239	2556.540515
580.489080	2553.846018
580.842866	2556.394321
581.196597	2556.409445
581.550273	2554.347613
581.903895	2554.279557
582.257463	2554.536656
582.610975	2552.517674
582.964434	2551.960626
583.317837	2554.927345
583.671186	2553.858621
584.024481	2556.462377
584.377721	2558.062943
584.730906	2552.618497
585.084037	2554.549259
585.437113	2553.062118
585.790135	2554.014897
586.143103	2552.389124
586.496016	2554.899619
586.848874	2549.182951
587.201679	2550.385266
587.554428	2552.084135
587.907124	2553.407438
588.259765	2549.510626
588.612352	2555.030689
588.964884	2553.581357
589.317362	2554.279557
589.669786	2552.757129
590.022155	2555.660833
590.374470	2555.441543
590.726731	2555.859959
591.078937	2554.788714
591.431090	2554.161090
591.783188	2555.915412
592.135232	2556.167469
592.487222	2551.766542
592.839157	2555.620504
593.191038	2554.266954
593.542866	2553.707386
593.894639	2554.274516
594.246358	2553.946841
594.598022	2554.758467
594.949633	2557.475649
595.301190	2556.865669
595.652692	2554.634958
596.004141	2554.839125
596.355535	2554.627397
596.706876	2553.881306
597.058162	2556.328786
597.409395	2553.142777
597.760573	2552.187478
598.111698	2554.919784
598.462768	2554.284598
598.813785	2552.174875
599.164748	2555.658313
599.515657	2554.221584
599.866511	2553.800647
600.217312	2551.726213
600.568060	2554.027499
600.918753	2554.685370
601.269392	2552.961295
601.619978	2553.541028
601.970510	2555.776780
602.320988	2554.597150
602.671412	2553.399876
603.021783	2553.399876
603.372100	2556.159908
603.722363	2552.910884
604.072572	2556.454815
604.422728	2556.618653
604.772830	2552.429454
605.122878	2550.886861
605.472872	2553.490617
605.822813	2550.861655
606.172701	2553.351985
606.522534	2554.042623
606.872314	2553.941800
607.222041	2553.800648
607.571714	2553.034392
607.921333	2554.750905
608.270899	2553.483055
608.620411	2556.255689
608.969870	2558.214178
609.319276	2554.491286
609.668627	2558.690567
610.017926	2557.586554
610.367171	2562.519323
610.716362	2563.131823
611.065500	2559.983623
611.414585	2560.412121
611.763616	2555.123950
612.112594	2556.106975
612.461518	2554.491286
612.810389	2557.450443
613.159207	2555.771739
613.507971	2556.167469
613.856682	2557.689898
614.205340	2553.604042
614.553945	2554.594629
614.902496	2556.989177
615.250994	2557.533622
615.599439	2554.849207
615.947830	2554.806358
616.296169	2557.135371
616.644454	2554.841646
616.992686	2556.061605
617.340864	2553.460370
617.688990	2557.011862
618.037063	2556.038920
618.385082	2554.130843
618.733048	2557.616801
619.080961	2553.319217
619.428821	2555.993549
619.776628	2552.704197
620.124382	2555.116389
620.472083	2555.418858
620.819731	2552.263096
621.167326	2553.538508
621.514868	2554.329969
621.862357	2554.297201
622.209793	2555.300391
622.557176	2556.283416
622.904506	2554.299722
623.251783	2552.137067
623.599007	2550.702858
623.946179	2549.896274
624.293297	2550.962478
624.640363	2553.757798
624.987376	2555.386090
625.334336	2552.908363
625.681243	2551.164124
626.028097	2554.191337
626.374899	2556.096893
626.721647	2555.872562
627.068343	2553.568754
627.414987	2552.721841
627.761577	2553.543549
628.108115	2554.745864
628.454600	2556.023796
628.801032	2554.841646
629.147412	2552.638662
629.493739	2553.271326
629.840014	2554.148487
630.186236	2553.725030
630.532405	2554.405586
630.878521	2553.982129
631.224585	2555.149156
631.570597	2555.262582
631.916556	2554.942469
632.262462	2555.305432
632.608316	2554.851728
632.954117	2553.858621
633.299866	2555.287788
633.645562	2553.460370
633.991206	2556.054043
634.336797	2555.789383
634.682336	2554.098076
635.027823	2551.789227
635.373257	2556.469938
635.718639	2553.266285
636.063968	2555.305432
636.409245	2555.307952
636.754470	2551.070863
637.099642	2553.853580
637.444762	2556.931204
637.789829	2552.368960
638.134845	2554.559341
638.479808	2553.692263
638.824719	2553.533466
639.169577	2554.095555
639.514383	2554.450956
639.859137	2554.357695
640.203839	2554.435833
640.548489	2552.558003
640.893086	2550.997766
641.237632	2548.182282
641.582125	2550.539021
641.926566	2549.061963
642.270955	2556.119578
642.615292	2553.183106
642.959576	2553.399876
643.303809	2552.739485
643.647990	2554.511450
643.992118	2551.905174
644.336195	2552.419371
644.680219	2551.206974
645.024192	2553.369629
645.368112	2553.357026
645.711981	2552.381563
646.055797	2554.627397
646.399562	2551.232180
646.743274	2555.985988
647.086935	2553.457849
647.430544	2550.977601
647.774101	2557.147974
648.117606	2555.076059
648.461059	2554.077911
648.804460	2554.692932
649.147810	2555.025648
649.491108	2553.445246
649.834354	2553.301573
650.177548	2552.600853
650.520690	2556.825340
650.863781	2553.699824
651.206820	2556.059084
651.549807	2554.324927
651.892742	2551.789227
652.235626	2552.379042
652.578458	2553.387273
652.921238	2552.875596
653.263967	2554.156049
653.606644	2555.827191
653.949269	2553.498178
654.291843	2552.270657
654.634365	2554.372818
654.976836	2551.532128
655.319255	2551.401058
655.661622	2552.563044
656.003938	2550.889381
656.346203	2552.593291
656.688416	2552.487427
657.030577	2555.307952
657.372687	2553.767880
657.714746	2553.556152
658.056753	2550.826367
658.398708	2549.775286
658.740612	2550.909546
659.082465	2548.585574
659.424266	2549.941644
659.766016	2548.031047
660.107715	2557.009342
660.449362	2553.200750
660.790958	2550.508774
661.132503	2551.433826
661.473996	2554.284598
661.815438	2551.907694
662.156829	2550.730585
662.498168	2550.501212
662.839456	2550.256716
663.180693	2553.687222
663.521879	2552.066491
663.863013	2552.091696
664.204097	2551.716130
664.545129	2553.200750
664.886110	2551.942982
665.227040	2554.685370
665.567918	2553.162942
665.908746	2553.883827
666.249522	2552.915925
666.590248	2554.148487
666.930922	2551.675801
667.271545	2552.608415
667.612118	2554.796275
667.952639	2553.840977
668.293109	2555.529763
668.633528	2555.174362
668.973896	2548.777138
669.314213	2551.643034
669.654480	2553.982129
669.994695	2552.046326
670.334859	2553.155380
670.674973	2553.195709
671.015035	2555.696121
671.355047	2551.756460
671.695008	2551.267468
672.034918	2550.748229
672.374777	2553.357026
672.714585	2552.759649
673.054342	2551.799309
673.394049	2554.640000
673.733705	2553.011707
674.073310	2555.872562
674.412864	2553.646892
674.752368	2551.146480
675.091820	2554.864331
675.431223	2552.933569
675.770574	2551.693445
676.109875	2546.806047
676.449125	2549.137580
676.788324	2551.433826
677.127473	2551.320400
677.466571	2548.008362
677.805619	2552.245452
678.144616	2552.794937
678.483562	2552.764690
678.822458	2551.229659
679.161303	2553.210833
679.500098	2551.915256
679.838842	2553.089845
680.177535	2553.888868
680.516179	2553.331820
680.854771	2552.404248
681.193314	2552.603373
681.531805	2552.552962
681.870247	2551.443908
682.208638	2550.521377
682.546978	2555.980947
682.885268	2553.104968
683.223508	2555.197047
683.561697	2552.656306
683.899836	2552.326110
684.237925	2554.082952
684.575963	2550.513815
684.913951	2553.137736
685.251889	2555.779300
685.589776	2553.367108
685.927614	2554.934907
686.265401	2554.818961
686.603137	2552.298384
686.940824	2552.414330
687.278460	2551.554813
687.616046	2553.644372
687.953582	2551.494320
688.291068	2550.334854
688.628504	2553.732592
688.965889	2552.273178
689.303224	2553.593960
689.640510	2550.995245
689.977745	2550.193702
690.314930	2552.152190
690.652065	2553.049516
690.989150	2553.891388
691.326185	2554.627397
691.663170	2549.987015
692.000105	2551.242262
692.336990	2551.106151
692.673825	2553.528425
693.010610	2553.898950
693.347345	2549.339226
693.684030	2551.143959
694.020665	2549.205636
694.357251	2546.942158
694.693786	2552.132026
695.030272	2550.274360
695.366707	2555.025648
695.703093	2552.996583
696.039429	2552.172355
696.375716	2554.965154
696.711952	2549.031716
697.048139	2549.402241
697.384276	2551.154042
697.720363	2551.201933
698.056400	2551.637993
698.392388	2552.429454
698.728326	2552.487427
699.064214	2550.604556
699.400053	2555.675957
699.735842	2552.646223
700.071581	2554.370298
700.407270	2553.228477
700.742910	2551.038095
701.078501	2553.485575
701.414042	2552.331151
701.749533	2551.637992
702.084974	2553.425082
702.420366	2550.894422
702.755709	2551.602704
703.091002	2554.188816
703.426246	2554.506409
703.761440	2551.665719
704.096584	2551.955585
704.431679	2550.019782
704.766725	2553.016748
705.101721	2549.949206
705.436668	2551.295194
705.771565	2552.739485
706.106413	2552.351316
706.441212	2555.002963
706.775961	2551.927859
707.110661	2552.384083
707.445311	2553.041954
707.779913	2553.306614
708.114465	2551.832077
708.448967	2552.666388
708.783421	2551.852242
709.117825	2552.699155
709.452180	2551.297715
709.786485	2553.173024
710.120742	2553.329300
710.454949	2551.829556
710.789107	2549.994576
711.123216	2547.801674
711.457275	2551.937941
711.791286	2546.523742
712.125247	2549.074566
712.459159	2550.289484
712.793023	2552.280740
713.126837	2550.899463
713.460602	2550.044988
713.794318	2551.073383
714.127985	2551.917777
714.461602	2554.329969
714.795171	2553.475493
715.128691	2550.649926
715.462162	2552.308466
715.795584	2551.164124
716.128957	2552.021120
716.462281	2551.237221
716.795556	2552.363919
717.128782	2551.065822
717.461960	2552.174875
717.795088	2552.384083
718.128167	2552.132026
718.461198	2550.256716
718.794180	2552.242931
719.127113	2548.351160
719.459997	2552.232849
719.792833	2551.116233
720.125619	2551.726213
720.458357	2548.923331
720.791046	2550.065152
721.123686	2551.688404
721.456278	2552.850390
721.788821	2551.146480
722.121315	2552.474824
722.453761	2550.901984
722.786158	2554.629917
723.118506	2549.737478
723.450805	2552.658826
723.783056	2554.662685
724.115259	2550.561706
724.447412	2549.777807
724.779518	2551.433826
725.111574	2552.043805
725.443582	2552.721841
725.775542	2553.846018
726.107453	2547.526932
726.439315	2550.077755
726.771129	2557.800803
727.102895	2553.553631
727.434612	2549.717313
727.766281	2552.182437
728.097901	2548.159596
728.429473	2546.687579
728.760996	2547.894936
729.092471	2546.067518
729.423897	2548.787220
729.755276	2550.176058
730.086606	2550.082797
730.417887	2553.309135
730.749120	2553.402396
731.080305	2550.599515
731.411442	2550.508774
731.742530	2552.182437
732.073570	2551.990873
732.404562	2551.459032
732.735506	2549.659340
733.066401	2551.113713
733.397249	2550.823846
733.728048	2550.947354
734.058798	2550.826367
734.389501	2551.275029
734.720156	2553.472973
735.050762	2552.757129
735.381320	2550.818805
735.711831	2551.580019
736.042293	2550.367622
736.372707	2551.257385
736.703073	2550.594474
737.033391	2551.401058
737.363661	2549.888712
737.693883	2553.924156
738.024056	2555.854918
738.354182	2549.445091
738.684260	2552.444577
739.014290	2552.179917
739.344272	2549.220759
739.674207	2551.748898
740.004093	2552.293343
740.333931	2549.427447
740.663722	2552.547921
740.993464	2551.209494
741.323159	2552.361398
741.652806	2549.445091
741.982405	2551.948023
742.311956	2549.235883
742.641460	2551.028013
742.970915	2551.048178
743.300323	2553.006666
743.629683	2550.798640
743.958996	2550.962478
744.288260	2549.024154
744.617477	2552.142108
744.946647	2546.692621
745.275768	2550.362581
745.604842	2545.097095
745.933869	2547.494164
746.262847	2545.878474
746.591778	2550.019782
746.920662	2549.513146
747.249498	2550.266799
747.578286	2553.243600
747.907027	2552.126984
748.235720	2550.481048
748.564365	2553.223435
748.892963	2552.535318
749.221514	2550.619679
749.550017	2550.007179
749.878473	2551.091027
750.206881	2550.680173
750.535242	2552.820143
750.863555	2549.818136
751.191821	2550.481048
751.520039	2552.346275
751.848210	2552.994063
752.176334	2551.222097
752.504411	2551.426264
752.832440	2549.692107
753.160421	2546.367466
753.488356	2550.695297
753.816243	2551.280071
754.144082	2551.879968
754.471875	2551.683363
754.799620	2551.577499
755.127318	2548.028526
755.454969	2549.727395
755.782572	2552.699155
756.110129	2550.284443
756.437638	2550.770914
756.765100	2551.116233
757.092515	2551.083466
757.419882	2549.472817
757.747203	2551.307797
758.074477	2550.145811
758.401703	2549.742519
758.728882	2551.479196
759.056014	2551.837118
759.383099	2551.287632
759.710138	2549.435008
760.037129	2549.523228
760.364073	2551.716130
760.690970	2551.287632
761.017820	2551.101110
761.344623	2549.918959
761.671379	2552.915925
761.998088	2544.557692
762.324751	2548.459545
762.651366	2548.852755
762.977935	2548.769576
763.304456	2545.916283
763.630931	2549.135060
763.957359	2550.244113
764.283740	2550.463404
764.610074	2550.962478
764.936362	2553.072201
765.262602	2549.261088
765.588796	2550.009700
765.914943	2548.938455
766.241044	2551.320400
766.567097	2549.823177
766.893104	2550.947354
767.219064	2551.121274
767.544978	2549.674463
767.870845	2551.834598
768.196665	2549.830739
768.522438	2549.409802
768.848165	2557.639486
769.173846	2550.874258
769.499479	2551.043136
769.825066	2549.603887
770.150607	2551.955585
770.476101	2550.463404
770.801548	2551.403579
771.126949	2550.937272
771.452303	2549.699669
771.777611	2549.344267
772.102872	2549.941644
772.428087	2550.135729
772.753256	2552.159752
773.078378	2551.675801
773.403453	2550.932231
773.728482	2547.587425
774.053465	2552.812581
774.378401	2549.424926
774.703291	2549.752601
775.028135	2548.177240
775.352932	2550.516336
775.677683	2549.661860
776.002388	2549.445091
776.327046	2553.964485
776.651658	2553.914073
776.976224	2549.447611
777.300743	2549.646737
777.625216	2549.573640
777.949643	2551.116233
778.274024	2551.000287
778.598359	2545.598690
778.922647	2547.403423
779.246889	2550.135729
779.571086	2543.809081
779.895236	2547.569781
780.219339	2551.590102
780.543397	2549.205636
780.867409	2550.596994
781.191374	2547.917621
781.515294	2550.067673
781.839167	2549.626572
782.162995	2551.063301
782.486776	2551.355688
782.810511	2550.228990
783.134201	2550.957437
783.457844	2546.579195
783.781441	2550.876778
784.104993	2545.850748
784.428498	2551.224618
784.751958	2547.607590
785.075372	2550.768393
785.398739	2549.838301
785.722061	2552.379042
786.045337	2551.355688
786.368568	2550.307128
786.691752	2549.377035
787.014891	2550.692776
787.337983	2548.462066
787.661030	2551.028013
787.984031	2550.750749
788.306987	2550.176058
788.629897	2549.029195
788.952760	2550.292004
789.275579	2549.104813
789.598351	2548.578012
789.921078	2547.383259
790.243759	2546.327137
790.566395	2550.675132
790.888984	2547.811757
791.211529	2549.069525
791.534027	2551.229659
791.856480	2549.954247
792.178888	2549.707231
792.501249	2549.366953
792.823566	2550.115564
793.145836	2549.117416
793.468062	2547.219421
793.790241	2549.697148
794.112375	2550.070194
794.434464	2553.228477
794.756507	2548.744370
795.078505	2551.269988
795.400457	2547.375697
795.722364	2546.778320
796.044226	2547.118598
796.366042	2545.124822
796.687812	2545.734801
797.009538	2549.180430
797.331218	2550.405430
797.652852	2549.099772
797.974442	2548.041129
798.295986	2549.135060
798.617484	2550.697817
798.938938	2547.617672
799.260346	2551.960626
799.581709	2550.554144
799.903026	2552.784855
800.224299	2548.535162
800.545526	2548.726726
800.866708	2548.464586
801.187845	2550.491130
801.508936	2547.526932
801.829983	2549.185471
802.150984	2551.302756
802.471940	2550.864175
802.792851	2549.165307
803.113717	2548.472148
803.434538	2548.371325
803.755314	2548.898125
804.076045	2551.272509
804.396731	2550.453321
804.717372	2548.754453
805.037967	2549.492982
805.358518	2550.546583
805.679024	2550.203784
805.999485	2546.664894
806.319901	2547.892415
806.640272	2549.429967
806.960598	2547.899977
807.280879	2546.879143
807.601115	2548.411654
807.921306	2548.575492
808.241453	2546.246478
808.561554	2547.980635
808.881611	2547.814277
809.201623	2549.003990
809.521590	2548.071376
809.841513	2546.609442
810.161390	2548.693959
810.481223	2545.230686
810.801011	2549.422405
811.120755	2548.880481
811.440453	2549.508105
811.760107	2547.337888
812.079716	2546.347302
812.399281	2543.350336
812.718801	2546.148176
813.038276	2545.339071
813.357707	2549.137580
813.677093	2547.499205
813.996434	2547.698331
814.315731	2547.058104
814.634983	2550.445760
814.954191	2549.946685
815.273354	2549.984494
815.592473	2547.962991
815.911547	2549.331665
816.230577	2548.832590
816.549562	2549.316541
816.868502	2547.375697
817.187399	2546.818649
817.506250	2548.477189
817.825058	2549.674463
818.143821	2547.042981
818.462539	2551.259906
818.781213	2550.397869
819.099843	2548.517518
819.418429	2549.510626
819.736970	2549.029195
820.055466	2547.506767
820.373919	2547.158927
820.692327	2547.511808
821.010691	2545.122301
821.329011	2548.149514
821.647286	2551.511964
821.965517	2548.363763
822.283704	2550.725544
822.601847	2550.050029
822.919945	2543.821683
823.237999	2548.210008
823.556010	2551.254865
823.873976	2548.066335
824.191897	2548.673794
824.509775	2545.684390
824.827609	2546.977446
825.145398	2547.201777
825.463144	2547.728578
825.780845	2548.709082
826.098502	2548.366284
826.416116	2548.948537
826.733685	2547.801674
827.051210	2548.996428
827.368692	2549.787889
827.686129	2551.514484
828.003522	2548.283105
828.320872	2546.576674
828.638177	2545.402085
828.955439	2546.004503
829.272656	2545.873433
829.589830	2544.829914
829.906960	2548.232693
830.224046	2547.390820
830.541088	2548.933413
830.858086	2547.794113
831.175041	2546.261602
831.491952	2549.724875
831.808819	2550.521377
832.125642	2548.026006
832.442421	2551.022972
832.759157	2549.046839
833.075849	2547.955430
833.392497	2549.114895
833.709101	2547.405944
834.025662	2549.311500
834.342179	2547.872251
834.658653	2546.823691
834.975083	2548.023485
835.291469	2551.907694
835.607811	2550.186140
835.924110	2548.893084
836.240366	2545.512991
836.556578	2546.627086
836.872746	2546.826211
837.188871	2547.481561
837.504952	2546.125491
837.820990	2547.567261
838.136984	2545.182795
838.452935	2548.514998
838.768842	2545.707075
839.084706	2548.525080
839.400526	2545.760007
839.716303	2548.320913
840.032037	2546.049873
840.347727	2543.889739
840.663373	2548.769576
840.978977	2548.630944
841.294537	2548.184802
841.610054	2549.475338
841.925527	2546.853938
842.240957	2548.547765
842.556344	2548.494833
842.871687	2547.186654
843.186987	2547.131201
843.502244	2548.429298
843.817458	2549.009031
844.132629	2544.903011
844.447756	2548.608259
844.762840	2541.820345
845.077881	2545.495347
845.392879	2543.988042
845.707833	2546.695141
846.022745	2545.036602
846.337613	2550.614638
846.652438	2548.391489
846.967221	2548.489792
847.281960	2547.325285
847.596656	2549.775286
847.911309	2548.696479
848.225919	2547.617672
848.540485	2545.616334
848.855009	2546.995090
849.169490	2548.363763
849.483928	2548.588094
849.798323	2550.007179
850.112675	2549.079607
850.426984	2548.782179
850.741251	2547.529452
851.055474	2547.506767
851.369654	2547.433670
851.683792	2547.935265
851.997887	2549.263609
852.311938	2545.150028
852.625947	2550.223949
852.939914	2546.987528
853.253837	2548.280584
853.567718	2546.773279
853.881555	2546.861499
854.195350	2549.394679
854.509103	2548.744370
854.822812	2547.289997
855.136479	2551.111192
855.450103	2549.180430
855.763685	2546.445604
856.077224	2548.353681
856.390720	2550.564227
856.704173	2543.395706
857.017584	2547.658002
857.330953	2545.886036
857.644278	2551.028013
857.957561	2550.304607
858.270802	2547.156407
858.584000	2548.018444
858.897155	2547.045501
859.210268	2549.538352
859.523339	2549.235883
859.836367	2548.220090
860.149352	2546.463248
860.462295	2547.771427
860.775195	2545.354194
861.088054	2542.999975
861.400869	2545.490305
861.713642	2542.581560
862.026373	2546.319575
862.339062	2545.054246
862.651708	2549.918959
862.964312	2546.911911
863.276873	2543.637681
863.589392	2546.438042
863.901869	2547.184133
864.214303	2546.075079
864.526696	2548.852755
864.839045	2546.261602
865.151353	2548.888043
865.463619	2546.780841
865.775842	2546.652291
866.088023	2548.164638
866.400162	2545.245809
866.712258	2549.840821
867.024313	2546.070038
867.336325	2545.462579
867.648296	2548.925852
867.960224	2548.706562
868.272110	2546.359904
868.583954	2548.338557
868.895755	2547.499205
869.207515	2547.494164
869.519233	2545.250851
869.830909	2549.102292
870.142542	2547.042981
870.454134	2546.687579
870.765684	2548.464586
871.077191	2547.761345
871.388657	2546.962322
871.700081	2547.910059
872.011463	2547.688248
872.322803	2547.577343
872.634101	2547.156407
872.945357	2545.739843
873.256571	2549.167827
873.567744	2548.068856
873.878874	2544.545089
874.189963	2546.775800
874.501010	2546.410316
874.812015	2544.749256
875.122979	2548.797302
875.433900	2546.783361
875.744780	2547.398382
876.055618	2545.742363
876.366415	2547.453835
876.677169	2547.743701
876.987882	2543.788916
877.298554	2541.326312
877.609183	2543.874616
877.919771	2544.993752
878.230317	2543.511653
878.540822	2547.915100
878.851285	2544.661036
879.161707	2546.543907
879.472087	2546.198588
879.782425	2546.990049
880.092722	2546.269164
880.402977	2545.389482
880.713191	2547.678166
881.023363	2547.645399
881.333494	2546.070038
881.643583	2545.255892
881.953631	2547.426108
882.263637	2548.444422
882.573602	2547.262271
882.883526	2545.339071
883.193408	2549.492982
883.503248	2546.838814
883.813048	2545.553320
884.122806	2545.760007
884.432522	2548.583053
884.742197	2546.463248
885.051831	2545.129863
885.361424	2545.265974
885.670975	2545.752445
885.980485	2544.600542
886.289954	2546.057435
886.599382	2546.508618
886.908768	2546.979966
887.218113	2543.798998
887.527417	2545.941489
887.836680	2548.812426
888.145901	2549.140101
888.455082	2545.210521
888.764221	2546.415357
889.073319	2544.976108
889.382376	2546.987528
889.691392	2546.634647
890.000366	2546.105326
890.309300	2548.252858
890.618193	2547.574823
890.927044	2546.329657
891.235855	2546.543907
891.544625	2545.593649
891.853353	2546.770758
892.162041	2545.389482
892.470687	2547.355532
892.779293	2547.426108
893.087858	2543.967877
893.396381	2540.630633
893.704864	2541.936292
894.013306	2543.483926
894.321707	2545.754966
894.630068	2546.596839
894.938387	2545.432332
895.246665	2544.910573
895.554903	2544.938299
895.863100	2547.345450
896.171256	2545.351674
896.479371	2545.744884
896.787446	2544.577857
897.095480	2545.933927
897.403473	2544.998793
897.711425	2544.545089
898.019336	2547.506767
898.327207	2547.108516
898.635038	2546.430481
898.942827	2547.728578
899.250576	2549.127498
899.558284	2548.267981
899.865952	2547.683207
900.173579	2545.999462
900.481165	2547.224462
900.788711	2547.098433
901.096216	2547.317724
901.403681	2544.913093
901.711105	2545.926365
902.018489	2545.931406
902.325832	2546.382590
902.633135	2545.886036
902.940397	2546.798485
903.247619	2546.150697
903.554800	2544.779503
903.861941	2547.554658
904.169041	2548.217570
904.476101	2544.857641
904.783121	2545.480223
905.090100	2546.556509
905.397039	2545.762528
905.703938	2548.595656
906.010796	2543.768751
906.317614	2546.838814
906.624391	2547.179092
906.931129	2546.707744
907.237826	2546.412837
907.544483	2547.058104
907.851099	2547.655481
908.157675	2547.211859
908.464211	2544.252702
908.770707	2543.589790
909.077163	2546.884184
909.383578	2539.985365
909.689954	2545.177754
909.996289	2540.988555
910.302584	2545.639019
910.608839	2545.515511
910.915054	2547.058104
911.221229	2543.405788
911.527363	2544.968546
911.833458	2544.565254
912.139513	2545.719678
912.445527	2546.977446
912.751502	2547.239586
913.057436	2548.199926
913.363331	2547.718495
913.669186	2546.967363
913.975000	2547.594987
914.280775	2546.644730
914.586510	2546.987528
914.892205	2544.086344
915.197859	2548.557848
915.503475	2548.285625
915.809050	2547.547096
916.114585	2547.867209
916.420081	2545.707075
916.725536	2546.122970
917.030952	2545.482744
917.336328	2546.866540
917.641665	2544.683721
917.946961	2546.785882
918.252218	2544.091385
918.557435	2544.111550
918.862612	2545.989380
919.167750	2543.496529
919.472848	2545.754966
919.777906	2543.246992
920.082925	2546.271684
920.387904	2543.846889
920.692843	2544.431663
920.997743	2546.942158
921.302603	2545.011396
921.607423	2546.755635
921.912204	2547.065666
922.216946	2544.938299
922.521647	2545.951571
922.826310	2543.751107
923.130932	2547.726057
923.435516	2548.073897
923.740059	2546.513660
924.044564	2544.547610
924.349028	2545.215563
924.653454	2542.195911
924.957840	2544.650953
925.262186	2543.118442
925.566493	2542.178267
925.870761	2542.027033
926.174989	2544.819832
926.479178	2544.804708
926.783328	2544.746735
927.087438	2545.880995
927.391509	2546.528783
927.695541	2544.683721
927.999533	2544.915614
928.303486	2543.640202
928.607400	2544.187167
928.911275	2546.274205
929.215110	2548.038609
929.518906	2544.222455
929.822663	2544.088865
930.126381	2547.305121
930.430060	2542.490819
930.733699	2543.546941
931.037299	2545.112219
931.340861	2544.817311
931.644383	2545.543238
931.947866	2543.846889
932.251309	2546.894267
932.554714	2546.430481
932.858080	2546.662374
933.161407	2544.053577
933.464694	2543.415871
933.767943	2543.289842
934.071153	2548.192364
934.374323	2545.744884
934.677455	2546.203629
934.980548	2544.860161
935.283602	2546.480892
935.586617	2546.092723
935.889593	2544.343443
936.192530	2543.660367
936.495428	2545.941489
936.798287	2545.563402
937.101108	2548.819988
937.403890	2544.293031
937.706632	2543.705737
938.009336	2543.844369
938.312002	2544.290511
938.614628	2545.298742
938.917216	2548.525080
939.219765	2546.947199
939.522275	2546.929555
939.824747	2545.074410
940.127179	2543.166333
940.429573	2541.795140
940.731929	2544.023330
941.034246	2539.420756
941.336524	2541.679193
941.638763	2544.976108
941.940964	2546.160779
942.243126	2546.301931
942.545250	2543.587270
942.847335	2543.259595
943.149381	2546.433001
943.451389	2544.638350
943.753359	2545.427291
944.055290	2547.194215
944.357182	2544.761859
944.659036	2545.933927
944.960851	2548.245296
945.262628	2545.334030
945.564367	2545.709596
945.866067	2547.622713
946.167729	2544.741694
946.469352	2545.714637
946.770937	2543.483926
947.072484	2544.459389
947.373992	2544.771941
947.675462	2544.174564
947.976893	2545.006355
948.278286	2540.060983
948.579641	2546.594318
948.880958	2544.562733
949.182236	2546.511139
949.483476	2544.928217
949.784678	2544.925696
950.085841	2545.255892
950.386967	2544.905532
950.688054	2543.826725
950.989103	2544.877805
951.290114	2546.637168
951.591087	2544.373690
951.892021	2543.284801
952.192917	2544.393854
952.493776	2543.360418
952.794596	2544.388813
953.095378	2546.528783
953.396122	2546.826211
953.696828	2545.112219
953.997496	2545.586087
954.298126	2546.533824
954.598718	2548.255378
954.899272	2544.686241
955.199788	2542.621889
955.500266	2546.014585
955.800706	2542.432846
956.101108	2541.953936
956.401472	2541.623740
956.701798	2541.311189
957.002087	2540.093750
957.302337	2547.784030
957.602550	2545.268495
957.902724	2544.721529
958.202861	2545.180274
958.502960	2546.433001
958.803022	2544.683721
959.103045	2543.720860
959.403031	2543.655325
959.702979	2545.170192
960.002889	2541.994265
960.302762	2545.533155
960.602596	2547.007693
960.902393	2545.379400
961.202153	2544.550130
961.501875	2542.316899
961.801559	2545.898639
962.101205	2545.906201
962.400814	2544.562733
962.700385	2544.071221
962.999918	2543.751107
963.299414	2542.362269
963.598873	2544.386293
963.898293	2543.665408
964.197677	2544.073741
964.497022	2544.194729
964.796331	2545.760007
965.095601	2542.430325
965.394835	2547.705892
965.694030	2544.227496
965.993189	2543.302445
966.292309	2544.847558
966.591393	2544.535007
966.890439	2544.282949
967.189447	2544.958464
967.488419	2545.790254
967.787353	2544.194729
968.086249	2543.516694
968.385108	2542.586601
968.683930	2545.087013
968.982714	2545.104657
969.281462	2545.805378
969.580172	2544.227496
969.878844	2543.839327
970.177480	2544.056097
970.476078	2546.180943
970.774639	2544.398896
971.073162	2543.574667
971.371649	2539.624923
971.670098	2542.188350
971.968510	2542.175747
972.266885	2542.233720
972.565223	2543.367980
972.863524	2543.746066
973.161788	2543.877136
973.460014	2544.096426
973.758204	2544.466951
974.056356	2543.801519
974.354471	2543.980480
974.652550	2543.025181
974.950591	2545.074410
975.248595	2544.154400
975.546563	2544.219935
975.844493	2545.573484
976.142386	2543.864533
976.440243	2544.592980
976.738062	2545.107178
977.035845	2545.094575
977.333590	2544.144317
977.631299	2541.994265
977.928971	2545.729760
978.226606	2543.304965
978.524204	2543.320089
978.821765	2544.247661
979.119290	2544.129194
979.416777	2544.217414
979.714228	2541.462423
980.011642	2544.272867
980.309020	2547.582384
980.606360	2542.440407
980.903664	2545.843186
981.200931	2541.613658
981.498162	2543.325130
981.795356	2543.209183
982.092513	2545.843186
982.389633	2540.902855
982.686717	2545.966694
982.983764	2546.730429
983.280775	2545.644061
983.577749	2542.969728
983.874686	2544.194729
984.171587	2543.859492
984.468451	2543.458720
984.765279	2543.551982
985.062070	2547.668084
985.358824	2543.267157
985.655543	2544.287990
985.952224	2543.514173
986.248869	2545.618855
986.545478	2538.243647
986.842050	2542.644574
987.138586	2539.466127
987.435086	2542.493339
987.731549	2539.561908
988.027975	2545.699513
988.324366	2541.863195
988.620719	2545.656663
988.917037	2541.147351
989.213318	2543.710778
989.509563	2543.181457
989.805772	2544.136756
990.101944	2543.592311
990.398080	2544.729091
990.694180	2543.947712
990.990244	2544.290511
991.286271	2543.189019
991.582262	2543.234389
991.878217	2543.267157
992.174136	2545.712116
992.470019	2543.342774
992.765865	2546.203629
993.061676	2541.936292
993.357450	2548.825029
993.653188	2542.382434
993.948890	2543.887218
994.244556	2545.805377
994.540186	2543.829245
994.835780	2542.803370
995.131337	2541.623740
995.426859	2542.677342
995.722345	2543.914945
996.017795	2540.761703
996.313208	2545.767569
996.608586	2542.402599
996.903928	2542.823535
997.199234	2541.948895
997.494504	2542.100129
997.789738	2542.800850
998.084936	2545.765048
998.380099	2544.209852
998.675225	2541.762372
998.970316	2543.804039
999.265371	2543.809081
999.560390	2543.206663
999.855373	2543.945192
1000.150320	2544.522404
1000.445232	2542.944523
1000.740108	2542.556354
1001.034948	2542.269008
1001.329752	2543.166333
1001.624521	2543.834286
1001.919254	2539.025026
1002.213951	2540.492001
1002.508613	2540.025695
1002.803239	2540.171888
1003.097829	2539.667773
1003.392384	2542.445448
1003.686903	2541.752290
1003.981386	2544.351005
1004.275834	2540.567619
1004.570246	2541.996786
1004.864623	2543.698175
1005.158964	2541.956457
1005.453270	2543.604914
1005.747540	2545.507949
1006.041775	2544.081303
1006.335974	2542.586601
1006.630138	2542.024512
1006.924266	2541.406971
1007.218359	2542.735315
1007.512416	2542.183308
1007.806438	2542.652136
1008.100425	2541.298586
1008.394376	2543.340253
1008.688292	2539.816487
1008.982172	2543.839327
1009.276017	2545.795295
1009.569827	2543.229348
1009.863602	2544.492157
1010.157341	2543.688093
1010.451045	2543.922507
1010.744714	2539.226672
1011.038347	2540.698689
1011.331945	2541.646426
1011.625508	2543.562064
1011.919036	2543.231868
1012.212528	2543.241951
1012.505986	2541.026364
1012.799408	2542.556354
1013.092795	2542.334543
1013.386147	2542.145500
1013.679464	2542.195911
1013.972745	2542.997455
1014.265992	2542.606765
1014.559204	2546.034750
1014.852380	2543.577188
1015.145521	2544.192208
1015.438628	2539.879501
1015.731699	2543.625078
1016.024736	2542.037115
1016.317737	2543.889739
1016.610703	2541.951415
1016.903635	2538.097453
1017.196531	2540.517207
1017.489393	2540.852444
1017.782219	2537.573173
1018.075011	2541.991745
1018.367768	2545.906201
1018.660490	2544.066179
1018.953177	2544.066179
1019.245829	2544.066179
