Dividing Wavelength (nm)	Counts (n)	Blue Motor Position (mm): 33.000000	Red Motor Position (mm): 0.000000	
326.493990	2129.043107
326.888308	2129.043107
327.282561	2129.043107
327.676750	2096.361306
328.070874	2095.411049
328.464933	2096.696543
328.858929	2104.197780
329.252859	2113.430653
329.646726	2123.787704
330.040528	2141.162041
330.434265	2153.661582
330.827938	2173.417863
331.221547	2190.134330
331.615091	2210.087217
332.008571	2229.692264
332.401986	2249.572054
332.795338	2267.967224
333.188625	2289.230811
333.581847	2306.416105
333.975006	2322.250369
334.368100	2341.880622
334.761129	2360.817717
335.154095	2375.908411
335.546996	2400.388254
335.939833	2423.038158
336.332606	2437.034922
336.725315	2451.215687
337.117960	2462.376802
337.510540	2469.341156
337.903056	2481.964205
338.295508	2485.374546
338.687896	2493.614312
339.080220	2504.387258
339.472480	2508.135355
339.864676	2515.810512
340.256807	2518.656243
340.648875	2521.549866
341.040879	2525.570186
341.432818	2526.623787
341.824694	2527.011956
342.216506	2528.688140
342.608253	2528.541946
342.999937	2527.710156
343.391557	2527.415248
343.783113	2526.717048
344.174605	2526.762419
344.566033	2522.127078
344.957397	2523.745288
345.348697	2522.056502
345.739934	2520.342509
346.131106	2517.640451
346.522215	2517.191788
346.913260	2512.818587
347.304241	2510.252640
347.695159	2510.751714
348.086012	2510.126611
348.476802	2506.194511
348.867528	2506.091168
349.258191	2501.793584
349.648789	2507.429594
350.039324	2497.359889
350.429796	2500.621516
350.820203	2498.761330
351.210548	2500.883656
351.600828	2496.452481
351.991045	2496.391988
352.381198	2494.176400
352.771288	2496.601195
353.161314	2497.241422
353.551276	2498.055568
353.941175	2497.702687
354.331010	2499.509941
354.720782	2493.289157
355.110490	2492.870742
355.500135	2493.306801
355.889717	2496.286123
356.279235	2496.144971
356.668689	2495.845022
357.058080	2495.759323
357.447408	2494.763695
357.836672	2494.982985
358.225873	2493.188334
358.615010	2490.743375
359.004084	2497.748058
359.393095	2498.352996
359.782043	2497.478356
360.170927	2498.809221
360.559748	2499.948522
360.948505	2498.721001
361.337199	2499.860301
361.725830	2499.598161
362.114398	2501.095384
362.502903	2502.098574
362.891344	2503.593276
363.279722	2503.449603
363.668037	2503.686537
364.056289	2503.207627
364.444478	2507.502691
364.832603	2502.849706
365.220665	2505.163595
365.608665	2505.319871
365.996601	2504.621671
366.384474	2506.633092
366.772284	2504.510766
367.160031	2507.220386
367.547715	2508.919255
367.935336	2506.741476
368.322893	2508.059738
368.710388	2507.890859
369.097820	2509.816580
369.485189	2511.278515
369.872495	2510.562671
370.259738	2511.182733
370.646918	2507.379182
371.034035	2511.144924
371.421090	2512.064935
371.808081	2512.874040
372.195010	2511.961591
372.581875	2510.381189
372.968678	2511.845645
373.355418	2509.763648
373.742096	2513.438649
374.128710	2514.285563
374.515262	2512.795902
374.901751	2513.133659
375.288177	2512.972343
375.674540	2512.508556
376.060841	2513.718433
376.447079	2513.244565
376.833254	2514.388907
377.219367	2509.819101
377.605417	2513.105933
377.991404	2511.414626
378.377329	2514.925790
378.763191	2509.012516
379.148991	2517.287570
379.534727	2515.437467
379.920402	2515.359329
380.306013	2515.586181
380.691563	2515.636592
381.077049	2513.463855
381.462474	2515.394617
381.847835	2515.308917
382.233134	2518.436953
382.618371	2515.813033
383.003545	2517.751356
383.388657	2517.821932
383.773706	2518.714217
384.158693	2515.717251
384.543618	2521.237314
384.928480	2520.944927
385.313280	2519.553569
385.698017	2519.077180
386.082692	2520.029958
386.467305	2520.072808
386.851856	2520.607170
387.236344	2520.909639
387.620770	2520.879392
388.005133	2519.243538
388.389435	2521.428878
388.773674	2521.572551
389.157851	2521.643127
389.541965	2521.786800
389.926018	2523.435257
390.310008	2524.660258
390.693936	2521.597757
391.077802	2522.956348
391.461606	2523.241173
391.845348	2524.075484
392.229027	2523.740247
392.612645	2521.819568
392.996200	2522.706811
393.379694	2526.739734
393.763125	2526.979188
394.146494	2523.326872
394.529801	2525.287881
394.913047	2526.006246
395.296230	2528.615043
395.679351	2527.662265
396.062410	2527.221164
396.445408	2524.168745
396.828343	2531.032276
397.211217	2523.326873
397.594028	2525.547501
397.976778	2524.156142
398.359466	2528.937677
398.742092	2526.613705
399.124656	2528.806607
399.507158	2530.608819
399.889598	2531.251566
400.271977	2530.243336
400.654294	2532.763912
401.036549	2532.106042
401.418742	2531.533871
401.800874	2531.622091
402.182944	2534.059489
402.564952	2533.814993
402.946898	2535.690302
403.328783	2535.725590
403.710606	2536.174253
404.092367	2536.169212
404.474067	2536.834644
404.855705	2534.924047
405.237282	2537.069058
405.618797	2538.319264
406.000250	2537.069058
406.381642	2539.219110
406.762972	2538.624254
407.144240	2537.830272
407.525447	2540.371014
407.906593	2540.159285
408.287677	2539.340098
408.668700	2541.296065
409.049661	2544.686241
409.430560	2541.066693
409.811399	2545.500388
410.192176	2546.238917
410.572891	2548.542724
410.953545	2554.380380
411.334138	2554.942469
411.714669	2561.256514
412.095139	2564.208110
412.475547	2569.970148
412.855894	2574.608010
413.236180	2583.631675
413.616405	2591.049733
413.996568	2596.090887
414.376670	2605.895931
414.756711	2615.282560
415.136691	2625.395114
415.516609	2638.302989
415.896466	2652.209012
416.276262	2667.120745
416.655997	2674.405212
417.035670	2700.790611
417.415283	2722.843139
417.794834	2734.445354
418.174324	2749.606625
418.553753	2760.450147
418.933121	2795.183697
419.312428	2824.137564
419.691674	2840.884277
420.070859	2875.837117
420.449983	2887.464538
420.829045	2930.967175
421.208047	2947.338323
421.586988	2983.627068
421.965867	3015.378776
422.344686	3073.049576
422.723444	3073.876325
423.102141	3068.565470
423.480777	3162.840088
423.859352	3148.480361
424.237866	3249.472317
424.616319	3278.277470
424.994712	3344.908921
425.373044	3356.864017
425.751314	3437.686316
426.129524	3422.146959
426.507673	3527.786859
426.885762	3591.600305
427.263789	3621.426291
427.641756	3620.786065
428.019662	3711.708316
428.397508	3761.945934
428.775292	3797.728044
429.153016	3883.480592
429.530679	3901.028848
429.908282	3985.826097
430.285824	3973.591217
430.663305	4153.376407
431.040726	4076.219027
431.418086	4121.130666
431.795385	4228.149321
432.172624	4283.649905
432.549802	4329.262265
432.926920	4385.173702
433.303977	4438.226805
433.680974	4508.772712
434.057910	4573.670006
434.434786	4625.931648
434.811601	4646.827231
435.188355	4849.103529
435.565050	4812.459381
435.941683	4841.483825
436.318257	5040.178383
436.694770	5075.254731
437.071222	5144.419362
437.447614	5139.743692
437.823946	5112.604640
438.200218	5276.946256
438.576429	5207.315318
438.952580	5323.672711
439.328670	5400.537704
439.704700	5360.702506
440.080670	5382.291248
440.456580	5647.027442
440.832429	5583.352627
441.208218	5483.230271
441.583947	5644.443850
441.959616	5673.788407
442.335224	5641.139374
442.710773	5787.353000
443.086261	5842.498182
443.461689	5675.638510
443.837057	5836.133725
444.212365	6002.706051
444.587612	5919.675727
444.962800	6087.097487
445.337927	6083.798052
445.712995	5737.153190
446.088002	6300.958357
446.462949	6156.877139
446.837837	6103.264468
447.212664	6280.486231
447.587431	6433.880981
447.962139	6968.477702
448.336786	7877.170889
448.711374	7634.038559
449.085901	6748.292705
449.460369	6682.674526
449.834776	6625.757379
450.209124	7023.454006
450.583412	7172.195770
450.957640	7321.754202
451.331808	7097.201045
451.705917	6660.748028
452.079965	6591.477533
452.453954	6800.340098
452.827883	6680.622777
453.201752	6776.787827
453.575562	6579.981181
453.949311	6784.019363
454.323001	6680.562283
454.696632	6756.257728
455.070202	6891.128758
455.443713	7045.788838
455.817164	7152.976371
456.190556	7234.822025
456.563888	7310.746843
456.937160	7351.681012
457.310373	7014.022007
457.683526	7041.574433
458.056619	6929.796929
458.429653	6917.844353
458.802628	6855.364292
459.175542	6962.796322
459.548398	7319.745302
459.921194	7475.166596
460.293930	7486.103379
460.666607	8010.501846
461.039224	8317.256058
461.411782	8443.592414
461.784280	8463.704098
462.156719	8360.645269
462.529099	8234.376968
462.901419	7821.065367
463.273680	7720.335552
463.645882	7735.237202
464.018024	7594.523475
464.390106	7764.256604
464.762130	8153.693301
465.134094	8619.679918
465.505999	9640.942070
465.877845	10856.558347
466.249631	11502.244455
466.621358	11114.526792
466.993026	10501.560293
467.364634	10244.743752
467.736184	9877.959480
468.107674	9547.564777
468.479105	9574.522348
468.850477	9343.599693
469.221790	9115.918500
469.593043	8784.833159
469.964238	8648.222931
470.335373	8662.275148
470.706449	8720.114826
471.077467	8703.232002
471.448425	10010.569553
471.819324	11079.150495
472.190164	11094.241189
472.560945	9851.793371
472.931667	9068.960152
473.302330	8934.081560
473.672934	8580.502591
474.043479	8939.362169
474.413965	8877.121563
474.784393	8760.108820
475.154761	8913.894260
475.525070	9004.206531
475.895321	8825.464859
476.265513	9006.986727
476.635645	9175.610803
477.005719	9168.343979
477.375734	9285.243296
477.745691	9528.307570
478.115588	9663.886882
478.485427	9903.911340
478.855207	10436.821795
479.224928	11246.506720
479.594591	11875.428471
479.964194	11681.903616
480.333739	11622.561674
480.703226	11538.838191
481.072653	11627.950667
481.442022	11866.861030
481.811333	12055.155688
482.180584	11858.089423
482.549777	11578.406207
482.918912	11402.888354
483.287988	11417.099367
483.657005	11430.526480
484.025964	11118.862184
484.394864	11242.481359
484.763706	11212.327697
485.132489	10968.986160
485.501213	10931.253123
485.869879	11011.228509
486.238487	10850.577018
486.607036	10964.033226
486.975527	10745.443754
487.343959	10934.550038
487.712333	10978.667696
488.080648	10911.590103
488.448905	10959.821342
488.817104	10892.196784
489.185244	11161.343988
489.553326	11318.827113
489.921350	11859.851306
490.289315	12907.995411
490.657222	13255.416610
491.025070	13158.936487
491.392861	13035.309751
491.760593	12655.673058
492.128267	12303.921507
492.495883	11974.608132
492.863440	11642.658234
493.230939	11308.969137
493.598380	11241.079918
493.965763	11109.324321
494.333088	11011.788077
494.700354	10934.935686
495.067563	10997.917342
495.434713	10823.289252
495.801805	10952.703233
496.168839	10876.097859
496.535815	10816.672738
496.902733	10811.813065
497.269593	10743.974258
497.636395	10848.487460
498.003139	10830.515746
498.369825	10699.670078
498.736453	10856.397030
499.103023	10788.492688
499.469535	10813.562346
499.835989	10804.147991
500.202385	10774.448033
500.568723	10623.871288
500.935003	10840.819865
501.301226	10654.796247
501.667390	10913.306616
502.033497	10996.667136
502.399546	10858.146310
502.765537	10772.224884
503.131470	10842.501089
503.497345	11017.996258
503.863163	10625.297935
504.228923	10940.357447
504.594625	11003.268527
504.960269	10755.039591
505.325856	10970.377518
505.691385	10764.159038
506.056856	10916.124621
506.422270	10943.112438
506.787625	10827.153297
507.152924	10948.151071
507.518164	10932.364698
507.883347	10853.379899
508.248472	10767.970150
508.613540	11001.327682
508.978550	10890.729808
509.343503	10864.941786
509.708398	10975.380864
510.073236	11091.077865
510.438016	11096.003072
510.802738	11047.920547
511.167403	11101.772673
511.532010	10997.161169
511.896561	11225.689276
512.261053	11302.617283
512.625488	11167.121150
512.989866	11149.527523
513.354186	11143.420165
513.718449	11043.204548
514.082655	11235.456511
514.446803	11126.091199
514.810894	11252.455282
515.174927	11117.196083
515.538904	11145.315639
515.902822	11284.524582
516.266684	11176.651452
516.630488	11122.983328
516.994235	11180.558346
517.357925	11242.388098
517.721558	11320.334418
518.085133	11346.041782
518.448651	11355.748524
518.812112	11239.940617
519.175516	11252.790519
519.538863	11379.482277
519.902152	11283.526434
520.265385	11449.574480
520.628560	11360.837569
520.991678	11339.586585
521.354739	11403.722665
521.717743	11331.329175
522.080690	11306.625001
522.443580	11449.022473
522.806413	11406.838098
523.169189	11429.949268
523.531908	11490.501087
523.894569	11317.402987
524.257174	11317.108080
524.619722	11431.078486
524.982213	11386.895293
525.344647	11428.573033
525.707025	11387.583411
526.069345	11469.746657
526.431608	11394.252857
526.793815	11502.272181
527.155964	11296.560337
527.518057	11345.862822
527.880093	11298.012189
528.242072	11369.468024
528.603995	11268.206367
528.965860	11194.635768
529.327669	11242.758622
529.689421	11189.004799
530.051117	11164.514874
530.412755	11265.390883
530.774337	11161.308700
531.135862	11136.869186
531.497331	11159.758545
531.858743	11005.463949
532.220098	11170.223980
532.581396	11050.700743
532.942638	11031.340192
533.303824	10992.679583
533.664953	11010.096770
534.026025	10924.634088
534.387040	11018.313850
534.747999	11030.657116
535.108902	11084.037894
535.469748	10840.371202
535.830537	10943.031779
536.191270	10923.330950
536.551947	10944.902048
536.912567	10948.148551
537.273131	10870.411438
537.633638	10848.437048
537.994089	10835.914822
538.354483	10787.713829
538.714821	10936.032137
539.075103	10943.271234
539.435328	10908.870400
539.795497	10734.645603
540.155609	10896.007896
540.515665	10978.829013
540.875665	10717.578777
541.235609	10787.837338
541.595496	10776.063723
541.955328	10925.899418
542.315102	10821.376134
542.674821	10775.685636
543.034483	10765.774728
543.394090	10772.179514
543.753640	10703.196365
544.113134	10921.448079
544.472571	10770.725141
544.831953	10916.674107
545.191278	10721.049611
545.550548	10755.324416
545.909761	10889.151927
546.268918	10866.648216
546.628019	10949.915475
546.987064	10814.379013
547.346053	10736.641900
547.704986	10833.507671
548.063863	10823.188429
548.422684	10817.234826
548.781449	10733.208874
549.140158	10834.147898
549.498811	10701.638648
549.857408	10566.167721
550.215949	10788.185177
550.574434	10646.034721
550.932864	10745.761347
551.291237	10805.340224
551.649555	10752.632440
552.007817	10767.765984
552.366022	10725.470703
552.724173	10722.171268
553.082267	10707.902282
553.440305	10837.422127
553.798288	10637.492486
554.156215	10803.011211
554.514086	10772.045923
554.871902	10623.150403
555.229661	10658.047791
555.587365	10638.349482
555.945014	10523.617862
556.302606	10653.213324
556.660143	10552.158354
557.017625	10706.770543
557.375050	10604.155336
557.732421	10733.637372
558.089735	10648.320884
558.446994	10645.419700
558.804197	10691.725219
559.161345	10682.467140
559.518437	10529.642041
559.875474	10630.150045
560.232455	10655.529734
560.589381	10603.767167
560.946251	10599.767011
561.303065	10716.431914
561.659825	10638.646910
562.016528	10576.691129
562.373177	10456.197470
562.729770	10572.428834
563.086307	10486.749383
563.442789	10584.104146
563.799216	10457.500608
564.155587	10505.225212
564.511904	10454.543972
564.868164	10448.913003
565.224370	10466.108379
565.580520	10391.519466
565.936615	10399.741588
566.292654	10266.846691
566.648638	10397.082380
567.004567	10353.040339
567.360441	10339.373771
567.716260	10251.148538
568.072023	10337.347227
568.427732	10293.869796
568.783385	10203.134068
569.138982	10272.707032
569.494525	10287.356625
569.850013	10159.943982
570.205445	10244.411035
570.560823	10141.100149
570.916145	10062.024610
571.271412	10131.728644
571.626625	10077.049769
571.981782	10051.728053
572.336884	10025.869454
572.691931	10027.507829
573.046923	9978.558226
573.401860	9936.900651
573.756743	9871.849602
574.111570	9912.062886
574.466342	9898.398838
574.821059	9933.013921
575.175722	9820.893618
575.530330	9828.110030
575.884882	9816.724584
576.239380	9741.271114
576.593823	9724.111026
576.948211	9747.239840
577.302544	9622.473803
577.656823	9637.085587
578.011047	9637.622470
578.365216	9615.958112
578.719330	9537.036328
579.073389	9545.245847
579.427394	9492.520419
579.781344	9475.365372
580.135239	9416.240199
580.489080	9434.370709
580.842866	9328.940017
581.196597	9336.078291
581.550273	9382.406495
581.903895	9349.265950
582.257463	9407.531606
582.610975	9284.615672
582.964434	9310.683479
583.317837	9235.550122
583.671186	9217.578408
584.024481	9216.507163
584.377721	9133.592785
584.730906	9114.398592
585.084037	9141.429259
585.437113	9076.552130
585.790135	9096.331097
586.143103	8995.487855
586.496016	8966.874266
586.848874	9029.011528
587.201679	9017.076597
587.554428	8904.323629
587.907124	8946.830638
588.259765	8921.350126
588.612352	8921.103110
588.964884	8795.480076
589.317362	8813.373652
589.669786	8812.037746
590.022155	8861.662865
590.374470	8872.090491
590.726731	8817.106626
591.078937	8671.220675
591.431090	8777.662118
591.783188	8656.364395
592.135232	8652.061770
592.487222	8649.110174
592.839157	8698.112710
593.191038	8634.049727
593.542866	8576.666273
593.894639	8479.316551
594.246358	8529.024849
594.598022	8546.494967
594.949633	8443.607538
595.301190	8420.284640
595.652692	8442.385058
596.004141	8557.227584
596.355535	8331.477153
596.706876	8312.741705
597.058162	8249.777693
597.409395	8328.263417
597.760573	8385.109989
598.111698	8295.594220
598.462768	8280.470758
598.813785	8248.121674
599.164748	8223.581337
599.515657	8205.879325
599.866511	8119.234494
600.217312	8242.399964
600.568060	8099.543747
600.918753	8206.605252
601.269392	8177.031322
601.619978	8089.257272
601.970510	8151.407138
602.320988	8144.467989
602.671412	8205.518883
603.021783	8142.958164
603.372100	8113.485058
603.722363	8112.751570
604.072572	8088.664937
604.422728	8104.537010
604.772830	8027.614043
605.122878	8042.351856
605.472872	8033.610496
605.822813	8061.840957
606.172701	8010.093513
606.522534	8085.098320
606.872314	8081.821570
607.222041	8053.412148
607.571714	8107.198739
607.921333	8064.948828
608.270899	8072.361845
608.620411	8159.760329
608.969870	8067.872698
609.319276	8056.441881
609.668627	8076.374604
610.017926	8112.439018
610.367171	8159.120103
610.716362	8135.913151
611.065500	8126.743292
611.414585	8147.044019
611.763616	8131.900393
612.112594	8124.419320
612.461518	8134.040362
612.810389	8192.863066
613.159207	8136.061865
613.507971	8082.469359
613.856682	8211.031385
614.205340	8156.745719
614.553945	8236.380827
614.902496	8138.796691
615.250994	8192.731996
615.599439	8171.614603
615.947830	8190.997839
616.296169	8164.257039
616.644454	8170.949170
616.992686	8166.230650
617.340864	8227.107624
617.688990	8129.452912
618.037063	8222.444557
618.385082	8168.526896
618.733048	8253.878672
619.080961	8193.273920
619.428821	8212.866365
619.776628	8212.931900
620.124382	8167.488418
620.472083	8151.495358
620.819731	8176.214656
621.167326	8068.800270
621.514868	8081.766118
621.862357	7964.347562
622.209793	7985.147363
622.557176	7918.770490
622.904506	7888.516006
623.251783	7824.720204
623.599007	7780.335365
623.946179	7781.184799
624.293297	7739.673418
624.640363	7656.393556
624.987376	7636.871688
625.334336	7584.267248
625.681243	7538.954836
626.028097	7525.159719
626.374899	7500.526120
626.721647	7495.432034
627.068343	7422.390756
627.414987	7398.289000
627.761577	7354.579675
628.108115	7390.276086
628.454600	7282.997811
628.801032	7341.162644
629.147412	7297.080275
629.493739	7284.132071
629.840014	7222.249387
630.186236	7282.617204
630.532405	7163.749317
630.878521	7210.954682
631.224585	7163.817373
631.570597	7095.358503
631.916556	7129.257742
632.262462	7123.432689
632.608316	7075.879485
632.954117	7064.015129
633.299866	7047.114661
633.645562	7039.189967
633.991206	6963.030736
634.336797	6907.139463
634.682336	6859.704726
635.027823	6826.501166
635.373257	6821.903634
635.718639	6752.809579
636.063968	6761.427432
636.409245	6661.378172
636.754470	6661.859602
637.099642	6615.390246
637.444762	6557.797584
637.789829	6568.557927
638.134845	6511.179513
638.479808	6493.845506
638.824719	6496.857595
639.169577	6432.519869
639.514383	6451.774557
639.859137	6378.198916
640.203839	6386.995730
640.548489	6376.661364
640.893086	6347.150450
641.237632	6319.751778
641.582125	6344.403021
641.926566	6314.708104
642.270955	6325.448282
642.615292	6316.742210
642.959576	6332.510939
643.303809	6322.763868
643.647990	6334.827349
643.992118	6321.410318
644.336195	6267.548110
644.680219	6295.014837
645.024192	6286.076871
645.368112	6380.376695
645.711981	6396.710033
646.055797	6476.239276
646.399562	6433.591115
646.743274	6559.693058
647.086935	6610.472600
647.430544	6607.425223
647.774101	6633.193081
648.117606	6633.346836
648.461059	6624.439117
648.804460	6591.046514
649.147810	6495.783830
649.491108	6470.121836
649.834354	6446.713238
650.177548	6358.644280
650.520690	6272.115395
650.863781	6255.363641
651.206820	6273.476507
651.549807	6190.521800
651.892742	6132.684642
652.235626	6138.721423
652.578458	6128.560978
652.921238	6036.970774
653.263967	6074.096352
653.606644	6016.470922
653.949269	6016.279358
654.291843	5957.063444
654.634365	6008.528584
654.976836	5964.592408
655.319255	5959.636953
655.661622	5937.534014
656.003938	5933.604435
656.346203	5896.110853
656.688416	5931.068735
657.030577	5881.214244
657.372687	5855.421180
657.714746	5839.909550
658.056753	5883.439913
658.398708	5819.752496
658.740612	5815.512886
659.082465	5859.567529
659.424266	5850.579152
659.766016	5849.391960
660.107715	5825.491850
660.449362	5843.198903
660.790958	5837.290670
661.132503	5819.976827
661.473996	5863.978539
661.815438	5843.783676
662.156829	5840.547256
662.498168	5833.713972
662.839456	5812.478111
663.180693	5849.220561
663.521879	5849.573442
663.863013	5836.206822
664.204097	5858.534093
664.545129	5897.678652
664.886110	5892.158589
665.227040	5926.899700
665.567918	5891.215893
665.908746	5919.038021
666.249522	5929.589156
666.590248	5910.412607
666.930922	5940.601557
667.271545	5948.992557
667.612118	5952.904493
667.952639	5921.409884
668.293109	5948.977434
668.633528	5902.808026
668.973896	5905.994035
669.314213	5900.509260
669.654480	5883.175253
669.994695	5872.079673
670.334859	5864.031471
670.674973	5855.010326
671.015035	5861.082396
671.355047	5855.895048
671.695008	5845.361558
672.034918	5819.818031
672.374777	5829.832283
672.714585	5813.672864
673.054342	5823.480429
673.394049	5814.129089
673.733705	5841.298388
674.073310	5829.418908
674.412864	5792.041273
674.752368	5783.428462
675.091820	5782.843688
675.431223	5724.885542
675.770574	5723.826900
676.109875	5670.569630
676.449125	5681.526578
676.788324	5646.079705
677.127473	5585.671558
677.466571	5582.253656
677.805619	5575.813582
678.144616	5557.362959
678.483562	5537.725144
678.822458	5506.780021
679.161303	5497.529504
679.500098	5494.366180
679.838842	5474.128468
680.177535	5476.800279
680.516179	5494.456921
680.854771	5505.489486
681.193314	5582.578810
681.531805	5695.712385
681.870247	5846.536146
682.208638	5944.803358
682.546978	5960.362880
682.885268	5934.191729
683.223508	5849.412125
683.561697	5799.214835
683.899836	5767.115288
684.237925	5723.738680
684.575963	5687.717115
684.913951	5642.535774
685.251889	5708.751329
685.589776	5674.370660
685.927614	5647.584489
686.265401	5718.911775
686.603137	5701.857552
686.940824	5776.804386
687.278460	5803.124250
687.616046	5809.743285
687.953582	5872.450198
688.291068	5858.849165
688.628504	5920.381488
688.965889	5887.490480
689.303224	5826.865564
689.640510	5781.711949
689.977745	5709.157142
690.314930	5610.214416
690.652065	5551.865581
690.989150	5461.447445
691.326185	5388.678389
691.663170	5331.385676
692.000105	5254.175364
692.336990	5176.889434
692.673825	5151.877749
693.010610	5085.765537
693.347345	5015.300289
693.684030	5006.362323
694.020665	4961.823729
694.357251	4869.482393
694.693786	4884.278180
695.030272	4845.622612
695.366707	4810.727745
695.703093	4777.728352
696.039429	4803.710459
696.375716	4780.523672
696.711952	4758.458541
697.048139	4748.139299
697.384276	4723.533427
697.720363	4737.815016
698.056400	4751.126183
698.392388	4698.670457
698.728326	4673.958721
699.064214	4654.658663
699.400053	4647.051562
699.735842	4619.481492
700.071581	4590.799847
700.407270	4565.158018
700.742910	4548.738980
701.078501	4492.779651
701.414042	4489.187829
701.749533	4464.776042
702.084974	4392.248961
702.420366	4453.393116
702.755709	4397.000249
703.091002	4338.195189
703.426246	4388.389958
703.761440	4345.638453
704.096584	4309.639573
704.431679	4327.021472
704.766725	4314.930264
705.101721	4300.331083
705.436668	4333.811906
705.771565	4277.741672
706.106413	4304.984068
706.441212	4338.543029
706.775961	4346.843289
707.110661	4327.182789
707.445311	4355.327551
707.779913	4379.366293
708.114465	4386.958270
708.448967	4413.071447
708.783421	4475.440603
709.117825	4510.842106
709.452180	4518.890308
709.786485	4562.206422
710.120742	4649.463754
710.454949	4629.581443
710.789107	4700.490313
711.123216	4776.218526
711.457275	4763.020786
711.791286	4839.535419
712.125247	4857.663408
712.459159	4758.226648
712.793023	4830.489068
713.126837	4794.046567
713.460602	4785.708498
713.794318	4707.870562
714.127985	4714.802149
714.461602	4626.586998
714.795171	4597.363429
715.128691	4535.200961
715.462162	4477.772136
715.795584	4427.854631
716.128957	4411.125562
716.462281	4359.970453
716.795556	4334.792410
717.128782	4295.559631
717.461960	4225.958940
717.795088	4238.871856
718.128167	4197.330227
718.461198	4134.870331
718.794180	4133.332779
719.127113	4114.620016
719.459997	4088.320317
719.792833	4049.503432
720.125619	4038.864077
720.458357	4002.330835
720.791046	4007.382071
721.123686	3981.581446
721.456278	3942.537709
721.788821	3956.184112
722.121315	3927.860390
722.453761	3903.274682
722.786158	3915.650715
723.118506	3939.490332
723.450805	3896.980802
723.783056	3913.684665
724.115259	3932.208385
724.447412	3934.900361
724.779518	3930.680915
725.111574	3931.502623
725.443582	3963.377839
725.775542	3946.830252
726.107453	3998.923015
726.439315	3996.546111
726.771129	4012.708050
727.102895	4052.180285
727.434612	4097.139815
727.766281	4107.126341
728.097901	4111.577680
728.429473	4116.268473
728.760996	4121.637302
729.092471	4112.704378
729.423897	4100.139302
729.755276	4105.170373
730.086606	4110.619861
730.417887	4139.195641
730.749120	4209.492011
731.080305	4272.675313
731.411442	4297.349240
731.742530	4268.082822
732.073570	4273.539871
732.404562	4329.181606
732.735506	4316.281293
733.066401	4279.533803
733.397249	4220.998445
733.728048	4139.137668
734.058798	4057.987694
734.389501	3986.189060
734.720156	3925.054987
735.050762	3881.282649
735.381320	3874.653531
735.711831	3821.509687
736.042293	3794.489103
736.372707	3817.068431
736.703073	3788.338895
737.033391	3777.974283
737.363661	3796.833239
737.693883	3822.538083
738.024056	3829.895647
738.354182	3822.013803
738.684260	3890.452507
739.014290	3909.210641
739.344272	3903.720824
739.674207	3944.861681
740.004093	3952.012558
740.333931	3946.976445
740.663722	3948.569450
740.993464	3941.983182
741.323159	3919.948299
741.652806	3891.521232
741.982405	3863.762118
742.311956	3833.800021
742.641460	3823.200995
742.970915	3801.483704
743.300323	3756.199019
743.629683	3724.858165
743.958996	3713.596228
744.288260	3689.686035
744.617477	3655.869975
744.946647	3643.705671
745.275768	3619.893781
745.604842	3619.245992
745.933869	3568.360585
746.262847	3558.396745
746.591778	3596.318825
746.920662	3568.763878
747.249498	3540.510731
747.578286	3582.327102
747.907027	3601.170935
748.235720	3600.722272
748.564365	3620.952423
748.892963	3624.531642
749.221514	3603.116821
749.550017	3582.879108
749.878473	3579.251998
750.206881	3551.921383
750.535242	3549.055487
750.863555	3547.076834
751.191821	3545.070455
751.520039	3523.927855
751.848210	3502.114783
752.176334	3537.186090
752.504411	3544.029456
752.832440	3503.990092
753.160421	3483.119715
753.488356	3493.630521
753.816243	3508.012933
754.144082	3463.484421
754.471875	3449.051597
754.799620	3467.958445
755.127318	3458.879327
755.454969	3460.822692
755.782572	3467.729072
756.110129	3440.632870
756.437638	3434.775050
756.765100	3445.605969
757.092515	3456.260447
757.419882	3461.793114
757.747203	3436.647838
758.074477	3437.151954
758.401703	3455.519398
758.728882	3474.154023
759.056014	3484.354798
759.383099	3486.023420
759.710138	3480.168119
760.037129	3501.041017
760.364073	3529.765512
760.690970	3512.890249
761.017820	3491.568689
761.344623	3507.831451
761.671379	3553.080848
761.998088	3605.617233
762.324751	3733.481059
762.651366	3979.557422
762.977935	4450.010502
763.304456	4894.494078
763.630931	4982.923478
763.957359	4626.713027
764.283740	4288.423877
764.610074	4094.664609
764.936362	3901.953900
765.262602	3739.530444
765.588796	3628.120944
765.914943	3544.006771
766.241044	3452.154428
766.567097	3422.388935
766.893104	3375.052500
767.219064	3346.408664
767.544978	3316.897749
767.870845	3263.416148
768.196665	3245.399064
768.522438	3253.893408
768.848165	3245.285638
769.173846	3214.252295
769.499479	3194.168338
769.825066	3179.364990
770.150607	3161.836898
770.476101	3177.177129
770.801548	3173.774350
771.126949	3126.074953
771.452303	3108.211624
771.777611	3116.287552
772.102872	3122.568830
772.428087	3098.416662
772.753256	3087.520208
773.078378	3080.805391
773.403453	3043.919268
773.728482	3032.483411
774.053465	3054.873696
774.378401	3044.768703
774.703291	3013.319465
775.028135	3012.366687
775.352932	3009.730163
775.677683	2995.584685
776.002388	2996.106445
776.327046	2995.970334
776.651658	2984.763849
776.976224	2974.217755
777.300743	2971.278762
777.625216	2964.609316
777.949643	2956.803089
778.274024	2961.738378
778.598359	2949.349743
778.922647	2955.671350
779.246889	2953.614559
779.571086	2938.039914
779.895236	2935.204265
780.219339	2945.427725
780.543397	2957.733182
780.867409	2957.753346
781.191374	2952.744960
781.515294	2948.674228
781.839167	2947.328240
782.162995	2938.715429
782.486776	2949.490895
782.810511	2947.219855
783.134201	2934.155705
783.457844	2938.697785
783.781441	2929.638831
784.104993	2911.624268
784.428498	2911.775503
784.751958	2923.783531
785.075372	2921.341092
785.398739	2905.526993
785.722061	2920.592481
786.045337	2932.179573
786.368568	2914.298600
786.691752	2908.798701
787.014891	2955.588171
787.337983	2987.145794
787.661030	3013.039681
787.984031	3082.151379
788.306987	3126.939511
788.629897	3120.484313
788.952760	3102.411777
789.275579	3085.413006
789.598351	3029.143647
789.921078	2982.893581
790.243759	2975.604072
790.566395	2958.179324
790.888984	2933.011363
791.211529	2919.188519
791.534027	2906.681417
791.856480	2898.696229
792.178888	2885.679970
792.501249	2876.172354
792.823566	2874.274359
793.145836	2871.405943
793.468062	2866.052237
793.790241	2864.098790
794.112375	2868.852598
794.434464	2881.153014
794.756507	2886.872203
795.078505	2894.655744
795.400457	2906.772158
795.722364	2944.061572
796.044226	2966.739203
796.366042	2967.760037
796.687812	2959.721917
797.009538	2977.711274
797.331218	2965.683081
797.652852	2949.679938
797.974442	2933.659152
798.295986	2928.184458
798.617484	2924.360743
798.938938	2909.512025
799.260346	2894.207082
799.581709	2888.359343
799.903026	2883.754249
800.224299	2877.674618
800.545526	2867.350334
800.866708	2852.473889
801.187845	2839.916375
801.508936	2842.426870
801.829983	2850.275946
802.150984	2836.316991
802.471940	2823.086483
802.792851	2821.339723
803.113717	2821.569096
803.434538	2827.063953
803.755314	2820.875937
804.076045	2815.829742
804.396731	2814.995431
804.717372	2814.808908
805.037967	2811.050728
805.358518	2817.664722
805.679024	2828.987154
805.999485	2825.274344
806.319901	2830.743996
806.640272	2818.405772
806.960598	2822.867193
807.280879	2833.050324
807.601115	2843.828311
807.921306	2829.735765
808.241453	2828.934222
808.561554	2833.652742
808.881611	2832.906651
809.201623	2829.892041
809.521590	2827.767194
809.841513	2822.718479
810.161390	2826.854746
810.481223	2820.555824
810.801011	2813.190698
811.120755	2806.901859
811.440453	2812.142138
811.760107	2809.346818
812.079716	2811.789257
812.399281	2797.479942
812.718801	2791.995167
813.038276	2786.439815
813.357707	2794.228398
813.677093	2799.609830
813.996434	2793.280661
814.315731	2789.600619
814.634983	2785.575257
814.954191	2787.906791
815.273354	2801.286013
815.592473	2812.124494
815.911547	2809.646767
816.230577	2820.470124
816.549562	2830.146619
816.868502	2826.736278
817.187399	2838.514934
817.506250	2853.719054
817.825058	2846.442149
818.143821	2859.760877
818.462539	2874.163454
818.781213	2904.191087
819.099843	2937.906324
819.418429	2994.815909
819.736970	3058.145405
820.055466	3127.730972
820.373919	3233.133937
820.692327	3373.643498
821.010691	3541.077861
821.329011	3984.593535
821.647286	4876.101428
821.965517	6250.385502
822.283704	6991.263718
822.601847	6977.161090
822.919945	6340.049984
823.237999	5839.700342
823.556010	5257.651239
823.873976	4705.781004
824.191897	4298.014673
824.509775	4007.369468
824.827609	3737.617326
825.145398	3611.822893
825.463144	3599.794700
825.780845	3694.366746
826.098502	3798.002787
826.416116	4079.072320
826.733685	4395.651740
827.051210	4456.894198
827.368692	4341.151826
827.686129	4077.030652
828.003522	3754.623658
828.320872	3496.730830
828.638177	3299.851088
828.955439	3165.632887
829.272656	3083.320927
829.589830	3014.395751
829.906960	2965.405818
830.224046	2920.645413
830.541088	2888.205588
830.858086	2873.828217
831.175041	2851.992459
831.491952	2856.998325
831.808819	2870.070037
832.125642	2892.079715
832.442421	2937.377003
832.759157	3020.369518
833.075849	3196.267979
833.392497	3477.176195
833.709101	3676.599200
834.025662	3625.434009
834.342179	3466.216726
834.658653	3294.167187
834.975083	3146.574805
835.291469	3048.211811
835.607811	2965.554532
835.924110	2906.021026
836.240366	2857.139477
836.556578	2810.418063
836.872746	2788.294960
837.188871	2767.117072
837.504952	2749.283991
837.820990	2742.846437
838.136984	2728.088459
838.452935	2724.685681
838.768842	2719.805844
839.084706	2738.581621
839.400526	2815.048363
839.716303	2948.780093
840.032037	3027.066691
840.347727	3016.175278
840.663373	2954.340485
840.978977	2878.072869
841.294537	2807.297589
841.610054	2759.225146
841.925527	2737.553226
842.240957	2714.946171
842.556344	2692.530681
842.871687	2676.640964
843.186987	2667.292144
843.502244	2663.281906
843.817458	2660.358037
844.132629	2649.728764
844.447756	2642.950933
844.762840	2632.084726
845.077881	2635.273255
845.392879	2634.585138
845.707833	2629.004581
846.022745	2620.646347
846.337613	2625.619446
846.652438	2625.226236
846.967221	2624.686832
847.281960	2621.188272
847.596656	2621.223560
847.911309	2619.144084
848.225919	2616.542848
848.540485	2614.168465
848.855009	2616.406737
849.169490	2613.296345
849.483928	2615.829525
849.798323	2612.522528
850.112675	2610.828700
850.426984	2610.395161
850.741251	2609.230655
851.055474	2609.543206
851.369654	2614.448249
851.683792	2615.338012
851.997887	2611.723505
852.311938	2608.976076
852.625947	2611.957919
852.939914	2614.097889
853.253837	2614.924638
853.567718	2612.046139
853.881555	2610.110336
854.195350	2614.145780
854.509103	2612.588063
854.822812	2610.558999
855.136479	2607.599841
855.450103	2611.214349
855.763685	2612.220059
856.077224	2611.680655
856.390720	2608.038422
856.704173	2611.910028
857.017584	2617.253651
857.330953	2614.256685
857.644278	2617.508229
857.957561	2617.498147
858.270802	2614.312138
858.584000	2612.731736
858.897155	2617.898919
859.210268	2619.658281
859.523339	2612.792230
859.836367	2608.555140
860.149352	2611.040429
860.462295	2609.999431
860.775195	2608.328288
861.088054	2607.609924
861.400869	2607.327619
861.713642	2601.613471
862.026373	2606.823504
862.339062	2609.384410
862.651708	2613.800461
862.964312	2613.775255
863.276873	2613.697117
863.589392	2611.516818
863.901869	2620.555607
864.214303	2626.242028
864.526696	2627.482152
864.839045	2629.725466
865.151353	2632.314098
865.463619	2631.424334
865.775842	2631.948614
866.088023	2631.197482
866.400162	2631.341155
866.712258	2631.162194
867.024313	2630.224540
867.336325	2626.849487
867.648296	2625.397635
867.960224	2631.293264
868.272110	2631.457102
868.583954	2624.717079
868.895755	2626.728500
869.207515	2631.240332
869.519233	2638.517238
869.830909	2633.594551
870.142542	2631.706639
870.454134	2631.648666
870.765684	2638.509676
871.077191	2638.895324
871.388657	2640.632002
871.700081	2640.047228
872.011463	2640.936992
872.322803	2640.879018
872.634101	2647.941675
872.945357	2651.190699
873.256571	2656.544404
873.567744	2656.012562
873.878874	2653.481903
874.189963	2652.826553
874.501010	2662.135044
874.812015	2664.350631
875.122979	2665.308450
875.433900	2656.229332
875.744780	2656.141112
876.055618	2661.819972
876.366415	2663.536484
876.677169	2665.943635
876.987882	2657.592964
877.298554	2657.708911
877.609183	2668.544871
877.919771	2676.958557
878.230317	2682.942406
878.540822	2692.999508
878.851285	2706.731611
879.161707	2729.699108
879.472087	2768.047165
879.782425	2816.578353
880.092722	2929.028852
880.402977	3115.911987
880.713191	3376.597614
881.023363	3668.601409
881.333494	3857.296839
881.643583	4028.628014
881.953631	4024.085934
882.263637	3851.252495
882.573602	3632.955410
882.883526	3503.506141
883.193408	3387.088255
883.503248	3284.586474
883.813048	3172.859381
884.122806	3056.517112
884.432522	2976.453507
884.742197	2909.443969
885.051831	2872.038607
885.361424	2838.199862
885.670975	2801.656538
885.980485	2770.381220
886.289954	2753.750453
886.599382	2739.090778
886.908768	2728.562328
887.218113	2711.001468
887.527417	2695.366330
887.836680	2690.171421
888.145901	2683.741429
888.455082	2672.968483
888.764221	2663.390291
889.073319	2654.469969
889.382376	2655.107675
889.691392	2654.691780
890.000366	2655.664723
890.309300	2657.444250
890.618193	2655.914260
890.927044	2660.547080
891.235855	2656.730927
891.544625	2659.576658
891.853353	2657.431647
892.162041	2664.602688
892.470687	2684.946265
892.779293	2697.176104
893.087858	2707.971735
893.396381	2727.440671
893.704864	2772.869029
894.013306	2842.797395
894.321707	2934.190993
894.630068	2982.248313
894.938387	3002.296982
895.246665	2997.490242
895.554903	2952.888633
895.863100	2909.544792
896.171256	2850.807788
896.479371	2789.620783
896.787446	2749.888929
897.095480	2736.779409
897.403473	2727.150805
897.711425	2711.896273
898.019336	2693.778366
898.327207	2680.973836
898.635038	2679.267405
898.942827	2678.372600
899.250576	2668.900272
899.558284	2655.337048
899.865952	2651.788075
900.173579	2645.695841
900.481165	2648.869247
900.788711	2639.069244
901.096216	2631.852832
901.403681	2630.090949
901.711105	2629.125568
902.018489	2628.369395
902.325832	2631.870477
902.633135	2634.184366
902.940397	2649.292704
903.247619	2682.791172
903.554800	2754.776328
903.861941	2881.722664
904.169041	3007.880060
904.476101	3069.979513
904.783121	3059.808985
905.090100	3004.079030
905.397039	2929.331321
905.703938	2857.320959
906.010796	2795.995322
906.317614	2744.021026
906.624391	2707.601210
906.931129	2681.813188
907.237826	2656.083138
907.544483	2637.405663
907.851099	2623.134157
908.157675	2616.147118
908.464211	2608.466920
908.770707	2598.422421
909.077163	2593.209868
909.383578	2590.056626
909.689954	2591.170721
909.996289	2588.355237
910.302584	2586.316090
910.608839	2582.636047
910.915054	2584.680235
911.221229	2589.716348
911.527363	2588.524115
911.833458	2590.306163
912.139513	2592.252048
912.445527	2591.001842
912.751502	2596.355548
913.057436	2601.626074
913.363331	2605.598503
913.669186	2617.866151
913.975000	2630.363172
914.280775	2650.384114
914.586510	2668.691064
914.892205	2702.537371
915.197859	2770.172012
915.503475	2854.477748
915.809050	2918.933941
916.114585	2935.231992
916.420081	2946.274639
916.725536	2956.793007
917.030952	2930.987340
917.336328	2882.677963
917.641665	2837.332784
917.946961	2784.362860
918.252218	2753.745412
918.557435	2723.957234
918.862612	2703.001157
919.167750	2688.273426
919.472848	2668.595282
919.777906	2652.168682
920.082925	2639.520427
920.387904	2630.277472
920.692843	2625.858901
920.997743	2621.183230
921.302603	2616.263064
921.607423	2607.935078
921.912204	2603.665221
922.216946	2600.827051
922.521647	2599.435693
922.826310	2596.736155
923.130932	2589.764239
923.435516	2584.024885
923.740059	2583.737540
924.044564	2582.751994
924.349028	2579.810481
924.653454	2572.241188
924.957840	2568.891342
925.262186	2566.653069
925.566493	2567.507545
925.870761	2562.814231
926.174989	2567.560477
926.479178	2563.640980
926.783328	2562.448747
927.087438	2561.148129
927.391509	2561.102759
927.695541	2557.798283
927.999533	2557.357182
928.303486	2554.239228
928.607400	2557.377346
928.911275	2553.283929
929.215110	2555.244938
929.518906	2553.745195
929.822663	2555.640669
930.126381	2553.576316
930.430060	2553.745195
930.733699	2553.082283
931.037299	2555.043292
931.340861	2556.684188
931.644383	2557.309291
931.947866	2556.081770
932.251309	2554.947510
932.554714	2552.802499
932.858080	2555.885165
933.161407	2553.515822
933.464694	2555.292829
933.767943	2554.060267
934.071153	2551.688404
934.374323	2551.138918
934.677455	2551.464073
934.980548	2551.446429
935.283602	2551.885009
935.586617	2550.531459
935.889593	2552.429454
936.192530	2555.575134
936.495428	2552.111861
936.798287	2552.316028
937.101108	2554.156049
937.403890	2556.593447
937.706632	2557.780638
938.009336	2564.550908
938.312002	2568.571228
938.614628	2570.570046
938.917216	2573.007444
939.219765	2574.824780
939.522275	2574.945767
939.824747	2575.328895
940.127179	2568.800601
940.429573	2567.409242
940.731929	2564.916392
941.034246	2564.203068
941.336524	2564.939077
941.638763	2562.892368
941.940964	2565.478480
942.243126	2560.407080
942.545250	2560.190310
942.847335	2560.276010
943.149381	2560.112172
943.451389	2556.316183
943.753359	2555.640669
944.055290	2557.246276
944.357182	2554.962633
944.659036	2555.476831
944.960851	2556.606050
945.262628	2555.547407
945.564367	2554.758467
945.866067	2555.842315
946.167729	2556.086811
946.469352	2554.763508
946.770937	2556.127140
947.072484	2556.671585
947.373992	2555.640669
947.675462	2554.191337
947.976893	2554.992880
948.278286	2553.946841
948.579641	2548.973743
948.880958	2552.850390
949.182236	2551.489278
949.483476	2550.561706
949.784678	2553.689742
950.085841	2550.962478
950.386967	2552.091696
950.688054	2549.344267
950.989103	2552.953734
951.290114	2552.792417
951.591087	2553.233518
951.892021	2555.708724
952.192917	2555.912891
952.493776	2558.771225
952.794596	2557.372305
953.095378	2560.008828
953.396122	2558.594785
953.696828	2563.744323
953.997496	2556.782490
954.298126	2552.184958
954.598718	2552.880637
954.899272	2553.450287
955.199788	2554.317366
955.500266	2549.891233
955.800706	2546.737991
956.101108	2542.223638
956.401472	2543.304965
956.701798	2541.883360
957.002087	2542.130376
957.302337	2544.139276
957.602550	2543.166333
957.902724	2542.631971
958.202861	2543.254554
958.502960	2540.970911
958.803022	2543.836807
959.103045	2541.011240
959.403031	2543.332692
959.702979	2542.629451
960.002889	2541.306148
960.302762	2538.720036
960.602596	2539.355221
960.902393	2539.161137
961.202153	2537.701723
961.501875	2538.205838
961.801559	2539.471168
962.101205	2538.977135
962.400814	2537.008564
962.700385	2535.992772
962.999918	2539.715664
963.299414	2537.091743
963.598873	2539.322454
963.898293	2536.438914
964.197677	2537.356404
964.497022	2535.652494
964.796331	2538.924203
965.095601	2534.588810
965.394835	2537.595858
965.694030	2537.046373
965.993189	2536.716177
966.292309	2536.050745
966.591393	2538.001671
966.890439	2533.961187
967.189447	2536.015457
967.488419	2537.905889
967.787353	2533.522606
968.086249	2537.258101
968.385108	2537.522762
968.683930	2538.195756
968.982714	2536.196938
969.281462	2537.575694
969.580172	2536.106197
969.878844	2534.770292
970.177480	2536.922864
970.476078	2537.994110
970.774639	2537.658873
971.073162	2537.464788
971.371649	2536.270035
971.670098	2533.013450
971.968510	2535.602082
972.266885	2532.269879
972.565223	2537.787422
972.863524	2536.348173
973.161788	2538.556198
973.460014	2538.747762
973.758204	2539.612320
974.056356	2533.482277
974.354471	2538.180632
974.652550	2537.376568
974.950591	2538.523431
975.248595	2536.375899
975.546563	2537.401774
975.844493	2537.608461
976.142386	2538.949408
976.440243	2535.155940
976.738062	2536.252391
977.035845	2534.664427
977.333590	2536.632998
977.631299	2535.995292
977.928971	2535.176105
978.226606	2533.459592
978.524204	2535.869263
978.821765	2534.190559
979.119290	2535.312216
979.416777	2533.472195
979.714228	2535.090405
980.011642	2533.520086
980.309020	2535.803728
980.606360	2536.580066
980.903664	2533.671320
981.200931	2538.188194
981.498162	2536.023018
981.795356	2540.071065
982.092513	2540.852444
982.389633	2543.304965
982.686717	2549.934082
982.983764	2551.809392
983.280775	2551.958106
983.577749	2550.662529
983.874686	2550.667570
984.171587	2547.426108
984.468451	2543.627599
984.765279	2543.531817
985.062070	2538.730118
985.358824	2540.088709
985.655543	2538.198276
985.952224	2536.539737
986.248869	2536.010416
986.545478	2534.210724
986.842050	2536.398584
987.138586	2532.355579
987.435086	2530.739889
987.731549	2531.032276
988.027975	2534.482946
988.324366	2533.051258
988.620719	2532.335414
988.917037	2533.751979
989.213318	2535.970086
989.509563	2532.174098
989.805772	2531.609488
990.101944	2533.046217
990.398080	2529.865249
990.694180	2532.252235
990.990244	2531.508665
991.286271	2532.653007
991.582262	2535.055117
991.878217	2532.937832
992.174136	2533.331042
992.470019	2531.009591
992.765865	2534.924047
993.061676	2531.319622
993.357450	2535.171063
993.653188	2532.186700
993.948890	2532.234591
994.244556	2534.538399
994.540186	2533.704088
994.835780	2533.363810
995.131337	2535.390354
995.426859	2534.616537
995.722345	2535.160981
996.017795	2536.149047
996.313208	2538.261291
996.608586	2534.843388
996.903928	2534.818183
997.199234	2535.707946
997.494504	2537.515200
997.789738	2535.503780
998.084936	2534.818183
998.380099	2536.685930
998.675225	2535.849099
998.970316	2534.427493
999.265371	2535.039993
999.560390	2533.583100
999.855373	2532.098480
1000.150320	2533.038655
1000.445232	2531.397760
1000.740108	2530.893644
1001.034948	2532.297606
1001.329752	2531.062523
1001.624521	2529.983716
1001.919254	2526.187727
1002.213951	2528.821730
1002.508613	2529.194776
1002.803239	2530.704601
1003.097829	2527.695032
1003.392384	2534.631660
1003.686903	2531.664941
1003.981386	2532.010260
1004.275834	2531.380116
1004.570246	2531.342307
1004.864623	2532.164015
1005.158964	2531.221319
1005.453270	2529.658562
1005.747540	2530.399611
1006.041775	2530.697039
1006.335974	2531.470857
1006.630138	2533.250384
1006.924266	2531.922040
1007.218359	2531.385157
1007.512416	2533.794828
1007.806438	2531.090249
1008.100425	2531.680064
1008.394376	2531.304498
1008.688292	2530.979344
1008.982172	2527.143026
1009.276017	2528.234436
1009.569827	2534.135106
1009.863602	2532.557225
1010.157341	2529.416586
1010.451045	2530.266021
1010.744714	2532.675692
1011.038347	2530.765095
1011.331945	2530.268541
1011.625508	2530.666793
1011.919036	2529.383819
1012.212528	2531.617050
1012.505986	2528.995650
1012.799408	2528.776360
1013.092795	2529.497245
1013.386147	2531.949766
1013.679464	2529.499765
1013.972745	2529.469518
1014.265992	2531.037317
1014.559204	2530.313912
1014.852380	2526.596061
1015.145521	2529.651000
1015.438628	2530.134951
1015.731699	2529.555218
1016.024736	2529.358613
1016.317737	2533.305837
1016.610703	2529.835002
1016.903635	2528.126051
1017.196531	2528.166380
1017.489393	2527.737882
1017.782219	2526.976668
1018.075011	2529.623274
1018.367768	2528.743592
1018.660490	2533.041176
1018.953177	2533.041176
1019.245829	2533.041176
