Dividing Wavelength (nm)	Counts (n)	Blue Motor Position (mm): 44.500000	Red Motor Position (mm): 0.000000	
326.493990	2129.975720
326.888308	2129.975720
327.282561	2129.975720
327.676750	2094.932139
328.070874	2096.212592
328.464933	2097.629157
328.858929	2105.037132
329.252859	2111.842690
329.646726	2123.737292
330.040528	2139.594242
330.434265	2156.837508
330.827938	2171.454334
331.221547	2190.935873
331.615091	2210.092258
332.008571	2229.407439
332.401986	2246.922928
332.795338	2268.040321
333.188625	2286.740481
333.581847	2305.236475
333.975006	2323.556028
334.368100	2344.834738
334.761129	2365.001874
335.154095	2375.298431
335.546996	2399.637122
335.939833	2425.220977
336.332606	2440.858637
336.725315	2453.501851
337.117960	2462.389405
337.510540	2469.028604
337.903056	2479.615028
338.295508	2488.953765
338.687896	2495.693788
339.080220	2505.768534
339.472480	2511.349091
339.864676	2515.760101
340.256807	2520.642458
340.648875	2524.866945
341.040879	2526.127233
341.432818	2527.432892
341.824694	2530.719725
342.216506	2530.137471
342.608253	2531.286854
342.999937	2531.561597
343.391557	2526.457429
343.783113	2528.178983
344.174605	2528.370547
344.566033	2525.827285
344.957397	2524.781245
345.348697	2521.176820
345.739934	2521.897705
346.131106	2518.147087
346.522215	2517.058198
346.913260	2512.458145
347.304241	2515.104751
347.695159	2510.807167
348.086012	2509.176354
348.476802	2507.986641
348.867528	2507.109481
349.258191	2504.568739
349.648789	2506.348266
350.039324	2500.573625
350.429796	2504.656959
350.820203	2502.058244
351.210548	2499.754437
351.600828	2498.557163
351.991045	2498.587410
352.381198	2498.690754
352.771288	2496.540702
353.161314	2495.315701
353.551276	2498.799138
353.941175	2494.105824
354.331010	2495.872749
354.720782	2496.233191
355.110490	2497.871566
355.500135	2494.083139
355.889717	2498.579848
356.279235	2497.256545
356.668689	2496.455002
357.058080	2498.602533
357.447408	2496.059271
357.836672	2496.823006
358.225873	2495.310660
358.615010	2495.736638
359.004084	2500.087153
359.393095	2498.562204
359.782043	2503.943636
360.170927	2499.333501
360.559748	2502.955570
360.948505	2502.338028
361.337199	2506.880108
361.725830	2506.592762
362.114398	2507.396826
362.502903	2505.695437
362.891344	2506.499501
363.279722	2509.425891
363.668037	2508.100067
364.056289	2507.167454
364.444478	2509.851868
364.832603	2506.592762
365.220665	2510.739111
365.608665	2509.211642
365.996601	2512.664832
366.384474	2510.398833
366.772284	2510.988648
367.160031	2513.736077
367.547715	2511.772548
367.935336	2512.979904
368.322893	2514.139370
368.710388	2512.679956
369.097820	2517.156500
369.485189	2516.652385
369.872495	2516.100378
370.259738	2515.250944
370.646918	2516.556603
371.034035	2515.495440
371.421090	2518.290760
371.808081	2517.005266
372.195010	2516.745646
372.581875	2517.499299
372.968678	2517.111130
373.355418	2518.394103
373.742096	2521.295287
374.128710	2521.902747
374.515262	2522.742099
374.901751	2519.077180
375.288177	2523.341996
375.674540	2525.660927
376.060841	2529.986237
376.447079	2532.388347
376.833254	2535.932278
377.219367	2535.927237
377.605417	2544.167002
377.991404	2548.270502
378.377329	2558.120916
378.763191	2564.429920
379.148991	2581.000193
379.534727	2590.759867
379.920402	2605.883328
380.306013	2615.012858
380.691563	2635.152268
381.077049	2649.403610
381.462474	2663.796104
381.847835	2687.499609
382.233134	2708.586756
382.618371	2718.414485
383.003545	2756.449991
383.388657	2771.127310
383.773706	2799.430869
384.158693	2821.009528
384.543618	2847.793178
384.928480	2881.470606
385.313280	2920.448808
385.698017	2936.449430
386.082692	2983.967346
386.467305	3010.478774
386.851856	3045.933209
387.236344	3078.383117
387.620770	3117.714199
388.005133	3158.189623
388.389435	3197.034234
388.773674	3226.348544
389.157851	3276.634053
389.541965	3308.695792
389.926018	3301.829740
390.310008	3375.828838
390.693936	3409.846544
391.077802	3463.214719
391.461606	3476.699806
391.845348	3545.962739
392.229027	3564.831778
392.612645	3592.595932
392.996200	3673.912265
393.379694	3725.352198
393.763125	3795.492293
394.146494	3785.702372
394.529801	3856.039071
394.913047	3919.451745
395.296230	3900.612953
395.679351	3961.051347
396.062410	3997.619877
396.445408	3991.898167
396.828343	4036.530022
397.211217	4068.485897
397.594028	4000.319414
397.976778	4070.015887
398.359466	4107.597689
398.742092	4137.259838
399.124656	4068.589240
399.507158	4150.878515
399.889598	4178.388092
400.271977	4245.009460
400.654294	4217.915779
401.036549	4229.754929
401.418742	4202.164694
401.800874	4301.046927
402.182944	4327.981812
402.564952	4393.499167
402.946898	4381.256725
403.328783	4381.546592
403.710606	4296.769508
404.092367	4483.773630
404.474067	4450.002940
404.855705	4455.603662
405.237282	4391.220566
405.618797	4501.485724
406.000250	4532.544273
406.381642	4612.179380
406.762972	4580.102518
407.144240	4587.916307
407.525447	4587.329012
407.906593	4641.856653
408.287677	4685.387016
408.668700	4615.564515
409.049661	4671.949821
409.430560	4711.152354
409.811399	4636.661744
410.192176	4798.394562
410.572891	4739.561776
410.953545	4842.746634
411.334138	4719.014033
411.714669	4786.744456
412.095139	4685.717212
412.475547	4827.000590
412.855894	4808.723886
413.236180	4818.201256
413.616405	4770.300212
413.996568	4859.039643
414.376670	4799.816167
414.756711	4757.508284
415.136691	4786.615906
415.516609	4863.982494
415.896466	4901.173607
416.276262	4937.527888
416.655997	4911.576028
417.035670	5097.972691
417.415283	5187.753121
417.794834	5128.451507
418.174324	5083.675979
418.553753	4992.635261
418.933121	5178.406821
419.312428	5242.903344
419.691674	5183.508469
420.070859	5310.464887
420.449983	5223.353749
420.829045	5334.750646
421.208047	5246.101956
421.586988	5319.110466
421.965867	5327.413247
422.344686	5460.275377
422.723444	5318.765147
423.102141	5136.192199
423.480777	5430.983753
423.859352	5199.055387
424.237866	5458.624399
424.616319	5453.172391
424.994712	5562.051232
425.373044	5437.880051
425.751314	5579.929684
426.129524	5385.000868
426.507673	5577.315846
426.885762	5661.215769
427.263789	5592.895532
427.641756	5472.890864
428.019662	5596.179843
428.397508	5603.439105
428.775292	5550.179315
429.153016	5648.111290
429.530679	5577.101597
429.908282	5661.533362
430.285824	5530.208784
430.663305	5806.557276
431.040726	5540.956524
431.418086	5541.110279
431.795385	5648.141537
432.172624	5657.724770
432.549802	5653.190252
432.926920	5668.452346
433.303977	5675.419220
433.680974	5713.709304
434.057910	5727.307817
434.434786	5738.375670
434.811601	5707.838881
435.188355	5937.312204
435.565050	5808.924098
435.941683	5797.072345
436.318257	6007.497668
436.694770	5991.565101
437.071222	6027.427870
437.447614	5957.784329
437.823946	5869.785948
438.200218	6028.070617
438.576429	5894.706892
438.952580	5989.725080
439.328670	6035.488675
439.704700	5944.682371
440.080670	5926.342653
440.456580	6198.002872
440.832429	6081.542136
441.208218	5926.945071
441.583947	6086.991623
441.959616	6089.471871
442.335224	6019.097363
442.710773	6154.041490
443.086261	6175.920098
443.461689	5971.700435
443.837057	6121.964628
444.212365	6276.418020
444.587612	6169.895919
444.962800	6324.172870
445.337927	6306.780890
445.712995	5913.780097
446.088002	6490.712429
446.462949	6319.396377
446.837837	6252.228043
447.212664	6428.146668
447.587431	6565.732360
447.962139	7112.561441
448.336786	8034.742235
448.711374	7774.182636
449.085901	6850.214754
449.460369	6773.932014
449.834776	6705.712599
450.209124	7098.610048
450.583412	7251.835919
450.957640	7393.867908
451.331808	7153.586351
451.705917	6707.295522
452.079965	6632.726774
452.453954	6844.674526
452.827883	6722.103911
453.201752	6812.925339
453.575562	6614.245904
453.949311	6819.748540
454.323001	6710.990687
454.696632	6778.973168
455.070202	6921.952893
455.443713	7076.287818
455.817164	7178.124167
456.190556	7257.920592
456.563888	7331.980183
456.937160	7369.153651
457.310373	7028.638832
457.683526	7058.464819
458.056619	6943.355112
458.429653	6933.247599
458.802628	6869.265274
459.175542	6978.118909
459.548398	7329.835172
459.921194	7493.952456
460.293930	7501.244485
460.666607	8031.238633
461.039224	8339.981579
461.411782	8460.404663
461.784280	8476.909400
462.156719	8362.717183
462.529099	8243.246878
462.901419	7839.026998
463.273680	7725.492652
463.645882	7744.417143
464.018024	7608.081658
464.390106	7775.193388
464.762130	8166.654107
465.134094	8636.212382
465.505999	9657.419082
465.877845	10875.445030
466.249631	11520.556446
466.621358	11136.924639
466.993026	10506.092290
467.364634	10253.989228
467.736184	9895.492613
468.107674	9555.413854
468.479105	9591.385007
468.850477	9354.291980
469.221790	9129.471642
469.593043	8796.435375
469.964238	8657.962441
470.335373	8665.269593
470.706449	8726.786793
471.077467	8716.371770
471.448425	10026.892809
471.819324	11098.732857
472.190164	11117.916968
472.560945	9867.927584
472.931667	9085.243079
473.302330	8948.393396
473.672934	8591.220084
474.043479	8957.336403
474.413965	8896.333400
474.784393	8771.665666
475.154761	8930.300695
475.525070	9021.374180
475.895321	8846.587294
476.265513	9019.675311
476.635645	9189.756280
477.005719	9196.488741
477.375734	9306.010329
477.745691	9541.442296
478.115588	9678.354993
478.485427	9919.763248
478.855207	10458.221493
479.224928	11274.149888
479.594591	11896.767676
479.964194	11715.754964
480.333739	11650.071250
480.703226	11566.425905
481.072653	11658.815132
481.442022	11890.194011
481.811333	12080.328690
482.180584	11886.327446
482.549777	11594.613517
482.918912	11430.344998
483.287988	11441.488469
483.657005	11454.020777
484.025964	11140.471090
484.394864	11260.082548
484.763706	11226.682383
485.132489	10988.818059
485.501213	10955.100302
485.869879	11038.175997
486.238487	10876.705318
486.607036	10992.258647
486.975527	10771.509040
487.343959	10959.924686
487.712333	11007.707263
488.080648	10936.745461
488.448905	10978.284568
488.817104	10919.547564
489.185244	11185.327277
489.553326	11344.675630
489.921350	11878.246476
490.289315	12939.679063
490.657222	13281.255044
491.025070	13190.080736
491.392861	13063.356211
491.760593	12680.155422
492.128267	12331.925117
492.495883	12005.654078
492.863440	11668.055567
493.230939	11335.553662
493.598380	11267.203177
493.965763	11131.354164
494.333088	11031.781293
494.700354	10958.445107
495.067563	11008.680205
495.434713	10841.490338
495.801805	10976.096707
496.168839	10898.357074
496.535815	10839.988074
496.902733	10836.297950
497.269593	10769.202713
497.636395	10861.801147
498.003139	10855.285456
498.369825	10720.109436
498.736453	10883.548685
499.103023	10810.209978
499.469535	10835.503968
499.835989	10825.880405
500.202385	10791.386310
500.568723	10643.062961
500.935003	10862.852228
501.301226	10673.325007
501.667390	10923.325909
502.033497	11026.314162
502.399546	10876.881759
502.765537	10788.928748
503.131470	10856.263439
503.497345	11035.557117
503.863163	10644.691254
504.228923	10957.348656
504.594625	11016.741010
504.960269	10770.861252
505.325856	10989.614562
505.691385	10784.701740
506.056856	10935.404514
506.422270	10965.318721
506.787625	10855.897956
507.152924	10965.570778
507.518164	10956.012751
507.883347	10874.245235
508.248472	10788.200301
508.613540	11020.491629
508.978550	10909.268652
509.343503	10886.883408
509.708398	11005.342962
510.073236	11116.260949
510.438016	11124.016764
510.802738	11069.491644
511.167403	11124.321754
511.532010	11015.642039
511.896561	11250.766495
512.261053	11325.657877
512.625488	11195.724657
512.989866	11171.822026
513.354186	11167.206850
513.718449	11061.309852
514.082655	11259.507856
514.446803	11155.808801
514.810894	11278.286154
515.174927	11143.127778
515.538904	11167.950420
515.902822	11318.123872
516.266684	11201.088445
516.630488	11145.958386
516.994235	11203.624145
517.357925	11257.766137
517.721558	11346.513130
518.085133	11367.441481
518.448651	11375.073788
518.812112	11262.683783
519.175516	11271.873807
519.538863	11387.265818
519.902152	11304.212808
520.265385	11470.175155
520.628560	11377.725434
520.991678	11353.923627
521.354739	11418.795715
521.717743	11356.658452
522.080690	11341.018273
522.443580	11468.468724
522.806413	11422.327043
523.169189	11461.446397
523.531908	11514.527226
523.894569	11339.261431
524.257174	11335.621718
524.619722	11452.939450
524.982213	11416.630539
525.344647	11455.926333
525.707025	11409.177193
526.069345	11504.144970
526.431608	11422.634553
526.793815	11531.432736
527.155964	11316.490539
527.518057	11376.349199
527.880093	11314.068264
528.242072	11388.453010
528.603995	11297.485389
528.965860	11216.819365
529.327669	11255.974007
529.689421	11212.378109
530.051117	11180.649087
530.412755	11294.062445
530.774337	11180.772595
531.135862	11152.469037
531.497331	11176.840495
531.858743	11032.229956
532.220098	11200.135667
532.581396	11069.133722
532.942638	11056.553523
533.303824	11018.548264
533.664953	11028.769203
534.026025	10945.827099
534.387040	11040.832685
534.747999	11048.805269
535.108902	11104.842736
535.469748	10864.001611
535.830537	10968.492127
536.191270	10944.975144
536.551947	10967.448608
536.912567	10970.306942
537.273131	10898.841025
537.633638	10872.758095
537.994089	10864.604028
538.354483	10813.262397
538.714821	10962.268823
539.075103	10962.251178
539.435328	10932.936869
539.795497	10756.970353
540.155609	10913.898951
540.515665	11002.109061
540.875665	10737.466128
541.235609	10800.581375
541.595496	10804.503392
541.955328	10955.982504
542.315102	10836.799544
542.674821	10780.459609
543.034483	10792.190374
543.394090	10795.583071
543.753640	10718.342511
544.113134	10947.543612
544.472571	10793.324634
544.831953	10936.843763
545.191278	10745.811759
545.550548	10776.940884
545.909761	10912.434496
546.268918	10884.239323
546.628019	10974.344907
546.987064	10831.402989
547.346053	10759.145611
547.704986	10851.968376
548.063863	10842.238949
548.422684	10833.588329
548.781449	10755.871381
549.140158	10853.642039
549.498811	10731.192412
549.857408	10591.930538
550.215949	10818.348921
550.574434	10668.258648
550.932864	10768.171797
551.291237	10822.036525
551.649555	10776.197313
552.007817	10788.865733
552.366022	10747.276214
552.724173	10740.982333
553.082267	10725.836187
553.440305	10858.695796
553.798288	10660.467545
554.156215	10823.102729
554.514086	10798.007866
554.871902	10643.882148
555.229661	10683.810607
555.587365	10652.610906
555.945014	10549.357993
556.302606	10679.744917
556.660143	10572.295243
557.017625	10728.744932
557.375050	10625.744077
557.732421	10755.853737
558.089735	10668.568679
558.446994	10664.762608
558.804197	10709.354134
559.161345	10712.625843
559.518437	10555.977028
559.875474	10645.102108
560.232455	10669.859214
560.589381	10625.519746
560.946251	10627.669798
561.303065	10730.227032
561.659825	10663.126753
562.016528	10594.662843
562.373177	10469.979985
562.729770	10590.329971
563.086307	10504.469039
563.442789	10596.691907
563.799216	10475.434513
564.155587	10518.077634
564.511904	10479.722015
564.868164	10472.354368
565.224370	10483.457510
565.580520	10408.888762
565.936615	10421.068190
566.292654	10286.802098
566.648638	10412.674668
567.004567	10368.199089
567.360441	10356.307007
567.716260	10263.937945
568.072023	10360.254230
568.427732	10310.132558
568.783385	10220.132838
569.138982	10291.893663
569.494525	10311.508793
569.850013	10186.783085
570.205445	10269.473132
570.560823	10160.296863
570.916145	10079.966076
571.271412	10145.208689
571.626625	10092.568961
571.981782	10072.127082
572.336884	10041.857474
572.691931	10048.214369
573.046923	9995.919959
573.401860	9954.227097
573.756743	9881.924348
574.111570	9932.252707
574.466342	9911.846116
574.821059	9942.035066
575.175722	9832.677316
575.530330	9847.846148
575.884882	9836.138068
576.239380	9761.339947
576.593823	9743.897555
576.948211	9761.864227
577.302544	9636.468046
577.656823	9651.276436
578.011047	9656.907404
578.365216	9624.250810
578.719330	9550.929748
579.073389	9563.225122
579.427394	9515.903811
579.781344	9489.165531
580.135239	9437.103014
580.489080	9441.357748
580.842866	9349.656639
581.196597	9355.670736
581.550273	9395.281602
581.903895	9361.556283
582.257463	9428.923742
582.610975	9299.033372
582.964434	9339.304630
583.317837	9256.594419
583.671186	9239.141944
584.024481	9231.416376
584.377721	9154.695055
584.730906	9128.967527
585.084037	9159.395931
585.437113	9083.942461
585.790135	9115.742060
586.143103	9015.249178
586.496016	8987.800096
586.848874	9047.981390
587.201679	9036.185090
587.554428	8918.597656
587.907124	8968.477353
588.259765	8932.125592
588.612352	8940.380482
588.964884	8812.206625
589.317362	8831.733534
589.669786	8830.722783
590.022155	8875.798260
590.374470	8892.744099
590.726731	8831.612547
591.078937	8683.435391
591.431090	8798.146847
591.783188	8667.328904
592.135232	8661.798759
592.487222	8660.319180
592.839157	8712.613589
593.191038	8637.628947
593.542866	8589.438036
593.894639	8494.102255
594.246358	8544.475985
594.598022	8553.287922
594.949633	8457.780742
595.301190	8432.118748
595.652692	8462.373233
596.004141	8570.243843
596.355535	8350.671346
596.706876	8327.058582
597.058162	8263.522399
597.409395	8339.119542
597.760573	8404.639419
598.111698	8310.198443
598.462768	8301.784757
598.813785	8265.014581
599.164748	8229.129127
599.515657	8219.961789
599.866511	8129.137840
600.217312	8255.320442
600.568060	8116.882795
600.918753	8218.782159
601.269392	8191.786780
601.619978	8099.770599
601.970510	8158.822675
602.320988	8158.880648
602.671412	8216.430460
603.021783	8155.997108
603.372100	8128.676575
603.722363	8128.159857
604.072572	8103.274201
604.422728	8119.388249
604.772830	8045.744553
605.122878	8049.227990
605.472872	8045.104326
605.822813	8076.790499
606.172701	8018.368567
606.522534	8094.207685
606.872314	8091.896316
607.222041	8072.238337
607.571714	8119.179041
607.921333	8073.637257
608.270899	8082.665964
608.620411	8175.231631
608.969870	8077.839059
609.319276	8073.400323
609.668627	8090.114268
610.017926	8120.288095
610.367171	8168.526896
610.716362	8146.003021
611.065500	8138.486660
611.414585	8166.644025
611.763616	8153.726068
612.112594	8133.334601
612.461518	8146.678535
612.810389	8209.776137
613.159207	8149.809092
613.507971	8097.270186
613.856682	8216.775779
614.205340	8173.467227
614.553945	8252.089062
614.902496	8148.631982
615.250994	8201.934623
615.599439	8185.951644
615.947830	8202.600055
616.296169	8173.520159
616.644454	8190.390380
616.992686	8185.477776
617.340864	8243.806446
617.688990	8146.058473
618.037063	8238.036846
618.385082	8180.882764
618.733048	8267.210003
619.080961	8209.788740
619.428821	8228.584682
619.776628	8229.688695
620.124382	8182.808485
620.472083	8163.556318
620.819731	8191.875000
621.167326	8084.422806
621.514868	8091.866069
621.862357	7979.612176
622.209793	7995.935432
622.557176	7930.221471
622.904506	7898.086636
623.251783	7837.111360
623.599007	7785.716796
623.946179	7797.407232
624.293297	7749.833863
624.640363	7669.286307
624.987376	7652.348030
625.334336	7599.715863
625.681243	7549.647123
626.028097	7540.608335
626.374899	7516.171341
626.721647	7512.113213
627.068343	7439.898684
627.414987	7407.219404
627.761577	7364.616613
628.108115	7404.141779
628.454600	7298.229658
628.801032	7345.765218
629.147412	7305.075545
629.493739	7297.085316
629.840014	7235.053918
630.186236	7287.824716
630.532405	7168.828280
630.878521	7226.521765
631.224585	7178.960999
631.570597	7104.258661
631.916556	7138.026830
632.262462	7136.852241
632.608316	7096.104594
632.954117	7072.222128
633.299866	7060.219141
633.645562	7055.908954
633.991206	6972.770245
634.336797	6915.653972
634.682336	6869.930706
635.027823	6840.324010
635.373257	6832.868143
635.718639	6766.181240
636.063968	6773.995028
636.409245	6668.294635
636.754470	6665.930334
637.099642	6630.256608
637.444762	6573.460449
637.789829	6580.228198
638.134845	6521.529002
638.479808	6506.327403
638.824719	6513.095152
639.169577	6437.838287
639.514383	6462.010619
639.859137	6389.239043
640.203839	6395.759776
640.548489	6385.511110
640.893086	6357.855340
641.237632	6331.525393
641.582125	6353.814855
641.926566	6317.664741
642.270955	6333.972873
642.615292	6327.661349
642.959576	6347.246232
643.303809	6331.827862
643.647990	6334.771896
643.992118	6334.129149
644.336195	6281.653258
644.680219	6301.139838
645.024192	6293.018540
645.368112	6391.953704
645.711981	6415.498413
646.055797	6486.603888
646.399562	6445.962106
646.743274	6572.487506
647.086935	6624.328212
647.430544	6623.143540
647.774101	6641.432847
648.117606	6649.120606
648.461059	6636.989069
648.804460	6602.142093
649.147810	6510.314956
649.491108	6482.341593
649.834354	6455.210103
650.177548	6372.159614
650.520690	6285.834895
650.863781	6266.499550
651.206820	6281.244925
651.549807	6203.991763
651.892742	6145.494213
652.235626	6150.472353
652.578458	6135.099354
652.921238	6046.158277
653.263967	6082.762095
653.606644	6028.277304
653.949269	6031.934661
654.291843	5969.812522
654.634365	6018.583165
654.976836	5977.568338
655.319255	5971.879396
655.661622	5953.350635
656.003938	5946.966013
656.346203	5906.639303
656.688416	5942.544921
657.030577	5893.502056
657.372687	5860.479978
657.714746	5847.710735
658.056753	5894.704371
658.398708	5833.295556
658.740612	5823.437579
659.082465	5866.763776
659.424266	5859.416294
659.766016	5859.207087
660.107715	5837.958623
660.449362	5852.890521
660.790958	5848.229974
661.132503	5836.557182
661.473996	5867.174630
661.815438	5854.980079
662.156829	5853.545871
662.498168	5844.181928
662.839456	5820.037321
663.180693	5854.760789
663.521879	5860.464854
663.863013	5845.507751
664.204097	5866.831832
664.545129	5905.573099
664.886110	5903.864148
665.227040	5939.321103
665.567918	5901.514970
665.908746	5930.854486
666.249522	5934.143838
666.590248	5918.337301
666.930922	5949.778977
667.271545	5963.450586
667.612118	5964.869671
667.952639	5932.684424
668.293109	5962.311286
668.633528	5914.508544
668.973896	5920.192445
669.314213	5911.514099
669.654480	5892.831583
669.994695	5885.153905
670.334859	5878.068564
670.674973	5868.089600
671.015035	5872.011617
671.355047	5868.671853
671.695008	5856.290779
672.034918	5831.763045
672.374777	5843.821485
672.714585	5827.173074
673.054342	5832.236913
673.394049	5823.782898
673.733705	5854.039904
674.073310	5839.203788
674.412864	5798.985463
674.752368	5798.821625
675.091820	5799.950844
675.431223	5736.414661
675.770574	5736.147480
676.109875	5689.204255
676.449125	5692.475964
676.788324	5657.281149
677.127473	5600.575730
677.466571	5591.872177
677.805619	5584.890179
678.144616	5568.579526
678.483562	5544.739910
678.822458	5516.040621
679.161303	5507.634497
679.500098	5504.037633
679.838842	5486.930478
680.177535	5490.673535
680.516179	5508.105845
680.854771	5517.931053
681.193314	5595.385862
681.531805	5702.412078
681.870247	5857.871181
682.208638	5959.200894
682.546978	5977.374253
682.885268	5948.526250
683.223508	5862.803950
683.561697	5810.280168
683.899836	5780.247494
684.237925	5731.118929
684.575963	5700.788827
684.913951	5657.230737
685.251889	5714.672165
685.589776	5685.383061
685.927614	5660.593187
686.265401	5731.154217
686.603137	5715.083019
686.940824	5794.972704
687.278460	5812.825951
687.616046	5825.035625
687.953582	5892.781171
688.291068	5875.023707
688.628504	5935.139466
688.965889	5898.018930
689.303224	5840.978274
689.640510	5795.260050
689.977745	5722.851437
690.314930	5622.469461
690.652065	5563.377055
690.989150	5475.187110
691.326185	5397.553341
691.663170	5342.135937
692.000105	5263.637609
692.336990	5190.187998
692.673825	5160.742618
693.010610	5092.679480
693.347345	5029.821332
693.684030	5012.522613
694.020665	4969.506447
694.357251	4879.572262
694.693786	4886.990320
695.030272	4854.908417
695.366707	4819.816945
695.703093	4791.314262
696.039429	4811.337725
696.375716	4792.100682
696.711952	4769.841467
697.048139	4751.693313
697.384276	4737.179831
697.720363	4747.960338
698.056400	4757.215897
698.392388	4705.642372
698.728326	4686.639743
699.064214	4665.880272
699.400053	4657.025485
699.735842	4625.069611
700.071581	4599.102627
700.407270	4570.927618
700.742910	4557.457655
701.078501	4501.699973
701.414042	4499.459180
701.749533	4469.544973
702.084974	4407.110283
702.420366	4459.376966
702.755709	4404.267072
703.091002	4343.654759
703.426246	4399.964447
703.761440	4351.080378
704.096584	4315.935974
704.431679	4336.997915
704.766725	4322.020647
705.101721	4310.652845
705.436668	4338.616126
705.771565	4286.054535
706.106413	4312.450017
706.441212	4343.856405
706.775961	4356.025750
707.110661	4328.236390
707.445311	4365.102348
707.779913	4385.642529
708.114465	4400.251793
708.448967	4416.557405
708.783421	4481.782374
709.117825	4524.480947
709.452180	4528.934807
709.786485	4573.652362
710.120742	4661.973377
710.454949	4642.451509
710.789107	4709.211509
711.123216	4786.013488
711.457275	4778.965955
711.791286	4851.311554
712.125247	4869.152197
712.459159	4765.175879
712.793023	4843.999360
713.126837	4804.101148
713.460602	4799.725427
713.794318	4714.781984
714.127985	4726.439653
714.461602	4636.180314
714.795171	4610.288947
715.128691	4543.723032
715.462162	4488.746728
715.795584	4439.880303
716.128957	4419.388013
716.462281	4372.686764
716.795556	4341.976055
717.128782	4306.864418
717.461960	4237.356989
717.795088	4245.049790
718.128167	4206.734500
718.461198	4144.945077
718.794180	4144.115807
719.127113	4123.240389
719.459997	4098.710135
719.792833	4055.792271
720.125619	4051.885377
720.458357	4011.220910
720.791046	4015.891539
721.123686	3991.144514
721.456278	3946.328657
721.788821	3964.978405
722.121315	3940.498562
722.453761	3912.081578
722.786158	3924.815533
723.118506	3950.215386
723.450805	3899.876945
723.783056	3923.502312
724.115259	3938.124179
724.447412	3942.651135
724.779518	3936.238787
725.111574	3938.673665
725.443582	3973.903768
725.775542	3955.145635
726.107453	4006.643542
726.439315	4005.531967
726.771129	4022.722302
727.102895	4057.556675
727.434612	4104.550311
727.766281	4118.652939
728.097901	4119.121767
728.429473	4122.887508
728.760996	4131.137357
729.092471	4127.119557
729.423897	4112.091878
729.755276	4115.338381
730.086606	4114.609934
730.417887	4150.313906
730.749120	4218.961818
731.080305	4280.002630
731.411442	4308.606137
731.742530	4279.732928
732.073570	4284.857261
732.404562	4335.351978
732.735506	4329.864683
733.066401	4292.953354
733.397249	4228.761822
733.728048	4151.768279
734.058798	4067.177717
734.389501	3991.331037
734.720156	3933.188889
735.050762	3888.713309
735.381320	3878.333574
735.711831	3830.770287
736.042293	3799.691574
736.372707	3820.763597
736.703073	3796.278712
737.033391	3782.886887
737.363661	3806.562666
737.693883	3827.773321
738.024056	3842.480887
738.354182	3834.687264
738.684260	3897.799989
739.014290	3918.897218
739.344272	3911.612751
739.674207	3958.392138
740.004093	3962.530925
740.333931	3957.129329
740.663722	3954.815439
740.993464	3952.801498
741.323159	3932.873817
741.652806	3899.450967
741.982405	3877.050600
742.311956	3842.188501
742.641460	3835.214064
742.970915	3809.723470
743.300323	3767.788632
743.629683	3732.319073
743.958996	3718.874316
744.288260	3696.166438
744.617477	3665.876665
744.946647	3650.095333
745.275768	3625.066004
745.604842	3617.688276
745.933869	3577.802667
746.262847	3564.829257
746.591778	3604.125051
746.920662	3579.730908
747.249498	3544.488201
747.578286	3591.877568
747.907027	3608.077316
748.235720	3608.972121
748.564365	3628.090697
748.892963	3630.787714
749.221514	3615.210549
749.550017	3588.701641
749.878473	3588.255499
750.206881	3557.111251
750.535242	3553.839542
750.863555	3552.985066
751.191821	3553.693348
751.520039	3529.455481
751.848210	3510.785567
752.176334	3545.748490
752.504411	3546.280332
752.832440	3509.338756
753.160421	3492.811333
753.488356	3504.710977
753.816243	3517.669263
754.144082	3470.821820
754.471875	3459.154070
754.799620	3480.233654
755.127318	3467.678661
755.454969	3469.536326
755.782572	3470.423569
756.110129	3450.417750
756.437638	3437.449382
756.765100	3450.697534
757.092515	3462.461067
757.419882	3470.234526
757.747203	3441.588169
758.074477	3443.483643
758.401703	3460.152218
758.728882	3480.916731
759.056014	3487.959223
759.383099	3493.106241
759.710138	3489.363184
760.037129	3507.135772
760.364073	3538.693395
760.690970	3523.015407
761.017820	3500.468846
761.344623	3518.559027
761.671379	3563.858835
761.998088	3613.035291
762.324751	3742.701329
762.651366	3988.664267
762.977935	4465.292760
763.304456	4910.860184
763.630931	5003.567003
763.957359	4644.959483
764.283740	4300.638593
764.610074	4108.643728
764.936362	3909.359355
765.262602	3748.034870
765.588796	3637.953714
765.914943	3549.917524
766.241044	3461.299081
766.567097	3428.917229
766.893104	3381.376628
767.219064	3351.071731
767.544978	3323.617607
767.870845	3266.246756
768.196665	3250.115064
768.522438	3259.539501
768.848165	3257.523039
769.173846	3215.270608
769.499479	3200.071529
769.825066	3185.467307
770.150607	3167.654390
770.476101	3185.195084
770.801548	3176.912469
771.126949	3134.639873
771.452303	3117.172275
771.777611	3123.844242
772.102872	3127.325159
772.428087	3103.311622
772.753256	3090.970878
773.078378	3086.353181
773.403453	3053.184909
773.728482	3041.958260
774.053465	3060.822257
774.378401	3048.317675
774.703291	3017.811133
775.028135	3014.947757
775.352932	3012.737211
775.677683	3001.881087
776.002388	2998.354799
776.327046	2999.501662
776.651658	2987.586895
776.976224	2976.385451
777.300743	2975.316726
777.625216	2969.219451
777.949643	2961.178810
778.274024	2964.410190
778.598359	2952.369394
778.922647	2959.605970
779.246889	2956.530867
779.571086	2944.520318
779.895236	2933.200407
780.219339	2945.352108
780.543397	2962.446661
780.867409	2961.811475
781.191374	2957.128243
781.515294	2955.797379
781.839167	2957.720579
782.162995	2945.768003
782.486776	2955.537759
782.810511	2950.698252
783.134201	2936.454471
783.457844	2942.841613
783.781441	2934.750561
784.104993	2914.301121
784.428498	2916.567119
784.751958	2930.057247
785.075372	2921.930907
785.398739	2907.845923
785.722061	2924.174221
786.045337	2937.913885
786.368568	2923.052564
786.691752	2908.997827
787.014891	2957.201340
787.337983	2987.501195
787.661030	3018.007738
787.984031	3085.869230
788.306987	3131.141312
788.629897	3126.442957
788.952760	3107.505862
789.275579	3093.249479
789.598351	3034.741848
789.921078	2989.333655
790.243759	2982.490288
790.566395	2963.656538
790.888984	2940.018567
791.211529	2922.082142
791.534027	2911.226017
791.856480	2903.790315
792.178888	2889.143243
792.501249	2877.974566
792.823566	2873.946684
793.145836	2874.866695
793.468062	2870.354862
793.790241	2867.980479
794.112375	2874.692775
794.434464	2884.903632
794.756507	2889.312121
795.078505	2896.931825
795.400457	2909.111253
795.722364	2949.226235
796.044226	2972.808752
796.366042	2972.619709
796.687812	2965.728452
797.009538	2982.787716
797.331218	2969.723566
797.652852	2957.176134
797.974442	2938.395316
798.295986	2933.749892
798.617484	2928.746547
798.938938	2913.360946
799.260346	2900.604306
799.581709	2893.360168
799.903026	2884.008827
800.224299	2882.632592
800.545526	2871.393340
800.866708	2855.720392
801.187845	2844.448372
801.508936	2846.669001
801.829983	2854.767614
802.150984	2841.917713
802.471940	2827.885662
802.792851	2826.151505
803.113717	2826.103614
803.434538	2833.869511
803.755314	2826.421206
804.076045	2821.798468
804.396731	2820.281081
804.717372	2820.548262
805.037967	2816.306131
805.358518	2820.596153
805.679024	2832.465550
805.999485	2829.962617
806.319901	2833.471260
806.640272	2824.918942
806.960598	2829.481187
807.280879	2843.059535
807.601115	2845.759072
807.921306	2832.672237
808.241453	2828.840960
808.561554	2835.046621
808.881611	2839.712208
809.201623	2833.753565
809.521590	2831.353975
809.841513	2828.251145
810.161390	2828.929180
810.481223	2824.845846
810.801011	2815.970894
811.120755	2810.902014
811.440453	2814.609783
811.760107	2813.044505
812.079716	2813.324289
812.399281	2801.028914
812.718801	2796.418779
813.038276	2791.216308
813.357707	2796.348203
813.677093	2803.758699
813.996434	2798.044551
814.315731	2794.341824
814.634983	2786.044085
814.954191	2790.006432
815.273354	2805.233237
815.592473	2815.529793
815.911547	2813.677169
816.230577	2823.482214
816.549562	2832.551249
816.868502	2830.781804
817.187399	2840.150789
817.506250	2857.472193
817.825058	2855.173427
818.143821	2863.219109
818.462539	2882.342726
818.781213	2906.061355
819.099843	2943.290276
819.418429	3001.623988
819.736970	3064.759398
820.055466	3136.598361
820.373919	3245.981317
820.692327	3385.966598
821.010691	3555.760221
821.329011	4008.962473
821.647286	4912.821193
821.965517	6306.581764
822.283704	7069.610810
822.601847	7052.211268
822.919945	6406.860396
823.237999	5893.038270
823.556010	5302.091531
823.873976	4742.707456
824.191897	4330.111699
824.509775	4030.561296
824.827609	3759.427878
825.145398	3636.360710
825.463144	3620.196250
825.780845	3713.250909
826.098502	3816.503822
826.416116	4101.954117
826.733685	4425.550824
827.051210	4493.291328
827.368692	4376.197928
827.686129	4103.080815
828.003522	3773.500259
828.320872	3515.244468
828.638177	3314.160403
828.955439	3175.170750
829.272656	3093.259562
829.589830	3025.514016
829.906960	2974.905872
830.224046	2925.978954
830.541088	2896.594068
830.858086	2878.405585
831.175041	2860.297760
831.491952	2861.777339
831.808819	2873.989534
832.125642	2898.686147
832.442421	2941.311623
832.759157	3028.689943
833.075849	3207.759289
833.392497	3492.254286
833.709101	3699.949824
834.025662	3648.431752
834.342179	3488.750684
834.658653	3306.848209
834.975083	3154.996052
835.291469	3058.710014
835.607811	2969.562249
835.924110	2912.526635
836.240366	2859.231556
836.556578	2818.756132
836.872746	2794.145219
837.188871	2772.574122
837.504952	2757.170876
837.820990	2746.897004
838.136984	2730.394787
838.452935	2729.595764
838.768842	2723.760629
839.084706	2741.071951
839.400526	2823.172183
839.716303	2956.543469
840.032037	3037.537168
840.347727	3025.524098
840.663373	2959.484983
840.978977	2884.759959
841.294537	2812.535348
841.610054	2765.720673
841.925527	2741.805439
842.240957	2721.164435
842.556344	2699.318594
842.871687	2678.259174
843.186987	2670.304233
843.502244	2666.861125
843.817458	2662.802997
844.132629	2650.008548
844.447756	2641.229379
844.762840	2634.741414
845.077881	2638.338277
845.392879	2636.190745
845.707833	2632.372071
846.022745	2622.952675
846.337613	2627.487193
846.652438	2624.563324
846.967221	2625.886627
847.281960	2623.058540
847.596656	2622.224229
847.911309	2620.280864
848.225919	2619.539814
848.540485	2613.462703
848.855009	2616.467231
849.169490	2614.977570
849.483928	2612.991355
849.798323	2616.310955
850.112675	2611.726026
850.426984	2614.717951
850.741251	2612.729215
851.055474	2611.388268
851.369654	2616.492437
851.683792	2614.541510
851.997887	2611.272322
852.311938	2611.410954
852.625947	2612.441870
852.939914	2617.619135
853.253837	2617.223404
853.567718	2612.719133
853.881555	2612.058742
854.195350	2615.373301
854.509103	2614.891870
854.822812	2613.182919
855.136479	2607.446086
855.450103	2616.590739
855.763685	2615.479165
856.077224	2613.959257
856.390720	2610.705192
856.704173	2614.125615
857.017584	2617.457818
857.330953	2617.732561
857.644278	2619.229783
857.957561	2619.862448
858.270802	2616.837756
858.584000	2616.764659
858.897155	2618.435802
859.210268	2619.378497
859.523339	2616.588219
859.836367	2609.144955
860.149352	2611.378186
860.462295	2611.978083
860.775195	2608.398864
861.088054	2606.458020
861.400869	2605.429625
861.713642	2603.483739
862.026373	2605.996754
862.339062	2608.343412
862.651708	2616.850359
862.964312	2615.854731
863.276873	2613.886160
863.589392	2618.292129
863.901869	2619.917901
864.214303	2627.091463
864.526696	2627.961062
864.839045	2631.341155
865.151353	2631.706639
865.463619	2633.186218
865.775842	2634.965745
866.088023	2632.072123
866.400162	2634.738893
866.712258	2633.408028
867.024313	2631.189921
867.336325	2628.036679
867.648296	2632.772843
867.960224	2634.391053
868.272110	2632.137658
868.583954	2627.716566
868.895755	2631.091618
869.207515	2632.767802
869.519233	2640.881539
869.830909	2638.108904
870.142542	2633.481125
870.454134	2636.271404
870.765684	2640.702578
871.077191	2641.642753
871.388657	2647.130049
871.700081	2641.478916
872.011463	2642.444297
872.322803	2647.147693
872.634101	2648.985194
872.945357	2654.774959
873.256571	2658.820485
873.567744	2658.235711
873.878874	2655.473159
874.189963	2657.381236
874.501010	2665.293327
874.812015	2668.660817
875.122979	2665.401711
875.433900	2659.087666
875.744780	2661.015907
876.055618	2663.770898
876.366415	2668.854902
876.677169	2670.838596
876.987882	2665.860456
877.298554	2662.916422
877.609183	2672.413956
877.919771	2679.680780
878.230317	2686.652695
878.540822	2698.126362
878.851285	2713.204453
879.161707	2736.849985
879.472087	2774.888011
879.782425	2825.102945
880.092722	2941.697271
880.402977	3135.138947
880.713191	3399.086201
881.023363	3704.630536
881.333494	3896.781676
881.643583	4072.813727
881.953631	4068.589240
882.263637	3891.266654
882.573602	3668.132582
882.883526	3534.415976
883.193408	3416.367276
883.503248	3311.178560
883.813048	3193.553317
884.122806	3076.217941
884.432522	2988.494303
884.742197	2921.305804
885.051831	2879.625544
885.361424	2846.994155
885.670975	2811.693475
885.980485	2779.372117
886.289954	2760.208171
886.599382	2746.768455
886.908768	2735.047772
887.218113	2715.301573
887.527417	2703.679192
887.836680	2692.863397
888.145901	2689.238807
888.455082	2679.017868
888.764221	2667.423214
889.073319	2661.330980
889.382376	2658.147491
889.691392	2658.011380
890.000366	2660.325269
890.309300	2660.322749
890.618193	2660.055568
890.927044	2663.667554
891.235855	2662.656803
891.544625	2663.675116
891.853353	2661.207471
892.162041	2671.045283
892.470687	2690.804086
892.779293	2702.421425
893.087858	2711.871067
893.396381	2738.803432
893.704864	2780.597118
894.013306	2851.987418
894.321707	2948.815381
894.630068	2998.311950
894.938387	3019.812471
895.246665	3013.092613
895.554903	2965.824234
895.863100	2919.649785
896.171256	2864.560056
896.479371	2800.749130
896.787446	2760.886206
897.095480	2741.941550
897.403473	2733.406877
897.711425	2721.199723
898.019336	2700.626774
898.327207	2685.412572
898.635038	2685.251255
898.942827	2682.014834
899.250576	2670.886487
899.558284	2658.943993
899.865952	2656.856956
900.173579	2650.500061
900.481165	2650.973929
900.788711	2642.111581
901.096216	2634.625467
901.403681	2632.961886
901.711105	2635.787453
902.018489	2631.615898
902.325832	2636.233595
902.633135	2639.855664
902.940397	2653.522232
903.247619	2690.194106
903.554800	2763.048861
903.861941	2892.787997
904.169041	3026.232380
904.476101	3089.166145
904.783121	3081.720361
905.090100	3025.093079
905.397039	2946.977880
905.703938	2870.609440
906.010796	2802.979841
906.317614	2749.493199
906.624391	2714.058928
906.931129	2686.133457
907.237826	2664.184273
907.544483	2643.132414
907.851099	2629.274282
908.157675	2620.653909
908.464211	2610.690069
908.770707	2602.651949
909.077163	2598.755137
909.383578	2593.300608
909.689954	2591.770618
909.996289	2590.573344
910.302584	2589.376070
910.608839	2586.487489
910.915054	2587.871286
911.221229	2589.867583
911.527363	2593.194744
911.833458	2588.234249
912.139513	2590.908581
912.445527	2593.222471
912.751502	2598.170363
913.057436	2605.351487
913.363331	2612.041098
913.669186	2624.694394
913.975000	2632.412401
914.280775	2653.333189
914.586510	2672.169460
914.892205	2713.426263
915.197859	2778.908331
915.503475	2867.393184
915.809050	2936.835078
916.114585	2953.533901
916.420081	2965.819193
916.725536	2977.774289
917.030952	2950.161369
917.336328	2898.875190
917.641665	2849.366018
917.946961	2798.044551
918.252218	2763.986516
918.557435	2732.058368
918.862612	2711.346787
919.167750	2694.136288
919.472848	2676.373783
919.777906	2662.601350
920.082925	2647.553506
920.387904	2634.968266
920.692843	2632.404839
920.997743	2627.146915
921.302603	2619.527211
921.607423	2611.652929
921.912204	2606.407608
922.216946	2601.991558
922.521647	2601.885693
922.826310	2596.723552
923.130932	2594.346648
923.435516	2588.108220
923.740059	2585.880030
924.044564	2582.651171
924.349028	2583.621593
924.653454	2571.825293
924.957840	2569.317319
925.262186	2570.181877
925.566493	2569.874367
925.870761	2564.898748
926.174989	2567.328584
926.479178	2561.387584
926.783328	2564.331618
927.087438	2562.854560
927.391509	2564.631567
927.695541	2559.051009
927.999533	2559.383725
928.303486	2555.590257
928.607400	2556.333827
928.911275	2555.605381
929.215110	2554.561862
929.518906	2558.854404
929.822663	2553.089845
930.126381	2555.794424
930.430060	2557.901626
930.733699	2555.970864
931.037299	2556.807696
931.340861	2557.074877
931.644383	2557.629404
931.947866	2557.594116
932.251309	2555.769218
932.554714	2555.827191
932.858080	2557.538663
933.161407	2557.626883
933.464694	2554.849208
933.767943	2556.089331
934.071153	2552.973898
934.374323	2553.175544
934.677455	2550.171017
934.980548	2551.753939
935.283602	2551.741336
935.586617	2551.663198
935.889593	2554.750905
936.192530	2553.687222
936.495428	2555.179403
936.798287	2555.615463
937.101108	2553.601522
937.403890	2557.994887
937.706632	2563.769529
938.009336	2565.957390
938.312002	2567.348748
938.614628	2572.702454
938.917216	2574.557598
939.219765	2577.917527
939.522275	2577.652867
939.824747	2576.158165
940.127179	2570.378482
940.429573	2567.119376
940.731929	2568.049469
941.034246	2564.354303
941.336524	2571.265725
941.638763	2570.297823
941.940964	2568.732545
942.243126	2564.258521
942.545250	2561.831206
942.847335	2562.347924
943.149381	2560.616287
943.451389	2562.980589
943.753359	2558.965310
944.055290	2560.394477
944.357182	2556.900957
944.659036	2556.031358
944.960851	2554.672767
945.262628	2557.740309
945.564367	2555.703683
945.866067	2555.126471
946.167729	2558.491441
946.469352	2556.396842
946.770937	2553.624207
947.072484	2555.897767
947.373992	2557.203426
947.675462	2554.806358
947.976893	2554.723179
948.278286	2554.080432
948.579641	2551.915256
948.880958	2554.811399
949.182236	2555.943138
949.483476	2552.600853
949.784678	2552.368960
950.085841	2551.922818
950.386967	2555.255020
950.688054	2551.711089
950.989103	2553.999773
951.290114	2556.031358
951.591087	2557.079918
951.892021	2557.989846
952.192917	2556.656461
952.493776	2558.819116
952.794596	2559.529919
953.095378	2562.577296
953.396122	2561.934549
953.696828	2558.156204
953.997496	2558.975392
954.298126	2554.294681
954.598718	2557.367264
954.899272	2554.960113
955.199788	2552.666388
955.500266	2550.584391
955.800706	2548.421736
956.101108	2543.796478
956.401472	2545.144986
956.701798	2544.277908
957.002087	2543.511653
957.302337	2542.236241
957.602550	2543.181457
957.902724	2540.625592
958.202861	2539.203987
958.502960	2540.930582
958.803022	2541.044008
959.103045	2539.476209
959.403031	2541.288504
959.702979	2538.702392
960.002889	2539.264480
960.302762	2538.919161
960.602596	2539.882022
960.902393	2541.691796
961.202153	2541.298586
961.501875	2539.529141
961.801559	2540.958308
962.101205	2537.709284
962.400814	2540.358411
962.700385	2537.729449
962.999918	2538.493184
963.299414	2538.594007
963.598873	2538.127700
963.898293	2537.616023
964.197677	2535.234078
964.497022	2536.181815
964.796331	2536.428831
965.095601	2534.936650
965.394835	2537.303472
965.694030	2535.912113
965.993189	2537.454706
966.292309	2538.440252
966.591393	2537.333718
966.890439	2538.422608
967.189447	2535.740714
967.488419	2533.328522
967.787353	2534.238450
968.086249	2535.791125
968.385108	2536.111239
968.683930	2537.096784
968.982714	2535.390354
969.281462	2537.134593
969.580172	2536.655683
969.878844	2535.554191
970.177480	2535.120652
970.476078	2537.394212
970.774639	2535.420601
971.073162	2535.730632
971.371649	2535.148378
971.670098	2533.336083
971.968510	2534.518234
972.266885	2534.210724
972.565223	2537.512679
972.863524	2539.221631
973.161788	2539.481250
973.460014	2539.748431
973.758204	2539.720705
974.056356	2535.929757
974.354471	2537.021167
974.652550	2538.669624
974.950591	2538.740200
975.248595	2538.654501
975.546563	2539.095602
975.844493	2537.525282
976.142386	2537.694161
976.440243	2533.620909
976.738062	2537.406815
977.035845	2538.541075
977.333590	2535.057638
977.631299	2535.619726
977.928971	2535.748276
978.226606	2534.982020
978.524204	2536.464119
978.821765	2535.826413
979.119290	2534.735004
979.416777	2534.193080
979.714228	2535.592000
980.011642	2534.674510
980.309020	2535.150899
980.606360	2534.150230
980.903664	2537.177443
981.200931	2536.751465
981.498162	2538.233564
981.795356	2540.852444
982.092513	2543.385624
982.389633	2545.218083
982.686717	2550.155893
982.983764	2551.116233
983.280775	2553.195709
983.577749	2550.607077
983.874686	2549.245965
984.171587	2550.423074
984.468451	2545.732281
984.765279	2543.846889
985.062070	2540.582742
985.358824	2539.009902
985.655543	2538.316743
985.952224	2538.394881
986.248869	2535.516382
986.545478	2532.408511
986.842050	2535.241640
987.138586	2531.380116
987.435086	2533.207534
987.731549	2527.082532
988.027975	2532.574869
988.324366	2533.774664
988.620719	2533.532688
988.917037	2532.345497
989.213318	2532.521937
989.509563	2533.676361
989.805772	2532.370702
990.101944	2531.044879
990.398080	2532.852133
990.694180	2533.315919
990.990244	2532.766433
991.286271	2534.077133
991.582262	2533.371372
991.878217	2530.999509
992.174136	2533.099149
992.470019	2531.738038
992.765865	2533.295754
993.061676	2531.012112
993.357450	2533.162164
993.653188	2534.911444
993.948890	2533.832637
994.244556	2532.108563
994.540186	2534.823224
994.835780	2532.511855
995.131337	2533.908254
995.426859	2536.212062
995.722345	2535.697864
996.017795	2533.928419
996.313208	2536.552340
996.608586	2536.567463
996.903928	2537.119469
997.199234	2535.319778
997.494504	2536.912782
997.789738	2535.896990
998.084936	2535.302133
998.380099	2533.913296
998.675225	2536.285158
998.970316	2534.631660
999.265371	2534.961856
999.560390	2531.768285
999.855373	2531.846423
1000.150320	2533.888090
1000.445232	2533.041176
1000.740108	2531.526309
1001.034948	2530.722245
1001.329752	2531.485980
1001.624521	2532.383305
1001.919254	2526.497758
1002.213951	2530.427338
1002.508613	2527.654703
1002.803239	2529.401463
1003.097829	2526.648993
1003.392384	2528.426000
1003.686903	2531.569159
1003.981386	2531.070085
1004.275834	2533.560415
1004.570246	2531.110414
1004.864623	2530.412214
1005.158964	2532.297606
1005.453270	2530.029087
1005.747540	2532.741227
1006.041775	2530.729807
1006.335974	2529.260311
1006.630138	2530.825589
1006.924266	2532.017822
1007.218359	2529.078829
1007.512416	2529.605630
1007.806438	2529.386339
1008.100425	2533.457071
1008.394376	2526.777542
1008.688292	2531.344828
1008.982172	2528.965403
1009.276017	2530.694519
1009.569827	2532.627801
1009.863602	2530.911288
1010.157341	2531.420445
1010.451045	2528.788963
1010.744714	2529.386339
1011.038347	2530.175280
1011.331945	2529.850126
1011.625508	2530.485311
1011.919036	2529.209899
1012.212528	2532.247194
1012.505986	2531.430527
1012.799408	2528.766277
1013.092795	2530.215609
1013.386147	2529.315763
1013.679464	2529.167049
1013.972745	2528.385670
1014.265992	2532.065713
1014.559204	2531.196114
1014.852380	2532.040507
1015.145521	2531.750641
1015.438628	2527.190917
1015.731699	2530.497914
1016.024736	2529.300640
1016.317737	2529.892975
1016.610703	2530.598737
1016.903635	2525.469363
1017.196531	2525.701256
1017.489393	2526.646472
1017.782219	2525.413910
1018.075011	2527.503468
1018.367768	2531.080167
1018.660490	2531.075126
1018.953177	2531.075126
1019.245829	2531.075126
