Dividing Wavelength (nm)	Counts (n)	Blue Motor Position (mm): 12.100000	Red Motor Position (mm): 0.000000	
326.493990	2138.802781
326.888308	2138.802781
327.282561	2138.802781
327.676750	2104.744745
328.070874	2103.499580
328.464933	2107.368666
328.858929	2114.932917
329.252859	2121.854421
329.646726	2135.916720
330.040528	2148.328041
330.434265	2163.612819
330.827938	2182.081086
331.221547	2200.292255
331.615091	2218.805892
332.008571	2239.419170
332.401986	2256.269227
332.795338	2277.552978
333.188625	2297.246246
333.581847	2314.670994
333.975006	2334.286124
334.368100	2350.591736
334.761129	2368.850795
335.154095	2384.506098
335.546996	2406.500653
335.939833	2422.521440
336.332606	2439.742021
336.725315	2452.415482
337.117960	2458.326235
337.510540	2466.374437
337.903056	2481.608804
338.295508	2486.130719
338.687896	2497.848881
339.080220	2505.536641
339.472480	2511.661643
339.864676	2514.280522
340.256807	2519.475431
340.648875	2520.229083
341.040879	2523.621780
341.432818	2528.236956
341.824694	2524.957686
342.216506	2527.155629
342.608253	2526.701925
342.999937	2526.207892
343.391557	2528.846936
343.783113	2525.779394
344.174605	2524.687984
344.566033	2524.027593
344.957397	2522.764784
345.348697	2519.936697
345.739934	2519.535925
346.131106	2515.581140
346.522215	2514.683814
346.913260	2514.666170
347.304241	2515.059380
347.695159	2509.282218
348.086012	2508.566374
348.476802	2505.239213
348.867528	2505.342556
349.258191	2502.522031
349.648789	2500.649242
350.039324	2500.276197
350.429796	2499.459530
350.820203	2499.419200
351.210548	2497.213696
351.600828	2495.804693
351.991045	2496.553304
352.381198	2494.075577
352.771288	2494.607419
353.161314	2493.490803
353.551276	2497.397698
353.941175	2495.076246
354.331010	2493.601709
354.720782	2495.386277
355.110490	2493.889055
355.500135	2494.741010
355.889717	2494.662872
356.279235	2495.182111
356.668689	2494.967862
357.058080	2493.818478
357.447408	2494.582213
357.836672	2489.175576
358.225873	2495.661020
358.615010	2490.773622
359.004084	2498.615136
359.393095	2496.162615
359.782043	2498.242091
360.170927	2496.207985
360.559748	2497.858963
360.948505	2499.391474
361.337199	2498.731083
361.725830	2499.119252
362.114398	2502.181753
362.502903	2500.442555
362.891344	2503.931033
363.279722	2502.816938
363.668037	2504.614109
364.056289	2501.995230
364.444478	2505.329953
364.832603	2505.929851
365.220665	2505.660149
365.608665	2501.639829
365.996601	2505.145951
366.384474	2505.191322
366.772284	2506.927999
367.160031	2507.220386
367.547715	2506.544871
367.935336	2507.749707
368.322893	2506.938081
368.710388	2505.687875
369.097820	2506.328102
369.485189	2505.418173
369.872495	2506.953205
370.259738	2506.305417
370.646918	2508.833555
371.034035	2509.226765
371.421090	2512.014523
371.808081	2509.350273
372.195010	2511.112157
372.581875	2510.257681
372.968678	2512.190964
373.355418	2509.042763
373.742096	2511.442352
374.128710	2511.210459
374.515262	2510.839934
374.901751	2513.559637
375.288177	2511.396982
375.674540	2511.470079
376.060841	2512.684997
376.447079	2514.255316
376.833254	2513.352950
377.219367	2507.681652
377.605417	2509.950171
377.991404	2508.042094
378.377329	2510.413957
378.763191	2508.455469
379.148991	2513.904956
379.534727	2512.430418
379.920402	2512.805984
380.306013	2512.836231
380.691563	2515.203053
381.077049	2512.775737
381.462474	2513.516787
381.847835	2514.061232
382.233134	2517.269926
382.618371	2515.593743
383.003545	2515.432426
383.388657	2515.576098
383.773706	2514.063752
384.158693	2516.266737
384.543618	2518.240348
384.928480	2514.653567
385.313280	2516.712879
385.698017	2516.289422
386.082692	2516.135667
386.467305	2516.072652
386.851856	2518.580626
387.236344	2519.394773
387.620770	2520.324865
388.005133	2517.385873
388.389435	2515.298835
388.773674	2520.612211
389.157851	2514.643485
389.541965	2521.711183
389.926018	2516.841428
390.310008	2520.100534
390.693936	2519.586336
391.077802	2519.699762
391.461606	2518.691532
391.845348	2521.454084
392.229027	2521.411234
392.612645	2522.132119
392.996200	2521.280164
393.379694	2519.634227
393.763125	2521.310411
394.146494	2520.017355
394.529801	2521.786800
394.913047	2521.741430
395.296230	2524.935001
395.679351	2520.609691
396.062410	2522.611029
396.445408	2520.949968
396.828343	2523.836029
397.211217	2516.483506
397.594028	2523.097500
397.976778	2518.172293
398.359466	2525.360978
398.742092	2517.539628
399.124656	2523.583971
399.507158	2525.552542
399.889598	2523.795700
400.271977	2525.519774
400.654294	2527.349713
401.036549	2524.506503
401.418742	2525.671009
401.800874	2524.113293
402.182944	2527.901720
402.564952	2524.072963
402.946898	2528.622605
403.328783	2528.206709
403.710606	2526.573376
404.092367	2525.494569
404.474067	2527.334590
404.855705	2526.109589
405.237282	2528.375588
405.618797	2527.994981
406.000250	2525.769312
406.381642	2526.754857
406.762972	2527.574045
407.144240	2527.591689
407.525447	2532.083357
407.906593	2527.321987
408.287677	2529.035979
408.668700	2526.212933
409.049661	2528.060516
409.430560	2528.325177
409.811399	2530.054292
410.192176	2526.888448
410.572891	2530.439941
410.953545	2527.745444
411.334138	2527.803417
411.714669	2528.887265
412.095139	2531.571680
412.475547	2528.267203
412.855894	2529.872811
413.236180	2529.035979
413.616405	2530.137471
413.996568	2530.573531
414.376670	2531.664941
414.756711	2528.599919
415.136691	2530.354241
415.516609	2529.351051
415.896466	2531.430527
416.276262	2532.584952
416.655997	2526.971627
417.035670	2526.623787
417.415283	2529.340969
417.794834	2527.599250
418.174324	2530.155115
418.553753	2531.765764
418.933121	2531.750641
419.312428	2532.287523
419.691674	2531.997657
420.070859	2533.053779
420.449983	2531.117976
420.829045	2534.883718
421.208047	2534.130065
421.586988	2532.131248
421.965867	2530.628984
422.344686	2532.015301
422.723444	2536.358255
423.102141	2532.317770
423.480777	2533.157122
423.859352	2534.228368
424.237866	2533.026052
424.616319	2533.802390
424.994712	2533.194931
425.373044	2532.456402
425.751314	2535.173584
426.129524	2534.205683
426.507673	2533.202493
426.885762	2532.544622
427.263789	2536.736342
427.641756	2533.890610
428.019662	2535.528985
428.397508	2532.910106
428.775292	2536.108718
429.153016	2536.055786
429.530679	2537.179963
429.908282	2535.171063
430.285824	2534.303985
430.663305	2532.642925
431.040726	2536.423790
431.418086	2534.803059
431.795385	2535.753317
432.172624	2535.476053
432.549802	2535.007226
432.926920	2537.152237
433.303977	2538.231044
433.680974	2538.720036
434.057910	2537.479912
434.434786	2535.032432
434.811601	2537.127031
435.188355	2537.905889
435.565050	2538.039480
435.941683	2537.230375
436.318257	2534.798018
436.694770	2532.504293
437.071222	2536.138965
437.447614	2533.268028
437.823946	2533.729293
438.200218	2537.782381
438.576429	2538.893956
438.952580	2538.956970
439.328670	2538.016795
439.704700	2539.022505
440.080670	2535.881866
440.456580	2535.362627
440.832429	2538.803215
441.208218	2536.075951
441.583947	2539.277083
441.959616	2539.453524
442.335224	2537.449665
442.710773	2538.198276
443.086261	2538.750283
443.461689	2538.183153
443.837057	2540.265149
444.212365	2540.073586
444.587612	2538.415046
444.962800	2539.244316
445.337927	2539.705581
445.712995	2541.550644
446.088002	2538.568801
446.462949	2542.087527
446.837837	2542.032074
447.212664	2539.829090
447.587431	2541.016281
447.962139	2539.352701
448.336786	2543.085675
448.711374	2541.263298
449.085901	2540.411343
449.460369	2541.374203
449.834776	2539.997968
450.209124	2539.566950
450.583412	2539.755993
450.957640	2540.676003
451.331808	2540.643236
451.705917	2539.246836
452.079965	2541.139790
452.453954	2538.853626
452.827883	2542.178267
453.201752	2541.969059
453.575562	2541.023843
453.949311	2540.691127
454.323001	2538.286497
454.696632	2541.187681
455.070202	2540.935623
455.443713	2542.253885
455.817164	2540.386137
456.190556	2537.235416
456.563888	2540.882691
456.937160	2538.457896
457.310373	2539.824048
457.683526	2542.503422
458.056619	2541.538041
458.429653	2542.079965
458.802628	2541.674152
459.175542	2539.221631
459.548398	2542.125335
459.921194	2543.156251
460.293930	2542.616848
460.666607	2541.694317
461.039224	2543.728422
461.411782	2542.992414
461.784280	2545.195398
462.156719	2543.534338
462.529099	2542.513504
462.901419	2544.071221
463.273680	2544.449307
463.645882	2543.720860
464.018024	2543.534338
464.390106	2541.260777
464.762130	2544.960984
465.134094	2542.694986
465.505999	2542.931920
465.877845	2544.146838
466.249631	2544.608103
466.621358	2544.267826
466.993026	2547.287477
467.364634	2546.012065
467.736184	2542.460572
468.107674	2543.695655
468.479105	2543.657846
468.850477	2543.229348
469.221790	2546.001982
469.593043	2544.903011
469.964238	2543.516694
470.335373	2543.138607
470.706449	2544.280428
471.077467	2545.444935
471.448425	2547.917621
471.819324	2547.448794
472.190164	2545.392003
472.560945	2546.128011
472.931667	2546.916952
473.302330	2544.862682
473.672934	2547.705892
474.043479	2543.078113
474.413965	2544.655994
474.784393	2541.558205
475.154761	2542.667259
475.525070	2541.419574
475.895321	2544.111550
476.265513	2543.834286
476.635645	2546.276725
477.005719	2544.030891
477.375734	2545.039122
477.745691	2547.315203
478.115588	2548.681356
478.485427	2546.548948
478.855207	2549.187992
479.224928	2545.069369
479.594591	2549.271171
479.964194	2547.685728
480.333739	2548.235214
480.703226	2544.073741
481.072653	2549.727395
481.442022	2546.337219
481.811333	2549.034237
482.180584	2548.910728
482.549777	2549.513146
482.918912	2547.847045
483.287988	2549.026675
483.657005	2547.748742
484.025964	2549.545914
484.394864	2548.411654
484.763706	2546.778320
485.132489	2549.997097
485.501213	2550.536500
485.869879	2549.397200
486.238487	2546.460728
486.607036	2546.072559
486.975527	2545.104657
487.343959	2548.830070
487.712333	2550.607077
488.080648	2545.918803
488.448905	2547.234545
488.817104	2546.599359
489.185244	2546.680018
489.553326	2548.436860
489.921350	2548.288146
490.289315	2549.281253
490.657222	2550.677653
491.025070	2549.656819
491.392861	2551.721172
491.760593	2549.467776
492.128267	2550.274360
492.495883	2547.410985
492.863440	2549.409802
493.230939	2552.449618
493.598380	2550.685214
493.965763	2546.294369
494.333088	2548.648588
494.700354	2546.561551
495.067563	2548.139432
495.434713	2545.364277
495.801805	2553.422561
496.168839	2547.267312
496.535815	2551.194371
496.902733	2549.024154
497.269593	2548.565409
497.636395	2549.671942
498.003139	2547.300080
498.369825	2551.942982
498.736453	2551.839639
499.103023	2549.611449
499.469535	2549.477858
499.835989	2551.927859
500.202385	2551.154042
500.568723	2550.788558
500.935003	2549.757642
501.301226	2551.703528
501.667390	2553.054557
502.033497	2550.203784
502.399546	2549.971891
502.765537	2550.546583
503.131470	2550.430636
503.497345	2551.517005
503.863163	2549.316541
504.228923	2551.181768
504.594625	2550.322251
504.960269	2550.786038
505.325856	2551.819474
505.691385	2550.445760
506.056856	2552.426933
506.422270	2551.302756
506.787625	2551.171686
507.152924	2551.501881
507.518164	2552.507592
507.883347	2552.409289
508.248472	2552.850390
508.613540	2553.651933
508.978550	2550.670091
509.343503	2555.582695
509.708398	2554.970195
510.073236	2553.246121
510.438016	2551.280071
510.802738	2551.320400
511.167403	2553.233518
511.532010	2552.091696
511.896561	2553.823333
512.261053	2555.376008
512.625488	2553.117571
512.989866	2547.549617
513.354186	2550.660009
513.718449	2547.257230
514.082655	2551.572457
514.446803	2552.237890
514.810894	2554.009855
515.174927	2552.510112
515.538904	2552.437015
515.902822	2553.130174
516.266684	2551.436346
516.630488	2553.919115
516.994235	2556.802655
517.357925	2554.750905
517.721558	2555.418858
518.085133	2555.799465
518.448651	2554.748384
518.812112	2557.271482
519.175516	2556.512788
519.538863	2553.929197
519.902152	2554.753426
520.265385	2555.098745
520.628560	2556.411965
520.991678	2556.981616
521.354739	2556.275854
521.717743	2556.280895
522.080690	2558.980433
522.443580	2558.007490
522.806413	2559.088818
523.169189	2558.279713
523.531908	2559.255176
523.894569	2559.824826
524.257174	2559.882800
524.619722	2559.514795
524.982213	2557.274003
525.344647	2558.831719
525.707025	2561.407749
526.069345	2559.726524
526.431608	2564.094684
526.793815	2560.701987
527.155964	2560.550752
527.518057	2560.485217
527.880093	2559.950855
528.242072	2562.657955
528.603995	2561.725341
528.965860	2563.764488
529.327669	2561.750547
529.689421	2561.637121
530.051117	2564.185424
530.412755	2564.392112
530.774337	2564.253480
531.135862	2563.436813
531.497331	2562.446226
531.858743	2561.536298
532.220098	2561.506051
532.581396	2560.384394
532.942638	2562.408418
533.303824	2567.951166
533.664953	2565.607030
534.026025	2566.131310
534.387040	2568.291444
534.747999	2565.226423
535.108902	2567.154664
535.469748	2567.676423
535.830537	2567.459654
536.191270	2566.829510
536.551947	2568.750189
536.912567	2567.134499
537.273131	2568.412432
537.633638	2566.917730
537.994089	2568.525858
538.354483	2570.156671
538.714821	2570.282700
539.075103	2569.831517
539.435328	2567.283213
539.795497	2566.350600
540.155609	2571.432083
540.515665	2569.748338
540.875665	2570.741445
541.235609	2568.606516
541.595496	2570.776733
541.955328	2570.723801
542.315102	2572.644481
542.674821	2571.071641
543.034483	2571.134655
543.394090	2568.508214
543.753640	2569.637432
544.113134	2570.587690
544.472571	2572.561302
544.831953	2572.029460
545.191278	2571.492577
545.550548	2571.585838
545.909761	2572.011816
546.268918	2570.202042
546.628019	2573.420818
546.987064	2573.887125
547.346053	2572.490725
547.704986	2574.285376
548.063863	2573.199007
548.422684	2572.576425
548.781449	2573.438462
549.140158	2573.355283
549.498811	2575.031467
549.857408	2571.888308
550.215949	2571.704305
550.574434	2570.668348
550.932864	2573.168761
551.291237	2570.985941
551.649555	2572.473081
552.007817	2573.506518
552.366022	2577.093299
552.724173	2571.469892
553.082267	2574.968453
553.440305	2573.375448
553.798288	2573.526683
554.156215	2575.676735
554.514086	2575.283525
554.871902	2572.989800
555.229661	2575.293607
555.587365	2577.171437
555.945014	2572.568863
556.302606	2574.335788
556.660143	2573.781261
557.017625	2575.722105
557.375050	2572.682289
557.732421	2573.945098
558.089735	2574.323185
558.446994	2573.693041
558.804197	2574.562640
559.161345	2576.052301
559.518437	2574.870150
559.875474	2575.601117
560.232455	2573.677917
560.589381	2576.891653
560.946251	2577.552044
561.303065	2574.313103
561.659825	2574.844944
562.016528	2575.906107
562.373177	2574.862588
562.729770	2573.204049
563.086307	2572.152968
563.442789	2573.909810
563.799216	2575.013823
564.155587	2572.687330
564.511904	2575.220510
564.868164	2574.918041
565.224370	2577.657908
565.580520	2574.272773
565.936615	2578.436766
566.292654	2573.294789
566.648638	2577.952816
567.004567	2574.214800
567.360441	2578.708989
567.716260	2574.960891
568.072023	2575.676735
568.427732	2572.939388
568.783385	2572.949470
569.138982	2573.700602
569.494525	2572.611713
569.850013	2574.827300
570.205445	2577.274780
570.560823	2577.610017
570.916145	2578.663618
571.271412	2581.282498
571.626625	2581.721078
571.981782	2578.066242
572.336884	2579.074472
572.691931	2578.136818
573.046923	2579.896180
573.401860	2578.766962
573.756743	2581.191757
574.111570	2581.577405
574.466342	2581.610173
574.821059	2581.476582
575.175722	2580.904411
575.530330	2584.849114
575.884882	2581.821901
576.239380	2582.394072
576.593823	2582.028588
576.948211	2583.445153
577.302544	2581.716037
577.656823	2585.474217
578.011047	2585.229721
578.365216	2585.620411
578.719330	2584.997828
579.073389	2585.456573
579.427394	2584.027406
579.781344	2587.536049
580.135239	2586.348857
580.489080	2588.168714
580.842866	2590.220463
581.196597	2588.894640
581.550273	2590.038982
581.903895	2591.790783
582.257463	2591.994950
582.610975	2594.830599
582.964434	2595.611978
583.317837	2597.265476
583.671186	2594.734817
584.024481	2595.470825
584.377721	2598.520723
584.730906	2596.587441
585.084037	2600.905189
585.437113	2600.325456
585.790135	2603.216558
586.143103	2602.054572
586.496016	2603.077926
586.848874	2599.768409
587.201679	2603.055241
587.554428	2604.938112
587.907124	2607.496498
588.259765	2607.730911
588.612352	2615.423712
588.964884	2613.571088
589.317362	2616.837756
589.669786	2618.352622
590.022155	2618.647530
590.374470	2622.440998
590.726731	2622.967799
591.078937	2623.353447
591.431090	2625.115330
591.783188	2621.868827
592.135232	2630.458953
592.487222	2628.434930
592.839157	2632.752678
593.191038	2633.967597
593.542866	2634.007926
593.894639	2636.215951
594.246358	2640.818525
594.598022	2642.245171
594.949633	2643.336581
595.301190	2644.639719
595.652692	2647.971922
596.004141	2652.314876
596.355535	2649.756490
596.706876	2652.680360
597.058162	2656.151194
597.409395	2657.383756
597.760573	2663.549087
598.111698	2663.748213
598.462768	2667.322391
598.813785	2665.547905
599.164748	2670.871363
599.515657	2672.330777
599.866511	2677.581139
600.217312	2678.599452
600.568060	2678.435615
600.918753	2685.820905
601.269392	2689.740402
601.619978	2689.420289
601.970510	2698.625436
602.320988	2700.117617
602.671412	2707.394523
603.021783	2706.111549
603.372100	2711.223279
603.722363	2714.852910
604.072572	2720.841801
604.422728	2724.501678
604.772830	2726.210630
605.122878	2729.275651
605.472872	2731.710528
605.822813	2736.988617
606.172701	2742.733011
606.522534	2752.517891
606.872314	2757.924528
607.222041	2764.576331
607.571714	2773.547064
607.921333	2776.390275
608.270899	2779.808177
608.620411	2785.411420
608.969870	2793.293264
609.319276	2800.164357
609.668627	2808.673824
610.017926	2819.807212
610.367171	2831.699294
610.716362	2833.637618
611.065500	2844.823938
611.414585	2851.052284
611.763616	2854.422295
612.112594	2863.662730
612.461518	2874.637322
612.810389	2883.146790
613.159207	2888.213150
613.507971	2894.948131
613.856682	2913.754156
614.205340	2916.703231
614.553945	2929.611105
614.902496	2930.815941
615.250994	2948.114660
615.599439	2954.781586
615.947830	2967.462609
616.296169	2975.427632
616.644454	2988.370794
616.992686	2998.972341
617.340864	3018.786596
617.688990	3022.748943
618.037063	3040.594628
618.385082	3048.451266
618.733048	3071.446489
619.080961	3076.747262
619.428821	3088.331834
619.776628	3100.980089
620.124382	3111.009464
620.472083	3117.378962
620.819731	3128.777011
621.167326	3128.812299
621.514868	3137.097436
621.862357	3135.912764
622.209793	3144.712098
622.557176	3152.437667
622.904506	3154.698624
623.251783	3153.191319
623.599007	3162.817402
623.946179	3171.984741
624.293297	3177.696368
624.640363	3181.484795
624.987376	3192.633307
625.334336	3192.746733
625.681243	3203.257539
626.028097	3211.656101
626.374899	3218.544838
626.721647	3232.697877
627.068343	3233.239801
627.414987	3239.574011
627.761577	3245.462079
628.108115	3265.125099
628.454600	3259.111003
628.801032	3285.771145
629.147412	3284.626803
629.493739	3299.115079
629.840014	3302.348979
630.186236	3325.694563
630.532405	3317.656443
630.878521	3335.802076
631.224585	3346.232223
631.570597	3341.160823
631.916556	3366.245604
632.262462	3372.688199
632.608316	3380.905280
632.954117	3389.457597
633.299866	3395.887589
633.645562	3409.627254
633.991206	3406.481574
634.336797	3407.593148
634.682336	3410.257398
635.027823	3414.199580
635.373257	3420.064963
635.718639	3419.162596
636.063968	3432.685491
636.409245	3421.597473
636.754470	3431.712549
637.099642	3434.016356
637.444762	3436.370575
637.789829	3447.395578
638.134845	3446.455403
638.479808	3454.677525
638.824719	3463.822178
639.169577	3460.033751
639.514383	3480.024447
639.859137	3469.710246
640.203839	3483.729695
640.548489	3495.049606
640.893086	3499.019514
641.237632	3501.240143
641.582125	3516.366125
641.926566	3520.948533
642.270955	3540.210782
642.615292	3545.519117
642.959576	3569.358734
643.303809	3578.490784
643.647990	3592.482507
643.992118	3598.511727
644.336195	3595.444184
644.680219	3619.805560
645.024192	3623.110037
645.368112	3663.714010
645.711981	3684.763348
646.055797	3717.026733
646.399562	3724.623752
646.743274	3776.512348
647.086935	3802.476811
647.430544	3816.803770
647.774101	3845.601362
648.117606	3846.896938
648.461059	3857.939586
648.804460	3862.705997
649.147810	3833.472346
649.491108	3840.688757
649.834354	3843.388295
650.177548	3829.280626
650.520690	3811.606341
650.863781	3815.087257
651.206820	3837.205320
651.549807	3816.884429
651.892742	3811.495435
652.235626	3821.764266
652.578458	3833.139629
652.921238	3806.280362
653.263967	3837.217923
653.606644	3819.742763
653.949269	3837.510310
654.291843	3820.705623
654.634365	3855.048484
654.976836	3856.964122
655.319255	3854.612424
655.661622	3863.502499
656.003938	3873.698233
656.346203	3864.997201
656.688416	3893.782190
657.030577	3879.127555
657.372687	3880.493708
657.714746	3881.534706
658.056753	3910.261722
658.398708	3901.737130
658.740612	3898.919125
659.082465	3936.758026
659.424266	3939.245836
659.766016	3949.890232
660.107715	3955.281746
660.449362	3970.400166
660.790958	3983.648319
661.132503	3986.819204
661.473996	4017.265253
661.815438	4017.368597
662.156829	4028.176831
662.498168	4035.569683
662.839456	4028.980895
663.180693	4059.358888
663.521879	4067.684353
663.863013	4072.455805
664.204097	4098.732820
664.545129	4122.731233
664.886110	4138.817555
665.227040	4162.014424
665.567918	4148.662928
665.908746	4179.565201
666.249522	4186.116181
666.590248	4186.098537
666.930922	4212.511662
667.271545	4233.213160
667.612118	4243.741610
667.952639	4236.263058
668.293109	4267.067029
668.633528	4247.812342
668.973896	4258.310545
669.314213	4264.019652
669.654480	4270.633645
669.994695	4271.409983
670.334859	4275.566414
670.674973	4287.897077
671.015035	4289.994197
671.355047	4303.542298
671.695008	4307.431548
672.034918	4300.419303
672.374777	4314.698371
672.714585	4318.302796
673.054342	4327.356708
673.394049	4333.753933
673.733705	4361.485320
674.073310	4371.965879
674.412864	4346.122404
674.752368	4353.502653
675.091820	4369.296588
675.431223	4336.352648
675.770574	4352.312941
676.109875	4327.460052
676.449125	4347.125593
676.788324	4333.736289
677.127473	4308.704439
677.466571	4314.297599
677.805619	4319.444618
678.144616	4321.748425
678.483562	4317.907066
678.822458	4305.883914
679.161303	4313.962363
679.500098	4312.550840
679.838842	4309.279131
680.177535	4321.203980
680.516179	4337.935570
680.854771	4353.369062
681.193314	4407.712701
681.531805	4477.446982
681.870247	4581.443465
682.208638	4644.684740
682.546978	4660.735774
682.885268	4663.989839
683.223508	4621.301348
683.561697	4596.181278
683.899836	4583.553188
684.237925	4565.021907
684.575963	4546.493146
684.913951	4527.808109
685.251889	4583.704423
685.589776	4552.386254
685.927614	4541.983833
686.265401	4599.236218
686.603137	4587.139969
686.940824	4644.785563
687.278460	4668.574768
687.616046	4683.178991
687.953582	4723.503181
688.291068	4716.443045
688.628504	4769.009676
688.965889	4747.922530
689.303224	4717.413467
689.640510	4698.836815
689.977745	4656.264271
690.314930	4606.225778
690.652065	4572.923915
690.989150	4520.369886
691.326185	4485.895956
691.663170	4456.385041
692.000105	4416.370883
692.336990	4368.966392
692.673825	4364.389025
693.010610	4317.072755
693.347345	4274.006177
693.684030	4280.030356
694.020665	4256.160493
694.357251	4194.217315
694.693786	4205.065878
695.030272	4189.687838
695.366707	4169.457688
695.703093	4149.930778
696.039429	4170.319725
696.375716	4165.404600
696.711952	4151.039832
697.048139	4146.162516
697.384276	4134.603150
697.720363	4147.987413
698.056400	4160.701203
698.392388	4122.917755
698.728326	4113.306796
699.064214	4101.500413
699.400053	4104.925877
699.735842	4087.307045
700.071581	4073.973193
700.407270	4059.043816
700.742910	4052.815470
701.078501	4012.093029
701.414042	4018.792723
701.749533	4002.471987
702.084974	3954.449956
702.420366	4008.796115
702.755709	3966.165597
703.091002	3925.274278
703.426246	3973.850836
703.761440	3936.813479
704.096584	3908.421700
704.431679	3932.548663
704.766725	3925.717899
705.101721	3919.655912
705.436668	3945.207000
705.771565	3905.588572
706.106413	3932.142850
706.441212	3962.803147
706.775961	3973.119869
707.110661	3955.921972
707.445311	3978.798729
707.779913	4006.721680
708.114465	4014.437166
708.448967	4037.404663
708.783421	4084.143721
709.117825	4116.865850
709.452180	4122.214514
709.786485	4160.897808
710.120742	4226.261409
710.454949	4212.909913
710.789107	4269.413686
711.123216	4325.957788
711.457275	4317.844051
711.791286	4379.230182
712.125247	4394.106627
712.459159	4310.526816
712.793023	4375.429152
713.126837	4356.403837
713.460602	4354.125235
713.794318	4288.461686
714.127985	4306.728307
714.461602	4242.040221
714.795171	4224.975915
715.128691	4181.720294
715.462162	4137.978203
715.795584	4108.069037
716.128957	4096.618056
716.462281	4055.651119
716.795556	4036.444323
717.128782	4009.746372
717.461960	3960.035554
717.795088	3969.288592
718.128167	3938.361113
718.461198	3894.061974
718.794180	3892.907549
719.127113	3879.087226
719.459997	3863.275647
719.792833	3828.103517
720.125619	3821.623113
720.458357	3795.958599
720.791046	3799.741985
721.123686	3778.175929
721.456278	3747.704675
721.788821	3763.019700
722.121315	3739.469950
722.453761	3721.331878
722.786158	3732.240935
723.118506	3755.233638
723.450805	3713.956670
723.783056	3733.140781
724.115259	3752.211466
724.447412	3757.088783
724.779518	3748.042432
725.111574	3755.964605
725.443582	3781.049387
725.775542	3772.577728
726.107453	3815.319151
726.439315	3817.328050
726.771129	3825.862724
727.102895	3857.359853
727.434612	3900.381060
727.766281	3909.603851
728.097901	3913.029315
728.429473	3916.676590
728.760996	3924.049277
729.092471	3925.261675
729.423897	3912.232813
729.755276	3920.865789
730.086606	3925.332251
730.417887	3955.012044
730.749120	4015.732742
731.080305	4073.033017
731.411442	4099.715845
731.742530	4076.014860
732.073570	4081.076178
732.404562	4129.594764
732.735506	4123.689052
733.066401	4090.548507
733.397249	4037.661762
733.728048	3973.697081
734.058798	3902.367275
734.389501	3843.277390
734.720156	3788.840490
735.050762	3752.793719
735.381320	3750.835231
735.711831	3700.280020
736.042293	3678.935774
736.372707	3702.372099
736.703073	3675.573325
737.033391	3668.430010
737.363661	3683.883667
737.693883	3705.651369
738.024056	3714.586814
738.354182	3708.741597
738.684260	3764.287550
739.014290	3785.563740
739.344272	3777.545785
739.674207	3819.546158
740.004093	3822.858196
740.333931	3817.035663
740.663722	3820.541786
740.993464	3817.728822
741.323159	3801.312305
741.652806	3771.708129
741.982405	3752.617279
742.311956	3724.084348
742.641460	3715.695868
742.970915	3697.104093
743.300323	3663.436747
743.629683	3632.063126
743.958996	3622.668936
744.288260	3602.277468
744.617477	3574.654466
744.946647	3559.662074
745.275768	3540.966955
745.604842	3538.784136
745.933869	3495.644462
746.262847	3492.750839
746.591778	3527.192003
746.920662	3494.863083
747.249498	3467.880307
747.578286	3514.730270
747.907027	3528.487579
748.235720	3526.304759
748.564365	3551.417267
748.892963	3551.195457
749.221514	3534.025287
749.550017	3513.711957
749.878473	3511.133407
750.206881	3482.534941
750.535242	3484.518635
750.863555	3483.548213
751.191821	3481.534272
751.520039	3463.197075
751.848210	3440.315278
752.176334	3472.712253
752.504411	3482.983604
752.832440	3447.123356
753.160421	3427.031837
753.488356	3440.413580
753.816243	3452.260292
754.144082	3405.637180
754.471875	3394.937331
754.799620	3416.405085
755.127318	3404.402098
755.454969	3408.119949
755.782572	3415.117070
756.110129	3388.978688
756.437638	3382.823439
756.765100	3394.241652
757.092515	3404.881007
757.419882	3410.839651
757.747203	3383.264540
758.074477	3384.459293
758.401703	3404.782705
758.728882	3423.313986
759.056014	3427.334307
759.383099	3431.347065
759.710138	3426.563010
760.037129	3443.463478
760.364073	3475.389106
760.690970	3459.640541
761.017820	3435.657252
761.344623	3457.011579
761.671379	3500.960358
761.998088	3550.184705
762.324751	3675.656504
762.651366	3907.358017
762.977935	4351.859237
763.304456	4765.743009
763.630931	4852.614692
763.957359	4508.737424
764.283740	4191.308569
764.610074	4010.275693
764.936362	3826.071932
765.262602	3677.869570
765.588796	3574.019281
765.914943	3489.993328
766.241044	3408.213210
766.567097	3382.712533
766.893104	3337.246367
767.219064	3309.792243
767.544978	3284.727626
767.870845	3228.937176
768.196665	3212.573591
768.522438	3223.880899
768.848165	3218.028119
769.173846	3180.784075
769.499479	3165.562311
769.825066	3152.878768
770.150607	3138.768578
770.476101	3151.852893
770.801548	3147.661173
771.126949	3103.583845
771.452303	3087.333685
771.777611	3094.897937
772.102872	3098.502362
772.428087	3073.619226
772.753256	3066.695202
773.078378	3060.988615
773.403453	3025.710621
773.728482	3018.405989
774.053465	3036.176056
774.378401	3026.454191
774.703291	2997.384377
775.028135	2995.478821
775.352932	2990.684684
775.677683	2979.130359
776.002388	2978.293528
776.327046	2975.329329
776.651658	2969.867239
776.976224	2955.106741
777.300743	2955.832667
777.625216	2951.371246
777.949643	2945.011830
778.274024	2945.493260
778.598359	2935.143771
778.922647	2939.327929
779.246889	2939.542178
779.571086	2925.429468
779.895236	2918.729774
780.219339	2932.572783
780.543397	2943.900256
780.867409	2946.539300
781.191374	2937.808021
781.515294	2934.276693
781.839167	2934.652259
782.162995	2930.473142
782.486776	2938.682661
782.810511	2935.302568
783.134201	2921.520053
783.457844	2929.469953
783.781441	2921.149528
784.104993	2900.374933
784.428498	2901.579769
784.751958	2914.991759
785.075372	2909.343146
785.398739	2894.444016
785.722061	2909.370872
786.045337	2922.475352
786.368568	2906.636046
786.691752	2898.068605
787.014891	2946.377983
787.337983	2973.733804
787.661030	2999.184069
787.984031	3064.187228
788.306987	3107.158023
788.629897	3101.816920
788.952760	3086.461566
789.275579	3072.230388
789.598351	3012.674197
789.921078	2971.825727
790.243759	2963.689305
790.566395	2945.392437
790.888984	2923.085331
791.211529	2907.432549
791.534027	2901.075654
791.856480	2889.662481
792.178888	2875.549771
792.501249	2866.054758
792.823566	2864.353368
793.145836	2860.118799
793.468062	2857.535208
793.790241	2854.966740
794.112375	2861.270703
794.434464	2874.849051
794.756507	2877.712426
795.078505	2883.981101
795.400457	2897.020045
795.722364	2929.797628
796.044226	2954.673201
796.366042	2955.444498
796.687812	2947.930658
797.009538	2966.169553
797.331218	2952.427367
797.652852	2940.406736
797.974442	2921.109199
798.295986	2920.025351
798.617484	2913.670977
798.938938	2900.710170
799.260346	2884.182747
799.581709	2881.301728
799.903026	2873.581201
800.224299	2867.110880
800.545526	2857.275588
800.866708	2842.812518
801.187845	2833.408246
801.508936	2836.009481
801.829983	2841.350583
802.150984	2828.293995
802.471940	2818.856955
802.792851	2816.875782
803.113717	2815.796975
803.434538	2821.763180
803.755314	2815.076090
804.076045	2810.506284
804.396731	2811.973259
804.717372	2812.169864
805.037967	2803.841878
805.358518	2810.123156
805.679024	2821.077583
805.999485	2819.943324
806.319901	2824.618994
806.640272	2814.042653
806.960598	2818.839311
807.280879	2831.149809
807.601115	2834.655931
807.921306	2823.920794
808.241453	2815.209680
808.561554	2825.700321
808.881611	2827.341217
809.201623	2825.155877
809.521590	2820.785196
809.841513	2818.680515
810.161390	2821.720330
810.481223	2815.562561
810.801011	2804.610654
811.120755	2802.884059
811.440453	2804.328350
811.760107	2802.727783
812.079716	2804.948412
812.399281	2792.537091
812.718801	2786.623817
813.038276	2779.667025
813.357707	2789.656071
813.677093	2796.764098
813.996434	2789.340999
814.315731	2784.902263
814.634983	2779.510749
814.954191	2784.617438
815.273354	2799.781229
815.592473	2805.253401
815.911547	2804.915644
816.230577	2812.348825
816.549562	2821.574137
816.868502	2819.482058
817.187399	2828.493121
817.506250	2845.449042
817.825058	2843.079699
818.143821	2851.964733
818.462539	2867.819162
818.781213	2893.145919
819.099843	2929.114551
819.418429	2983.082624
819.736970	3042.480019
820.055466	3112.186574
820.373919	3217.327399
820.692327	3350.459231
821.010691	3511.173736
821.329011	3937.463788
821.647286	4804.237259
821.965517	6125.742973
822.283704	6818.687378
822.601847	6786.434075
822.919945	6181.591396
823.237999	5707.881730
823.556010	5148.684178
823.873976	4621.505515
824.191897	4232.439343
824.509775	3951.871405
824.827609	3694.107127
825.145398	3574.803180
825.463144	3567.390163
825.780845	3657.818381
826.098502	3760.473917
826.416116	4035.572203
826.733685	4333.985826
827.051210	4391.084455
827.368692	4279.145634
827.686129	4023.339843
828.003522	3710.722770
828.320872	3459.489306
828.638177	3274.471398
828.955439	3142.791419
829.272656	3064.091446
829.589830	3000.802280
829.906960	2954.239662
830.224046	2912.025040
830.541088	2878.942468
830.858086	2863.486290
831.175041	2845.033146
831.491952	2845.875019
831.808819	2859.521422
832.125642	2882.690566
832.442421	2928.474325
832.759157	3004.338649
833.075849	3177.973632
833.392497	3451.259623
833.709101	3645.467554
834.025662	3591.123916
834.342179	3435.657252
834.658653	3266.047630
834.975083	3123.919859
835.291469	3028.337062
835.607811	2953.123047
835.924110	2894.716238
836.240366	2847.662108
836.556578	2804.933288
836.872746	2784.539300
837.188871	2762.007863
837.504952	2744.938516
837.820990	2737.480129
838.136984	2725.041082
838.452935	2720.461194
838.768842	2716.191336
839.084706	2734.397463
839.400526	2809.873619
839.716303	2940.878084
840.032037	3015.000689
840.347727	2996.671054
840.663373	2941.407405
840.978977	2866.750437
841.294537	2796.650672
841.610054	2754.791451
841.925527	2732.224726
842.240957	2713.234700
842.556344	2691.366174
842.871687	2674.369924
843.186987	2670.440345
843.502244	2663.458347
843.817458	2657.638334
844.132629	2645.284987
844.447756	2640.037146
844.762840	2633.695374
845.077881	2634.738893
845.392879	2632.508182
845.707833	2629.455764
846.022745	2622.272120
846.337613	2626.115999
846.652438	2624.023921
846.967221	2623.504682
847.281960	2624.225567
847.596656	2621.344547
847.911309	2619.539814
848.225919	2615.111161
848.540485	2615.358177
848.855009	2613.714761
849.169490	2614.866665
849.483928	2616.053856
849.798323	2614.027312
850.112675	2614.528907
850.426984	2610.753083
850.741251	2611.161417
851.055474	2609.255860
851.369654	2615.532097
851.683792	2614.506222
851.997887	2611.393310
852.311938	2610.054883
852.625947	2611.912548
852.939914	2615.627879
853.253837	2616.837756
853.567718	2611.229472
853.881555	2611.264760
854.195350	2612.260388
854.509103	2611.486571
854.822812	2609.999431
855.136479	2610.984976
855.450103	2612.918259
855.763685	2610.659822
856.077224	2611.466406
856.390720	2609.079420
856.704173	2614.246603
857.017584	2617.034361
857.330953	2618.186264
857.644278	2620.359002
857.957561	2615.446397
858.270802	2614.438167
858.584000	2611.577312
858.897155	2618.183744
859.210268	2618.216511
859.523339	2613.457662
859.836367	2606.523555
860.149352	2609.540686
860.462295	2611.395830
860.775195	2607.478854
861.088054	2608.328288
861.400869	2605.601024
861.713642	2605.091867
862.026373	2603.700509
862.339062	2610.415326
862.651708	2614.251644
862.964312	2612.540172
863.276873	2611.925151
863.589392	2612.630913
863.901869	2619.350771
864.214303	2625.632049
864.526696	2626.524333
864.839045	2628.694550
865.151353	2630.400980
865.463619	2631.008439
865.775842	2630.116155
866.088023	2632.089767
866.400162	2631.769653
866.712258	2628.971813
867.024313	2628.457615
867.336325	2625.311935
867.648296	2627.577934
867.960224	2633.123203
868.272110	2630.400980
868.583954	2623.232459
868.895755	2626.980557
869.207515	2631.094139
869.519233	2638.272742
869.830909	2633.687812
870.142542	2624.820423
870.454134	2630.239663
870.765684	2636.215951
871.077191	2637.239305
871.388657	2641.030253
871.700081	2639.802732
872.011463	2640.747948
872.322803	2638.945736
872.634101	2645.516880
872.945357	2650.426964
873.256571	2655.221101
873.567744	2652.065339
873.878874	2651.830925
874.189963	2651.137767
874.501010	2657.098931
874.812015	2662.155208
875.122979	2662.331649
875.433900	2650.064001
875.744780	2654.210350
876.055618	2656.100782
876.366415	2662.009015
876.677169	2663.768377
876.987882	2656.967861
877.298554	2655.959630
877.609183	2665.568069
877.919771	2672.907989
878.230317	2676.270439
878.540822	2687.839887
878.851285	2700.394881
879.161707	2723.823643
879.472087	2760.987029
879.782425	2804.459420
880.092722	2911.273908
880.402977	3094.663523
880.713191	3338.531861
881.023363	3613.378089
881.333494	3795.154535
881.643583	3960.663178
881.953631	3958.498002
882.263637	3784.779841
882.573602	3571.158426
882.883526	3455.216928
883.193408	3344.208200
883.503248	3250.162955
883.813048	3141.148003
884.122806	3035.061961
884.432522	2956.011628
884.742197	2892.120044
885.051831	2857.542770
885.361424	2826.504385
885.670975	2790.891154
885.980485	2761.806217
886.289954	2741.298803
886.599382	2730.127606
886.908768	2718.588405
887.218113	2702.403781
887.527417	2689.871472
887.836680	2683.408713
888.145901	2677.928979
888.455082	2668.517144
888.764221	2658.732265
889.073319	2653.779331
889.382376	2653.063487
889.691392	2654.210350
890.000366	2654.691780
890.309300	2651.455359
890.618193	2654.197747
890.927044	2653.691111
891.235855	2656.224291
891.544625	2655.246307
891.853353	2654.263282
892.162041	2663.095383
892.470687	2681.301511
892.779293	2691.895495
893.087858	2701.453523
893.396381	2720.435988
893.704864	2759.542739
894.013306	2828.301557
894.321707	2917.474527
894.630068	2961.095631
894.938387	2977.325626
895.246665	2972.329843
895.554903	2930.226126
895.863100	2892.682133
896.171256	2836.745489
896.479371	2777.610234
896.787446	2742.281828
897.095480	2722.666698
897.403473	2718.933724
897.711425	2704.495859
898.019336	2684.142201
898.327207	2673.959070
898.635038	2676.220027
898.942827	2671.907320
899.250576	2663.470949
899.558284	2651.309166
899.865952	2648.828918
900.173579	2647.467807
900.481165	2643.056797
900.788711	2636.490694
901.096216	2631.673872
901.403681	2627.220012
901.711105	2628.934004
902.018489	2625.385032
902.325832	2632.155302
902.633135	2628.566000
902.940397	2644.702734
903.247619	2680.552899
903.554800	2745.354411
903.861941	2862.223481
904.169041	2978.961481
904.476101	3037.504400
904.783121	3028.982330
905.090100	2978.875781
905.397039	2906.477250
905.703938	2838.961077
906.010796	2778.883126
906.317614	2731.531567
906.624391	2695.706608
906.931129	2673.674245
907.237826	2652.957623
907.544483	2635.603451
907.851099	2620.240535
908.157675	2611.531941
908.464211	2605.979110
908.770707	2597.154571
909.077163	2590.391863
909.383578	2590.074270
909.689954	2587.372212
909.996289	2587.415061
910.302584	2585.688466
910.608839	2583.424988
910.915054	2584.723085
911.221229	2585.688466
911.527363	2586.311049
911.833458	2585.517067
912.139513	2589.471852
912.445527	2586.177458
912.751502	2594.737337
913.057436	2599.266814
913.363331	2606.422732
913.669186	2615.819443
913.975000	2626.831843
914.280775	2645.070738
914.586510	2661.293171
914.892205	2692.160156
915.197859	2757.846391
915.503475	2835.278514
915.809050	2897.869480
916.114585	2907.475398
916.420081	2916.158786
916.725536	2926.311670
917.030952	2905.947929
917.336328	2862.478059
917.641665	2817.268992
917.946961	2770.199738
918.252218	2741.114801
918.557435	2714.840307
918.862612	2694.075794
919.167750	2678.775892
919.472848	2663.745692
919.777906	2647.291366
920.082925	2636.659573
920.387904	2626.158849
920.692843	2623.366050
920.997743	2617.314145
921.302603	2612.116715
921.607423	2603.569439
921.912204	2603.145982
922.216946	2600.272524
922.521647	2599.178594
922.826310	2592.617532
923.130932	2589.020669
923.435516	2580.496078
923.740059	2580.546489
924.044564	2579.893660
924.349028	2578.567836
924.653454	2570.091136
924.957840	2569.881928
925.262186	2569.186249
925.566493	2567.568039
925.870761	2563.512430
926.174989	2564.961762
926.479178	2563.938408
926.783328	2562.315156
927.087438	2561.052347
927.391509	2562.433623
927.695541	2558.453632
927.999533	2558.690567
928.303486	2556.721996
928.607400	2557.052192
928.911275	2555.096224
929.215110	2558.446071
929.518906	2556.260731
929.822663	2556.802655
930.126381	2554.801317
930.430060	2554.592109
930.733699	2556.669064
931.037299	2555.292829
931.340861	2560.230639
931.644383	2558.395659
931.947866	2558.173848
932.251309	2556.593447
932.554714	2555.539846
932.858080	2557.775597
933.161407	2556.595967
933.464694	2556.734599
933.767943	2554.375339
934.071153	2554.753426
934.374323	2554.488765
934.677455	2554.289639
934.980548	2553.157900
935.283602	2552.139587
935.586617	2552.875596
935.889593	2553.319217
936.192530	2555.491955
936.495428	2553.785524
936.798287	2554.781152
937.101108	2554.922304
937.403890	2558.221739
937.706632	2561.528736
938.009336	2565.158367
938.312002	2566.146433
938.614628	2572.730180
938.917216	2574.499625
939.219765	2572.659604
939.522275	2575.490212
939.824747	2575.931313
940.127179	2570.438976
940.429573	2565.153326
940.731929	2565.289437
941.034246	2563.192317
941.336524	2564.928995
941.638763	2564.533264
941.940964	2564.167780
942.243126	2563.913202
942.545250	2563.088973
942.847335	2562.277348
943.149381	2559.456822
943.451389	2560.644014
943.753359	2560.104610
944.055290	2558.919939
944.357182	2556.815257
944.659036	2557.702501
944.960851	2556.711914
945.262628	2554.337530
945.564367	2556.464897
945.866067	2558.098231
946.167729	2557.208468
946.469352	2556.389280
946.770937	2557.626883
947.072484	2555.388611
947.373992	2554.710576
947.675462	2553.896429
947.976893	2557.541184
948.278286	2553.949362
948.579641	2555.751574
948.880958	2553.775442
949.182236	2553.941800
949.483476	2554.524053
949.784678	2555.139074
950.085841	2551.035575
950.386967	2555.733930
950.688054	2553.588919
950.989103	2556.089331
951.290114	2557.793241
951.591087	2556.550597
951.892021	2557.147974
952.192917	2559.754250
952.493776	2559.378684
952.794596	2561.377502
953.095378	2562.841957
953.396122	2562.491597
953.696828	2559.020762
953.997496	2558.879610
954.298126	2557.407593
954.598718	2556.288457
954.899272	2555.249979
955.199788	2552.941131
955.500266	2552.159752
955.800706	2550.221428
956.101108	2547.262271
956.401472	2546.919473
956.701798	2546.183464
957.002087	2548.303269
957.302337	2546.349822
957.602550	2547.327806
957.902724	2543.304965
958.202861	2546.944678
958.502960	2543.015099
958.803022	2547.567261
959.103045	2542.218597
959.403031	2546.760676
959.702979	2543.062990
960.002889	2542.528628
960.302762	2544.303114
960.602596	2543.317568
960.902393	2545.628937
961.202153	2544.129194
961.501875	2541.906045
961.801559	2541.487629
962.101205	2541.064172
962.400814	2542.059800
962.700385	2542.367311
962.999918	2542.977290
963.299414	2542.117773
963.598873	2541.187681
963.898293	2539.582073
964.197677	2541.653987
964.497022	2543.118443
964.796331	2542.576518
965.095601	2540.093750
965.394835	2538.858668
965.694030	2542.503422
965.993189	2541.134748
966.292309	2540.643236
966.591393	2537.058976
966.890439	2541.822866
967.189447	2540.910417
967.488419	2542.596683
967.787353	2540.875129
968.086249	2538.972093
968.385108	2541.177598
968.683930	2541.548123
968.982714	2539.448482
969.281462	2543.572146
969.580172	2541.177598
969.878844	2541.807742
970.177480	2542.485778
970.476078	2540.466796
970.774639	2542.657177
971.073162	2542.314378
971.371649	2540.817156
971.670098	2540.602907
971.968510	2541.931251
972.266885	2538.762886
972.565223	2540.854964
972.863524	2540.988555
973.161788	2541.502753
973.460014	2541.742207
973.758204	2543.226827
974.056356	2541.812784
974.354471	2546.140614
974.652550	2542.654656
974.950591	2539.473688
975.248595	2542.599204
975.546563	2541.021323
975.844493	2540.232382
976.142386	2543.037784
976.440243	2542.269008
976.738062	2542.573998
977.035845	2541.497712
977.333590	2541.333874
977.631299	2540.670962
977.928971	2541.343956
978.226606	2541.122146
978.524204	2541.069213
978.821765	2540.582742
979.119290	2539.335057
979.416777	2537.222813
979.714228	2540.950746
980.011642	2539.627443
980.309020	2542.848741
980.606360	2542.382434
980.903664	2540.214738
981.200931	2540.522248
981.498162	2543.826725
981.795356	2542.694986
982.092513	2546.775800
982.389633	2548.719164
982.686717	2551.474155
982.983764	2553.639331
983.280775	2554.824002
983.577749	2553.805689
983.874686	2553.704866
984.171587	2551.083466
984.468451	2549.631613
984.765279	2549.598846
985.062070	2547.037940
985.358824	2546.064997
985.655543	2544.040974
985.952224	2543.856972
986.248869	2541.432177
986.545478	2536.859850
986.842050	2536.295241
987.138586	2536.093595
987.435086	2535.087884
987.731549	2533.968748
988.027975	2536.474202
988.324366	2537.036290
988.620719	2538.047042
988.917037	2538.294058
989.213318	2537.679038
989.509563	2535.763399
989.805772	2540.111394
990.101944	2538.369676
990.398080	2539.168698
990.694180	2537.106867
990.990244	2540.020653
991.286271	2533.988913
991.582262	2540.708771
991.878217	2537.764737
992.174136	2536.791794
992.470019	2536.486805
992.765865	2538.054603
993.061676	2540.809594
993.357450	2540.640715
993.653188	2538.709953
993.948890	2540.895294
994.244556	2537.053934
994.540186	2541.157434
994.835780	2535.677699
995.131337	2539.894625
995.426859	2539.072917
995.722345	2539.831610
996.017795	2539.829090
996.313208	2543.486447
996.608586	2542.269008
996.903928	2541.202804
997.199234	2543.725902
997.494504	2543.602393
997.789738	2542.992414
998.084936	2540.718853
998.380099	2537.149716
998.675225	2539.798843
998.970316	2540.260108
999.265371	2542.654656
999.560390	2538.296579
999.855373	2541.583411
1000.150320	2540.262629
1000.445232	2538.498225
1000.740108	2538.127700
1001.034948	2538.919161
1001.329752	2537.449665
1001.624521	2537.129552
1001.919254	2533.817514
1002.213951	2535.292051
1002.508613	2534.873635
1002.803239	2537.744573
1003.097829	2531.276772
1003.392384	2537.245498
1003.686903	2537.109387
1003.981386	2539.740869
1004.275834	2540.141641
1004.570246	2538.757844
1004.864623	2540.101312
1005.158964	2537.784902
1005.453270	2537.429500
1005.747540	2536.184335
1006.041775	2537.676517
1006.335974	2537.139634
1006.630138	2537.805066
1006.924266	2536.491846
1007.218359	2539.554347
1007.512416	2539.211548
1007.806438	2536.622916
1008.100425	2536.799356
1008.394376	2537.434542
1008.688292	2537.444624
1008.982172	2539.453524
1009.276017	2538.689789
1009.569827	2537.845396
1009.863602	2538.455375
1010.157341	2537.066537
1010.451045	2538.115097
1010.744714	2539.292207
1011.038347	2537.137113
1011.331945	2536.877494
1011.625508	2538.440252
1011.919036	2539.438400
1012.212528	2537.338760
1012.505986	2537.174922
1012.799408	2538.500746
1013.092795	2537.966383
1013.386147	2534.309026
1013.679464	2535.765920
1013.972745	2537.671476
1014.265992	2536.365817
1014.559204	2538.631816
1014.852380	2537.921013
1015.145521	2535.614685
1015.438628	2538.657021
1015.731699	2538.094933
1016.024736	2534.931609
1016.317737	2538.563760
1016.610703	2538.200797
1016.903635	2536.917823
1017.196531	2535.297092
1017.489393	2536.638039
1017.782219	2530.233253
1018.075011	2539.451003
1018.367768	2537.673996
1018.660490	2537.739531
1018.953177	2537.739531
1019.245829	2537.739531
