Dividing Wavelength (nm)	Counts (n)	Blue Motor Position (mm): 39.900000	Red Motor Position (mm): 0.000000	
326.493990	2128.710391
326.888308	2128.710391
327.282561	2128.710391
327.676750	2097.341811
328.070874	2093.913826
328.464933	2097.291399
328.858929	2106.337750
329.252859	2115.021137
329.646726	2127.457664
330.040528	2137.567698
330.434265	2158.191058
330.827938	2173.851403
331.221547	2191.132478
331.615091	2210.616538
332.008571	2228.615978
332.401986	2249.861920
332.795338	2268.768768
333.188625	2288.104113
333.581847	2307.129428
333.975006	2323.112406
334.368100	2342.218379
334.761129	2362.234281
335.154095	2377.398072
335.546996	2396.700650
335.939833	2425.523447
336.332606	2438.186825
336.725315	2449.915070
337.117960	2462.154991
337.510540	2467.773357
337.903056	2480.625779
338.295508	2489.841008
338.687896	2496.686895
339.080220	2505.123266
339.472480	2509.531755
339.864676	2512.659791
340.256807	2517.534587
340.648875	2524.783766
341.040879	2524.146060
341.432818	2526.885927
341.824694	2530.450023
342.216506	2529.509848
342.608253	2528.057995
342.999937	2530.843233
343.391557	2524.972809
343.783113	2527.621936
344.174605	2526.573376
344.566033	2524.390556
344.957397	2524.854342
345.348697	2522.275792
345.739934	2521.885103
346.131106	2516.599453
346.522215	2518.419309
346.913260	2517.002745
347.304241	2516.319669
347.695159	2511.313803
348.086012	2511.452435
348.476802	2507.164933
348.867528	2508.024450
349.258191	2502.224603
349.648789	2503.757113
350.039324	2501.808707
350.429796	2502.660662
350.820203	2503.068996
351.210548	2500.939108
351.600828	2498.536998
351.991045	2498.506752
352.381198	2498.080774
352.771288	2495.643376
353.161314	2497.012049
353.551276	2496.318891
353.941175	2494.541884
354.331010	2495.335866
354.720782	2494.320073
355.110490	2496.475167
355.500135	2498.423573
355.889717	2495.166987
356.279235	2495.504744
356.668689	2499.288130
357.058080	2499.706546
357.447408	2494.985506
357.836672	2497.122955
358.225873	2494.090701
358.615010	2492.038951
359.004084	2497.803511
359.393095	2500.752586
359.782043	2501.700323
360.170927	2501.385250
360.559748	2502.484222
360.948505	2501.158398
361.337199	2499.126813
361.725830	2503.570591
362.114398	2504.961949
362.502903	2504.523369
362.891344	2505.420694
363.279722	2503.540344
363.668037	2506.953205
364.056289	2505.183760
364.444478	2507.434635
364.832603	2506.161744
365.220665	2507.306086
365.608665	2508.178205
365.996601	2507.066631
366.384474	2509.388082
366.772284	2507.545540
367.160031	2509.151148
367.547715	2510.040912
367.935336	2509.181395
368.322893	2507.855571
368.710388	2511.495284
369.097820	2516.480986
369.485189	2513.400841
369.872495	2514.799761
370.259738	2512.911849
370.646918	2512.069976
371.034035	2514.595594
371.421090	2514.658608
371.808081	2515.313958
372.195010	2516.715399
372.581875	2514.779596
372.968678	2514.600635
373.355418	2514.537621
373.742096	2517.254803
374.128710	2517.837056
374.515262	2515.790348
374.901751	2518.227745
375.288177	2516.717920
375.674540	2516.717920
376.060841	2519.072139
376.447079	2516.561644
376.833254	2520.032478
377.219367	2514.025944
377.605417	2519.568692
377.991404	2515.273629
378.377329	2517.937879
378.763191	2516.428053
379.148991	2523.102541
379.534727	2520.629855
379.920402	2522.590864
380.306013	2524.042716
380.691563	2524.309898
381.077049	2525.013138
381.462474	2522.469876
381.847835	2524.251924
382.233134	2527.765608
382.618371	2526.328880
383.003545	2527.264014
383.388657	2523.672192
383.773706	2526.701925
384.158693	2526.273427
384.543618	2527.379960
384.928480	2528.703263
385.313280	2529.038500
385.698017	2528.859539
386.082692	2531.443130
386.467305	2531.299457
386.851856	2532.554705
387.236344	2534.636701
387.620770	2536.214582
388.005133	2539.133410
388.389435	2544.282949
388.773674	2544.731612
389.157851	2552.416851
389.541965	2559.850032
389.926018	2564.646690
390.310008	2574.933164
390.693936	2584.009762
391.077802	2598.989551
391.461606	2612.091509
391.845348	2627.610702
392.229027	2642.093937
392.612645	2659.649755
392.996200	2679.879905
393.379694	2703.964018
393.763125	2732.565004
394.146494	2750.083014
394.529801	2779.745163
394.913047	2812.094247
395.296230	2829.760971
395.679351	2866.286651
396.062410	2896.641959
396.445408	2921.046185
396.828343	2958.650672
397.211217	2991.629900
397.594028	2999.632732
397.976778	3056.990980
398.359466	3092.664706
398.742092	3140.348980
399.124656	3142.798981
399.507158	3206.715770
399.889598	3250.248654
400.271977	3313.444559
400.654294	3339.101511
401.036549	3383.753532
401.418742	3397.906571
401.800874	3489.678256
402.182944	3536.460164
402.564952	3617.022843
402.946898	3642.957059
403.328783	3680.092719
403.710606	3661.846263
404.092367	3820.917352
404.474067	3833.971420
404.855705	3874.358624
405.237282	3858.050491
405.618797	3968.464363
406.000250	4029.253117
406.381642	4118.973053
406.762972	4126.078559
407.144240	4164.287984
407.525447	4192.563816
407.906593	4271.858646
408.287677	4331.689580
408.668700	4303.922905
409.049661	4367.675857
409.430560	4429.803037
409.811399	4388.543713
410.192176	4553.449938
410.572891	4522.837531
410.953545	4635.650992
411.334138	4546.054565
411.714669	4626.478613
412.095139	4540.131209
412.475547	4692.162327
412.855894	4686.213766
413.236180	4712.397519
413.616405	4675.009801
413.996568	4771.739461
414.376670	4726.606011
414.756711	4689.077141
415.136691	4728.826639
415.516609	4812.202282
415.896466	4854.192573
416.276262	4895.151948
416.655997	4881.243405
417.035670	5065.361467
417.415283	5158.022916
417.794834	5108.107931
418.174324	5064.086055
418.553753	4975.303774
418.933121	5157.332278
419.312428	5230.413885
419.691674	5172.687632
420.070859	5298.832425
420.449983	5213.949477
420.829045	5329.679245
421.208047	5240.150874
421.586988	5309.010515
421.965867	5323.949974
422.344686	5459.330161
422.723444	5314.482687
423.102141	5132.436539
423.480777	5429.799081
423.859352	5201.465059
424.237866	5459.698165
424.616319	5449.656186
424.994712	5560.727929
425.373044	5438.845432
425.751314	5579.917081
426.129524	5384.443820
426.507673	5577.421710
426.885762	5657.387013
427.263789	5591.549544
427.641756	5474.945135
428.019662	5596.792344
428.397508	5601.009269
428.775292	5550.622936
429.153016	5649.464840
429.530679	5582.672072
429.908282	5661.447662
430.285824	5536.485020
430.663305	5804.918901
431.040726	5544.152615
431.418086	5545.233943
431.795385	5645.804962
432.172624	5659.093443
432.549802	5650.967103
432.926920	5661.699720
433.303977	5679.767215
433.680974	5714.417586
434.057910	5731.295369
434.434786	5735.371142
434.811601	5709.535229
435.188355	5941.718172
435.565050	5814.239994
435.941683	5800.976718
436.318257	6012.412793
436.694770	5999.459548
437.071222	6031.049939
437.447614	5964.715916
437.823946	5875.573193
438.200218	6025.035842
438.576429	5888.407970
438.952580	5992.835472
439.328670	6037.419437
439.704700	5948.594306
440.080670	5930.650319
440.456580	6203.797678
440.832429	6088.040183
441.208218	5929.465648
441.583947	6088.125883
441.959616	6093.608137
442.335224	6018.817579
442.710773	6155.919320
443.086261	6176.424213
443.461689	5971.438295
443.837057	6124.961594
444.212365	6278.384070
444.587612	6171.756104
444.962800	6325.234033
445.337927	6303.589839
445.712995	5916.325880
446.088002	6495.355332
446.462949	6318.320091
446.837837	6256.833137
447.212664	6434.488440
447.587431	6572.053967
447.962139	7112.140505
448.336786	8043.304634
448.711374	7781.862834
449.085901	6853.909919
449.460369	6774.675584
449.834776	6709.692590
450.209124	7099.882939
450.583412	7250.346258
450.957640	7393.804893
451.331808	7157.994840
451.705917	6711.749381
452.079965	6639.431508
452.453954	6845.909608
452.827883	6723.021401
453.201752	6816.363406
453.575562	6616.897551
453.949311	6821.160063
454.323001	6706.178906
454.696632	6787.727131
455.070202	6925.247287
455.443713	7080.754281
455.817164	7178.328334
456.190556	7264.882425
456.563888	7338.102664
456.937160	7378.668829
457.310373	7036.082096
457.683526	7055.440127
458.056619	6954.203675
458.429653	6941.865451
458.802628	6875.788527
459.175542	6983.013869
459.548398	7340.104002
459.921194	7502.265318
460.293930	7501.645257
460.666607	8032.471195
461.039224	8335.310950
461.411782	8460.545815
461.784280	8483.397365
462.156719	8369.779840
462.529099	8248.739215
462.901419	7846.923966
463.273680	7737.029332
463.645882	7746.037874
464.018024	7613.994932
464.390106	7782.777804
464.762130	8168.849530
465.134094	8637.664235
465.505999	9659.790944
465.877845	10876.102900
466.249631	11528.927282
466.621358	11136.838939
466.993026	10516.088898
467.364634	10266.672771
467.736184	9897.103262
468.107674	9560.959123
468.479105	9600.194424
468.850477	9360.353968
469.221790	9134.969020
469.593043	8806.464751
469.964238	8662.607864
470.335373	8675.742590
470.706449	8733.378102
471.077467	8719.973674
471.448425	10026.925576
471.819324	11092.925448
472.190164	11120.308996
472.560945	9869.686947
472.931667	9090.213657
473.302330	8948.771483
473.672934	8595.837781
474.043479	8953.681566
474.413965	8893.830467
474.784393	8775.660780
475.154761	8937.955687
475.525070	9021.527935
475.895321	8847.512346
476.265513	9022.886526
476.635645	9191.271147
477.005719	9191.866003
477.375734	9306.335484
477.745691	9547.184170
478.115588	9681.319192
478.485427	9923.433208
478.855207	10461.810795
479.224928	11274.109558
479.594591	11900.568706
479.964194	11715.268493
480.333739	11655.873618
480.703226	11569.987480
481.072653	11655.240954
481.442022	11900.616597
481.811333	12083.660893
482.180584	11889.780636
482.549777	11592.160996
482.918912	11423.415932
483.287988	11446.733789
483.657005	11455.649070
484.025964	11143.112655
484.394864	11268.705441
484.763706	11243.655948
485.132489	11002.270378
485.501213	10965.895933
485.869879	11034.644668
486.238487	10881.665814
486.607036	10991.757052
486.975527	10771.403176
487.343959	10958.210694
487.712333	11007.344300
488.080648	10941.809300
488.448905	10982.554426
488.817104	10922.010168
489.185244	11191.369100
489.553326	11340.574651
489.921350	11884.999102
490.289315	12950.542749
490.657222	13281.794448
491.025070	13194.464019
491.392861	13062.647928
491.760593	12688.591792
492.128267	12336.036178
492.495883	12006.495951
492.863440	11667.561534
493.230939	11339.200937
493.598380	11267.868610
493.965763	11132.440532
494.333088	11036.905626
494.700354	10953.928233
495.067563	11013.663386
495.434713	10852.308654
495.801805	10973.750050
496.168839	10893.278112
496.535815	10831.730664
496.902733	10836.572692
497.269593	10765.285736
497.636395	10866.355829
498.003139	10859.625889
498.369825	10721.957019
498.736453	10882.290917
499.103023	10810.043620
499.469535	10839.428506
499.835989	10828.005252
500.202385	10786.168716
500.568723	10647.627726
500.935003	10867.119564
501.301226	10668.445171
501.667390	10923.991341
502.033497	11021.789726
502.399546	10883.430217
502.765537	10793.339757
503.131470	10860.225786
503.497345	11045.934332
503.863163	10651.907665
504.228923	10958.553492
504.594625	11022.578667
504.960269	10769.732034
505.325856	10995.444656
505.691385	10784.119487
506.056856	10943.835843
506.422270	10964.560027
506.787625	10854.839313
507.152924	10975.481687
507.518164	10954.137441
507.883347	10875.505524
508.248472	10792.439911
508.613540	11017.018274
508.978550	10906.879145
509.343503	10882.613551
509.708398	11003.172745
510.073236	11114.874632
510.438016	11129.330140
510.802738	11072.470966
511.167403	11127.167485
511.532010	11024.516990
511.896561	11249.231464
512.261053	11325.869605
512.625488	11190.413802
512.989866	11174.299753
513.354186	11163.352888
513.718449	11072.140771
514.082655	11255.295972
514.446803	11149.073819
514.810894	11270.374063
515.174927	11143.694908
515.538904	11160.905407
515.902822	11319.399284
516.266684	11200.740605
516.630488	11149.461988
516.994235	11205.196985
517.357925	11265.141346
517.721558	11347.922133
518.085133	11362.445697
518.448651	11379.706608
518.812112	11263.704617
519.175516	11275.092583
519.538863	11394.482230
519.902152	11318.365848
520.265385	11478.833337
520.628560	11385.004861
520.991678	11360.986283
521.354739	11428.114288
521.717743	11365.183044
522.080690	11341.356030
522.443580	11480.756537
522.806413	11429.127560
523.169189	11457.065634
523.531908	11514.025632
523.894569	11329.529483
524.257174	11342.621360
524.619722	11464.042591
524.982213	11406.467573
525.344647	11461.547220
525.707025	11412.038048
526.069345	11507.547749
526.431608	11415.692885
526.793815	11526.250430
527.155964	11317.541619
527.518057	11369.203364
527.880093	11315.338635
528.242072	11388.241281
528.603995	11297.513115
528.965860	11216.655528
529.327669	11266.590677
529.689421	11219.874305
530.051117	11181.606906
530.412755	11289.197732
530.774337	11182.995744
531.135862	11166.221304
531.497331	11181.619509
531.858743	11041.543487
532.220098	11202.633558
532.581396	11079.084960
532.942638	11058.920345
533.303824	11021.560353
533.664953	11033.820440
534.026025	10946.573190
534.387040	11043.454085
534.747999	11050.521782
535.108902	11108.661410
535.469748	10868.052178
535.830537	10973.997067
536.191270	10950.754827
536.551947	10976.195010
536.912567	10971.075718
537.273131	10897.162321
537.633638	10877.489218
537.994089	10868.185768
538.354483	10812.531430
538.714821	10953.961001
539.075103	10967.740995
539.435328	10930.890160
539.795497	10763.203739
540.155609	10913.588920
540.515665	11002.749288
540.875665	10734.738864
541.235609	10806.892899
541.595496	10800.238576
541.955328	10954.528131
542.315102	10838.374905
542.674821	10790.312544
543.034483	10792.046701
543.394090	10796.271188
543.753640	10728.896167
544.113134	10955.085178
544.472571	10802.925511
544.831953	10945.748961
545.191278	10752.629919
545.550548	10779.973138
545.909761	10919.870198
546.268918	10886.850640
546.628019	10975.199382
546.987064	10833.079173
547.346053	10756.292318
547.704986	10859.769562
548.063863	10847.443941
548.422684	10839.748619
548.781449	10756.211659
549.140158	10856.220590
549.498811	10733.753319
549.857408	10594.937586
550.215949	10822.444859
550.574434	10675.691829
550.932864	10769.845460
551.291237	10830.304018
551.649555	10780.815010
552.007817	10798.481734
552.366022	10751.157902
552.724173	10747.122459
553.082267	10737.882024
553.440305	10862.567402
553.798288	10671.827785
554.156215	10823.311937
554.514086	10798.244800
554.871902	10653.719960
555.229661	10686.346308
555.587365	10662.612556
555.945014	10555.669518
556.302606	10681.146358
556.660143	10577.301109
557.017625	10730.463966
557.375050	10623.430187
557.732421	10754.961453
558.089735	10675.278455
558.446994	10675.059164
558.804197	10712.492252
559.161345	10713.712212
559.518437	10568.048071
559.875474	10646.057406
560.232455	10679.024032
560.589381	10628.065528
560.946251	10621.696030
561.303065	10735.832795
561.659825	10663.935858
562.016528	10599.719120
562.373177	10482.103960
562.729770	10596.333985
563.086307	10505.162197
563.442789	10602.388411
563.799216	10485.085802
564.155587	10525.709941
564.511904	10479.066665
564.868164	10482.729063
565.224370	10482.282921
565.580520	10412.679710
565.936615	10419.051728
566.292654	10282.963259
566.648638	10424.251678
567.004567	10383.219207
567.360441	10358.908242
567.716260	10272.447412
568.072023	10369.552638
568.427732	10317.288476
568.783385	10223.220545
569.138982	10297.741402
569.494525	10312.791767
569.850013	10185.840389
570.205445	10264.542883
570.560823	10166.157204
570.916145	10086.501932
571.271412	10152.316716
571.626625	10096.518705
571.981782	10074.413245
572.336884	10048.642867
572.691931	10055.536645
573.046923	10000.386422
573.401860	9951.434297
573.756743	9892.959433
574.111570	9936.031052
574.466342	9921.865409
574.821059	9946.534296
575.175722	9842.575621
575.530330	9845.781795
575.884882	9843.800622
576.239380	9767.850598
576.593823	9744.358821
576.948211	9764.619218
577.302544	9640.989961
577.656823	9658.815481
578.011047	9659.775821
578.365216	9633.309763
578.719330	9556.583402
579.073389	9567.404238
579.427394	9514.053707
579.781344	9490.319955
580.135239	9438.630484
580.489080	9451.268657
580.842866	9356.116878
581.196597	9354.284418
581.550273	9395.682374
581.903895	9363.076191
582.257463	9433.705277
582.610975	9310.202049
582.964434	9335.639711
583.317837	9258.197506
583.671186	9241.755782
584.024481	9238.852078
584.377721	9153.424685
584.730906	9131.440213
585.084037	9160.996498
585.437113	9096.999050
585.790135	9113.405485
586.143103	9012.728601
586.496016	8987.381680
586.848874	9049.609683
587.201679	9036.648876
587.554428	8922.013038
587.907124	8966.778484
588.259765	8938.401829
588.612352	8943.513559
588.964884	8820.433788
589.317362	8834.614554
589.669786	8835.022887
590.022155	8881.865289
590.374470	8901.747599
590.726731	8834.871652
591.078937	8684.219290
591.431090	8801.811766
591.783188	8676.765944
592.135232	8663.386722
592.487222	8668.027104
592.839157	8716.689362
593.191038	8650.403230
593.542866	8593.738141
593.894639	8491.564034
594.246358	8549.093682
594.598022	8558.825630
594.949633	8465.644942
595.301190	8436.486908
595.652692	8461.924570
596.004141	8578.355060
596.355535	8348.997683
596.706876	8333.929674
597.058162	8266.252184
597.409395	8347.056839
597.760573	8409.728463
598.111698	8313.573495
598.462768	8295.516082
598.813785	8264.051720
599.164748	8233.782112
599.515657	8234.029128
599.866511	8135.950960
600.217312	8262.151205
600.568060	8117.434802
600.918753	8220.602015
601.269392	8192.981533
601.619978	8104.781506
601.970510	8168.668048
602.320988	8164.579672
602.671412	8218.872899
603.021783	8156.952407
603.372100	8131.683623
603.722363	8138.504304
604.072572	8111.095551
604.422728	8125.316646
604.772830	8047.077938
605.122878	8054.377529
605.472872	8047.481230
605.822813	8079.608504
606.172701	8026.323508
606.522534	8101.479550
606.872314	8099.576514
607.222041	8075.762103
607.571714	8126.123230
607.921333	8080.367197
608.270899	8090.610822
608.620411	8181.369235
608.969870	8082.497085
609.319276	8073.770848
609.668627	8089.620235
610.017926	8131.345866
610.367171	8177.482506
610.716362	8152.473342
611.065500	8140.936661
611.414585	8174.475457
611.763616	8163.117738
612.112594	8142.265005
612.461518	8151.792786
612.810389	8216.808547
613.159207	8154.136922
613.507971	8101.260260
613.856682	8220.750729
614.205340	8176.996034
614.553945	8255.827078
614.902496	8153.537025
615.250994	8211.316210
615.599439	8191.509516
615.947830	8206.038122
616.296169	8180.849997
616.644454	8194.176287
616.992686	8186.942231
617.340864	8249.571006
617.688990	8150.900502
618.037063	8240.638081
618.385082	8186.057508
618.733048	8272.495653
619.080961	8216.080100
619.428821	8233.779591
619.776628	8234.001402
620.124382	8189.200668
620.472083	8169.308275
620.819731	8200.228192
621.167326	8090.658713
621.514868	8099.526103
621.862357	7985.306159
622.209793	8005.064962
622.557176	7937.669776
622.904506	7901.484374
623.251783	7846.392124
623.599007	7793.344062
623.946179	7801.178015
624.293297	7756.258814
624.640363	7672.968870
624.987376	7653.903226
625.334336	7604.628468
625.681243	7553.233904
626.028097	7540.255454
626.374899	7523.717949
626.721647	7515.999942
627.068343	7441.012779
627.414987	7415.285250
627.761577	7366.239864
628.108115	7406.962305
628.454600	7295.545243
628.801032	7352.601023
629.147412	7313.794220
629.493739	7301.009854
629.840014	7234.852272
630.186236	7291.782022
630.532405	7177.940165
630.878521	7229.990079
631.224585	7183.873603
631.570597	7109.703107
631.916556	7139.052704
632.262462	7143.766183
632.608316	7097.679955
632.954117	7071.657519
633.299866	7062.033956
633.645562	7060.927423
633.991206	6979.522870
634.336797	6917.415855
634.682336	6876.090996
635.027823	6843.731830
635.373257	6831.466703
635.718639	6768.911024
636.063968	6779.618435
636.409245	6668.682804
636.754470	6666.772206
637.099642	6630.271732
637.444762	6573.001704
637.789829	6582.867242
638.134845	6522.149064
638.479808	6508.273288
638.824719	6513.763105
639.169577	6441.314162
639.514383	6464.886598
639.859137	6388.039248
640.203839	6399.064252
640.548489	6389.052520
640.893086	6362.888932
641.237632	6334.141752
641.582125	6351.614391
641.926566	6319.673641
642.270955	6337.726012
642.615292	6329.498849
642.959576	6343.871179
643.303809	6337.990673
643.647990	6343.702300
643.992118	6337.688204
644.336195	6281.842302
644.680219	6312.610984
645.024192	6291.133148
645.368112	6389.919599
645.711981	6412.246869
646.055797	6488.963148
646.399562	6444.933711
646.743274	6576.210398
647.086935	6625.031453
647.430544	6618.024249
647.774101	6642.471324
648.117606	6647.114227
648.461059	6640.414533
648.804460	6606.227949
649.147810	6508.056519
649.491108	6484.136244
649.834354	6457.612213
650.177548	6373.596343
650.520690	6289.943436
650.863781	6267.502739
651.206820	6287.324556
651.549807	6207.003852
651.892742	6146.139481
652.235626	6156.436038
652.578458	6143.936497
652.921238	6051.058278
653.263967	6092.599907
653.606644	6029.703951
653.949269	6031.165885
654.291843	5974.619263
654.634365	6022.054000
654.976836	5978.977340
655.319255	5971.992822
655.661622	5952.975069
656.003938	5951.508093
656.346203	5907.942441
656.688416	5942.660868
657.030577	5889.174226
657.372687	5863.610534
657.714746	5855.448906
658.056753	5889.970728
658.398708	5833.303118
658.740612	5823.619061
659.082465	5871.847780
659.424266	5866.877202
659.766016	5863.048446
660.107715	5838.540876
660.449362	5858.082909
660.790958	5844.365930
661.132503	5836.405948
661.473996	5878.076125
661.815438	5859.265060
662.156829	5854.400346
662.498168	5848.411456
662.839456	5824.796170
663.180693	5856.706674
663.521879	5857.845975
663.863013	5848.552608
664.204097	5867.237645
664.545129	5907.501340
664.886110	5904.935393
665.227040	5937.647440
665.567918	5904.829529
665.908746	5933.669970
666.249522	5934.920176
666.590248	5920.351242
666.930922	5951.082115
667.271545	5960.430935
667.612118	5963.750535
667.952639	5939.943686
668.293109	5960.196522
668.633528	5916.225057
668.973896	5921.152785
669.314213	5912.323204
669.654480	5895.011882
669.994695	5886.381426
670.334859	5878.058481
670.674973	5870.279981
671.015035	5873.007245
671.355047	5875.064036
671.695008	5860.532910
672.034918	5831.445452
672.374777	5844.534808
672.714585	5824.297096
673.054342	5833.260268
673.394049	5827.639381
673.733705	5853.913875
674.073310	5841.608418
674.412864	5800.391945
674.752368	5795.060924
675.091820	5798.829187
675.431223	5732.817798
675.770574	5737.455659
676.109875	5688.027146
676.449125	5691.041756
676.788324	5659.484133
677.127473	5598.745791
677.466571	5593.908804
677.805619	5584.655766
678.144616	5566.719340
678.483562	5549.110590
678.822458	5517.265621
679.161303	5510.366802
679.500098	5496.705275
679.838842	5480.288758
680.177535	5493.037836
680.516179	5501.305328
680.854771	5519.007340
681.193314	5596.008444
681.531805	5699.664650
681.870247	5853.576118
682.208638	5958.142251
682.546978	5971.594570
682.885268	5945.181445
683.223508	5863.008117
683.561697	5810.270086
683.899836	5777.066526
684.237925	5728.520214
684.575963	5699.364701
684.913951	5656.366179
685.251889	5716.469336
685.589776	5689.385737
685.927614	5658.455737
686.265401	5729.341922
686.603137	5711.897009
686.940824	5789.379544
687.278460	5813.922402
687.616046	5819.681920
687.953582	5886.199945
688.291068	5870.637903
688.628504	5940.157935
688.965889	5897.106481
689.303224	5841.862997
689.640510	5787.257218
689.977745	5716.769285
690.314930	5621.867043
690.652065	5567.155400
690.989150	5473.853725
691.326185	5397.661726
691.663170	5343.733982
692.000105	5262.561323
692.336990	5190.039284
692.673825	5163.631199
693.010610	5093.644861
693.347345	5023.976114
693.684030	5014.599568
694.020665	4970.675995
694.357251	4879.529413
694.693786	4889.984766
695.030272	4858.548130
695.366707	4821.742666
695.703093	4784.969969
696.039429	4811.597344
696.375716	4793.968429
696.711952	4769.440695
697.048139	4756.946195
697.384276	4733.093976
697.720363	4748.963528
698.056400	4755.703551
698.392388	4705.864183
698.728326	4685.858364
699.064214	4663.337009
699.400053	4655.805526
699.735842	4621.807984
700.071581	4598.830405
700.407270	4574.053134
700.742910	4552.214855
701.078501	4500.404397
701.414042	4499.955734
701.749533	4470.427175
702.084974	4403.132813
702.420366	4460.833859
702.755709	4403.720107
703.091002	4348.204400
703.426246	4395.818098
703.761440	4355.367880
704.096584	4312.336591
704.431679	4334.242925
704.766725	4319.832786
705.101721	4304.429541
705.436668	4334.855425
705.771565	4283.566726
706.106413	4316.361952
706.441212	4347.165923
706.775961	4350.863609
707.110661	4335.974561
707.445311	4360.421637
707.779913	4385.864340
708.114465	4394.424219
708.448967	4418.311727
708.783421	4482.541068
709.117825	4524.097820
709.452180	4526.222666
709.786485	4572.969286
710.120742	4660.166124
710.454949	4645.196417
710.789107	4710.484401
711.123216	4783.412253
711.457275	4774.834730
711.791286	4849.582438
712.125247	4865.414182
712.459159	4769.634779
712.793023	4838.033155
713.126837	4801.502433
713.460602	4791.873830
713.794318	4717.244588
714.127985	4725.711206
714.461602	4639.951097
714.795171	4608.166622
715.128691	4540.537022
715.462162	4487.793950
715.795584	4438.829223
716.128957	4419.652674
716.462281	4369.717524
716.795556	4338.800128
717.128782	4300.880568
717.461960	4232.146956
717.795088	4243.479470
718.128167	4201.900033
718.461198	4143.294099
718.794180	4136.412924
719.127113	4118.423567
719.459997	4099.554528
719.792833	4056.286304
720.125619	4045.359603
720.458357	4013.605375
720.791046	4014.817773
721.123686	3990.146366
721.456278	3949.852423
721.788821	3965.313642
722.121315	3936.085032
722.453761	3911.806835
722.786158	3923.782096
723.118506	3949.058442
723.450805	3899.934918
723.783056	3920.906118
724.115259	3939.926391
724.447412	3937.834312
724.779518	3936.725259
725.111574	3938.807255
725.443582	3966.901606
725.775542	3956.733598
726.107453	4004.790918
726.439315	4003.200434
726.771129	4018.144934
727.102895	4058.307807
727.434612	4101.384467
727.766281	4117.969863
728.097901	4115.769399
728.429473	4119.290645
728.760996	4130.219867
729.092471	4122.892550
729.423897	4106.614664
729.755276	4112.361579
730.086606	4113.972228
730.417887	4149.925737
730.749120	4214.379410
731.080305	4280.441210
731.411442	4309.059841
731.742530	4277.116569
732.073570	4278.245788
732.404562	4335.977082
732.735506	4328.788396
733.066401	4289.134680
733.397249	4226.261409
733.728048	4147.717712
734.058798	4063.437181
734.389501	3995.442098
734.720156	3933.070422
735.050762	3887.778175
735.381320	3884.463617
735.711831	3829.265503
736.042293	3797.274340
736.372707	3822.858196
736.703073	3792.775111
737.033391	3782.657515
737.363661	3802.817089
737.693883	3826.460101
738.024056	3836.781863
738.354182	3831.720545
738.684260	3894.452663
739.014290	3916.774892
739.344272	3906.891710
739.674207	3953.174544
740.004093	3960.254844
740.333931	3949.723874
740.663722	3954.049184
740.993464	3952.428453
741.323159	3928.606480
741.652806	3896.418713
741.982405	3870.073643
742.311956	3837.265814
742.641460	3831.702901
742.970915	3808.564004
743.300323	3767.239146
743.629683	3734.388467
743.958996	3717.551013
744.288260	3692.435984
744.617477	3661.589164
744.946647	3646.458141
745.275768	3621.900160
745.604842	3620.806229
745.933869	3572.169177
746.262847	3565.230029
746.591778	3602.164042
746.920662	3574.094898
747.249498	3542.096174
747.578286	3588.830191
747.907027	3603.429372
748.235720	3600.485338
748.564365	3628.718320
748.892963	3628.713279
749.221514	3611.021350
749.550017	3589.533432
749.878473	3585.800457
750.206881	3559.026889
750.535242	3552.254099
750.863555	3556.024882
751.191821	3546.481978
751.520039	3533.790873
751.848210	3510.483098
752.176334	3540.172974
752.504411	3550.086403
752.832440	3507.690299
753.160421	3489.267402
753.488356	3499.591685
753.816243	3513.079292
754.144082	3468.424752
754.471875	3453.286167
754.799620	3474.428766
755.127318	3466.483907
755.454969	3466.531798
755.782572	3471.502376
756.110129	3447.924899
756.437638	3436.388219
756.765100	3449.545630
757.092515	3459.020479
757.419882	3465.919298
757.747203	3440.506842
758.074477	3443.478602
758.401703	3457.467804
758.728882	3482.260198
759.056014	3485.625168
759.383099	3488.828822
759.710138	3486.872854
760.037129	3505.063858
760.364073	3533.778270
760.690970	3519.766383
761.017820	3496.826612
761.344623	3516.111546
761.671379	3561.386149
761.998088	3612.889097
762.324751	3741.131010
762.651366	3986.970439
762.977935	4457.647850
763.304456	4905.388011
763.630931	5000.020551
763.957359	4642.572497
764.283740	4300.331083
764.610074	4107.113738
764.936362	3905.074374
765.262602	3746.716608
765.588796	3631.337200
765.914943	3543.424518
766.241044	3458.405458
766.567097	3430.278340
766.893104	3381.520300
767.219064	3348.873788
767.544978	3325.868483
767.870845	3268.623660
768.196665	3247.163468
768.522438	3258.584202
768.848165	3254.558841
769.173846	3216.170454
769.499479	3200.686550
769.825066	3184.184333
770.150607	3166.336128
770.476101	3181.141997
770.801548	3179.576718
771.126949	3132.542753
771.452303	3114.346708
771.777611	3121.888274
772.102872	3126.500930
772.428087	3102.915892
772.753256	3092.402566
773.078378	3083.101637
773.403453	3047.465720
773.728482	3040.645039
774.053465	3057.230435
774.378401	3049.119219
774.703291	3016.684435
775.028135	3016.691997
775.352932	3011.983559
775.677683	3000.036024
776.002388	2995.877072
776.327046	3000.393946
776.651658	2989.782317
776.976224	2976.745893
777.300743	2976.098105
777.625216	2966.376240
777.949643	2959.792493
778.274024	2960.692339
778.598359	2951.232614
778.922647	2960.178141
779.246889	2951.709003
779.571086	2943.688527
779.895236	2937.777774
780.219339	2946.211625
780.543397	2959.376598
780.867409	2963.890951
781.191374	2952.790330
781.515294	2953.123047
781.839167	2950.597428
782.162995	2946.173816
782.486776	2953.312090
782.810511	2950.922583
783.134201	2939.476643
783.457844	2943.625513
783.781441	2932.328287
784.104993	2914.028898
784.428498	2913.502098
784.751958	2927.070363
785.075372	2923.894437
785.398739	2906.683937
785.722061	2925.013573
786.045337	2934.291816
786.368568	2921.096596
786.691752	2914.081831
787.014891	2958.499437
787.337983	2991.095538
787.661030	3016.500433
787.984031	3085.362594
788.306987	3129.286168
788.629897	3123.501444
788.952760	3105.456633
789.275579	3092.342072
789.598351	3032.312012
789.921078	2987.425578
790.243759	2976.682879
790.566395	2958.983388
790.888984	2937.170315
791.211529	2921.399065
791.534027	2913.169382
791.856480	2899.424676
792.178888	2884.573437
792.501249	2878.163609
792.823566	2875.212014
793.145836	2872.169678
793.468062	2867.080633
793.790241	2866.170704
794.112375	2871.214379
794.434464	2885.730381
794.756507	2890.852194
795.078505	2892.314128
795.400457	2908.244174
795.722364	2946.834207
796.044226	2969.385809
796.366042	2973.693475
796.687812	2962.378605
797.009538	2979.823518
797.331218	2969.395891
797.652852	2955.467183
797.974442	2935.882300
798.295986	2932.471960
798.617484	2929.832916
798.938938	2912.483785
799.260346	2896.278996
799.581709	2892.316649
799.903026	2888.011503
800.224299	2878.057745
800.545526	2871.862167
800.866708	2856.607636
801.187845	2846.787468
801.508936	2846.046418
801.829983	2854.482789
802.150984	2839.608865
802.471940	2828.072184
802.792851	2826.832060
803.113717	2822.675629
803.434538	2830.219716
803.755314	2822.453818
804.076045	2819.812254
804.396731	2819.761842
804.717372	2819.905515
805.037967	2812.684062
805.358518	2820.265957
805.679024	2833.829182
805.999485	2826.022955
806.319901	2831.492607
806.640272	2824.250990
806.960598	2828.165446
807.280879	2838.686334
807.601115	2843.409895
807.921306	2832.500838
808.241453	2828.909016
808.561554	2835.346569
808.881611	2835.041579
809.201623	2832.231136
809.521590	2829.340034
809.841513	2828.425065
810.161390	2829.367761
810.481223	2824.261072
810.801011	2816.323775
811.120755	2812.842858
811.440453	2812.568116
811.760107	2814.342602
812.079716	2813.099957
812.399281	2804.005716
812.718801	2795.642442
813.038276	2793.247893
813.357707	2795.753347
813.677093	2802.861374
813.996434	2796.701084
814.315731	2794.311577
814.634983	2788.294960
814.954191	2790.359312
815.273354	2805.197949
815.592473	2813.566264
815.911547	2815.101295
816.230577	2824.014055
816.549562	2830.131496
816.868502	2830.307936
817.187399	2842.202538
817.506250	2858.346834
817.825058	2850.724609
818.143821	2863.340097
818.462539	2876.368959
818.781213	2910.091757
819.099843	2941.805656
819.418429	3000.648524
819.736970	3060.789490
820.055466	3137.029380
820.373919	3240.544433
820.692327	3378.142727
821.010691	3551.467679
821.329011	3999.001153
821.647286	4901.521446
821.965517	6290.876049
822.283704	7045.327572
822.601847	7029.440376
822.919945	6388.306430
823.237999	5879.969079
823.556010	5293.534172
823.873976	4731.856372
824.191897	4321.927386
824.509775	4023.808671
824.827609	3750.517638
825.145398	3628.481386
825.463144	3616.896815
825.780845	3704.887634
826.098502	3813.380827
826.416116	4095.720730
826.733685	4415.357611
827.051210	4480.093588
827.368692	4367.970764
827.686129	4094.553703
828.003522	3767.990278
828.320872	3510.538551
828.638177	3311.899445
828.955439	3173.310564
829.272656	3089.892071
829.589830	3020.551000
829.906960	2970.560398
830.224046	2927.881989
830.541088	2892.750188
830.858086	2877.820811
831.175041	2859.622246
831.491952	2858.193078
831.808819	2873.525748
832.125642	2896.581465
832.442421	2942.304730
832.759157	3027.220446
833.075849	3202.513968
833.392497	3482.867657
833.709101	3690.764842
834.025662	3640.464209
834.342179	3479.144765
834.658653	3303.170687
834.975083	3152.026813
835.291469	3055.576937
835.607811	2967.732310
835.924110	2911.740215
836.240366	2860.701052
836.556578	2816.895946
836.872746	2795.380302
837.188871	2769.940119
837.504952	2753.359764
837.820990	2747.754001
838.136984	2732.131465
838.452935	2724.486555
838.768842	2722.233159
839.084706	2741.029101
839.400526	2819.270330
839.716303	2953.995166
840.032037	3036.397867
840.347727	3017.049918
840.663373	2957.904581
840.978977	2883.192160
841.294537	2808.963691
841.610054	2764.362082
841.925527	2740.593042
842.240957	2717.817108
842.556344	2698.701053
842.871687	2680.789833
843.186987	2672.255160
843.502244	2668.136537
843.817458	2661.083963
844.132629	2649.348157
844.447756	2642.903042
844.762840	2634.181846
845.077881	2637.204017
845.392879	2636.329377
845.707833	2632.467853
846.022745	2623.169445
846.337613	2625.301853
846.652438	2621.687346
846.967221	2626.599950
847.281960	2623.234980
847.596656	2621.382356
847.911309	2620.175000
848.225919	2618.216511
848.540485	2615.897581
848.855009	2616.116871
849.169490	2615.096037
849.483928	2615.118722
849.798323	2612.013372
850.112675	2615.022940
850.426984	2613.797940
850.741251	2612.104112
851.055474	2610.102774
851.369654	2615.181737
851.683792	2615.806840
851.997887	2610.727877
852.311938	2609.351642
852.625947	2613.475306
852.939914	2617.140225
853.253837	2616.678959
853.567718	2612.872888
853.881555	2612.590584
854.195350	2616.636110
854.509103	2614.067642
854.822812	2612.751901
855.136479	2611.849534
855.450103	2612.351129
855.763685	2613.248454
856.077224	2611.726026
856.390720	2610.342229
856.704173	2613.384565
857.017584	2614.279370
857.330953	2619.958230
857.644278	2617.115019
857.957561	2620.351440
858.270802	2615.630399
858.584000	2616.845317
858.897155	2620.427057
859.210268	2619.013014
859.523339	2615.131325
859.836367	2610.934565
860.149352	2612.842641
860.462295	2613.871037
860.775195	2609.737291
861.088054	2608.875253
861.400869	2607.052876
861.713642	2602.646908
862.026373	2609.379369
862.339062	2611.763834
862.651708	2616.815071
862.964312	2615.781634
863.276873	2613.780296
863.589392	2615.315327
863.901869	2619.446553
864.214303	2627.628346
864.526696	2629.390229
864.839045	2630.048099
865.151353	2633.213944
865.463619	2633.909623
865.775842	2631.537760
866.088023	2632.067082
866.400162	2634.128913
866.712258	2633.392905
867.024313	2631.895682
867.336325	2627.504837
867.648296	2631.993985
867.960224	2635.490025
868.272110	2632.835857
868.583954	2625.707666
868.895755	2630.282513
869.207515	2633.647483
869.519233	2643.175264
869.830909	2637.461116
870.142542	2630.499283
870.454134	2634.822072
870.765684	2638.408853
871.077191	2639.013792
871.388657	2645.123670
871.700081	2641.433545
872.011463	2643.263484
872.322803	2645.090902
872.634101	2648.690286
872.945357	2654.916111
873.256571	2658.455001
873.567744	2657.388797
873.878874	2657.328303
874.189963	2657.005670
874.501010	2662.886176
874.812015	2668.832217
875.122979	2667.302226
875.433900	2659.828716
875.744780	2654.984167
876.055618	2662.117400
876.366415	2668.504542
876.677169	2667.874397
876.987882	2662.810558
877.298554	2662.319046
877.609183	2672.764317
877.919771	2679.514422
878.230317	2687.366019
878.540822	2696.326670
878.851285	2709.438711
879.161707	2736.764285
879.472087	2774.522527
879.782425	2820.845690
880.092722	2936.658638
880.402977	3130.266672
880.713191	3393.500602
881.023363	3692.526725
881.333494	3887.634502
881.643583	4064.677305
881.953631	4062.789393
882.263637	3883.122670
882.573602	3660.896005
882.883526	3524.474821
883.193408	3407.472160
883.503248	3305.010708
883.813048	3186.168027
884.122806	3071.741397
884.432522	2986.248468
884.742197	2919.853952
885.051831	2880.043960
885.361424	2844.193794
885.670975	2810.352528
885.980485	2778.507560
886.289954	2759.136926
886.599382	2744.018506
886.908768	2730.679612
887.218113	2712.024823
887.527417	2698.741382
887.836680	2692.709642
888.145901	2686.728313
888.455082	2677.969308
888.764221	2666.034376
889.073319	2660.791576
889.382376	2657.605567
889.691392	2660.836947
890.000366	2659.432985
890.309300	2656.723365
890.618193	2658.684374
890.927044	2662.046823
891.235855	2663.377688
891.544625	2660.726041
891.853353	2663.712925
892.162041	2669.089315
892.470687	2689.654702
892.779293	2701.577031
893.087858	2710.247816
893.396381	2736.875191
893.704864	2773.862136
894.013306	2849.121522
894.321707	2943.607869
894.630068	2992.751557
894.938387	3016.802902
895.246665	3008.300996
895.554903	2964.458081
895.863100	2917.794640
896.171256	2860.857328
896.479371	2799.423307
896.787446	2759.721700
897.095480	2738.148082
897.403473	2736.156826
897.711425	2716.327447
898.019336	2699.668955
898.327207	2683.355781
898.635038	2681.598939
898.942827	2680.860410
899.250576	2673.593586
899.558284	2659.067502
899.865952	2654.361584
900.173579	2649.212046
900.481165	2650.305976
900.788711	2641.695685
901.096216	2635.500107
901.403681	2631.852832
901.711105	2631.197482
902.018489	2627.645990
902.325832	2632.760240
902.633135	2636.866260
902.940397	2653.023158
903.247619	2686.529187
903.554800	2760.251021
903.861941	2891.351268
904.169041	3016.873478
904.476101	3083.764548
904.783121	3076.167530
905.090100	3020.508150
905.397039	2941.785492
905.703938	2865.507793
906.010796	2802.788277
906.317614	2749.528487
906.624391	2714.699155
906.931129	2687.633200
907.237826	2661.416679
907.544483	2643.830614
907.851099	2627.459467
908.157675	2619.325565
908.464211	2611.194184
908.770707	2600.796804
909.077163	2596.970568
909.383578	2590.243149
909.689954	2590.774990
909.996289	2590.033941
910.302584	2588.972778
910.608839	2588.140987
910.915054	2587.006728
911.221229	2589.638210
911.527363	2590.006214
911.833458	2589.287850
912.139513	2589.670978
912.445527	2591.284147
912.751502	2597.598192
913.057436	2605.406939
913.363331	2610.886674
913.669186	2621.520988
913.975000	2635.789974
914.280775	2653.043323
914.586510	2673.568381
914.892205	2711.679504
915.197859	2779.057045
915.503475	2863.738348
915.809050	2931.519182
916.114585	2947.623148
916.420081	2961.355251
916.725536	2972.385295
917.030952	2945.188270
917.336328	2895.953841
917.641665	2846.726974
917.946961	2796.186886
918.252218	2761.528953
918.557435	2732.454099
918.862612	2710.641026
919.167750	2693.002029
919.472848	2675.584842
919.777906	2659.407779
920.082925	2646.734319
920.387904	2634.877525
920.692843	2631.174797
920.997743	2624.830505
921.302603	2617.203239
921.607423	2614.110492
921.912204	2606.231168
922.216946	2601.626074
922.521647	2601.442072
922.826310	2595.468305
923.130932	2593.587954
923.435516	2585.348188
923.740059	2583.268712
924.044564	2581.053125
924.349028	2581.244689
924.653454	2574.678586
924.957840	2570.128945
925.262186	2568.654407
925.566493	2569.508883
925.870761	2566.277503
926.174989	2567.918399
926.479178	2563.517472
926.783328	2560.649055
927.087438	2561.763150
927.391509	2561.841288
927.695541	2560.462532
927.999533	2558.783828
928.303486	2561.082594
928.607400	2556.537994
928.911275	2556.343910
929.215110	2556.802655
929.518906	2557.458005
929.822663	2553.785524
930.126381	2556.427089
930.430060	2555.295350
930.733699	2556.653941
931.037299	2556.560679
931.340861	2557.316852
931.644383	2557.977243
931.947866	2555.247459
932.251309	2556.870710
932.554714	2555.199568
932.858080	2558.597305
933.161407	2554.405586
933.464694	2557.016904
933.767943	2556.837943
934.071153	2554.632438
934.374323	2557.528581
934.677455	2554.105637
934.980548	2551.935421
935.283602	2551.970709
935.586617	2553.016748
935.889593	2551.857283
936.192530	2550.876778
936.495428	2550.009700
936.798287	2554.687891
937.101108	2555.159238
937.403890	2555.991029
937.706632	2563.106617
938.009336	2564.787842
938.312002	2568.818245
938.614628	2570.365879
938.917216	2576.571539
939.219765	2577.612538
939.522275	2576.395099
939.824747	2577.274780
940.127179	2570.164233
940.429573	2569.375292
940.731929	2568.709860
941.034246	2565.440672
941.336524	2566.280024
941.638763	2566.527040
941.940964	2566.776577
942.243126	2567.358831
942.545250	2565.924623
942.847335	2561.919426
943.149381	2562.476473
943.451389	2559.209806
943.753359	2558.408262
944.055290	2557.929353
944.357182	2557.851215
944.659036	2557.311811
944.960851	2555.847356
945.262628	2557.180741
945.564367	2558.599826
945.866067	2556.240566
946.167729	2555.895247
946.469352	2555.706204
946.770937	2555.035730
947.072484	2556.079249
947.373992	2555.849877
947.675462	2557.518498
947.976893	2554.766028
948.278286	2554.836605
948.579641	2551.519525
948.880958	2549.603887
949.182236	2554.123281
949.483476	2553.619166
949.784678	2556.462377
950.085841	2551.887530
950.386967	2554.032541
950.688054	2554.650082
950.989103	2551.511964
951.290114	2552.989022
951.591087	2555.290308
951.892021	2559.681153
952.192917	2562.824313
952.493776	2560.548232
952.794596	2559.575289
953.095378	2561.667368
953.396122	2565.044941
953.696828	2560.127296
953.997496	2557.359702
954.298126	2556.069167
954.598718	2555.277706
954.899272	2557.084959
955.199788	2552.058929
955.500266	2551.801830
955.800706	2549.349309
956.101108	2546.047353
956.401472	2544.121632
956.701798	2544.272867
957.002087	2545.460058
957.302337	2543.446117
957.602550	2544.424101
957.902724	2541.598535
958.202861	2540.176929
958.502960	2544.192208
958.803022	2544.487116
959.103045	2539.168698
959.403031	2540.353370
959.702979	2539.816487
960.002889	2540.272711
960.302762	2539.146013
960.602596	2540.824717
960.902393	2536.569984
961.202153	2540.640715
961.501875	2538.152906
961.801559	2539.690458
962.101205	2536.151568
962.400814	2538.687268
962.700385	2537.991589
962.999918	2538.278935
963.299414	2538.115097
963.598873	2539.428318
963.898293	2536.789274
964.197677	2536.355735
964.497022	2537.752134
964.796331	2537.900848
965.095601	2536.290200
965.394835	2537.641229
965.694030	2537.011085
965.993189	2539.715664
966.292309	2536.736342
966.591393	2533.663758
966.890439	2538.112577
967.189447	2538.226003
967.488419	2537.658873
967.787353	2536.191897
968.086249	2536.421270
968.385108	2538.089892
968.683930	2536.489325
968.982714	2535.937319
969.281462	2539.672814
969.580172	2538.180632
969.878844	2540.527289
970.177480	2536.829603
970.476078	2537.275745
970.774639	2539.687937
971.073162	2540.078627
971.371649	2536.443955
971.670098	2534.258615
971.968510	2536.330529
972.266885	2534.820703
972.565223	2538.626774
972.863524	2538.828421
973.161788	2537.479912
973.460014	2538.745242
973.758204	2538.510828
974.056356	2537.855478
974.354471	2538.614172
974.652550	2537.006043
974.950591	2536.343132
975.248595	2539.854295
975.546563	2536.355735
975.844493	2537.989068
976.142386	2537.497556
976.440243	2538.530993
976.738062	2536.607792
977.035845	2537.789943
977.333590	2537.986548
977.631299	2535.566794
977.928971	2540.786909
978.226606	2533.835158
978.524204	2538.178112
978.821765	2538.624254
979.119290	2534.820703
979.416777	2538.122659
979.714228	2537.850437
980.011642	2537.507638
980.309020	2536.774150
980.606360	2534.790456
980.903664	2538.478060
981.200931	2537.079140
981.498162	2537.142155
981.795356	2540.882691
982.092513	2543.151210
982.389633	2545.074410
982.686717	2550.725544
982.983764	2547.957950
983.280775	2551.469114
983.577749	2550.924669
983.874686	2550.506253
984.171587	2547.857127
984.468451	2545.704554
984.765279	2545.220604
985.062070	2540.912938
985.358824	2541.739687
985.655543	2539.463606
985.952224	2537.137113
986.248869	2536.317926
986.545478	2532.055630
986.842050	2531.725435
987.138586	2534.031763
987.435086	2531.110414
987.731549	2532.234591
988.027975	2536.227185
988.324366	2531.450692
988.620719	2536.131403
988.917037	2534.240971
989.213318	2535.450847
989.509563	2533.842719
989.805772	2533.615867
990.101944	2530.389529
990.398080	2534.039324
990.694180	2532.925229
990.990244	2533.101670
991.286271	2533.358769
991.582262	2533.005888
991.878217	2532.758871
992.174136	2532.196783
992.470019	2535.085364
992.765865	2529.870290
993.061676	2532.794159
993.357450	2533.842719
993.653188	2532.884900
993.948890	2534.215765
994.244556	2535.322298
994.540186	2533.822555
994.835780	2535.143337
995.131337	2538.936805
995.426859	2535.599562
995.722345	2534.714839
996.017795	2534.540919
996.313208	2537.288348
996.608586	2538.886394
996.903928	2538.029398
997.199234	2537.137113
997.494504	2538.246167
997.789738	2537.248019
998.084936	2535.024870
998.380099	2534.677030
998.675225	2534.825744
998.970316	2535.123172
999.265371	2535.423121
999.560390	2533.998995
999.855373	2533.963707
1000.150320	2531.223840
1000.445232	2532.453882
1000.740108	2530.500434
1001.034948	2532.645445
1001.329752	2527.195958
1001.624521	2534.540919
1001.919254	2528.231915
1002.213951	2528.809127
1002.508613	2527.513551
1002.803239	2528.955321
1003.097829	2529.678726
1003.392384	2532.670651
1003.686903	2533.043697
1003.981386	2529.726617
1004.275834	2531.541433
1004.570246	2531.652338
1004.864623	2531.294416
1005.158964	2529.174611
1005.453270	2532.481608
1005.747540	2531.082688
1006.041775	2530.674354
1006.335974	2529.943387
1006.630138	2530.094622
1006.924266	2530.263500
1007.218359	2529.429189
1007.512416	2531.677544
1007.806438	2531.506145
1008.100425	2532.158974
1008.394376	2530.737369
1008.688292	2531.143182
1008.982172	2532.116124
1009.276017	2531.811134
1009.569827	2533.444468
1009.863602	2531.143182
1010.157341	2529.151926
1010.451045	2532.758871
1010.744714	2526.863242
1011.038347	2530.835671
1011.331945	2530.225692
1011.625508	2531.821217
1011.919036	2533.308357
1012.212528	2529.333407
1012.505986	2531.508665
1012.799408	2530.278624
1013.092795	2531.798532
1013.386147	2530.172759
1013.679464	2532.489170
1013.972745	2529.661082
1014.265992	2531.634694
1014.559204	2528.579755
1014.852380	2529.950949
1015.145521	2529.187214
1015.438628	2529.865249
1015.731699	2531.269210
1016.024736	2531.312060
1016.317737	2531.682585
1016.610703	2533.197452
1016.903635	2527.730320
1017.196531	2526.298633
1017.489393	2526.323838
1017.782219	2527.541277
1018.075011	2532.153933
1018.367768	2530.606299
1018.660490	2528.678057
1018.953177	2528.678057
1019.245829	2528.678057
