Dividing Wavelength (nm)	Counts (n)	Blue Motor Position (mm): 18.900000	Red Motor Position (mm): 0.000000	
326.493990	2133.844806
326.888308	2133.844806
327.282561	2133.844806
327.676750	2101.659559
328.070874	2101.664600
328.464933	2103.121494
328.858929	2109.836311
329.252859	2120.286623
329.646726	2131.286420
330.040528	2140.698254
330.434265	2158.314567
330.827938	2180.299038
331.221547	2197.262521
331.615091	2216.139122
332.008571	2234.025136
332.401986	2257.297622
332.795338	2273.141969
333.188625	2293.190638
333.581847	2311.691672
333.975006	2329.237408
334.368100	2347.183916
334.761129	2363.151771
335.154095	2382.691283
335.546996	2401.101577
335.939833	2421.102355
336.332606	2435.782195
336.725315	2449.436160
337.117960	2459.977213
337.510540	2465.270424
337.903056	2478.039667
338.295508	2487.501913
338.687896	2495.361072
339.080220	2502.244767
339.472480	2510.552589
339.864676	2514.938393
340.256807	2516.475944
340.648875	2523.604136
341.040879	2525.340813
341.432818	2525.484486
341.824694	2527.853829
342.216506	2528.163860
342.608253	2525.897861
342.999937	2522.863086
343.391557	2525.875176
343.783113	2525.343334
344.174605	2523.871317
344.566033	2522.883251
344.957397	2523.120185
345.348697	2516.826305
345.739934	2520.826460
346.131106	2512.463186
346.522215	2516.175996
346.913260	2510.292969
347.304241	2509.622496
347.695159	2507.038904
348.086012	2508.934378
348.476802	2505.007319
348.867528	2503.885663
349.258191	2500.956752
349.648789	2499.875425
350.039324	2502.519510
350.429796	2499.162102
350.820203	2498.663027
351.210548	2497.296875
351.600828	2493.576503
351.991045	2495.109014
352.381198	2492.154898
352.771288	2495.552635
353.161314	2494.844353
353.551276	2493.203458
353.941175	2492.404435
354.331010	2497.503562
354.720782	2493.465598
355.110490	2494.146153
355.500135	2493.826040
355.889717	2495.590444
356.279235	2493.916781
356.668689	2493.957110
357.058080	2493.447954
357.447408	2491.688591
357.836672	2491.668426
358.225873	2492.563231
358.615010	2492.139774
359.004084	2497.513644
359.393095	2493.538694
359.782043	2497.952225
360.170927	2498.526916
360.559748	2499.666217
360.948505	2496.399549
361.337199	2501.975065
361.725830	2500.006495
362.114398	2499.504900
362.502903	2501.130672
362.891344	2499.341063
363.279722	2500.543378
363.668037	2501.060096
364.056289	2503.227792
364.444478	2502.582524
364.832603	2501.901969
365.220665	2504.798112
365.608665	2505.055210
365.996601	2508.352125
366.384474	2505.357680
366.772284	2508.616786
367.160031	2506.827176
367.547715	2507.623678
367.935336	2503.656290
368.322893	2506.991013
368.710388	2506.023112
369.097820	2508.072341
369.485189	2506.844820
369.872495	2507.132166
370.259738	2510.547547
370.646918	2508.009327
371.034035	2509.650222
371.421090	2507.696775
371.808081	2509.269615
372.195010	2511.487723
372.581875	2508.402537
372.968678	2508.470592
373.355418	2506.733915
373.742096	2508.107629
374.128710	2510.300531
374.515262	2511.621313
374.901751	2509.869512
375.288177	2512.669873
375.674540	2510.613083
376.060841	2513.012672
376.447079	2511.820439
376.833254	2512.483351
377.219367	2507.210304
377.605417	2510.630727
377.991404	2507.555623
378.377329	2511.099554
378.763191	2508.775582
379.148991	2513.257168
379.534727	2510.981087
379.920402	2513.602487
380.306013	2513.962929
380.691563	2512.795902
381.077049	2514.865296
381.462474	2514.000738
381.847835	2514.673732
382.233134	2514.777076
382.618371	2512.168278
383.003545	2512.977384
383.388657	2515.180368
383.773706	2517.118692
384.158693	2514.900584
384.543618	2516.486027
384.928480	2516.541479
385.313280	2515.878568
385.698017	2515.974350
386.082692	2516.997704
386.467305	2519.359484
386.851856	2519.021727
387.236344	2519.916532
387.620770	2521.005421
388.005133	2517.453928
388.389435	2520.276974
388.773674	2517.380832
389.157851	2516.453259
389.541965	2516.753208
389.926018	2516.959895
390.310008	2517.559792
390.693936	2518.058867
391.077802	2518.114319
391.461606	2520.327386
391.845348	2518.318486
392.229027	2520.939886
392.612645	2518.235307
392.996200	2521.272602
393.379694	2520.271933
393.763125	2521.338137
394.146494	2522.243024
394.529801	2521.849814
394.913047	2520.070287
395.296230	2522.525329
395.679351	2521.610360
396.062410	2522.696728
396.445408	2521.055833
396.828343	2520.125740
397.211217	2517.713548
397.594028	2520.917201
397.976778	2519.089783
398.359466	2524.083046
398.742092	2520.045081
399.124656	2524.977850
399.507158	2523.188241
399.889598	2524.458612
400.271977	2525.182017
400.654294	2525.902902
401.036549	2523.520957
401.418742	2524.236801
401.800874	2524.637572
402.182944	2522.691687
402.564952	2524.057840
402.946898	2526.192768
403.328783	2524.440967
403.710606	2524.519105
404.092367	2525.615556
404.474067	2521.449043
404.855705	2524.884589
405.237282	2524.839219
405.618797	2527.616894
406.000250	2528.650331
406.381642	2527.294261
406.762972	2525.812161
407.144240	2527.790814
407.525447	2529.610671
407.906593	2527.415248
408.287677	2526.422141
408.668700	2525.791997
409.049661	2530.243336
409.430560	2524.645134
409.811399	2529.028418
410.192176	2526.107069
410.572891	2528.700743
410.953545	2527.349713
411.334138	2528.917512
411.714669	2529.086391
412.095139	2528.670496
412.475547	2529.083870
412.855894	2530.807945
413.236180	2531.614529
413.616405	2528.914992
413.996568	2529.214940
414.376670	2531.576721
414.756711	2529.696370
415.136691	2529.842564
415.516609	2529.396422
415.896466	2530.611340
416.276262	2532.973120
416.655997	2525.872655
417.035670	2527.092614
417.415283	2530.341638
417.794834	2523.326872
418.174324	2531.828778
418.553753	2528.967924
418.933121	2533.005888
419.312428	2531.249046
419.691674	2531.231402
420.070859	2532.884900
420.449983	2532.514375
420.829045	2533.058820
421.208047	2530.197965
421.586988	2531.954807
421.965867	2534.024201
422.344686	2532.267359
422.723444	2533.918337
423.102141	2534.001516
423.480777	2532.426155
423.859352	2533.424304
424.237866	2537.351363
424.616319	2531.138140
424.994712	2536.360776
425.373044	2533.235260
425.751314	2534.661907
426.129524	2533.149561
426.507673	2535.556712
426.885762	2531.690147
427.263789	2536.572504
427.641756	2534.742565
428.019662	2535.206352
428.397508	2534.772812
428.775292	2533.159643
429.153016	2535.960004
429.530679	2539.133410
429.908282	2534.782895
430.285824	2532.310209
430.663305	2535.642411
431.040726	2535.496218
431.418086	2533.630991
431.795385	2538.213400
432.172624	2537.605941
432.549802	2535.803728
432.926920	2538.253729
433.303977	2537.971424
433.680974	2538.223482
434.057910	2535.317257
434.434786	2534.329191
434.811601	2536.534696
435.188355	2534.901362
435.565050	2536.900179
435.941683	2538.596528
436.318257	2537.124511
436.694770	2534.893800
437.071222	2535.932278
437.447614	2532.234591
437.823946	2535.488656
438.200218	2536.854809
438.576429	2542.329502
438.952580	2538.394881
439.328670	2541.202804
439.704700	2538.987217
440.080670	2538.467978
440.456580	2538.021836
440.832429	2540.912938
441.208218	2539.425797
441.583947	2536.091074
441.959616	2537.222813
442.335224	2540.991076
442.710773	2539.292207
443.086261	2539.198945
443.461689	2541.727084
443.837057	2540.660880
444.212365	2540.116435
444.587612	2539.077958
444.962800	2543.746066
445.337927	2542.710109
445.712995	2540.237423
446.088002	2542.510983
446.462949	2540.529810
446.837837	2539.589635
447.212664	2541.348997
447.587431	2541.974101
447.962139	2539.017464
448.336786	2544.812270
448.711374	2542.546272
449.085901	2542.899152
449.460369	2540.388658
449.834776	2543.020140
450.209124	2540.474357
450.583412	2542.710109
450.957640	2543.267157
451.331808	2541.406971
451.705917	2540.035777
452.079965	2542.120294
452.453954	2541.573329
452.827883	2543.541899
453.201752	2541.195242
453.575562	2542.281611
453.949311	2541.190201
454.323001	2539.526620
454.696632	2542.190870
455.070202	2543.587270
455.443713	2543.642722
455.817164	2541.832948
456.190556	2541.046528
456.563888	2541.875798
456.937160	2537.351363
457.310373	2542.001827
457.683526	2540.451672
458.056619	2545.298742
458.429653	2543.962836
458.802628	2542.775644
459.175542	2541.573329
459.548398	2546.286808
459.921194	2544.973587
460.293930	2547.010213
460.666607	2545.162630
461.039224	2546.153217
461.411782	2546.511139
461.784280	2545.109698
462.156719	2545.155069
462.529099	2546.871582
462.901419	2544.900490
463.273680	2549.152704
463.645882	2545.316386
464.018024	2544.608103
464.390106	2548.303269
464.762130	2546.949719
465.134094	2546.876623
465.505999	2549.460214
465.877845	2545.402085
466.249631	2549.414844
466.621358	2550.400389
466.993026	2549.462735
467.364634	2551.746377
467.736184	2548.010882
468.107674	2550.057591
468.479105	2548.663712
468.850477	2548.419216
469.221790	2548.535162
469.593043	2549.674463
469.964238	2548.184802
470.335373	2550.733105
470.706449	2550.670091
471.077467	2548.048691
471.448425	2545.949050
471.819324	2548.714123
472.190164	2552.144628
472.560945	2549.077086
472.931667	2550.566747
473.302330	2550.108002
473.672934	2550.478527
474.043479	2549.392158
474.413965	2549.147662
474.784393	2545.381921
475.154761	2548.083979
475.525070	2546.470810
475.895321	2550.213867
476.265513	2544.245140
476.635645	2549.853424
477.005719	2550.113043
477.375734	2551.302756
477.745691	2551.456511
478.115588	2553.911553
478.485427	2549.089689
478.855207	2553.387273
479.224928	2552.608415
479.594591	2553.167983
479.964194	2552.946172
480.333739	2553.992211
480.703226	2553.861141
481.072653	2553.447767
481.442022	2556.192675
481.811333	2554.498847
482.180584	2556.505227
482.549777	2555.519681
482.918912	2556.782490
483.287988	2555.277706
483.657005	2556.293498
484.025964	2556.235525
484.394864	2556.033879
484.763706	2555.663354
485.132489	2554.483724
485.501213	2556.822819
485.869879	2559.963458
486.238487	2553.397355
486.607036	2558.960268
486.975527	2557.493293
487.343959	2555.479352
487.712333	2559.141750
488.080648	2558.246945
488.448905	2560.081925
488.817104	2558.670402
489.185244	2557.959599
489.553326	2562.783984
489.921350	2564.124931
490.289315	2565.158367
490.657222	2566.731207
491.025070	2566.577452
491.392861	2567.744479
491.760593	2566.070816
492.128267	2567.215158
492.495883	2564.676937
492.863440	2568.493090
493.230939	2565.995199
493.598380	2564.997050
493.965763	2563.099056
494.333088	2565.213820
494.700354	2565.962431
495.067563	2567.827658
495.434713	2566.330435
495.801805	2571.255643
496.168839	2571.611044
496.535815	2574.734039
496.902733	2577.549523
497.269593	2576.644636
497.636395	2582.527663
498.003139	2584.070256
498.369825	2584.004721
498.736453	2588.647623
499.103023	2588.574527
499.469535	2594.742378
499.835989	2596.053078
500.202385	2598.404777
500.568723	2602.064654
500.935003	2606.384923
501.301226	2610.808536
501.667390	2618.009824
502.033497	2627.141874
502.399546	2624.762450
502.765537	2629.730507
503.131470	2632.223357
503.497345	2642.025881
503.863163	2645.768938
504.228923	2654.275885
504.594625	2658.402069
504.960269	2661.726710
505.325856	2673.432269
505.691385	2675.103412
506.056856	2684.900894
506.422270	2693.014632
506.787625	2698.373378
507.152924	2712.546582
507.518164	2723.594271
507.883347	2729.184910
508.248472	2734.704974
508.613540	2748.490009
508.978550	2756.419744
509.343503	2769.819131
509.708398	2782.822787
510.073236	2798.341979
510.438016	2810.171047
510.802738	2819.164465
511.167403	2835.916220
511.532010	2849.781913
511.896561	2865.792618
512.261053	2887.126781
512.625488	2893.972668
512.989866	2909.237282
513.354186	2924.075918
513.718449	2936.507403
514.082655	2961.456074
514.446803	2979.697489
514.810894	3003.151457
515.174927	3017.196112
515.538904	3036.811242
515.902822	3068.827610
516.266684	3077.974783
516.630488	3100.992692
516.994235	3121.893316
517.357925	3158.461846
517.721558	3181.908252
518.085133	3208.447407
518.448651	3235.520923
518.812112	3252.381062
519.175516	3284.026906
519.538863	3318.876402
519.902152	3336.268383
520.265385	3385.898543
520.628560	3399.774318
520.991678	3438.737397
521.354739	3471.577993
521.717743	3492.937362
522.080690	3523.501878
522.443580	3579.347780
522.806413	3606.789301
523.169189	3644.043428
523.531908	3685.403575
523.894569	3699.748178
524.257174	3737.055237
524.619722	3796.011531
524.982213	3815.843431
525.344647	3875.749982
525.707025	3899.750916
526.069345	3955.019606
526.431608	3991.182323
526.793815	4048.210376
527.155964	4058.564906
527.518057	4103.282461
527.880093	4139.677071
528.242072	4187.953681
528.603995	4227.720823
528.965860	4248.974328
529.327669	4307.101352
529.689421	4339.311805
530.051117	4377.548957
530.412755	4459.722285
530.774337	4469.146722
531.135862	4527.558572
531.497331	4564.169952
531.858743	4583.769958
532.220098	4672.703473
532.581396	4687.501780
532.942638	4733.398966
533.303824	4772.664513
533.664953	4838.265048
534.026025	4858.603583
534.387040	4937.487558
534.747999	4990.447400
535.108902	5057.250250
535.469748	5032.150345
535.830537	5115.712512
536.191270	5164.931817
536.551947	5226.993462
536.912567	5279.434065
537.273131	5301.645389
537.633638	5346.582234
537.994089	5398.284308
538.354483	5434.963743
538.714821	5530.821284
539.075103	5589.449903
539.435328	5639.120392
539.795497	5617.768585
540.155609	5741.415486
540.515665	5817.920037
540.875665	5775.037461
541.235609	5853.167784
541.595496	5903.823819
541.955328	6029.943406
542.315102	6029.756883
542.674821	6059.280400
543.034483	6111.254697
543.394090	6169.379200
543.753640	6197.123191
544.113134	6350.439802
544.472571	6337.478996
544.831953	6457.007274
545.191278	6423.551657
545.550548	6482.729762
545.909761	6601.819460
546.268918	6646.121120
546.628019	6742.649133
546.987064	6734.885757
547.346053	6736.176292
547.704986	6855.633994
548.063863	6895.315437
548.422684	6934.807836
548.781449	6956.202493
549.140158	7058.169912
549.498811	7050.555249
549.857408	7012.759198
550.215949	7203.070317
550.574434	7164.702095
550.932864	7282.770959
551.291237	7351.471804
551.649555	7398.122642
552.007817	7444.395393
552.366022	7471.148796
552.724173	7520.642845
553.082267	7555.585603
553.440305	7707.556227
553.798288	7611.955785
554.156215	7770.926051
554.514086	7807.131618
554.871902	7753.087928
555.229661	7827.162643
555.587365	7851.735747
555.945014	7827.263466
556.302606	7966.681617
556.660143	7926.012108
557.017625	8093.360772
557.375050	8067.325732
557.732421	8204.074592
558.089735	8196.580917
558.446994	8229.562666
558.804197	8303.902041
559.161345	8349.849638
559.518437	8278.744163
559.875474	8392.034013
560.232455	8457.019528
560.589381	8450.955020
560.946251	8511.779061
561.303065	8609.592569
561.659825	8616.690514
562.016528	8597.040096
562.373177	8535.442238
562.729770	8673.713526
563.086307	8643.015419
563.442789	8749.930731
563.799216	8702.654790
564.155587	8761.918595
564.511904	8769.233309
564.868164	8798.890417
565.224370	8846.788940
565.580520	8822.767842
565.936615	8850.171554
566.292654	8791.991598
566.648638	8917.849045
567.004567	8921.458511
567.360441	8937.900234
567.716260	8899.267352
568.072023	9006.711984
568.427732	9004.720728
568.783385	8944.204197
569.138982	9041.004433
569.494525	9080.799302
569.850013	8996.745623
570.205445	9103.890307
570.560823	9033.659472
570.916145	8995.414758
571.271412	9084.106299
571.626625	9061.968072
571.981782	9063.886231
572.336884	9063.062002
572.691931	9087.239376
573.046923	9074.341584
573.401860	9051.237976
573.756743	9021.802678
574.111570	9078.341739
574.466342	9078.180422
574.821059	9125.345458
575.175722	9057.403307
575.530330	9082.722502
575.884882	9093.518133
576.239380	9043.295638
576.593823	9041.158188
576.948211	9077.421729
577.302544	8982.189291
577.656823	9012.375721
578.011047	9030.140747
578.365216	9027.864666
578.719330	8968.318557
579.073389	8995.003904
579.427394	8964.086508
579.781344	8955.229201
580.135239	8922.255013
580.489080	8945.381307
580.842866	8864.022125
581.196597	8876.042756
581.550273	8929.983102
581.903895	8913.528776
582.257463	8983.212646
582.610975	8880.620124
582.964434	8917.304600
583.317837	8858.839818
583.671186	8847.908076
584.024481	8854.330506
584.377721	8782.844424
584.730906	8776.447200
585.084037	8814.228127
585.437113	8763.882124
585.790135	8790.416237
586.143103	8701.991878
586.496016	8684.660391
586.848874	8747.662212
587.201679	8749.615659
587.554428	8643.791757
587.907124	8696.282772
588.259765	8676.478599
588.612352	8684.080659
588.964884	8565.631187
589.317362	8594.494314
589.669786	8596.107483
590.022155	8644.212693
590.374470	8669.499121
590.726731	8614.253116
591.078937	8478.199936
591.431090	8588.391997
591.783188	8476.029719
592.135232	8474.542578
592.487222	8473.909914
592.839157	8531.265642
593.191038	8468.949418
593.542866	8419.130215
593.894639	8329.034714
594.246358	8380.550265
594.598022	8401.062720
594.949633	8304.297772
595.301190	8281.899925
595.652692	8312.267836
596.004141	8426.636493
596.355535	8209.912248
596.706876	8192.006070
597.058162	8134.103377
597.409395	8211.807722
597.760573	8275.255685
598.111698	8189.114968
598.462768	8176.532248
598.813785	8144.268864
599.164748	8117.396993
599.515657	8110.828370
599.866511	8022.091459
600.217312	8144.878843
600.568060	8011.714244
600.918753	8114.213504
601.269392	8080.881395
601.619978	8004.122266
601.970510	8064.936226
602.320988	8062.448416
602.671412	8118.838763
603.021783	8062.554280
603.372100	8032.256946
603.722363	8035.090074
604.072572	8012.873709
604.422728	8030.064044
604.772830	7958.943445
605.122878	7966.636246
605.472872	7959.986964
605.822813	7992.167170
606.172701	7936.618696
606.522534	8015.280860
606.872314	8015.820264
607.222041	7988.552662
607.571714	8039.581742
607.921333	7996.447109
608.270899	8011.149635
608.620411	8090.230215
608.969870	8002.811566
609.319276	7998.239240
609.668627	8012.490582
610.017926	8050.921818
610.367171	8099.984848
610.716362	8071.701454
611.065500	8062.650062
611.414585	8093.401101
611.763616	8085.264678
612.112594	8061.616626
612.461518	8080.157990
612.810389	8139.023543
613.159207	8082.713855
613.507971	8032.093108
613.856682	8145.982856
614.205340	8096.705577
614.553945	8179.015017
614.902496	8079.875685
615.250994	8134.630177
615.599439	8114.382383
615.947830	8134.851988
616.296169	8101.164478
616.644454	8113.653936
616.992686	8119.499154
617.340864	8181.071807
617.688990	8078.259995
618.037063	8170.974376
618.385082	8120.908157
618.733048	8204.465282
619.080961	8145.239286
619.428821	8156.569279
619.776628	8170.066968
620.124382	8115.304914
620.472083	8098.875794
620.819731	8130.766133
621.167326	8026.774691
621.514868	8031.583952
621.862357	7922.256448
622.209793	7936.734642
622.557176	7873.700054
622.904506	7838.318716
623.251783	7779.553986
623.599007	7731.020277
623.946179	7736.908345
624.293297	7693.761109
624.640363	7614.035261
624.987376	7596.716377
625.334336	7544.979015
625.681243	7497.728280
626.028097	7482.506516
626.374899	7464.708722
626.721647	7454.414686
627.068343	7381.958182
627.414987	7359.799790
627.761577	7317.648182
628.108115	7351.577668
628.454600	7250.399190
628.801032	7300.430121
629.147412	7258.129799
629.493739	7249.811896
629.840014	7186.578182
630.186236	7242.328303
630.532405	7130.210521
630.878521	7172.621748
631.224585	7131.997610
631.570597	7056.508851
631.916556	7090.582010
632.262462	7087.050682
632.608316	7050.277985
632.954117	7024.517689
633.299866	7011.420771
633.645562	7001.303176
633.991206	6926.968842
634.336797	6876.784155
634.682336	6827.761454
635.027823	6795.397247
635.373257	6787.827954
635.718639	6721.745989
636.063968	6730.522638
636.409245	6623.236802
636.754470	6624.706298
637.099642	6579.918167
637.444762	6527.631319
637.789829	6535.334202
638.134845	6480.967878
638.479808	6465.630168
638.824719	6472.614687
639.169577	6399.528038
639.514383	6420.877325
639.859137	6348.022569
640.203839	6358.790474
640.548489	6347.463001
640.893086	6323.222613
641.237632	6298.135311
641.582125	6311.416231
641.926566	6281.592764
642.270955	6294.702285
642.615292	6292.022912
642.959576	6309.528318
643.303809	6295.897038
643.647990	6304.255272
643.992118	6290.550895
644.336195	6237.613738
644.680219	6265.604745
645.024192	6255.925730
645.368112	6353.267890
645.711981	6371.814295
646.055797	6448.119720
646.399562	6403.744963
646.743274	6537.554830
647.086935	6583.416728
647.430544	6580.293733
647.774101	6600.992710
648.117606	6600.307113
648.461059	6599.558502
648.804460	6555.143416
649.147810	6469.320292
649.491108	6441.818278
649.834354	6415.296767
650.177548	6326.552295
650.520690	6244.540284
650.863781	6227.090330
651.206820	6246.486169
651.549807	6165.873078
651.892742	6111.504234
652.235626	6112.867866
652.578458	6102.168017
652.921238	6014.842629
653.263967	6051.625408
653.606644	5986.556715
653.949269	5995.570298
654.291843	5932.205515
654.634365	5981.936497
654.976836	5940.578871
655.319255	5932.999497
655.661622	5917.243370
656.003938	5907.009828
656.346203	5871.588160
656.688416	5909.474952
657.030577	5854.969997
657.372687	5824.796170
657.714746	5815.180169
658.056753	5858.397981
658.398708	5799.807171
658.740612	5791.199401
659.082465	5834.686914
659.424266	5827.500749
659.766016	5824.012271
660.107715	5802.962933
660.449362	5818.880376
660.790958	5808.878727
661.132503	5795.338188
661.473996	5835.130536
661.815438	5819.220654
662.156829	5820.281817
662.498168	5809.382843
662.839456	5786.158247
663.180693	5821.927754
663.521879	5824.387837
663.863013	5814.144212
664.204097	5833.799671
664.545129	5868.951637
664.886110	5865.921903
665.227040	5903.654940
665.567918	5868.775197
665.908746	5893.063476
666.249522	5897.570267
666.590248	5886.295727
666.930922	5912.161887
667.271545	5925.357107
667.612118	5928.674187
667.952639	5900.746194
668.293109	5920.200007
668.633528	5881.042844
668.973896	5882.938318
669.314213	5877.705601
669.654480	5861.087437
669.994695	5849.878431
670.334859	5839.347461
670.674973	5832.839331
671.015035	5839.629766
671.355047	5834.951575
671.695008	5821.186704
672.034918	5795.381038
672.374777	5804.707172
672.714585	5790.728053
673.054342	5791.534637
673.394049	5781.689264
673.733705	5820.077650
674.073310	5805.148273
674.412864	5767.596718
674.752368	5759.785450
675.091820	5758.482312
675.431223	5701.779414
675.770574	5698.066604
676.109875	5646.508203
676.449125	5656.761910
676.788324	5623.969204
677.127473	5563.419905
677.466571	5559.964194
677.805619	5548.137647
678.144616	5536.893354
678.483562	5511.932080
678.822458	5484.387216
679.161303	5472.805165
679.500098	5466.922138
679.838842	5454.747752
680.177535	5455.340087
680.516179	5468.986491
680.854771	5484.014170
681.193314	5562.283125
681.531805	5675.010887
681.870247	5819.626467
682.208638	5924.273259
682.546978	5933.291883
682.885268	5906.241052
683.223508	5827.704916
683.561697	5772.947903
683.899836	5742.806844
684.237925	5698.129618
684.575963	5665.057128
684.913951	5625.597497
685.251889	5683.298544
685.589776	5651.138503
685.927614	5625.630264
686.265401	5695.112488
686.603137	5675.341082
686.940824	5754.197331
687.278460	5775.718017
687.616046	5786.758144
687.953582	5855.217013
688.291068	5836.388304
688.628504	5901.164610
688.965889	5863.958374
689.303224	5805.828829
689.640510	5759.830821
689.977745	5681.090518
690.314930	5586.261373
690.652065	5526.203587
690.989150	5440.922387
691.326185	5363.409606
691.663170	5310.742151
692.000105	5234.098968
692.336990	5156.719778
692.673825	5132.388648
693.010610	5067.055295
693.347345	4996.108616
693.684030	4983.979600
694.020665	4939.630049
694.357251	4852.501266
694.693786	4861.076269
695.030272	4832.699614
695.366707	4790.734529
695.703093	4764.933903
696.039429	4786.431904
696.375716	4765.448101
696.711952	4740.796859
697.048139	4725.542327
697.384276	4708.054565
697.720363	4722.648705
698.056400	4729.615580
698.392388	4681.122200
698.728326	4659.712420
699.064214	4637.864059
699.400053	4632.044047
699.735842	4598.875775
700.071581	4575.625974
700.407270	4545.275707
700.742910	4531.941855
701.078501	4480.549812
701.414042	4475.869101
701.749533	4446.509421
702.084974	4382.229668
702.420366	4438.511630
702.755709	4379.600706
703.091002	4324.818488
703.426246	4371.602916
703.761440	4331.455167
704.096584	4292.028302
704.431679	4312.548319
704.766725	4299.373263
705.101721	4286.150317
705.436668	4315.605779
705.771565	4260.901698
706.106413	4292.691214
706.441212	4320.684741
706.775961	4330.666226
707.110661	4312.586128
707.445311	4342.364223
707.779913	4365.810630
708.114465	4373.400087
708.448967	4397.947986
708.783421	4459.500474
709.117825	4497.379704
709.452180	4501.324407
709.786485	4543.105490
710.120742	4636.755005
710.454949	4618.390082
710.789107	4685.029094
711.123216	4753.936626
711.457275	4750.554012
711.791286	4821.886339
712.125247	4834.572403
712.459159	4742.541098
712.793023	4816.240247
713.126837	4775.810193
713.460602	4769.816261
713.794318	4690.085372
714.127985	4695.063511
714.461602	4609.885655
714.795171	4583.187704
715.128691	4516.760420
715.462162	4462.991473
715.795584	4417.568157
716.128957	4390.522366
716.462281	4343.102753
716.795556	4319.933609
717.128782	4279.957259
717.461960	4216.111046
717.795088	4221.472313
718.128167	4181.556457
718.461198	4121.849031
718.794180	4119.131849
719.127113	4099.325155
719.459997	4077.297834
719.792833	4035.400804
720.125619	4027.629865
720.458357	3994.385976
720.791046	3997.642562
721.123686	3969.853201
721.456278	3925.569185
721.788821	3948.196404
722.121315	3918.735901
722.453761	3895.564237
722.786158	3904.393818
723.118506	3927.041202
723.450805	3883.324316
723.783056	3903.481370
724.115259	3919.812188
724.447412	3925.170934
724.779518	3918.922424
725.111574	3920.205397
725.443582	3951.934420
725.775542	3938.988737
726.107453	3985.596725
726.439315	3987.996314
726.771129	4001.604909
727.102895	4039.796690
727.434612	4084.025253
727.766281	4092.655709
728.097901	4094.757870
728.429473	4097.621245
728.760996	4106.579376
729.092471	4102.584261
729.423897	4089.636058
729.755276	4092.131429
730.086606	4092.832149
730.417887	4130.426554
730.749120	4195.137325
731.080305	4258.141666
731.411442	4282.863485
731.742530	4248.896190
732.073570	4254.229731
732.404562	4311.517403
732.735506	4304.490035
733.066401	4265.655506
733.397249	4199.046740
733.728048	4124.689721
734.058798	4045.515879
734.389501	3974.740600
734.720156	3910.962442
735.050762	3868.402501
735.381320	3865.176162
735.711831	3810.950991
736.042293	3784.938637
736.372707	3805.534271
736.703073	3777.568470
737.033391	3765.353754
737.363661	3784.416877
737.693883	3809.758758
738.024056	3821.048422
738.354182	3816.783606
738.684260	3875.525651
739.014290	3897.013569
739.344272	3890.888567
739.674207	3937.816668
740.004093	3937.564611
740.333931	3932.531019
740.663722	3931.820216
740.993464	3933.267027
741.323159	3907.995723
741.652806	3876.475908
741.982405	3852.911035
742.311956	3818.369049
742.641460	3809.862102
742.970915	3786.551806
743.300323	3746.280549
743.629683	3713.777709
743.958996	3704.869990
744.288260	3679.139941
744.617477	3642.647028
744.946647	3631.654793
745.275768	3606.456585
745.604842	3606.166719
745.933869	3557.980850
746.262847	3548.947102
746.591778	3587.209460
746.920662	3558.679049
747.249498	3527.486910
747.578286	3576.287800
747.907027	3592.847990
748.235720	3585.810539
748.564365	3613.746093
748.892963	3613.289869
749.221514	3594.287240
749.550017	3574.606575
749.878473	3571.506265
750.206881	3544.503325
750.535242	3535.976213
750.863555	3542.706153
751.191821	3534.534443
751.520039	3516.217411
751.848210	3495.163032
752.176334	3525.341899
752.504411	3533.274155
752.832440	3491.571209
753.160421	3479.185094
753.488356	3487.228255
753.816243	3496.698063
754.144082	3454.236424
754.471875	3443.143365
754.799620	3460.154739
755.127318	3452.237607
755.454969	3451.337761
755.782572	3455.330354
756.110129	3433.398815
756.437638	3425.451436
756.765100	3437.310750
757.092515	3446.513376
757.419882	3454.256589
757.747203	3426.643668
758.074477	3430.989143
758.401703	3446.427677
758.728882	3466.521716
759.056014	3472.250987
759.383099	3471.986327
759.710138	3470.146306
760.037129	3490.371415
760.364073	3520.847710
760.690970	3501.282992
761.017820	3482.151813
761.344623	3500.264679
761.671379	3546.426525
761.998088	3595.870162
762.324751	3726.413361
762.651366	3970.158191
762.977935	4438.327628
763.304456	4874.563876
763.630931	4962.466476
763.957359	4600.035241
764.283740	4260.866410
764.610074	4074.371444
764.936362	3883.089902
765.262602	3726.095769
765.588796	3617.300107
765.914943	3529.183258
766.241044	3442.820731
766.567097	3413.289652
766.893104	3367.657127
767.219064	3339.575380
767.544978	3312.287614
767.870845	3253.860641
768.196665	3237.854977
768.522438	3248.549785
768.848165	3237.640728
769.173846	3205.906665
769.499479	3188.355888
769.825066	3173.126562
770.150607	3157.642658
770.476101	3174.018846
770.801548	3167.959379
771.126949	3122.720065
771.452303	3103.730038
771.777611	3114.349229
772.102872	3117.315948
772.428087	3089.208995
772.753256	3084.349322
773.078378	3075.716346
773.403453	3042.646377
773.728482	3028.795807
774.053465	3049.083931
774.378401	3040.609751
774.703291	3004.802435
775.028135	3007.973321
775.352932	3005.571211
775.677683	2994.810868
776.002388	2990.823316
776.327046	2989.225270
776.651658	2981.441728
776.976224	2969.630305
777.300743	2970.020994
777.625216	2958.728810
777.949643	2955.855352
778.274024	2958.217133
778.598359	2946.932510
778.922647	2950.499126
779.246889	2950.718416
779.571086	2936.666200
779.895236	2930.478183
780.219339	2939.799277
780.543397	2954.310238
780.867409	2955.769652
781.191374	2948.298662
781.515294	2946.630040
781.839167	2946.012499
782.162995	2936.305757
782.486776	2947.706327
782.810511	2944.769855
783.134201	2929.903492
783.457844	2939.695933
783.781441	2927.781166
784.104993	2907.263670
784.428498	2906.444483
784.751958	2923.609611
785.075372	2916.178951
785.398739	2902.063720
785.722061	2916.010072
786.045337	2926.568769
786.368568	2915.281625
786.691752	2904.231416
787.014891	2953.236473
787.337983	2981.121615
787.661030	3009.135307
787.984031	3077.800863
788.306987	3122.021865
788.629897	3112.063066
788.952760	3097.398349
789.275579	3079.963518
789.598351	3024.261289
789.921078	2979.616831
790.243759	2973.816983
790.566395	2955.608335
790.888984	2929.737134
791.211529	2915.279105
791.534027	2903.260994
791.856480	2896.871331
792.178888	2879.328116
792.501249	2871.985675
792.823566	2868.040972
793.145836	2866.324460
793.468062	2860.461598
793.790241	2862.077288
794.112375	2866.954604
794.434464	2876.212683
794.756507	2883.991183
795.078505	2889.546535
795.400457	2903.230747
795.722364	2941.364555
796.044226	2965.123513
796.366042	2965.000005
796.687812	2953.975002
797.009538	2974.774802
797.331218	2961.405662
797.652852	2945.851182
797.974442	2929.820313
798.295986	2925.094231
798.617484	2922.452667
798.938938	2905.894997
799.260346	2891.376474
799.581709	2885.435474
799.903026	2877.273846
800.224299	2874.644884
800.545526	2863.778677
800.866708	2849.270236
801.187845	2837.161385
801.508936	2840.511231
801.829983	2847.092458
802.150984	2834.275324
802.471940	2823.285609
802.792851	2823.318376
803.113717	2821.009528
803.434538	2827.547904
803.755314	2820.603715
804.076045	2811.695996
804.396731	2814.269505
804.717372	2815.149186
805.037967	2808.020995
805.358518	2816.648930
805.679024	2825.665033
805.999485	2824.145125
806.319901	2825.952379
806.640272	2819.073725
806.960598	2821.969867
807.280879	2835.371775
807.601115	2839.903772
807.921306	2828.591423
808.241453	2821.652275
808.561554	2829.854232
808.881611	2829.821465
809.201623	2827.121927
809.521590	2829.539160
809.841513	2822.274857
810.161390	2824.813078
810.481223	2820.941472
810.801011	2809.689617
811.120755	2806.947229
811.440453	2808.109215
811.760107	2806.107877
812.079716	2806.516210
812.399281	2798.510858
812.718801	2789.598098
813.038276	2788.168931
813.357707	2790.714714
813.677093	2796.265024
813.996434	2794.309056
814.315731	2789.398972
814.634983	2783.382355
814.954191	2787.493416
815.273354	2798.024387
815.592473	2807.113587
815.911547	2808.769606
816.230577	2818.171358
816.549562	2826.330466
816.868502	2824.029179
817.187399	2833.173832
817.506250	2850.517922
817.825058	2845.885101
818.143821	2854.770135
818.462539	2869.467619
818.781213	2896.775549
819.099843	2935.355500
819.418429	2986.641678
819.736970	3052.262378
820.055466	3120.476751
820.373919	3226.078842
820.692327	3363.142774
821.010691	3526.186292
821.329011	3962.790545
821.647286	4844.954659
821.965517	6196.581267
822.283704	6912.974598
822.601847	6887.902420
822.919945	6266.252533
823.237999	5772.405979
823.556010	5204.487231
823.873976	4665.713913
824.191897	4262.769445
824.509775	3976.230261
824.827609	3713.906259
825.145398	3593.465532
825.463144	3583.584870
825.780845	3673.806400
826.098502	3778.906896
826.416116	4059.053898
826.733685	4364.764591
827.051210	4426.243982
827.368692	4310.874656
827.686129	4048.497722
828.003522	3728.913774
828.320872	3479.447234
828.638177	3288.521094
828.955439	3152.727533
829.272656	3072.553022
829.589830	3005.984586
829.906960	2960.344499
830.224046	2914.454876
830.541088	2882.529249
830.858086	2867.199100
831.175041	2851.505988
831.491952	2850.646471
831.808819	2863.367823
832.125642	2885.697614
832.442421	2931.955242
832.759157	3012.414578
833.075849	3183.017306
833.392497	3462.957620
833.709101	3663.751819
834.025662	3606.196966
834.342179	3452.459417
834.658653	3280.510701
834.975083	3134.244142
835.291469	3036.397867
835.607811	2958.988429
835.924110	2901.398288
836.240366	2847.331912
836.556578	2808.467137
836.872746	2786.979219
837.188871	2765.483739
837.504952	2751.187026
837.820990	2744.893146
838.136984	2728.595095
838.452935	2719.629403
838.768842	2718.800133
839.084706	2735.846795
839.400526	2813.951912
839.716303	2944.568208
840.032037	3021.453366
840.347727	3007.791839
840.663373	2946.458641
840.978977	2874.440717
841.294537	2800.670992
841.610054	2757.039806
841.925527	2735.002402
842.240957	2713.411140
842.556344	2691.817357
842.871687	2676.252795
843.186987	2667.967659
843.502244	2662.603871
843.817458	2656.577172
844.132629	2643.354225
844.447756	2638.744090
844.762840	2633.168574
845.077881	2636.667134
845.392879	2633.332411
845.707833	2629.778398
846.022745	2623.050978
846.337613	2627.945938
846.652438	2622.413272
846.967221	2624.883437
847.281960	2624.210443
847.596656	2622.745988
847.911309	2620.459825
848.225919	2618.612242
848.540485	2615.559823
848.855009	2613.777775
849.169490	2614.561675
849.483928	2614.755759
849.798323	2614.760800
850.112675	2610.286776
850.426984	2613.228290
850.741251	2607.904831
851.055474	2610.775768
851.369654	2615.910183
851.683792	2612.409102
851.997887	2611.022785
852.311938	2611.451283
852.625947	2613.326592
852.939914	2614.569237
853.253837	2617.586367
853.567718	2612.053701
853.881555	2613.916407
854.195350	2614.680142
854.509103	2615.395986
854.822812	2610.438011
855.136479	2609.696961
855.450103	2613.220728
855.763685	2611.300048
856.077224	2611.884822
856.390720	2609.812908
856.704173	2610.858947
857.017584	2615.673249
857.330953	2615.925307
857.644278	2619.791872
857.957561	2617.619135
858.270802	2614.786006
858.584000	2616.724330
858.897155	2619.323045
859.210268	2620.167438
859.523339	2615.794237
859.836367	2611.340377
860.149352	2611.882302
860.462295	2611.874740
860.775195	2610.609410
861.088054	2607.942640
861.400869	2605.288472
861.713642	2603.045159
862.026373	2607.569594
862.339062	2610.211159
862.651708	2615.093517
862.964312	2613.434977
863.276873	2612.275512
863.589392	2616.890688
863.901869	2621.074846
864.214303	2624.649024
864.526696	2627.898047
864.839045	2630.433748
865.151353	2631.391567
865.463619	2632.246042
865.775842	2631.815024
866.088023	2631.832668
866.400162	2634.801907
866.712258	2631.888121
867.024313	2630.093470
867.336325	2623.534929
867.648296	2629.647328
867.960224	2635.427011
868.272110	2632.856022
868.583954	2625.526184
868.895755	2624.651544
869.207515	2633.773512
869.519233	2637.198976
869.830909	2634.297792
870.142542	2630.995836
870.454134	2631.056330
870.765684	2636.178142
871.077191	2639.086888
871.388657	2644.143166
871.700081	2639.666621
872.011463	2641.304996
872.322803	2639.772485
872.634101	2646.353712
872.945357	2651.583909
873.256571	2657.494662
873.567744	2655.344609
873.878874	2655.200937
874.189963	2655.568941
874.501010	2660.199241
874.812015	2664.476660
875.122979	2664.552277
875.433900	2655.808396
875.744780	2654.825371
876.055618	2660.302584
876.366415	2667.070333
876.677169	2662.276196
876.987882	2658.452481
877.298554	2655.828560
877.609183	2667.778615
877.919771	2672.562670
878.230317	2679.196829
878.540822	2691.426668
878.851285	2703.147351
879.161707	2726.624004
879.472087	2765.367792
879.782425	2811.416212
880.092722	2919.052408
880.402977	3102.943618
880.713191	3355.182792
881.023363	3634.782828
881.333494	3819.218483
881.643583	3989.004545
881.953631	3984.664111
882.263637	3810.023418
882.573602	3596.845625
882.883526	3470.753765
883.193408	3363.351982
883.503248	3263.340531
883.813048	3155.051505
884.122806	3039.644370
884.432522	2960.833491
884.742197	2898.537433
885.051831	2862.939325
885.361424	2829.337514
885.670975	2797.537915
885.980485	2763.273193
886.289954	2747.068404
886.599382	2734.286558
886.908768	2724.121071
887.218113	2706.368648
887.527417	2694.317770
887.836680	2684.568178
888.145901	2681.397292
888.455082	2672.040911
888.764221	2662.016577
889.073319	2654.348982
889.382376	2655.243786
889.691392	2651.757828
890.000366	2654.792603
890.309300	2653.650782
890.618193	2656.204126
890.927044	2661.396515
891.235855	2657.633293
891.544625	2655.538694
891.853353	2657.189672
892.162041	2667.201403
892.470687	2685.089938
892.779293	2695.084025
893.087858	2701.123327
893.396381	2722.112172
893.704864	2765.246804
894.013306	2834.426559
894.321707	2923.574323
894.630068	2971.508135
894.938387	2991.619818
895.246665	2981.756800
895.554903	2940.779781
895.863100	2898.797052
896.171256	2841.708505
896.479371	2783.780607
896.787446	2746.642426
897.095480	2730.752709
897.403473	2723.659806
897.711425	2709.105995
898.019336	2690.882223
898.327207	2676.519976
898.635038	2676.426715
898.942827	2672.945798
899.250576	2665.621002
899.558284	2656.627583
899.865952	2647.296407
900.173579	2646.661222
900.481165	2644.564102
900.788711	2636.236116
901.096216	2632.114972
901.403681	2628.666823
901.711105	2627.494755
902.018489	2627.174642
902.325832	2630.784108
902.633135	2628.729838
902.940397	2647.402272
903.247619	2681.911490
903.554800	2748.742067
903.861941	2872.419215
904.169041	2990.851042
904.476101	3045.759290
904.783121	3042.800132
905.090100	2986.934065
905.397039	2919.012079
905.703938	2845.953157
906.010796	2784.037705
906.317614	2736.628174
906.624391	2701.372865
906.931129	2677.497960
907.237826	2655.412665
907.544483	2638.277783
907.851099	2624.336472
908.157675	2616.205091
908.464211	2608.051025
908.770707	2598.150198
909.077163	2595.967379
909.383578	2591.334558
909.689954	2591.851277
909.996289	2585.905236
910.302584	2586.346337
910.608839	2586.091758
910.915054	2585.983374
911.221229	2588.292222
911.527363	2592.398242
911.833458	2587.715010
912.139513	2591.579054
912.445527	2594.001329
912.751502	2594.828078
913.057436	2599.360075
913.363331	2608.943309
913.669186	2614.786006
913.975000	2631.414252
914.280775	2647.346819
914.586510	2662.881134
914.892205	2700.714994
915.197859	2764.750251
915.503475	2843.288907
915.809050	2906.494894
916.114585	2919.105340
916.420081	2926.931732
916.725536	2938.412960
917.030952	2916.335226
917.336328	2872.179760
917.641665	2822.463901
917.946961	2775.482867
918.252218	2743.718557
918.557435	2718.243086
918.862612	2696.992102
919.167750	2683.411233
919.472848	2666.664520
919.777906	2649.098620
920.082925	2639.200314
920.387904	2628.306381
920.692843	2625.122892
920.997743	2619.776748
921.302603	2615.897581
921.607423	2608.550099
921.912204	2601.210179
922.216946	2601.850405
922.521647	2597.000815
922.826310	2595.140630
923.130932	2589.484455
923.435516	2585.786769
923.740059	2585.524629
924.044564	2581.363156
924.349028	2580.705286
924.653454	2571.676579
924.957840	2568.974521
925.262186	2569.304716
925.566493	2568.543502
925.870761	2565.226423
926.174989	2567.376475
926.479178	2566.040569
926.783328	2564.273645
927.087438	2564.051834
927.391509	2564.071998
927.695541	2559.812223
927.999533	2560.263407
928.303486	2558.771225
928.607400	2558.889692
928.911275	2556.543035
929.215110	2555.880123
929.518906	2554.534135
929.822663	2559.267779
930.126381	2555.842315
930.430060	2558.100752
930.733699	2556.182593
931.037299	2557.538663
931.340861	2556.560679
931.644383	2558.504044
931.947866	2560.470094
932.251309	2556.532953
932.554714	2556.921122
932.858080	2559.189641
933.161407	2557.324414
933.464694	2555.507078
933.767943	2556.270813
934.071153	2556.452294
934.374323	2552.810061
934.677455	2555.973385
934.980548	2552.011038
935.283602	2556.969013
935.586617	2553.273847
935.889593	2553.846018
936.192530	2553.586398
936.495428	2555.544887
936.798287	2556.220401
937.101108	2555.000442
937.403890	2559.943293
937.706632	2562.093346
938.009336	2566.075857
938.312002	2569.493759
938.614628	2568.919068
938.917216	2573.007444
939.219765	2575.641447
939.522275	2576.528690
939.824747	2576.977352
940.127179	2570.280179
940.429573	2565.302040
940.731929	2566.027966
941.034246	2562.736093
941.336524	2565.165929
941.638763	2567.051320
941.940964	2568.271280
942.243126	2562.698284
942.545250	2565.201217
942.847335	2560.351627
943.149381	2562.683161
943.451389	2561.954714
943.753359	2558.705690
944.055290	2558.660320
944.357182	2559.655948
944.659036	2555.154197
944.960851	2556.638817
945.262628	2555.668395
945.564367	2558.864487
945.866067	2558.166287
946.167729	2557.894064
946.469352	2554.385421
946.770937	2557.576472
947.072484	2557.851215
947.373992	2558.526729
947.675462	2557.808365
947.976893	2554.352654
948.278286	2555.164280
948.579641	2556.691749
948.880958	2554.934907
949.182236	2551.983312
949.483476	2553.319217
949.784678	2554.403065
950.085841	2553.525905
950.386967	2553.563713
950.688054	2553.556152
950.989103	2554.347613
951.290114	2556.094372
951.591087	2556.585885
951.892021	2555.184444
952.192917	2562.327759
952.493776	2561.722821
952.794596	2562.249621
953.095378	2561.811041
953.396122	2563.472101
953.696828	2563.746844
953.997496	2557.818447
954.298126	2557.689898
954.598718	2556.923642
954.899272	2555.305432
955.199788	2556.679146
955.500266	2552.363919
955.800706	2548.454504
956.101108	2545.863351
956.401472	2544.020809
956.701798	2544.628268
957.002087	2542.604245
957.302337	2548.903167
957.602550	2547.899977
957.902724	2545.767569
958.202861	2546.760676
958.502960	2545.374359
958.803022	2543.279759
959.103045	2544.204811
959.403031	2544.242620
959.702979	2540.219779
960.002889	2539.788760
960.302762	2542.576518
960.602596	2544.986190
960.902393	2541.164995
961.202153	2543.829245
961.501875	2541.656508
961.801559	2539.196425
962.101205	2539.362783
962.400814	2543.342774
962.700385	2542.437887
962.999918	2542.057280
963.299414	2543.075593
963.598873	2540.542413
963.898293	2540.870088
964.197677	2539.813966
964.497022	2540.774306
964.796331	2540.106353
965.095601	2538.740200
965.394835	2539.871939
965.694030	2541.099460
965.993189	2540.391178
966.292309	2539.879501
966.591393	2539.939995
966.890439	2542.286652
967.189447	2540.350849
967.488419	2538.780530
967.787353	2540.739018
968.086249	2542.306817
968.385108	2539.458565
968.683930	2538.704912
968.982714	2541.535520
969.281462	2541.376724
969.580172	2539.932433
969.878844	2538.079809
970.177480	2541.835469
970.476078	2541.202804
970.774639	2541.759852
971.073162	2540.111394
971.371649	2538.586445
971.670098	2535.115611
971.968510	2542.354708
972.266885	2538.341949
972.565223	2541.974101
972.863524	2542.755479
973.161788	2538.362114
973.460014	2538.115097
973.758204	2541.454862
974.056356	2539.057793
974.354471	2539.788760
974.652550	2540.802032
974.950591	2543.370500
975.248595	2541.661549
975.546563	2538.790612
975.844493	2541.475026
976.142386	2538.823379
976.440243	2541.490150
976.738062	2540.887732
977.035845	2539.864378
977.333590	2540.242464
977.631299	2539.274563
977.928971	2537.898328
978.226606	2541.744728
978.524204	2541.245654
978.821765	2539.322454
979.119290	2538.909079
979.416777	2537.532844
979.714228	2537.520241
980.011642	2539.458565
980.309020	2542.238761
980.606360	2540.781868
980.903664	2538.397402
981.200931	2542.306817
981.498162	2541.157434
981.795356	2540.305479
982.092513	2545.475182
982.389633	2546.750594
982.686717	2551.811912
982.983764	2554.718138
983.280775	2555.126471
983.577749	2552.590771
983.874686	2553.840977
984.171587	2550.622200
984.468451	2547.491643
984.765279	2549.568599
985.062070	2544.628268
985.358824	2543.249513
985.655543	2540.542413
985.952224	2540.970911
986.248869	2541.596014
986.545478	2538.553678
986.842050	2540.043339
987.138586	2535.423121
987.435086	2537.038811
987.731549	2535.980169
988.027975	2537.391692
988.324366	2536.454037
988.620719	2538.914120
988.917037	2536.025539
989.213318	2536.837165
989.509563	2537.517721
989.805772	2538.435211
990.101944	2536.136444
990.398080	2535.392874
990.694180	2539.302289
990.990244	2538.762886
991.286271	2538.253729
991.582262	2536.280117
991.878217	2536.882535
992.174136	2538.168029
992.470019	2536.156609
992.765865	2539.158616
993.061676	2538.783050
993.357450	2536.103677
993.653188	2536.943029
993.948890	2535.602082
994.244556	2536.950591
994.540186	2541.434697
994.835780	2539.012423
995.131337	2538.765406
995.426859	2539.793802
995.722345	2540.121477
996.017795	2539.894625
996.313208	2540.610468
996.608586	2539.531662
996.903928	2537.169881
997.199234	2541.356559
997.494504	2542.818494
997.789738	2540.502084
998.084936	2540.986034
998.380099	2535.932278
998.675225	2538.604089
998.970316	2536.091074
999.265371	2538.218441
999.560390	2535.831455
999.855373	2536.983358
1000.150320	2537.810107
1000.445232	2535.644932
1000.740108	2534.586290
1001.034948	2535.402957
1001.329752	2536.822041
1001.624521	2535.498738
1001.919254	2530.434899
1002.213951	2531.773326
1002.508613	2531.717873
1002.803239	2535.352545
1003.097829	2529.887934
1003.392384	2536.025539
1003.686903	2534.389685
1003.981386	2534.636701
1004.275834	2534.379602
1004.570246	2535.455889
1004.864623	2536.224665
1005.158964	2536.227185
1005.453270	2532.983203
1005.747540	2533.207534
1006.041775	2536.144006
1006.335974	2535.851619
1006.630138	2534.853471
1006.924266	2536.088553
1007.218359	2534.104859
1007.512416	2536.635519
1007.806438	2532.789118
1008.100425	2534.944212
1008.394376	2535.244160
1008.688292	2538.410005
1008.982172	2535.019829
1009.276017	2535.914634
1009.569827	2535.332380
1009.863602	2538.455375
1010.157341	2535.312216
1010.451045	2533.825075
1010.744714	2534.145189
1011.038347	2535.460930
1011.331945	2535.720549
1011.625508	2534.694674
1011.919036	2535.702905
1012.212528	2536.489325
1012.505986	2534.830786
1012.799408	2535.675179
1013.092795	2535.652494
1013.386147	2536.532175
1013.679464	2533.792308
1013.972745	2533.585621
1014.265992	2534.089736
1014.559204	2535.849099
1014.852380	2533.850281
1015.145521	2534.722401
1015.438628	2532.806762
1015.731699	2536.486805
1016.024736	2535.173584
1016.317737	2533.368851
1016.610703	2535.425642
1016.903635	2532.474046
1017.196531	2529.116638
1017.489393	2533.444468
1017.782219	2533.094108
1018.075011	2532.625281
1018.367768	2532.736186
1018.660490	2535.314736
1018.953177	2535.314736
1019.245829	2535.314736
