Dividing Wavelength (nm)	Counts (n)	Blue Motor Position (mm): 18.400000	Red Motor Position (mm): 0.000000	
326.493990	2134.616102
326.888308	2134.616102
327.282561	2134.616102
327.676750	2101.059662
328.070874	2100.749631
328.464933	2103.857502
328.858929	2109.067535
329.252859	2121.297374
329.646726	2129.993364
330.040528	2144.017854
330.434265	2163.237253
330.827938	2178.678308
331.221547	2195.024249
331.615091	2215.246838
332.008571	2234.441031
332.401986	2253.816706
332.795338	2272.494181
333.188625	2293.674588
333.581847	2309.718061
333.975006	2329.139106
334.368100	2348.202229
334.761129	2363.565145
335.154095	2383.379401
335.546996	2401.918244
335.939833	2424.159815
336.332606	2435.424273
336.725315	2448.974894
337.117960	2456.771039
337.510540	2465.041052
337.903056	2478.987404
338.295508	2487.065853
338.687896	2494.005001
339.080220	2505.123266
339.472480	2509.529234
339.864676	2513.877230
340.256807	2521.489372
340.648875	2521.814526
341.040879	2523.946934
341.432818	2526.344003
341.824694	2526.253262
342.216506	2525.678571
342.608253	2529.502286
342.999937	2526.764939
343.391557	2524.758560
343.783113	2527.652183
344.174605	2524.314939
344.566033	2521.509537
344.957397	2521.302849
345.348697	2522.666481
345.739934	2520.264372
346.131106	2517.612725
346.522215	2514.620800
346.913260	2514.348578
347.304241	2509.927486
347.695159	2511.974194
348.086012	2509.556961
348.476802	2503.996568
348.867528	2503.464726
349.258191	2501.728049
349.648789	2503.878101
350.039324	2499.409118
350.429796	2501.831393
350.820203	2497.395177
351.210548	2497.596823
351.600828	2494.940135
351.991045	2496.316370
352.381198	2494.428458
352.771288	2493.480721
353.161314	2492.964003
353.551276	2495.958448
353.941175	2494.549446
354.331010	2493.193375
354.720782	2495.507265
355.110490	2493.410145
355.500135	2493.231184
355.889717	2494.456184
356.279235	2492.301091
356.668689	2495.807214
357.058080	2495.756802
357.447408	2492.396873
357.836672	2492.180103
358.225873	2493.316884
358.615010	2492.424599
359.004084	2496.765033
359.393095	2497.942142
359.782043	2496.659169
360.170927	2498.138747
360.559748	2499.953563
360.948505	2499.628408
361.337199	2501.412977
361.725830	2501.924654
362.114398	2500.566063
362.502903	2499.847698
362.891344	2499.658655
363.279722	2500.329129
363.668037	2502.101094
364.056289	2504.316681
364.444478	2503.000940
364.832603	2505.231651
365.220665	2503.709222
365.608665	2502.761485
365.996601	2504.782988
366.384474	2505.617299
366.772284	2508.145438
367.160031	2505.324912
367.547715	2509.246930
367.935336	2505.113184
368.322893	2509.128463
368.710388	2506.176867
369.097820	2508.074862
369.485189	2505.730725
369.872495	2509.473782
370.259738	2504.314161
370.646918	2505.266939
371.034035	2508.954543
371.421090	2505.884480
371.808081	2509.995541
372.195010	2509.930006
372.581875	2507.721981
372.968678	2510.408916
373.355418	2510.650891
373.742096	2510.734070
374.128710	2510.905469
374.515262	2511.714575
374.901751	2509.846827
375.288177	2510.358504
375.674540	2510.214831
376.060841	2510.686179
376.447079	2513.360511
376.833254	2510.789523
377.219367	2509.345232
377.605417	2508.289111
377.991404	2509.168792
378.377329	2510.882784
378.763191	2511.129801
379.148991	2514.179699
379.534727	2511.396982
379.920402	2512.518639
380.306013	2513.610048
380.691563	2513.960409
381.077049	2512.574091
381.462474	2517.360667
381.847835	2515.213135
382.233134	2516.949813
382.618371	2514.807323
383.003545	2514.779596
383.388657	2511.790192
383.773706	2512.684997
384.158693	2516.380163
384.543618	2515.533249
384.928480	2515.593743
385.313280	2517.612725
385.698017	2514.411592
386.082692	2517.259844
386.467305	2516.652385
386.851856	2516.453259
387.236344	2517.242200
387.620770	2517.264885
388.005133	2517.658095
388.389435	2518.462159
388.773674	2516.791017
389.157851	2517.554751
389.541965	2519.462828
389.926018	2518.293280
390.310008	2516.233969
390.693936	2519.220853
391.077802	2523.044568
391.461606	2518.550379
391.845348	2520.105575
392.229027	2517.748836
392.612645	2520.287057
392.996200	2522.001049
393.379694	2521.998528
393.763125	2517.776562
394.146494	2520.942407
394.529801	2522.429547
394.913047	2523.372243
395.296230	2524.166225
395.679351	2525.429034
396.062410	2523.226049
396.445408	2521.282685
396.828343	2521.403672
397.211217	2520.168590
397.594028	2521.275123
397.976778	2518.089114
398.359466	2523.389887
398.742092	2520.027437
399.124656	2523.667150
399.507158	2524.793848
399.889598	2526.553211
400.271977	2526.240659
400.654294	2524.491379
401.036549	2524.672861
401.418742	2525.245032
401.800874	2524.095648
402.182944	2526.001205
402.564952	2524.070443
402.946898	2525.827285
403.328783	2524.932480
403.710606	2526.401976
404.092367	2524.448529
404.474067	2525.381143
404.855705	2527.826102
405.237282	2525.988602
405.618797	2523.941893
406.000250	2530.384488
406.381642	2527.657224
406.762972	2527.972296
407.144240	2529.063706
407.525447	2529.063706
407.906593	2527.773170
408.287677	2528.115969
408.668700	2527.329549
409.049661	2529.227543
409.430560	2528.325177
409.811399	2529.134282
410.192176	2529.532533
410.572891	2530.707122
410.953545	2530.013963
411.334138	2529.769467
411.714669	2528.773839
412.095139	2529.411545
412.475547	2528.473891
412.855894	2528.400794
413.236180	2532.103521
413.616405	2529.472039
413.996568	2527.798376
414.376670	2529.315763
414.756711	2528.184024
415.136691	2531.614529
415.516609	2529.514889
415.896466	2533.830117
416.276262	2533.177287
416.655997	2526.344003
417.035670	2528.098325
417.415283	2530.011442
417.794834	2527.213602
418.174324	2529.761905
418.553753	2534.114942
418.933121	2530.485311
419.312428	2532.567307
419.691674	2531.445651
420.070859	2534.155271
420.449983	2530.066895
420.829045	2533.880528
421.208047	2534.137627
421.586988	2532.181659
421.965867	2533.532688
422.344686	2532.214427
422.723444	2534.082174
423.102141	2537.003523
423.480777	2530.331556
423.859352	2532.844571
424.237866	2534.535878
424.616319	2534.692154
424.994712	2531.934643
425.373044	2534.213244
425.751314	2533.668800
426.129524	2531.347348
426.507673	2533.789787
426.885762	2536.360776
427.263789	2536.522093
427.641756	2534.876156
428.019662	2535.718029
428.397508	2534.737524
428.775292	2535.261804
429.153016	2535.876825
429.530679	2535.758358
429.908282	2535.183666
430.285824	2535.851619
430.663305	2535.682741
431.040726	2535.438245
431.418086	2535.450848
431.795385	2537.386651
432.172624	2536.630477
432.549802	2538.122659
432.926920	2537.076620
433.303977	2537.578214
433.680974	2536.990920
434.057910	2535.876825
434.434786	2540.244985
434.811601	2539.335057
435.188355	2536.577545
435.565050	2540.915458
435.941683	2537.235416
436.318257	2538.067206
436.694770	2532.201824
437.071222	2536.983358
437.447614	2534.215765
437.823946	2535.158461
438.200218	2537.149716
438.576429	2539.380427
438.952580	2537.651311
439.328670	2537.048893
439.704700	2539.423277
440.080670	2537.797505
440.456580	2540.028215
440.832429	2539.566950
441.208218	2537.694161
441.583947	2540.111394
441.959616	2540.910417
442.335224	2540.474357
442.710773	2535.922195
443.086261	2535.765920
443.461689	2541.704399
443.837057	2542.667259
444.212365	2539.060314
444.587612	2539.367824
444.962800	2538.843544
445.337927	2538.024357
445.712995	2537.807587
446.088002	2539.876981
446.462949	2541.583411
446.837837	2543.088196
447.212664	2539.519059
447.587431	2539.561908
447.962139	2538.142824
448.336786	2544.734132
448.711374	2539.914789
449.085901	2545.008875
449.460369	2540.295396
449.834776	2541.475026
450.209124	2542.100129
450.583412	2541.616179
450.957640	2540.756662
451.331808	2543.088196
451.705917	2539.481250
452.079965	2542.500901
452.453954	2540.355890
452.827883	2543.718340
453.201752	2541.490150
453.575562	2543.320089
453.949311	2544.277908
454.323001	2540.691127
454.696632	2541.795140
455.070202	2542.009389
455.443713	2542.379913
455.817164	2540.202135
456.190556	2539.637526
456.563888	2539.821528
456.937160	2537.242978
457.310373	2543.070552
457.683526	2545.437373
458.056619	2543.340253
458.429653	2544.824873
458.802628	2546.125491
459.175542	2545.664225
459.548398	2544.638350
459.921194	2546.299411
460.293930	2546.180943
460.666607	2544.416540
461.039224	2545.094575
461.411782	2544.479554
461.784280	2545.671787
462.156719	2547.279915
462.529099	2546.884184
462.901419	2543.536858
463.273680	2544.456869
463.645882	2547.310162
464.018024	2543.690613
464.390106	2545.407126
464.762130	2545.855789
465.134094	2546.901828
465.505999	2550.838970
465.877845	2550.667570
466.249631	2547.932744
466.621358	2547.879812
466.993026	2550.660009
467.364634	2552.089176
467.736184	2547.093392
468.107674	2546.894267
468.479105	2547.080789
468.850477	2549.286294
469.221790	2549.926521
469.593043	2547.721016
469.964238	2550.526418
470.335373	2546.717826
470.706449	2547.526932
471.077467	2548.068856
471.448425	2550.642365
471.819324	2548.830070
472.190164	2551.577499
472.560945	2550.050029
472.931667	2551.930379
473.302330	2549.639175
473.672934	2552.258054
474.043479	2548.890564
474.413965	2548.739329
474.784393	2545.147507
475.154761	2549.797971
475.525070	2544.368649
475.895321	2545.646581
476.265513	2544.461910
476.635645	2551.511964
477.005719	2549.976932
477.375734	2551.138918
477.745691	2550.561706
478.115588	2551.312838
478.485427	2553.528425
478.855207	2551.113713
479.224928	2551.869886
479.594591	2552.827705
479.964194	2552.202602
480.333739	2553.888868
480.703226	2553.064639
481.072653	2554.524053
481.442022	2552.535318
481.811333	2554.448436
482.180584	2553.425082
482.549777	2555.116389
482.918912	2552.505071
483.287988	2554.997922
483.657005	2554.070349
484.025964	2553.490617
484.394864	2555.262582
484.763706	2554.685370
485.132489	2555.144115
485.501213	2557.440361
485.869879	2556.195196
486.238487	2553.520863
486.607036	2557.705021
486.975527	2553.921635
487.343959	2556.008673
487.712333	2557.029507
488.080648	2553.677139
488.448905	2557.803324
488.817104	2556.086811
489.185244	2556.351471
489.553326	2557.964641
489.921350	2558.075546
490.289315	2557.957079
490.657222	2560.059240
491.025070	2563.489745
491.392861	2562.136195
491.760593	2564.094684
492.128267	2561.160732
492.495883	2560.238201
492.863440	2559.635783
493.230939	2561.158212
493.598380	2564.298850
493.965763	2557.561348
494.333088	2558.481359
494.700354	2558.675443
495.067563	2560.477656
495.434713	2557.717624
495.801805	2563.966134
496.168839	2564.750034
496.535815	2564.132492
496.902733	2564.974365
497.269593	2568.147771
497.636395	2564.944118
498.003139	2567.159705
498.369825	2565.334807
498.736453	2566.479149
499.103023	2566.375806
499.469535	2568.150292
499.835989	2571.853019
500.202385	2573.700602
500.568723	2573.642629
500.935003	2577.962898
501.301226	2576.521128
501.667390	2576.904256
502.033497	2584.677715
502.399546	2581.010275
502.765537	2581.113619
503.131470	2587.828436
503.497345	2588.483786
503.863163	2588.004876
504.228923	2595.586772
504.594625	2596.726072
504.960269	2597.283120
505.325856	2602.752772
505.691385	2605.474995
506.056856	2611.491612
506.422270	2615.995883
506.787625	2617.319186
507.152924	2624.139867
507.518164	2629.090280
507.883347	2630.181690
508.248472	2634.512041
508.613540	2642.429173
508.978550	2650.124495
509.343503	2652.970226
509.708398	2661.245280
510.073236	2665.036228
510.438016	2673.633916
510.802738	2680.603311
511.167403	2689.208560
511.532010	2694.126206
511.896561	2702.895293
512.261053	2714.827704
512.625488	2719.551265
512.989866	2727.407904
513.354186	2737.696899
513.718449	2745.687127
514.082655	2759.615836
514.446803	2770.663524
514.810894	2783.697427
515.174927	2790.611370
515.538904	2801.422124
515.902822	2821.465752
516.266684	2826.673264
516.630488	2842.358814
516.994235	2853.227542
517.357925	2876.444576
517.721558	2892.203223
518.085133	2907.863567
518.448651	2922.709765
518.812112	2932.449275
519.175516	2948.626337
519.538863	2975.722539
519.902152	2988.632934
520.265385	3017.417923
520.628560	3025.788759
520.991678	3049.270453
521.354739	3065.891138
521.717743	3086.917790
522.080690	3103.319184
522.443580	3138.715646
522.806413	3157.269613
523.169189	3179.695186
523.531908	3206.715770
523.894569	3219.830332
524.257174	3246.182964
524.619722	3279.686472
524.982213	3293.428658
525.344647	3337.022035
525.707025	3356.266640
526.069345	3389.918863
526.431608	3416.417688
526.793815	3453.762556
527.155964	3464.885862
527.518057	3491.296467
527.880093	3524.089172
528.242072	3559.800706
528.603995	3586.798606
528.965860	3608.783078
529.327669	3647.665497
529.689421	3675.656504
530.051117	3701.515103
530.412755	3760.559617
530.774337	3774.848768
531.135862	3815.666990
531.497331	3844.590610
531.858743	3865.138353
532.220098	3929.599588
532.581396	3949.013071
532.942638	3978.269407
533.303824	4014.263246
533.664953	4066.880289
534.026025	4089.890636
534.387040	4149.789626
534.747999	4184.727343
535.108902	4241.964603
535.469748	4233.729879
535.830537	4295.413437
536.191270	4336.753419
536.551947	4388.306779
536.912567	4430.032409
537.273131	4455.525524
537.633638	4493.162779
537.994089	4539.135582
538.354483	4570.927618
538.714821	4645.209020
539.075103	4696.172565
539.435328	4734.818050
539.795497	4725.454107
540.155609	4820.333664
540.515665	4888.280856
540.875665	4866.747567
541.235609	4935.564358
541.595496	4972.972240
541.955328	5079.658179
542.315102	5083.403757
542.674821	5121.091423
543.034483	5162.280170
543.394090	5216.505342
543.753640	5243.170525
544.113134	5369.670719
544.472571	5366.126788
544.831953	5471.794413
545.191278	5457.510304
545.550548	5511.896792
545.909761	5604.953972
546.268918	5657.293752
546.628019	5736.520525
546.987064	5740.235856
547.346053	5752.216158
547.704986	5851.569738
548.063863	5889.577518
548.422684	5930.620072
548.781449	5958.104443
549.140158	6050.539040
549.498811	6056.139762
549.857408	6035.846597
550.215949	6191.956008
550.574434	6178.584347
550.932864	6279.601509
551.291237	6348.390573
551.649555	6393.929837
552.007817	6438.523884
552.366022	6470.512525
552.724173	6519.348703
553.082267	6551.425565
553.440305	6689.021339
553.798288	6623.882069
554.156215	6766.556806
554.514086	6802.865716
554.871902	6769.490757
555.229661	6835.575243
555.587365	6868.587239
555.945014	6852.936977
556.302606	6983.951524
556.660143	6960.608461
557.017625	7110.106399
557.375050	7097.657270
557.732421	7216.575568
558.089735	7227.005716
558.446994	7272.650843
558.804197	7342.919487
559.161345	7395.259266
559.518437	7342.937131
559.875474	7454.359233
560.232455	7516.521702
560.589381	7525.192486
560.946251	7593.580779
561.303065	7684.694594
561.659825	7711.765590
562.016528	7704.092954
562.373177	7660.960842
562.729770	7800.479815
563.086307	7783.249152
563.442789	7884.173052
563.799216	7862.223868
564.155587	7931.544774
564.511904	7948.412475
564.868164	7982.536045
565.224370	8031.851133
565.580520	8033.368520
565.936615	8059.887510
566.292654	8020.627004
566.648638	8145.549317
567.004567	8161.759147
567.360441	8186.866614
567.716260	8162.848036
568.072023	8262.922502
568.427732	8273.145962
568.783385	8224.420689
569.138982	8330.259714
569.494525	8371.445941
569.850013	8319.365781
570.205445	8419.780524
570.560823	8358.197789
570.916145	8339.051487
571.271412	8425.865197
571.626625	8416.791120
571.981782	8427.992564
572.336884	8444.572919
572.691931	8475.192887
573.046923	8469.967731
573.401860	8460.016494
573.756743	8443.670552
574.111570	8510.922065
574.466342	8520.099486
574.821059	8573.712157
575.175722	8512.918362
575.530330	8549.774238
575.884882	8571.753669
576.239380	8537.269656
576.593823	8552.453611
576.948211	8585.868899
577.302544	8507.504163
577.656823	8557.061226
578.011047	8572.789626
578.365216	8574.886746
578.719330	8522.357923
579.073389	8567.017505
579.427394	8535.757310
579.781344	8540.702682
580.135239	8516.116974
580.489080	8538.857619
580.842866	8480.221438
581.196597	8501.842947
581.550273	8557.227584
581.903895	8554.520484
582.257463	8620.037840
582.610975	8538.267804
582.964434	8568.650838
583.317837	8526.070733
583.671186	8513.699741
584.024481	8534.030714
584.377721	8475.664235
584.730906	8472.894121
585.084037	8509.465172
585.437113	8469.501425
585.790135	8511.158999
586.143103	8423.846215
586.496016	8418.681553
586.848874	8481.151531
587.201679	8487.286615
587.554428	8394.035352
587.907124	8446.861603
588.259765	8430.881145
588.612352	8451.421326
588.964884	8339.956374
589.317362	8369.681537
589.669786	8384.767190
590.022155	8428.985671
590.374470	8459.630845
590.726731	8411.588649
591.078937	8285.564844
591.431090	8399.920899
591.783188	8290.548025
592.135232	8297.613202
592.487222	8299.919530
592.839157	8356.967747
593.191038	8304.174264
593.542866	8257.170545
593.894639	8175.612238
594.246358	8232.995692
594.598022	8257.523426
594.949633	8160.682861
595.301190	8145.365315
595.652692	8180.658433
596.004141	8294.240670
596.355535	8085.267199
596.706876	8078.426353
597.058162	8023.293774
597.409395	8103.569108
597.760573	8168.179056
598.111698	8084.321983
598.462768	8075.769665
598.813785	8045.878143
599.164748	8016.949482
599.515657	8016.152980
599.866511	7937.740352
600.217312	8060.250473
600.568060	7923.582272
600.918753	8032.012450
601.269392	8007.232658
601.619978	7925.318949
601.970510	7993.094742
602.320988	7992.310843
602.671412	8052.741674
603.021783	7989.049216
603.372100	7968.498952
603.722363	7975.117987
604.072572	7954.489586
604.422728	7969.653377
604.772830	7906.212976
605.122878	7907.440497
605.472872	7906.465034
605.822813	7944.687062
606.172701	7886.181951
606.522534	7966.341339
606.872314	7961.915206
607.222041	7940.870909
607.571714	7992.951069
607.921333	7958.346069
608.270899	7960.808672
608.620411	8056.653610
608.969870	7959.306408
609.319276	7961.441337
609.668627	7978.518246
610.017926	8009.107967
610.367171	8060.106800
610.716362	8040.723564
611.065500	8033.252574
611.414585	8059.615288
611.763616	8047.156076
612.112594	8035.841206
612.461518	8047.987866
612.810389	8108.116229
613.159207	8052.731592
613.507971	8000.593458
613.856682	8119.368084
614.205340	8077.478616
614.553945	8152.611973
614.902496	8054.914412
615.250994	8108.471630
615.599439	8088.531346
615.947830	8108.922813
616.296169	8079.021209
616.644454	8101.973583
616.992686	8091.487983
617.340864	8147.999318
617.688990	8053.989360
618.037063	8144.099985
618.385082	8093.055782
618.733048	8184.406531
619.080961	8118.901778
619.428821	8134.899879
619.776628	8146.955799
620.124382	8095.062161
620.472083	8082.958351
620.819731	8104.105991
621.167326	8008.964294
621.514868	8010.731219
621.862357	7904.882112
622.209793	7917.542969
622.557176	7860.028445
622.904506	7829.597520
623.251783	7763.157633
623.599007	7718.225829
623.946179	7725.417035
624.293297	7677.826022
624.640363	7595.559432
624.987376	7585.343534
625.334336	7528.738938
625.681243	7486.993143
626.028097	7469.371790
626.374899	7444.627286
626.721647	7442.676359
627.068343	7371.656584
627.414987	7344.709096
627.761577	7300.296531
628.108115	7339.806574
628.454600	7233.097950
628.801032	7288.071733
629.147412	7246.232676
629.493739	7231.008392
629.840014	7169.977663
630.186236	7229.949749
630.532405	7111.349043
630.878521	7163.197311
631.224585	7121.728779
631.570597	7048.117851
631.916556	7079.589774
632.262462	7073.006027
632.608316	7035.948505
632.954117	7015.431009
633.299866	7005.202508
633.645562	6997.741600
633.991206	6920.082625
634.336797	6863.798143
634.682336	6819.130999
635.027823	6786.706298
635.373257	6778.418641
635.718639	6712.513116
636.063968	6724.455609
636.409245	6618.777901
636.754470	6613.429237
637.099642	6573.445325
637.444762	6520.213261
637.789829	6529.746083
638.134845	6469.708461
638.479808	6458.075999
638.824719	6462.565146
639.169577	6389.138220
639.514383	6411.863742
639.859137	6338.283060
640.203839	6350.401994
640.548489	6336.059911
640.893086	6310.561755
641.237632	6286.570904
641.582125	6305.757535
641.926566	6275.379542
642.270955	6283.311798
642.615292	6282.177538
642.959576	6298.762934
643.303809	6288.826820
643.647990	6295.002234
643.992118	6290.520648
644.336195	6235.791361
644.680219	6257.354897
645.024192	6249.291571
645.368112	6340.591908
645.711981	6360.751483
646.055797	6442.125788
646.399562	6398.789509
646.743274	6527.490167
647.086935	6574.985398
647.430544	6573.440284
647.774101	6594.056083
648.117606	6599.082113
648.461059	6589.614826
648.804460	6551.433127
649.147810	6459.734538
649.491108	6431.700682
649.834354	6403.124901
650.177548	6321.483415
650.520690	6238.682463
650.863781	6219.226130
651.206820	6232.585187
651.549807	6161.439383
651.892742	6101.043839
652.235626	6107.509119
652.578458	6093.961018
652.921238	6003.656309
653.263967	6041.346496
653.606644	5984.182332
653.949269	5983.216951
654.291843	5925.717550
654.634365	5978.072453
654.976836	5931.164517
655.319255	5930.264671
655.661622	5910.883955
656.003938	5907.125774
656.346203	5864.782603
656.688416	5899.748046
657.030577	5847.718297
657.372687	5821.421118
657.714746	5808.369571
658.056753	5850.669893
658.398708	5786.858967
658.740612	5784.534995
659.082465	5829.315565
659.424266	5823.392209
659.766016	5820.798535
660.107715	5794.859278
660.449362	5809.009797
660.790958	5807.920908
661.132503	5790.594462
661.473996	5830.485113
661.815438	5815.500283
662.156829	5815.117155
662.498168	5808.515764
662.839456	5783.856960
663.180693	5818.963555
663.521879	5815.911137
663.863013	5811.127082
664.204097	5827.417570
664.545129	5871.172265
664.886110	5869.332244
665.227040	5896.614969
665.567918	5858.357652
665.908746	5888.385285
666.249522	5887.961828
666.590248	5879.170056
666.930922	5909.689201
667.271545	5924.522796
667.612118	5923.940543
667.952639	5897.897942
668.293109	5921.437610
668.633528	5876.286516
668.973896	5878.877669
669.314213	5870.925249
669.654480	5849.686868
669.994695	5843.191341
670.334859	5836.728582
670.674973	5828.607283
671.015035	5833.381255
671.355047	5829.970915
671.695008	5817.410880
672.034918	5788.192352
672.374777	5803.784641
672.714585	5786.465757
673.054342	5788.217558
673.394049	5783.703205
673.733705	5817.741076
674.073310	5799.350946
674.412864	5757.738742
674.752368	5750.512248
675.091820	5760.178660
675.431223	5694.512590
675.770574	5697.265060
676.109875	5646.419983
676.449125	5651.622453
676.788324	5619.137258
677.127473	5561.201797
677.466571	5552.951949
677.805619	5540.452408
678.144616	5531.791706
678.483562	5511.070043
678.822458	5477.558973
679.161303	5473.891533
679.500098	5466.697807
679.838842	5445.900527
680.177535	5455.337567
680.516179	5466.536490
680.854771	5478.718438
681.193314	5558.391354
681.531805	5665.901522
681.870247	5815.487680
682.208638	5913.520478
682.546978	5925.102529
682.885268	5904.758953
683.223508	5821.773999
683.561697	5765.890288
683.899836	5736.389455
684.237925	5692.415470
684.575963	5658.818701
684.913951	5619.868225
685.251889	5680.203275
685.589776	5642.175331
685.927614	5621.264625
686.265401	5689.325243
686.603137	5673.967368
686.940824	5751.860757
687.278460	5770.654178
687.616046	5779.629953
687.953582	5851.478998
688.291068	5831.586605
688.628504	5892.274535
688.965889	5852.958576
689.303224	5800.442356
689.640510	5745.730713
689.977745	5676.797976
690.314930	5581.810034
690.652065	5520.398698
690.989150	5431.860913
691.326185	5357.703020
691.663170	5303.387107
692.000105	5226.615376
692.336990	5154.085775
692.673825	5126.911435
693.010610	5060.095982
693.347345	4987.092512
693.684030	4978.066326
694.020665	4937.293474
694.357251	4850.734342
694.693786	4857.015620
695.030272	4823.370959
695.366707	4791.858706
695.703093	4760.094396
696.039429	4778.025780
696.375716	4764.381897
696.711952	4738.160335
697.048139	4724.526535
697.384276	4703.378894
697.720363	4720.256677
698.056400	4725.907811
698.392388	4674.301519
698.728326	4660.357687
699.064214	4635.068739
699.400053	4628.227893
699.735842	4592.904528
700.071581	4572.704625
700.407270	4544.413670
700.742910	4529.305332
701.078501	4470.475066
701.414042	4472.325170
701.749533	4442.365592
702.084974	4375.340931
702.420366	4431.181793
702.755709	4374.935118
703.091002	4319.921007
703.426246	4369.762895
703.761440	4324.551306
704.096584	4289.129639
704.431679	4310.592351
704.766725	4293.843118
705.101721	4287.745842
705.436668	4311.492197
705.771565	4259.648971
706.106413	4288.640647
706.441212	4324.228673
706.775961	4331.210671
707.110661	4310.577228
707.445311	4334.479859
707.779913	4362.836349
708.114465	4371.204665
708.448967	4395.124940
708.783421	4456.682469
709.117825	4500.626207
709.452180	4499.756608
709.786485	4543.987692
710.120742	4632.986743
710.454949	4616.761789
710.789107	4679.730842
711.123216	4750.987551
711.457275	4744.744082
711.791286	4819.814425
712.125247	4834.196837
712.459159	4734.361826
712.793023	4809.283454
713.126837	4769.859111
713.460602	4761.145476
713.794318	4683.809135
714.127985	4692.731977
714.461602	4604.768884
714.795171	4579.003547
715.128691	4508.871014
715.462162	4458.842604
715.795584	4408.115993
716.128957	4394.151997
716.462281	4339.374819
716.795556	4311.509841
717.128782	4277.416518
717.461960	4207.689798
717.795088	4219.531469
718.128167	4178.521682
718.461198	4118.358032
718.794180	4114.904841
719.127113	4097.933797
719.459997	4075.858584
719.792833	4035.511709
720.125619	4023.581819
720.458357	3989.727950
720.791046	3992.800533
721.123686	3963.702993
721.456278	3927.454577
721.788821	3940.927060
722.121315	3916.326230
722.453761	3890.258423
722.786158	3907.131165
723.118506	3928.336779
723.450805	3879.619068
723.783056	3901.235536
724.115259	3917.276487
724.447412	3920.104574
724.779518	3913.351949
725.111574	3920.119698
725.443582	3947.462916
725.775542	3933.413221
726.107453	3982.004902
726.439315	3985.395078
726.771129	3996.634331
727.102895	4035.771329
727.434612	4082.679265
727.766281	4091.201336
728.097901	4094.054629
728.429473	4100.192234
728.760996	4104.411680
729.092471	4098.135443
729.423897	4081.726487
729.755276	4089.905759
730.086606	4088.264864
730.417887	4125.208960
730.749120	4186.963094
731.080305	4254.625461
731.411442	4279.964821
731.742530	4249.934668
732.073570	4251.731839
732.404562	4309.626970
732.735506	4297.750012
733.066401	4259.298611
733.397249	4198.590516
733.728048	4120.419864
734.058798	4037.505486
734.389501	3970.717759
734.720156	3906.455650
735.050762	3865.400493
735.381320	3858.284905
735.711831	3807.220537
736.042293	3779.143831
736.372707	3802.403714
736.703073	3774.639560
737.033391	3763.359978
737.363661	3780.018471
737.693883	3805.251966
738.024056	3817.126404
738.354182	3809.022749
738.684260	3874.663614
739.014290	3894.581212
739.344272	3889.532497
739.674207	3930.607818
740.004093	3940.402780
740.333931	3930.088580
740.663722	3932.851132
740.993464	3928.966923
741.323159	3905.147471
741.652806	3877.143861
741.982405	3848.575642
742.311956	3819.218483
742.641460	3808.989982
742.970915	3783.370838
743.300323	3745.070672
743.629683	3708.998695
743.958996	3700.892520
744.288260	3674.512162
744.617477	3643.471257
744.946647	3630.344092
745.275768	3606.106225
745.604842	3605.072788
745.933869	3554.048750
746.262847	3547.013819
746.591778	3585.508070
746.920662	3554.096641
747.249498	3524.943648
747.578286	3567.705235
747.907027	3584.754418
748.235720	3587.080910
748.564365	3610.839868
748.892963	3612.145527
749.221514	3592.527877
749.550017	3573.192531
749.878473	3569.421748
750.206881	3536.689536
750.535242	3535.525030
750.863555	3533.828682
751.191821	3534.025287
751.520039	3512.078623
751.848210	3491.193123
752.176334	3527.262579
752.504411	3531.199720
752.832440	3490.021055
753.160421	3473.322232
753.488356	3484.495950
753.816243	3499.563959
754.144082	3452.966053
754.471875	3439.201183
754.799620	3459.272537
755.127318	3447.577060
755.454969	3449.717030
755.782572	3454.962350
756.110129	3432.388063
756.437638	3419.734767
756.765100	3435.168260
757.092515	3445.129580
757.419882	3450.979839
757.747203	3425.101075
758.074477	3426.736930
758.401703	3444.406174
758.728882	3462.456025
759.056014	3469.294351
759.383099	3474.053200
759.710138	3465.153043
760.037129	3485.138697
760.364073	3519.723533
760.690970	3500.645286
761.017820	3477.604693
761.344623	3496.438443
761.671379	3544.097512
761.998088	3593.372270
762.324751	3718.995303
762.651366	3964.338179
762.977935	4432.636165
763.304456	4864.542062
763.630931	4953.843582
763.957359	4591.107357
764.283740	4259.585957
764.610074	4071.220723
764.936362	3875.281155
765.262602	3720.041343
765.588796	3614.598048
765.914943	3527.008000
766.241044	3438.969290
766.567097	3409.755803
766.893104	3366.749720
767.219064	3335.529854
767.544978	3309.162099
767.870845	3254.803337
768.196665	3237.915471
768.522438	3243.967377
768.848165	3240.042838
769.173846	3204.341387
769.499479	3187.047708
769.825066	3172.650173
770.150607	3154.388593
770.476101	3170.774864
770.801548	3163.346724
771.126949	3118.722430
771.452303	3105.751541
771.777611	3110.313785
772.102872	3117.013479
772.428087	3091.396855
772.753256	3082.100968
773.078378	3072.769792
773.403453	3041.184443
773.728482	3031.316384
774.053465	3049.131822
774.378401	3038.731921
774.703291	3009.541120
775.028135	3009.475585
775.352932	3005.397291
775.677683	2990.515805
776.002388	2986.243427
776.327046	2988.012872
776.651658	2976.292190
776.976224	2965.027731
777.300743	2966.023359
777.625216	2961.672843
777.949643	2951.093982
778.274024	2955.648665
778.598359	2944.353959
778.922647	2952.634055
779.246889	2947.532407
779.571086	2935.904986
779.895236	2930.198399
780.219339	2940.270625
780.543397	2951.325875
780.867409	2954.670681
781.191374	2945.994855
781.515294	2946.778754
781.839167	2945.594083
782.162995	2940.563012
782.486776	2945.694906
782.810511	2943.030657
783.134201	2928.877617
783.457844	2937.417332
783.781441	2928.050868
784.104993	2907.982034
784.428498	2907.374575
784.751958	2921.182296
785.075372	2913.267684
785.398739	2897.882083
785.722061	2916.123498
786.045337	2929.417021
786.368568	2910.605955
786.691752	2904.102867
787.014891	2951.598098
787.337983	2983.685042
787.661030	3008.026253
787.984031	3075.852458
788.306987	3119.271916
788.629897	3111.561471
788.952760	3092.790734
789.275579	3080.470154
789.598351	3020.598891
789.921078	2978.417036
790.243759	2971.306488
790.566395	2954.368212
790.888984	2930.798297
791.211529	2911.891449
791.534027	2901.962897
791.856480	2892.868655
792.178888	2876.585728
792.501249	2874.118083
792.823566	2867.002495
793.145836	2864.713811
793.468062	2862.478059
793.790241	2859.839015
794.112375	2866.178266
794.434464	2876.590769
794.756507	2882.340205
795.078505	2886.922614
795.400457	2902.681261
795.722364	2938.503700
796.044226	2960.518419
796.366042	2961.118317
796.687812	2953.975002
797.009538	2970.096612
797.331218	2958.978347
797.652852	2946.972839
797.974442	2927.786207
798.295986	2923.728078
798.617484	2920.761359
798.938938	2906.966242
799.260346	2886.753736
799.581709	2885.196019
799.903026	2877.520862
800.224299	2872.615820
800.545526	2864.207175
800.866708	2848.060359
801.187845	2836.901765
801.508936	2839.669359
801.829983	2845.486850
802.150984	2833.647700
802.471940	2822.902481
802.792851	2822.738643
803.113717	2821.221256
803.434538	2825.193685
803.755314	2817.858807
804.076045	2812.797488
804.396731	2814.468631
804.717372	2814.516522
805.037967	2809.399750
805.358518	2814.448466
805.679024	2827.812565
805.999485	2820.641523
806.319901	2823.436843
806.640272	2817.309321
806.960598	2823.131853
807.280879	2831.890858
807.601115	2836.886642
807.921306	2824.755105
808.241453	2821.536328
808.561554	2830.580158
808.881611	2832.430262
809.201623	2825.085301
809.521590	2824.906340
809.841513	2819.822336
810.161390	2825.304591
810.481223	2817.705051
810.801011	2808.683907
811.120755	2805.296251
811.440453	2806.564101
811.760107	2808.356232
812.079716	2803.415901
812.399281	2795.244190
812.718801	2786.893519
813.038276	2784.108282
813.357707	2792.925260
813.677093	2800.499593
813.996434	2792.194292
814.315731	2786.039043
814.634983	2783.571399
814.954191	2783.377314
815.273354	2799.135961
815.592473	2805.397074
815.911547	2805.883546
816.230577	2815.318065
816.549562	2824.530774
816.868502	2823.817450
817.187399	2834.270283
817.506250	2848.652695
817.825058	2844.191274
818.143821	2854.613859
818.462539	2869.460057
818.781213	2894.479304
819.099843	2933.023966
819.418429	2987.838953
819.736970	3047.299362
820.055466	3120.675877
820.373919	3223.833008
820.692327	3359.384594
821.010691	3520.746887
821.329011	3953.434163
821.647286	4836.513247
821.965517	6187.043403
822.283704	6899.408853
822.601847	6868.120932
822.919945	6247.191931
823.237999	5754.441827
823.556010	5187.107853
823.873976	4648.687416
824.191897	4253.319803
824.509775	3969.465032
824.827609	3702.916543
825.145398	3585.729881
825.463144	3574.145309
825.780845	3669.206348
826.098502	3771.705608
826.416116	4048.124676
826.733685	4356.759238
827.051210	4412.839554
827.368692	4299.945434
827.686129	4039.958007
828.003522	3723.895305
828.320872	3471.585555
828.638177	3284.009262
828.955439	3151.114364
829.272656	3070.087898
829.589830	3005.946777
829.906960	2955.333593
830.224046	2912.849268
830.541088	2879.910369
830.858086	2866.798328
831.175041	2847.412571
831.491952	2848.072962
831.808819	2860.713655
832.125642	2884.422202
832.442421	2928.121444
832.759157	3009.800739
833.075849	3179.765762
833.392497	3457.722382
833.709101	3653.228410
834.025662	3602.297633
834.342179	3448.265177
834.658653	3276.462654
834.975083	3133.712301
835.291469	3035.921478
835.607811	2954.461473
835.924110	2898.744120
836.240366	2849.613035
836.556578	2807.189204
836.872746	2786.354116
837.188871	2761.997781
837.504952	2748.610997
837.820990	2741.623957
838.136984	2726.641648
838.452935	2722.235680
838.768842	2717.817108
839.084706	2736.880232
839.400526	2809.903866
839.716303	2942.012343
840.032037	3020.026720
840.347727	3003.521982
840.663373	2942.708023
840.978977	2869.795294
841.294537	2802.276600
841.610054	2755.368663
841.925527	2733.732031
842.240957	2713.509442
842.556344	2693.556556
842.871687	2675.632733
843.186987	2667.710560
843.502244	2664.481701
843.817458	2658.807882
844.132629	2647.724905
844.447756	2637.703092
844.762840	2630.257307
845.077881	2638.290386
845.392879	2633.836527
845.707833	2630.844602
846.022745	2621.258848
846.337613	2626.957872
846.652438	2623.492079
846.967221	2625.054837
847.281960	2622.234311
847.596656	2623.129116
847.911309	2619.701131
848.225919	2616.189967
848.540485	2616.101747
848.855009	2614.642333
849.169490	2615.343054
849.483928	2615.706017
849.798323	2614.135697
850.112675	2612.104112
850.426984	2612.923300
850.741251	2611.859616
851.055474	2608.754266
851.369654	2617.185595
851.683792	2615.811881
851.997887	2612.882971
852.311938	2611.811725
852.625947	2610.639657
852.939914	2616.643671
853.253837	2616.936058
853.567718	2611.829369
853.881555	2611.514297
854.195350	2612.915738
854.509103	2614.418002
854.822812	2612.119236
855.136479	2607.975407
855.450103	2609.830552
855.763685	2613.346757
856.077224	2611.141252
856.390720	2609.006323
856.704173	2613.618979
857.017584	2616.709206
857.330953	2615.285080
857.644278	2620.152314
857.957561	2620.328755
858.270802	2614.854062
858.584000	2614.927158
858.897155	2619.675925
859.210268	2618.657612
859.523339	2615.164093
859.836367	2609.719647
860.149352	2610.574122
860.462295	2611.045470
860.775195	2610.155706
861.088054	2607.504059
861.400869	2608.708895
861.713642	2603.977772
862.026373	2605.419542
862.339062	2608.650922
862.651708	2613.271139
862.964312	2614.428084
863.276873	2613.689555
863.589392	2615.118722
863.901869	2622.314969
864.214303	2626.166411
864.526696	2629.228912
864.839045	2629.037348
865.151353	2632.563635
865.463619	2630.698408
865.775842	2629.659931
866.088023	2628.399642
866.400162	2634.128913
866.712258	2630.348048
867.024313	2631.590692
867.336325	2625.695063
867.648296	2629.397791
867.960224	2633.685292
868.272110	2632.346866
868.583954	2623.197171
868.895755	2626.433592
869.207515	2630.441309
869.519233	2639.238123
869.830909	2635.449696
870.142542	2632.861063
870.454134	2632.074643
870.765684	2636.596558
871.077191	2636.977165
871.388657	2641.000006
871.700081	2638.718884
872.011463	2639.200314
872.322803	2641.027732
872.634101	2644.541417
872.945357	2653.572644
873.256571	2655.344609
873.567744	2653.948210
873.878874	2654.570792
874.189963	2655.387459
874.501010	2658.419713
874.812015	2663.924653
875.122979	2663.763336
875.433900	2655.483241
875.744780	2652.239259
876.055618	2659.067502
876.366415	2660.841988
876.677169	2663.460867
876.987882	2657.313180
877.298554	2656.330155
877.609183	2666.278872
877.919771	2672.524862
878.230317	2677.853361
878.540822	2686.698066
878.851285	2702.078626
879.161707	2725.734241
879.472087	2760.772780
879.782425	2806.722898
880.092722	2916.559558
880.402977	3101.287599
880.713191	3349.735825
881.023363	3628.307466
881.333494	3815.402330
881.643583	3981.077330
881.953631	3978.224037
882.263637	3804.203406
882.573602	3589.412444
882.883526	3464.837971
883.193408	3355.008872
883.503248	3259.226949
883.813048	3147.010865
884.122806	3038.510110
884.432522	2958.234777
884.742197	2897.193965
885.051831	2860.428830
885.361424	2827.600836
885.670975	2793.250414
885.980485	2763.207658
886.289954	2745.508167
886.599382	2733.626167
886.908768	2725.507389
887.218113	2705.839327
887.527417	2692.591175
887.836680	2682.062725
888.145901	2678.541479
888.455082	2670.735252
888.764221	2661.996412
889.073319	2653.277736
889.382376	2655.203457
889.691392	2655.069867
890.000366	2656.393169
890.309300	2653.547438
890.618193	2653.307983
890.927044	2655.019455
891.235855	2656.078097
891.544625	2657.613129
891.853353	2654.709424
892.162041	2663.571772
892.470687	2684.767304
892.779293	2693.193592
893.087858	2702.973431
893.396381	2723.934549
893.704864	2765.392998
894.013306	2830.950683
894.321707	2920.925197
894.630068	2966.814820
894.938387	2989.827688
895.246665	2979.349649
895.554903	2936.751899
895.863100	2894.260014
896.171256	2841.239678
896.479371	2780.221552
896.787446	2745.805595
897.095480	2729.051320
897.403473	2720.935062
897.711425	2706.255222
898.019336	2688.936338
898.327207	2675.587363
898.635038	2676.351097
898.942827	2675.902435
899.250576	2662.992040
899.558284	2652.337561
899.865952	2649.126346
900.173579	2647.742549
900.481165	2646.031078
900.788711	2637.549336
901.096216	2629.564149
901.403681	2625.717748
901.711105	2628.896196
902.018489	2625.072481
902.325832	2630.229581
902.633135	2629.584313
902.940397	2645.640388
903.247619	2682.682787
903.554800	2750.476224
903.861941	2868.822351
904.169041	2988.605208
904.476101	3045.686193
904.783121	3039.193187
905.090100	2983.342243
905.397039	2912.647622
905.703938	2843.097343
906.010796	2783.117695
906.317614	2735.902248
906.624391	2699.288347
906.931129	2674.548885
907.237826	2656.793941
907.544483	2637.730818
907.851099	2623.739095
908.157675	2617.046964
908.464211	2609.434821
908.770707	2596.375712
909.077163	2594.192893
909.383578	2591.866400
909.689954	2591.672316
909.996289	2586.847932
910.302584	2588.879517
910.608839	2587.372212
910.915054	2587.115113
911.221229	2588.335072
911.527363	2590.139805
911.833458	2587.387335
912.139513	2589.159301
912.445527	2592.544435
912.751502	2595.836309
913.057436	2601.368975
913.363331	2607.456168
913.669186	2619.002931
913.975000	2631.419293
914.280775	2645.532003
914.586510	2664.582524
914.892205	2697.438244
915.197859	2760.929056
915.503475	2841.431242
915.809050	2902.824934
916.114585	2915.440422
916.420081	2924.015424
916.725536	2937.182918
917.030952	2914.666604
917.336328	2867.055427
917.641665	2820.439877
917.946961	2773.441200
918.252218	2741.283680
918.557435	2718.976574
918.862612	2696.616536
919.167750	2680.063907
919.472848	2664.698470
919.777906	2649.756490
920.082925	2639.049080
920.387904	2627.431741
920.692843	2624.333952
920.997743	2622.761112
921.302603	2614.339864
921.607423	2609.548247
921.912204	2603.554315
922.216946	2599.133223
922.521647	2600.454006
922.826310	2594.374374
923.130932	2588.319948
923.435516	2585.771645
923.740059	2581.436253
924.044564	2582.840214
924.349028	2581.121181
924.653454	2571.485015
924.957840	2569.440827
925.262186	2569.208934
925.566493	2566.947977
925.870761	2563.547718
926.174989	2567.263049
926.479178	2563.177194
926.783328	2563.824982
927.087438	2561.538819
927.391509	2563.204920
927.695541	2559.736606
927.999533	2557.831050
928.303486	2557.221070
928.607400	2557.795762
928.911275	2559.713921
929.215110	2557.760474
929.518906	2557.029507
929.822663	2558.803993
930.126381	2557.727706
930.430060	2556.946327
930.733699	2554.695452
931.037299	2559.487069
931.340861	2557.936914
931.644383	2555.093703
931.947866	2557.563869
932.251309	2559.424055
932.554714	2556.631255
932.858080	2557.578992
933.161407	2555.975905
933.464694	2558.667882
933.767943	2555.005483
934.071153	2556.028838
934.374323	2552.855431
934.677455	2555.383570
934.980548	2556.273333
935.283602	2553.495658
935.586617	2554.324927
935.889593	2557.659651
936.192530	2552.684032
936.495428	2554.592109
936.798287	2556.795093
937.101108	2554.264434
937.403890	2559.555125
937.706632	2564.445044
938.009336	2564.250959
938.312002	2571.739593
938.614628	2569.024932
938.917216	2572.440314
939.219765	2576.619430
939.522275	2576.584142
939.824747	2575.217990
940.127179	2571.512742
940.429573	2566.857236
940.731929	2566.610219
941.034246	2563.799776
941.336524	2567.716753
941.638763	2565.486042
941.940964	2563.653583
942.243126	2564.122410
942.545250	2563.199879
942.847335	2564.031669
943.149381	2563.845147
943.451389	2562.042934
943.753359	2559.784497
944.055290	2561.952193
944.357182	2559.033365
944.659036	2557.851215
944.960851	2558.975392
945.262628	2555.247459
945.564367	2559.981102
945.866067	2558.677964
946.167729	2558.337686
946.469352	2556.963972
946.770937	2557.488252
947.072484	2556.971533
947.373992	2556.457336
947.675462	2557.619322
947.976893	2557.339538
948.278286	2555.824671
948.579641	2554.645041
948.880958	2552.255534
949.182236	2553.120092
949.483476	2553.556152
949.784678	2553.722510
950.085841	2556.079249
950.386967	2554.808878
950.688054	2554.980278
950.989103	2556.051523
951.290114	2557.344579
951.591087	2558.065464
951.892021	2557.115206
952.192917	2560.187789
952.493776	2559.978582
952.794596	2562.005125
953.095378	2563.772050
953.396122	2564.777760
953.696828	2559.953376
953.997496	2559.280382
954.298126	2558.587223
954.598718	2556.681667
954.899272	2555.761656
955.199788	2556.384239
955.500266	2551.738816
955.800706	2550.130687
956.101108	2544.784544
956.401472	2546.856458
956.701798	2545.792775
957.002087	2544.892929
957.302337	2550.256716
957.602550	2548.109185
957.902724	2545.938968
958.202861	2545.283618
958.502960	2545.696993
958.803022	2545.011396
959.103045	2544.691283
959.403031	2543.166333
959.702979	2541.326312
960.002889	2544.754297
960.302762	2541.255736
960.602596	2542.410160
960.902393	2542.727753
961.202153	2541.164995
961.501875	2541.895963
961.801559	2545.500388
962.101205	2542.982331
962.400814	2542.611807
962.700385	2541.119625
962.999918	2544.408978
963.299414	2541.888401
963.598873	2541.031405
963.898293	2540.668442
964.197677	2540.355890
964.497022	2539.791281
964.796331	2541.661549
965.095601	2542.150541
965.394835	2539.662732
965.694030	2542.523586
965.993189	2540.958308
966.292309	2540.650798
966.591393	2538.909079
966.890439	2537.731970
967.189447	2542.974770
967.488419	2540.983514
967.787353	2539.763555
968.086249	2540.489481
968.385108	2539.652649
968.683930	2541.666590
968.982714	2542.904193
969.281462	2539.667773
969.580172	2539.713143
969.878844	2541.021323
970.177480	2540.875129
970.476078	2541.578370
970.774639	2540.923020
971.073162	2541.593493
971.371649	2534.762730
971.670098	2535.871784
971.968510	2540.481919
972.266885	2537.253060
972.565223	2542.200952
972.863524	2539.884542
973.161788	2543.115922
973.460014	2542.400078
973.758204	2541.361600
974.056356	2541.888401
974.354471	2542.309337
974.652550	2541.054090
974.950591	2543.443597
975.248595	2540.078627
975.546563	2543.105840
975.844493	2541.437218
976.142386	2540.451672
976.440243	2542.730274
976.738062	2541.157434
977.035845	2538.412525
977.333590	2540.920499
977.631299	2540.597866
977.928971	2541.981662
978.226606	2539.425797
978.524204	2541.152393
978.821765	2537.318595
979.119290	2540.794471
979.416777	2539.403112
979.714228	2539.788760
980.011642	2541.177598
980.309020	2542.077444
980.606360	2540.371014
980.903664	2539.960160
981.200931	2544.023330
981.498162	2543.516694
981.795356	2542.886549
982.092513	2547.068187
982.389633	2549.079607
982.686717	2550.748229
982.983764	2554.960113
983.280775	2557.258879
983.577749	2554.566903
983.874686	2551.902653
984.171587	2550.733105
984.468451	2548.469627
984.765279	2547.937786
985.062070	2545.611293
985.358824	2543.746066
985.655543	2544.121632
985.952224	2540.066024
986.248869	2540.635674
986.545478	2534.999664
986.842050	2538.127700
987.138586	2534.896321
987.435086	2534.941691
987.731549	2531.652338
988.027975	2538.699871
988.324366	2536.690971
988.620719	2538.619213
988.917037	2537.275745
989.213318	2538.984696
989.509563	2538.001671
989.805772	2540.794471
990.101944	2535.849099
990.398080	2536.932947
990.694180	2535.481094
990.990244	2539.856816
991.286271	2535.531506
991.582262	2538.614172
991.878217	2537.742052
992.174136	2537.706764
992.470019	2538.795653
992.765865	2535.816331
993.061676	2537.578214
993.357450	2539.861857
993.653188	2537.013605
993.948890	2540.229861
994.244556	2533.963707
994.540186	2538.858668
994.835780	2541.447300
995.131337	2539.209028
995.426859	2538.369676
995.722345	2540.181970
996.017795	2541.807743
996.313208	2540.660880
996.608586	2542.117773
996.903928	2539.632485
997.199234	2540.706250
997.494504	2542.057280
997.789738	2540.660880
998.084936	2540.950746
998.380099	2538.364634
998.675225	2537.401774
998.970316	2540.116435
999.265371	2540.131559
999.560390	2539.453524
999.855373	2538.253729
1000.150320	2536.817000
1000.445232	2538.483102
1000.740108	2539.082999
1001.034948	2536.340611
1001.329752	2535.854140
1001.624521	2534.543440
1001.919254	2533.764582
1002.213951	2534.314067
1002.508613	2533.147040
1002.803239	2534.568646
1003.097829	2534.097298
1003.392384	2535.798687
1003.686903	2536.280117
1003.981386	2538.891435
1004.275834	2535.564273
1004.570246	2538.173071
1004.864623	2537.028729
1005.158964	2538.047042
1005.453270	2536.862371
1005.747540	2535.481094
1006.041775	2534.520755
1006.335974	2538.662063
1006.630138	2535.803728
1006.924266	2537.497556
1007.218359	2533.348686
1007.512416	2535.949922
1007.806438	2534.855991
1008.100425	2535.743234
1008.394376	2536.224665
1008.688292	2535.566794
1008.982172	2534.666948
1009.276017	2533.867925
1009.569827	2534.470343
1009.863602	2536.965714
1010.157341	2537.230375
1010.451045	2536.557381
1010.744714	2536.338091
1011.038347	2535.450847
1011.331945	2535.173584
1011.625508	2537.114428
1011.919036	2535.120652
1012.212528	2533.709129
1012.505986	2537.104346
1012.799408	2535.791125
1013.092795	2531.480939
1013.386147	2536.801877
1013.679464	2535.236598
1013.972745	2537.510159
1014.265992	2535.034952
1014.559204	2535.453368
1014.852380	2536.817000
1015.145521	2537.984027
1015.438628	2534.477905
1015.731699	2534.064530
1016.024736	2536.060827
1016.317737	2534.480425
1016.610703	2536.164171
1016.903635	2532.146371
1017.196531	2530.444982
1017.489393	2533.260466
1017.782219	2531.977493
1018.075011	2535.917154
1018.367768	2534.588810
1018.660490	2537.018646
1018.953177	2537.018646
1019.245829	2537.018646
