Dividing Wavelength (nm)	Counts (n)	Blue Motor Position (mm): 30.900000	Red Motor Position (mm): 0.000000	
326.493990	2131.079733
326.888308	2131.079733
327.282561	2131.079733
327.676750	2100.416915
328.070874	2098.241657
328.464933	2097.976996
328.858929	2106.572163
329.252859	2114.731271
329.646726	2128.559156
330.040528	2138.049128
330.434265	2158.586789
330.827938	2174.756290
331.221547	2191.583661
331.615091	2210.621579
332.008571	2230.892058
332.401986	2250.492065
332.795338	2269.691299
333.188625	2288.693928
333.581847	2308.130097
333.975006	2324.786069
334.368100	2345.255675
334.761129	2359.930473
335.154095	2378.723895
335.546996	2399.334653
335.939833	2424.772315
336.332606	2441.130859
336.725315	2451.036726
337.117960	2460.037707
337.510540	2470.351907
337.903056	2479.264667
338.295508	2490.211533
338.687896	2496.323932
339.080220	2504.639315
339.472480	2511.754904
339.864676	2515.487878
340.256807	2520.153466
340.648875	2524.798889
341.040879	2524.763601
341.432818	2526.996833
341.824694	2530.336597
342.216506	2526.699404
342.608253	2529.051103
342.999937	2527.019518
343.391557	2529.507327
343.783113	2526.482635
344.174605	2526.129754
344.566033	2528.115969
344.957397	2519.697242
345.348697	2522.210257
345.739934	2518.361336
346.131106	2518.179854
346.522215	2517.257323
346.913260	2512.937054
347.304241	2513.110974
347.695159	2510.910511
348.086012	2510.179543
348.476802	2508.934378
348.867528	2508.132835
349.258191	2505.697958
349.648789	2505.418173
350.039324	2502.169150
350.429796	2501.639829
350.820203	2498.632780
351.210548	2499.209993
351.600828	2495.824858
351.991045	2495.335866
352.381198	2498.418531
352.771288	2498.307626
353.161314	2495.169508
353.551276	2499.086484
353.941175	2495.313181
354.331010	2499.499859
354.720782	2496.076915
355.110490	2495.000629
355.500135	2494.579693
355.889717	2496.381905
356.279235	2495.098932
356.668689	2495.572800
357.058080	2496.759992
357.447408	2495.794611
357.836672	2494.171359
358.225873	2493.694970
358.615010	2492.724548
359.004084	2496.898623
359.393095	2498.254694
359.782043	2501.113028
360.170927	2499.633449
360.559748	2500.200579
360.948505	2500.830723
361.337199	2499.482215
361.725830	2500.931547
362.114398	2505.632423
362.502903	2501.516320
362.891344	2502.963132
363.279722	2503.013543
363.668037	2503.547905
364.056289	2503.396671
364.444478	2505.133348
364.832603	2504.548574
365.220665	2507.500170
365.608665	2504.722494
365.996601	2507.132166
366.384474	2506.940602
366.772284	2507.238030
367.160031	2507.187618
367.547715	2505.856754
367.935336	2508.667197
368.322893	2506.587721
368.710388	2510.285408
369.097820	2512.758093
369.485189	2513.060563
369.872495	2509.486385
370.259738	2511.482682
370.646918	2509.962774
371.034035	2511.772548
371.421090	2510.953360
371.808081	2509.650222
372.195010	2513.433608
372.581875	2511.296159
372.968678	2513.118536
373.355418	2509.811539
373.742096	2513.075686
374.128710	2512.392610
374.515262	2513.814215
374.901751	2512.183402
375.288177	2513.957888
375.674540	2516.513753
376.060841	2515.036695
376.447079	2510.729029
376.833254	2516.796058
377.219367	2510.033350
377.605417	2514.822446
377.991404	2511.407064
378.377329	2513.012672
378.763191	2513.468896
379.148991	2517.776562
379.534727	2515.094668
379.920402	2518.631038
380.306013	2514.930831
380.691563	2519.127591
381.077049	2516.770852
381.462474	2517.864782
381.847835	2518.936027
382.233134	2515.823115
382.618371	2518.837725
383.003545	2520.113137
383.388657	2518.741943
383.773706	2518.164731
384.158693	2519.304032
384.543618	2521.988446
384.928480	2519.591378
385.313280	2519.911491
385.698017	2517.085924
386.082692	2523.616739
386.467305	2521.691018
386.851856	2522.038858
387.236344	2521.426358
387.620770	2518.754546
388.005133	2523.006759
388.389435	2525.174455
388.773674	2522.308559
389.157851	2522.895854
389.541965	2522.427027
389.926018	2524.982892
390.310008	2523.168076
390.693936	2524.004908
391.077802	2523.097500
391.461606	2525.958355
391.845348	2523.324352
392.229027	2524.531708
392.612645	2524.672861
392.996200	2523.450381
393.379694	2525.754188
393.763125	2527.410207
394.146494	2525.524816
394.529801	2528.171421
394.913047	2522.805113
395.296230	2526.986750
395.679351	2526.497758
396.062410	2528.201668
396.445408	2526.122192
396.828343	2527.173273
397.211217	2524.171266
397.594028	2525.023221
397.976778	2526.520443
398.359466	2528.030269
398.742092	2525.239990
399.124656	2529.535053
399.507158	2526.308715
399.889598	2529.391381
400.271977	2531.233922
400.654294	2530.555887
401.036549	2529.645959
401.418742	2531.158305
401.800874	2529.794673
402.182944	2531.334745
402.564952	2531.785929
402.946898	2530.021525
403.328783	2533.328522
403.710606	2531.047400
404.092367	2534.651825
404.474067	2531.977493
404.855705	2533.086546
405.237282	2533.804911
405.618797	2534.901362
406.000250	2536.219623
406.381642	2535.561753
406.762972	2533.318439
407.144240	2534.934129
407.525447	2534.908923
407.906593	2538.208359
408.287677	2536.428831
408.668700	2536.234747
409.049661	2536.156609
409.430560	2532.940353
409.811399	2540.686086
410.192176	2538.054603
410.572891	2538.745242
410.953545	2537.225334
411.334138	2540.403781
411.714669	2539.473688
412.095139	2539.221631
412.475547	2539.750952
412.855894	2541.296065
413.236180	2539.791281
413.616405	2541.185160
413.996568	2539.738349
414.376670	2542.200952
414.756711	2540.386137
415.136691	2543.317568
415.516609	2544.587939
415.896466	2543.249513
416.276262	2545.328988
416.655997	2540.401261
417.035670	2540.464275
417.415283	2543.801519
417.794834	2541.472506
418.174324	2544.351005
418.553753	2549.475337
418.933121	2550.201264
419.312428	2554.299722
419.691674	2555.849877
420.070859	2560.681822
420.449983	2562.438665
420.829045	2566.579972
421.208047	2573.758576
421.586988	2577.431056
421.965867	2585.958168
422.344686	2593.194744
422.723444	2597.504931
423.102141	2599.881835
423.480777	2614.927158
423.859352	2619.723816
424.237866	2637.390540
424.616319	2645.199287
424.994712	2661.716628
425.373044	2670.941939
425.751314	2688.396935
426.129524	2691.726617
426.507673	2716.980277
426.885762	2735.927454
427.263789	2748.283322
427.641756	2755.366143
428.019662	2781.408744
428.397508	2799.009932
428.775292	2819.232521
429.153016	2847.226048
429.530679	2863.985364
429.908282	2893.334962
430.285824	2898.890313
430.663305	2962.134109
431.040726	2954.000207
431.418086	2978.696820
431.795385	3020.397245
432.172624	3053.167265
432.549802	3081.891760
432.926920	3117.802419
433.303977	3152.777945
433.680974	3191.274716
434.057910	3232.297105
434.434786	3269.223557
434.811601	3296.024852
435.188355	3384.315620
435.565050	3397.505799
435.941683	3436.778908
436.318257	3534.358003
436.694770	3579.095723
437.071222	3631.652272
437.447614	3656.243020
437.823946	3670.771626
438.200218	3771.521606
438.576429	3771.204013
438.952580	3858.078217
439.328670	3923.736726
439.704700	3938.209878
440.080670	3980.648832
440.456580	4147.203514
440.832429	4151.629647
441.208218	4130.091317
441.583947	4251.328547
441.959616	4306.985406
442.335224	4321.292200
442.710773	4440.097073
443.086261	4510.108618
443.461689	4444.404739
443.837057	4587.424794
444.212365	4729.156835
444.587612	4712.286613
444.962800	4859.195919
445.337927	4897.685128
445.712995	4705.518864
446.088002	5121.981186
446.462949	5062.792999
446.837837	5069.175100
447.212664	5224.014140
447.587431	5383.299478
447.962139	5813.687988
448.336786	6519.033631
448.711374	6395.220372
449.085901	5776.776659
449.460369	5772.652996
449.834776	5770.457573
450.209124	6115.486745
450.583412	6288.526872
450.957640	6437.631599
451.331808	6301.648995
451.705917	5982.808617
452.079965	5957.741480
452.453954	6175.267268
452.827883	6104.872596
453.201752	6218.033897
453.575562	6078.343524
453.949311	6287.995030
454.323001	6222.870884
454.696632	6315.098793
455.070202	6472.934800
455.443713	6637.168030
455.817164	6756.492142
456.190556	6853.942687
456.563888	6947.221677
456.937160	7010.515884
457.310373	6720.236163
457.683526	6767.968329
458.056619	6691.927564
458.429653	6692.484612
458.802628	6648.351830
459.175542	6768.341374
459.548398	7117.249714
459.921194	7286.193903
460.293930	7302.189484
460.666607	7823.396901
461.039224	8131.277810
461.411782	8272.964480
461.784280	8306.901528
462.156719	8212.889050
462.529099	8113.512784
462.901419	7714.510498
463.273680	7619.522557
463.645882	7645.141701
464.018024	7524.058227
464.390106	7694.411418
464.762130	8076.772855
465.134094	8541.957929
465.505999	9558.930059
465.877845	10761.789696
466.249631	11407.558983
466.621358	11038.528877
466.993026	10428.241752
467.364634	10179.002064
467.736184	9822.912601
468.107674	9499.600719
468.479105	9531.501141
468.850477	9298.556983
469.221790	9075.952232
469.593043	8749.809743
469.964238	8616.105740
470.335373	8631.761043
470.706449	8692.980816
471.077467	8679.858692
471.448425	9984.577363
471.819324	11039.902592
472.190164	11054.506814
472.560945	9815.376076
472.931667	9040.339001
473.302330	8912.205473
473.672934	8562.099859
474.043479	8909.828569
474.413965	8853.281946
474.784393	8741.643074
475.154761	8895.947752
475.525070	8985.486206
475.895321	8812.998086
476.265513	8985.196340
476.635645	9159.584975
477.005719	9156.857710
477.375734	9273.610833
477.745691	9504.586420
478.115588	9643.777719
478.485427	9887.804853
478.855207	10422.071379
479.224928	11227.473844
479.594591	11849.718587
479.964194	11664.713282
480.333739	11602.465114
480.703226	11511.631083
481.072653	11609.449633
481.442022	11842.111486
481.811333	12029.478571
482.180584	11840.294150
482.549777	11555.300079
482.918912	11381.975127
483.287988	11400.148487
483.657005	11413.792370
484.025964	11097.099523
484.394864	11229.724719
484.763706	11197.725995
485.132489	10960.660694
485.501213	10922.320199
485.869879	10998.456745
486.238487	10842.468322
486.607036	10950.747265
486.975527	10727.832483
487.343959	10919.751731
487.712333	10966.200922
488.080648	10890.432380
488.448905	10939.349217
488.817104	10881.277645
489.185244	11147.783284
489.553326	11302.705503
489.921350	11835.268119
490.289315	12885.743758
490.657222	13231.395512
491.025070	13138.570226
491.392861	13010.252696
491.760593	12638.175213
492.128267	12297.456227
492.495883	11962.136318
492.863440	11624.580656
493.230939	11293.964143
493.598380	11222.949408
493.965763	11095.814029
494.333088	10998.933134
494.700354	10918.186453
495.067563	10974.294495
495.434713	10809.516820
495.801805	10936.422827
496.168839	10858.214366
496.535815	10796.606425
496.902733	10796.422423
497.269593	10733.105530
497.636395	10828.176651
498.003139	10819.029477
498.369825	10690.338902
498.736453	10838.294247
499.103023	10766.601477
499.469535	10800.014245
499.835989	10793.838831
500.202385	10754.739642
500.568723	10603.835222
500.935003	10827.546507
501.301226	10636.365788
501.667390	10891.143183
502.033497	10990.380817
502.399546	10851.877636
502.765537	10753.446586
503.131470	10825.557771
503.497345	11006.764567
503.863163	10608.924267
504.228923	10925.160889
504.594625	10985.324540
504.960269	10738.285316
505.325856	10953.507297
505.691385	10746.336039
506.056856	10902.354709
506.422270	10928.084758
506.787625	10822.979221
507.152924	10934.923083
507.518164	10917.445403
507.883347	10835.932466
508.248472	10763.392783
508.613540	10987.459468
508.978550	10870.403876
509.343503	10845.051913
509.708398	10969.936417
510.073236	11077.063457
510.438016	11081.663510
510.802738	11036.585513
511.167403	11084.884808
511.532010	10984.263377
511.896561	11218.117463
512.261053	11282.671958
512.625488	11151.879222
512.989866	11139.477983
513.354186	11124.420057
513.718449	11028.776765
514.082655	11225.354039
514.446803	11114.257090
514.810894	11237.858621
515.174927	11099.357960
515.538904	11127.759821
515.902822	11287.544233
516.266684	11168.157107
516.630488	11105.467839
516.994235	11165.702065
517.357925	11224.156765
517.721558	11309.627008
518.085133	11324.763072
518.448651	11338.195227
518.812112	11219.037473
519.175516	11232.953578
519.538863	11356.978566
519.902152	11270.815164
520.265385	11439.504775
520.628560	11336.811430
520.991678	11330.419247
521.354739	11382.063347
521.717743	11327.868423
522.080690	11300.799947
522.443580	11438.907398
522.806413	11390.668597
523.169189	11420.534913
523.531908	11479.062709
523.894569	11298.980091
524.257174	11301.200719
524.619722	11420.461816
524.982213	11367.355781
525.344647	11412.660631
525.707025	11372.412058
526.069345	11464.453445
526.431608	11378.849612
526.793815	11488.063689
527.155964	11277.514858
527.518057	11333.370842
527.880093	11282.152719
528.242072	11345.121772
528.603995	11263.855851
528.965860	11176.255721
529.327669	11229.969215
529.689421	11174.493838
530.051117	11147.299333
530.412755	11249.339849
530.774337	11136.904474
531.135862	11120.556012
531.497331	11146.870835
531.858743	11002.514874
532.220098	11163.725933
532.581396	11032.537466
532.942638	11021.895590
533.303824	10980.676596
533.664953	11001.100831
534.026025	10916.134703
534.387040	11003.437405
534.747999	11010.003508
535.108902	11067.018958
535.469748	10827.463328
535.830537	10930.965778
536.191270	10911.789228
536.551947	10934.940728
536.912567	10935.359143
537.273131	10863.008503
537.633638	10833.961375
537.994089	10826.639099
538.354483	10776.734196
538.714821	10919.998748
539.075103	10931.106930
539.435328	10892.247196
539.795497	10716.557943
540.155609	10882.759744
540.515665	10965.946344
540.875665	10702.785511
541.235609	10770.253793
541.595496	10768.287743
541.955328	10918.128479
542.315102	10803.777466
542.674821	10753.648232
543.034483	10754.013716
543.394090	10756.937585
543.753640	10684.259270
544.113134	10910.087839
544.472571	10760.403378
544.831953	10904.663558
545.191278	10714.218847
545.550548	10748.349980
545.909761	10877.915195
546.268918	10853.498367
546.628019	10935.074318
546.987064	10799.805037
547.346053	10714.906965
547.704986	10821.698768
548.063863	10812.813734
548.422684	10800.770418
548.781449	10712.038548
549.140158	10814.492439
549.498811	10698.256034
549.857408	10553.771523
550.215949	10781.329208
550.574434	10635.105500
550.932864	10734.673329
551.291237	10791.318254
551.649555	10737.342620
552.007817	10749.665721
552.366022	10710.654752
552.724173	10700.398524
553.082267	10688.773623
553.440305	10826.981897
553.798288	10630.084510
554.156215	10775.655389
554.514086	10760.100909
554.871902	10603.142064
555.229661	10642.551284
555.587365	10623.485640
555.945014	10515.047900
556.302606	10645.452468
556.660143	10538.537157
557.017625	10683.430000
557.375050	10587.423746
557.732421	10720.608510
558.089735	10638.737651
558.446994	10635.624738
558.804197	10667.439460
559.161345	10672.226036
559.518437	10518.667449
559.875474	10611.810328
560.232455	10641.538012
560.589381	10589.450290
560.946251	10587.532131
561.303065	10695.052381
561.659825	10628.708275
562.016528	10559.183202
562.373177	10436.826837
562.729770	10558.573223
563.086307	10464.661567
563.442789	10564.635210
563.799216	10435.652248
564.155587	10487.855916
564.511904	10449.212952
564.868164	10439.304564
565.224370	10451.773858
565.580520	10373.661179
565.936615	10381.290965
566.292654	10251.133414
566.648638	10376.973217
567.004567	10333.190796
567.360441	10327.113685
567.716260	10233.769160
568.072023	10321.896091
568.427732	10280.046952
568.783385	10186.654536
569.138982	10250.876315
569.494525	10270.698132
569.850013	10150.149020
570.205445	10228.654909
570.560823	10131.451381
570.916145	10045.562722
571.271412	10113.583011
571.626625	10063.773890
571.981782	10036.876814
572.336884	10010.385550
572.691931	10015.953505
573.046923	9962.280340
573.401860	9922.820708
573.756743	9858.208239
574.111570	9899.099559
574.466342	9884.099605
574.821059	9914.011292
575.175722	9805.603799
575.530330	9814.945057
575.884882	9804.461978
576.239380	9726.344257
576.593823	9716.198935
576.948211	9722.616324
577.302544	9611.123645
577.656823	9620.585891
578.011047	9623.320717
578.365216	9600.544784
578.719330	9527.364874
579.073389	9534.009115
579.427394	9482.556578
579.781344	9457.507085
580.135239	9409.106967
580.489080	9422.133308
580.842866	9317.305034
581.196597	9327.107558
581.550273	9369.566676
581.903895	9335.985030
582.257463	9395.687415
582.610975	9276.945557
582.964434	9308.891349
583.317837	9229.783042
583.671186	9207.677582
584.024481	9201.746665
584.377721	9121.272205
584.730906	9095.106096
585.084037	9132.609760
585.437113	9069.859998
585.790135	9086.896577
586.143103	8979.194846
586.496016	8961.271023
586.848874	9015.012244
587.201679	9007.079988
587.554428	8891.317452
587.907124	8937.791849
588.259765	8906.236747
588.612352	8912.334022
588.964884	8785.647306
589.317362	8805.653125
589.669786	8802.457033
590.022155	8850.789096
590.374470	8864.924491
590.726731	8809.469278
591.078937	8654.199219
591.431090	8772.517621
591.783188	8642.841500
592.135232	8637.235737
592.487222	8632.071074
592.839157	8692.630456
593.191038	8622.235783
593.542866	8563.491218
593.894639	8470.078637
594.246358	8520.364146
594.598022	8539.732259
594.949633	8435.980272
595.301190	8411.959174
595.652692	8439.042773
596.004141	8549.292808
596.355535	8327.497162
596.706876	8301.331053
597.058162	8239.224038
597.409395	8319.118764
597.760573	8384.613435
598.111698	8290.573231
598.462768	8271.742000
598.813785	8240.259995
599.164748	8210.050880
599.515657	8201.637194
599.866511	8114.906663
600.217312	8236.862257
600.568060	8092.516378
600.918753	8193.974641
601.269392	8167.274169
601.619978	8083.696880
601.970510	8145.461097
602.320988	8138.080847
602.671412	8195.585289
603.021783	8135.192266
603.372100	8106.424922
603.722363	8109.585725
604.072572	8079.560613
604.422728	8088.972447
604.772830	8026.003394
605.122878	8032.075464
605.472872	8023.956686
605.822813	8053.702014
606.172701	7996.857963
606.522534	8079.164882
606.872314	8074.955519
607.222041	8041.847741
607.571714	8101.950898
607.921333	8056.920791
608.270899	8065.896565
608.620411	8156.488621
608.969870	8059.534629
609.319276	8056.497334
609.668627	8068.782626
610.017926	8110.379707
610.367171	8154.061305
610.716362	8134.103377
611.065500	8118.352292
611.414585	8146.250037
611.763616	8137.780899
612.112594	8112.244934
612.461518	8127.156667
612.810389	8194.614867
613.159207	8132.021380
613.507971	8076.969460
613.856682	8200.757513
614.205340	8153.529463
614.553945	8238.757731
614.902496	8127.128941
615.250994	8190.655041
615.599439	8168.415991
615.947830	8183.746139
616.296169	8153.998291
616.644454	8167.785846
616.992686	8162.003643
617.340864	8218.522539
617.688990	8121.858414
618.037063	8219.679484
618.385082	8164.761154
618.733048	8251.514371
619.080961	8190.234104
619.428821	8208.926703
619.776628	8213.514153
620.124382	8163.515989
620.472083	8148.440418
620.819731	8172.516969
621.167326	8069.710198
621.514868	8081.244358
621.862357	7964.324877
622.209793	7983.763566
622.557176	7917.890809
622.904506	7886.338227
623.251783	7819.830284
623.599007	7778.137422
623.946179	7781.628421
624.293297	7742.577122
624.640363	7653.802403
624.987376	7634.290617
625.334336	7587.453257
625.681243	7532.487036
626.028097	7521.414141
626.374899	7500.115266
626.721647	7494.683423
627.068343	7420.986795
627.414987	7399.471150
627.761577	7350.929880
628.108115	7389.068729
628.454600	7285.231043
628.801032	7327.972465
629.147412	7297.702857
629.493739	7281.747605
629.840014	7224.049079
630.186236	7275.050432
630.532405	7158.826630
630.878521	7209.404527
631.224585	7172.737694
631.570597	7092.172494
631.916556	7127.226157
632.262462	7122.721887
632.608316	7077.522901
632.954117	7058.943729
633.299866	7045.088117
633.645562	7039.689042
633.991206	6958.581917
634.336797	6905.957312
634.682336	6860.201279
635.027823	6826.647359
635.373257	6821.598644
635.718639	6752.381081
636.063968	6763.723677
636.409245	6662.131824
636.754470	6657.090670
637.099642	6620.159177
637.444762	6560.502163
637.789829	6571.438946
638.134845	6512.457446
638.479808	6497.170147
638.824719	6503.368246
639.169577	6428.479385
639.514383	6449.417817
639.859137	6374.758329
640.203839	6385.291820
640.548489	6374.821343
640.893086	6351.556418
641.237632	6323.104146
641.582125	6347.163052
641.926566	6310.213915
642.270955	6326.675803
642.615292	6326.091029
642.959576	6336.357339
643.303809	6324.883673
643.647990	6334.608059
643.992118	6325.735628
644.336195	6266.176916
644.680219	6298.364683
645.024192	6286.752385
645.368112	6382.405759
645.711981	6406.336116
646.055797	6473.804399
646.399562	6436.862823
646.743274	6559.561987
647.086935	6613.003259
647.430544	6613.726665
647.774101	6629.681917
648.117606	6630.032277
648.461059	6629.603779
648.804460	6588.450320
649.147810	6496.945816
649.491108	6464.402647
649.834354	6442.234173
650.177548	6359.324836
650.520690	6277.184275
650.863781	6256.447489
651.206820	6280.619822
651.549807	6198.335588
651.892742	6135.646319
652.235626	6147.150233
652.578458	6124.855730
652.921238	6040.643255
653.263967	6076.379994
653.606644	6017.096025
653.949269	6019.160378
654.291843	5961.955884
654.634365	6008.090004
654.976836	5965.358663
655.319255	5964.050484
655.661622	5941.887051
656.003938	5938.839673
656.346203	5900.988170
656.688416	5932.107212
657.030577	5878.436568
657.372687	5852.469584
657.714746	5841.510116
658.056753	5881.272217
658.398708	5822.709133
658.740612	5810.486855
659.082465	5862.872005
659.424266	5854.170974
659.766016	5850.838771
660.107715	5829.232386
660.449362	5842.079766
660.790958	5834.926369
661.132503	5820.329708
661.473996	5859.224731
661.815438	5845.787535
662.156829	5845.190158
662.498168	5839.009704
662.839456	5811.701773
663.180693	5852.126786
663.521879	5850.266600
663.863013	5842.528429
664.204097	5859.418815
664.545129	5899.495988
664.886110	5899.503550
665.227040	5930.108395
665.567918	5893.781840
665.908746	5922.415594
666.249522	5923.688485
666.590248	5913.515437
666.930922	5937.718017
667.271545	5958.898424
667.612118	5959.636953
667.952639	5926.191418
668.293109	5952.304595
668.633528	5908.423872
668.973896	5908.151649
669.314213	5902.089662
669.654480	5888.216406
669.994695	5877.602257
670.334859	5868.147573
670.674973	5859.454103
671.015035	5864.616245
671.355047	5858.980235
671.695008	5848.547567
672.034918	5823.745090
672.374777	5832.010062
672.714585	5817.221837
673.054342	5824.486139
673.394049	5815.807793
673.733705	5846.354665
674.073310	5833.570299
674.412864	5791.708557
674.752368	5787.423576
675.091820	5786.261590
675.431223	5729.672118
675.770574	5726.770934
676.109875	5679.409293
676.449125	5688.072516
676.788324	5650.518441
677.127473	5596.570533
677.466571	5587.040232
677.805619	5573.368622
678.144616	5558.706426
678.483562	5537.248755
678.822458	5507.942007
679.161303	5507.211040
679.500098	5494.522456
679.838842	5480.934025
680.177535	5481.049972
680.516179	5495.961705
680.854771	5507.677347
681.193314	5588.769347
681.531805	5695.011665
681.870247	5848.240056
682.208638	5950.905675
682.546978	5962.512932
682.885268	5939.376556
683.223508	5852.399008
683.561697	5795.396161
683.899836	5769.575371
684.237925	5725.308999
684.575963	5691.480336
684.913951	5648.459129
685.251889	5712.862390
685.589776	5677.619684
685.927614	5649.439634
686.265401	5721.409667
686.603137	5703.626997
686.940824	5783.304954
687.278460	5805.334796
687.616046	5818.880376
687.953582	5878.607967
688.291068	5862.761100
688.628504	5931.451862
688.965889	5888.773454
689.303224	5834.250854
689.640510	5786.932064
689.977745	5712.431372
690.314930	5610.282471
690.652065	5556.382454
690.989150	5466.846521
691.326185	5389.134614
691.663170	5337.263661
692.000105	5256.373307
692.336990	5182.404456
692.673825	5160.104912
693.010610	5090.957926
693.347345	5016.459754
693.684030	5004.673536
694.020665	4963.116785
694.357251	4876.083784
694.693786	4884.389085
695.030272	4850.383982
695.366707	4812.678672
695.703093	4782.923261
696.039429	4806.294050
696.375716	4786.114311
696.711952	4761.644551
697.048139	4744.098815
697.384276	4728.146083
697.720363	4743.297271
698.056400	4747.746089
698.392388	4701.465777
698.728326	4681.313764
699.064214	4657.264940
699.400053	4650.474505
699.735842	4619.857057
700.071581	4594.429478
700.407270	4567.592895
700.742910	4549.182601
701.078501	4495.769056
701.414042	4494.705372
701.749533	4465.625476
702.084974	4400.929828
702.420366	4457.249599
702.755709	4401.171804
703.091002	4342.069316
703.426246	4391.732243
703.761440	4348.138865
704.096584	4310.625119
704.431679	4329.063139
704.766725	4316.119977
705.101721	4302.985250
705.436668	4329.214374
705.771565	4280.269811
706.106413	4305.107576
706.441212	4341.106456
706.775961	4345.383875
707.110661	4325.869568
707.445311	4354.813353
707.779913	4376.462588
708.114465	4392.017068
708.448967	4410.802928
708.783421	4477.878001
709.117825	4516.944422
709.452180	4523.563457
709.786485	4569.019542
710.120742	4654.308303
710.454949	4636.041682
710.789107	4701.009552
711.123216	4779.684320
711.457275	4763.913070
711.791286	4845.302499
712.125247	4856.261967
712.459159	4761.352164
712.793023	4833.327238
713.126837	4792.965239
713.460602	4788.687820
713.794318	4708.856108
714.127985	4718.154516
714.461602	4632.898522
714.795171	4604.161425
715.128691	4539.231363
715.462162	4479.985203
715.795584	4433.349489
716.128957	4414.177981
716.462281	4359.592367
716.795556	4337.358358
717.128782	4298.932163
717.461960	4233.684508
717.795088	4236.162235
718.128167	4200.750650
718.461198	4135.603819
718.794180	4135.271103
719.127113	4114.020119
719.459997	4094.815843
719.792833	4052.563412
720.125619	4043.133934
720.458357	4007.878625
720.791046	4011.848533
721.123686	3986.609997
721.456278	3944.808749
721.788821	3959.032364
722.121315	3931.721913
722.453761	3906.427924
722.786158	3921.135490
723.118506	3944.463430
723.450805	3892.731109
723.783056	3916.764810
724.115259	3933.161163
724.447412	3938.038479
724.779518	3929.024896
725.111574	3935.129733
725.443582	3963.551759
725.775542	3950.258236
726.107453	4004.145650
726.439315	4002.224971
726.771129	4016.010006
727.102895	4050.332702
727.434612	4100.093931
727.766281	4111.512145
728.097901	4110.513996
728.429473	4116.921303
728.760996	4128.342037
729.092471	4120.447590
729.423897	4102.047378
729.755276	4108.522741
730.086606	4107.519551
730.417887	4146.225530
730.749120	4211.107701
731.080305	4274.384264
731.411442	4302.806289
731.742530	4271.286475
732.073570	4272.498872
732.404562	4329.395855
732.735506	4318.690965
733.066401	4286.296510
733.397249	4221.489957
733.728048	4137.519458
734.058798	4062.560020
734.389501	3988.344153
734.720156	3924.775203
735.050762	3885.587794
735.381320	3875.936505
735.711831	3824.930110
736.042293	3795.870379
736.372707	3819.987259
736.703073	3791.534987
737.033391	3782.516363
737.363661	3797.458343
737.693883	3823.289215
738.024056	3833.875638
738.354182	3826.616376
738.684260	3890.785224
739.014290	3910.874222
739.344272	3904.701329
739.674207	3949.600366
740.004093	3953.250161
740.333931	3947.979635
740.663722	3952.017599
740.993464	3945.340591
741.323159	3923.903084
741.652806	3891.682549
741.982405	3865.080380
742.311956	3837.772450
742.641460	3827.697704
742.970915	3802.607881
743.300323	3761.850152
743.629683	3726.604925
743.958996	3715.322823
744.288260	3689.549924
744.617477	3657.921725
744.946647	3644.875218
745.275768	3618.832618
745.604842	3618.998976
745.933869	3570.155236
746.262847	3560.980336
746.591778	3599.144391
746.920662	3569.671285
747.249498	3536.631563
747.578286	3584.295673
747.907027	3604.251080
748.235720	3599.419134
748.564365	3623.067187
748.892963	3627.304277
749.221514	3605.791153
749.550017	3582.145621
749.878473	3581.777616
750.206881	3554.081517
750.535242	3552.685118
750.863555	3552.291907
751.191821	3546.958367
751.520039	3527.315511
751.848210	3500.584793
752.176334	3536.709701
752.504411	3543.018705
752.832440	3503.788446
753.160421	3487.238338
753.488356	3493.559945
753.816243	3509.658869
754.144082	3467.391315
754.471875	3449.883388
754.799620	3472.152685
755.127318	3465.004329
755.454969	3460.454687
755.782572	3467.759319
756.110129	3445.502625
756.437638	3433.998712
756.765100	3450.203501
757.092515	3457.616518
757.419882	3466.733444
757.747203	3436.917540
758.074477	3440.910134
758.401703	3458.181127
758.728882	3475.212665
759.056014	3485.050477
759.383099	3487.026609
759.710138	3481.466217
760.037129	3499.274092
760.364073	3531.512271
760.690970	3515.665404
761.017820	3490.991477
761.344623	3515.408305
761.671379	3554.381466
761.998088	3607.323663
762.324751	3736.052047
762.651366	3976.820076
762.977935	4450.585194
763.304456	4895.214963
763.630931	4985.373479
763.957359	4626.773521
764.283740	4287.874392
764.610074	4096.630659
764.936362	3898.145308
765.262602	3741.675455
765.588796	3632.098414
765.914943	3542.451575
766.241044	3455.484110
766.567097	3423.472783
766.893104	3374.661811
767.219064	3348.946885
767.544978	3319.128460
767.870845	3263.325407
768.196665	3248.867378
768.522438	3256.053543
768.848165	3251.226638
769.173846	3213.899414
769.499479	3200.283258
769.825066	3181.709127
770.150607	3163.639111
770.476101	3178.961698
770.801548	3175.851306
771.126949	3129.024028
771.452303	3114.245885
771.777611	3118.954323
772.102872	3124.965899
772.428087	3100.163422
772.753256	3089.375353
773.078378	3082.826894
773.403453	3048.395813
773.728482	3037.055738
774.053465	3056.058367
774.378401	3045.736604
774.703291	3013.261491
775.028135	3018.650485
775.352932	3010.307375
775.677683	2996.386229
776.002388	2993.835405
776.327046	2996.620643
776.651658	2985.290649
776.976224	2971.170377
777.300743	2974.321098
777.625216	2963.268369
777.949643	2960.846094
778.274024	2961.282154
778.598359	2949.309414
778.922647	2955.999025
779.246889	2955.789817
779.571086	2938.163423
779.895236	2933.747372
780.219339	2943.050821
780.543397	2960.125209
780.867409	2962.416414
781.191374	2952.170268
781.515294	2948.633899
781.839167	2951.499795
782.162995	2943.360852
782.486776	2951.726647
782.810511	2946.340174
783.134201	2934.231323
783.457844	2942.970163
783.781441	2935.131168
784.104993	2910.363980
784.428498	2913.638209
784.751958	2927.108172
785.075372	2919.372522
785.398739	2904.478433
785.722061	2922.598860
786.045337	2932.426589
786.368568	2920.771442
786.691752	2910.424473
787.014891	2957.397945
787.337983	2987.397852
787.661030	3016.376924
787.984031	3081.894280
788.306987	3127.864562
788.629897	3121.011114
788.952760	3105.529730
789.275579	3090.330651
789.598351	3030.865201
789.921078	2982.717140
790.243759	2977.834783
790.566395	2958.164200
790.888984	2933.797783
791.211529	2918.608787
791.534027	2907.477919
791.856480	2899.205386
792.178888	2886.302552
792.501249	2878.544217
792.823566	2872.522558
793.145836	2871.302599
793.468062	2866.642052
793.790241	2863.214068
794.112375	2873.435007
794.434464	2882.952706
794.756507	2888.644168
795.078505	2894.403687
795.400457	2907.858526
795.722364	2945.263888
796.044226	2970.452013
796.366042	2970.946046
796.687812	2958.214612
797.009538	2980.068014
797.331218	2967.790284
797.652852	2953.196143
797.974442	2936.114193
798.295986	2929.931218
798.617484	2925.162287
798.938938	2912.803898
799.260346	2896.644479
799.581709	2892.193141
799.903026	2885.460680
800.224299	2878.894577
800.545526	2869.535675
800.866708	2852.070597
801.187845	2841.985769
801.508936	2843.409895
801.829983	2849.721419
802.150984	2837.789008
802.471940	2826.416165
802.792851	2826.310301
803.113717	2825.478511
803.434538	2831.220385
803.755314	2826.030517
804.076045	2819.388797
804.396731	2816.593477
804.717372	2819.030875
805.037967	2811.375883
805.358518	2818.115905
805.679024	2834.671055
805.999485	2823.888027
806.319901	2831.122082
806.640272	2824.931545
806.960598	2826.953048
807.280879	2837.458813
807.601115	2844.297138
807.921306	2833.095694
808.241453	2829.541681
808.561554	2835.162567
808.881611	2834.716425
809.201623	2832.647031
809.521590	2827.557987
809.841513	2824.850887
810.161390	2827.971361
810.481223	2823.736792
810.801011	2815.033240
811.120755	2810.518887
811.440453	2812.023671
811.760107	2813.127684
812.079716	2811.721202
812.399281	2801.928760
812.718801	2796.824592
813.038276	2791.579272
813.357707	2792.975671
813.677093	2804.383802
813.996434	2794.563635
814.315731	2789.905608
814.634983	2788.032820
814.954191	2788.955351
815.273354	2802.011939
815.592473	2807.726087
815.911547	2810.702889
816.230577	2821.483396
816.549562	2828.830878
816.868502	2830.033193
817.187399	2837.249605
817.506250	2856.826926
817.825058	2849.297963
818.143821	2861.001001
818.462539	2878.062786
818.781213	2903.659245
819.099843	2941.178033
819.418429	2996.227433
819.736970	3060.403842
820.055466	3130.841364
820.373919	3236.652662
820.692327	3377.131976
821.010691	3545.685475
821.329011	3984.407012
821.647286	4883.166605
821.965517	6261.786071
822.283704	6997.335787
822.601847	6978.123950
822.919945	6343.233473
823.237999	5845.028841
823.556010	5266.853866
823.873976	4710.890214
824.191897	4304.926094
824.509775	4010.341228
824.827609	3741.879621
825.145398	3614.262812
825.463144	3602.542129
825.780845	3698.560986
826.098502	3802.025628
826.416116	4081.479471
826.733685	4395.684508
827.051210	4461.355619
827.368692	4344.408411
827.686129	4078.190118
828.003522	3756.428391
828.320872	3499.558918
828.638177	3304.360400
828.955439	3170.611026
829.272656	3084.760176
829.589830	3016.802902
829.906960	2970.159626
830.224046	2921.595670
830.541088	2890.884961
830.858086	2873.566077
831.175041	2855.042357
831.491952	2858.077132
831.808819	2868.371168
832.125642	2892.523336
832.442421	2940.600820
832.759157	3021.793644
833.075849	3196.731765
833.392497	3476.593941
833.709101	3681.048018
834.025662	3632.476501
834.342179	3471.366265
834.658653	3297.406128
834.975083	3148.369456
835.291469	3048.947819
835.607811	2967.805407
835.924110	2909.799370
836.240366	2855.997656
836.556578	2815.126501
836.872746	2792.118675
837.188871	2768.195879
837.504952	2754.234404
837.820990	2743.199318
838.136984	2731.438306
838.452935	2722.913715
838.768842	2722.316338
839.084706	2740.719070
839.400526	2819.880309
839.716303	2952.301338
840.032037	3031.875952
840.347727	3014.612521
840.663373	2956.856021
840.978977	2878.455996
841.294537	2808.235244
841.610054	2762.068357
841.925527	2740.451889
842.240957	2718.059084
842.556344	2695.333562
842.871687	2679.103567
843.186987	2669.850530
843.502244	2666.919099
843.817458	2661.184786
844.132629	2648.329844
844.447756	2638.993627
844.762840	2635.646301
845.077881	2638.335756
845.392879	2635.842906
845.707833	2630.879890
846.022745	2622.393107
846.337613	2625.417800
846.652438	2624.548201
846.967221	2624.349075
847.281960	2623.474435
847.596656	2620.439660
847.911309	2623.560134
848.225919	2617.495626
848.540485	2612.207456
848.855009	2615.464041
849.169490	2616.600822
849.483928	2616.847838
849.798323	2611.849534
850.112675	2611.811725
850.426984	2617.213322
850.741251	2612.545213
851.055474	2609.991869
851.369654	2618.085441
851.683792	2615.501850
851.997887	2612.560337
852.311938	2612.855244
852.625947	2614.677621
852.939914	2614.254164
853.253837	2616.031171
853.567718	2613.485388
853.881555	2611.998248
854.195350	2613.432456
854.509103	2615.199381
854.822812	2611.194184
855.136479	2609.618823
855.450103	2615.365739
855.763685	2615.612755
856.077224	2610.790892
856.390720	2608.930706
856.704173	2611.761314
857.017584	2615.627879
857.330953	2616.764659
857.644278	2619.388580
857.957561	2619.580143
858.270802	2617.503188
858.584000	2615.166613
858.897155	2619.007972
859.210268	2617.667026
859.523339	2614.506222
859.836367	2610.833742
860.149352	2612.003289
860.462295	2609.742332
860.775195	2608.366097
861.088054	2606.868874
861.400869	2608.600510
861.713642	2605.855602
862.026373	2605.094388
862.339062	2610.324585
862.651708	2612.635954
862.964312	2618.493775
863.276873	2613.835749
863.589392	2619.302880
863.901869	2622.567027
864.214303	2627.484673
864.526696	2630.610188
864.839045	2630.751340
865.151353	2633.818882
865.463619	2631.525157
865.775842	2634.131434
866.088023	2634.106228
866.400162	2631.139509
866.712258	2632.704787
867.024313	2631.273100
867.336325	2627.913171
867.648296	2629.372585
867.960224	2635.542957
868.272110	2631.636063
868.583954	2624.671709
868.895755	2629.158336
869.207515	2629.223871
869.519233	2641.357928
869.830909	2637.425828
870.142542	2632.044396
870.454134	2632.891310
870.765684	2637.435910
871.077191	2641.461272
871.388657	2646.278094
871.700081	2641.894811
872.011463	2643.931437
872.322803	2642.973618
872.634101	2647.747591
872.945357	2653.986018
873.256571	2657.608087
873.567744	2653.829743
873.878874	2656.309990
874.189963	2658.245793
874.501010	2658.936432
874.812015	2667.093018
875.122979	2665.134530
875.433900	2656.307470
875.744780	2654.870741
876.055618	2662.709735
876.366415	2668.670900
876.677169	2666.956907
876.987882	2660.436175
877.298554	2658.248314
877.609183	2670.833555
877.919771	2677.629030
878.230317	2681.961902
878.540822	2694.877338
878.851285	2705.864533
879.161707	2730.845971
879.472087	2771.460027
879.782425	2816.853096
880.092722	2930.296702
880.402977	3119.075311
880.713191	3379.922255
881.023363	3671.772295
881.333494	3859.709031
881.643583	4029.565668
881.953631	4034.700084
882.263637	3853.329451
882.573602	3632.526912
882.883526	3504.932788
883.193408	3393.409862
883.503248	3288.004376
883.813048	3173.330729
884.122806	3060.834860
884.432522	2973.761530
884.742197	2912.987900
885.051831	2872.731766
885.361424	2836.720284
885.670975	2802.936991
885.980485	2772.932043
886.289954	2755.638365
886.599382	2740.958525
886.908768	2729.278172
887.218113	2709.153886
887.527417	2694.101000
887.836680	2689.569003
888.145901	2683.459124
888.455082	2676.807322
888.764221	2662.485404
889.073319	2658.364261
889.382376	2657.139260
889.691392	2655.258910
890.000366	2657.358550
890.309300	2654.258241
890.618193	2657.620690
890.927044	2659.072543
891.235855	2662.240908
891.544625	2660.017759
891.853353	2659.165804
892.162041	2668.053358
892.470687	2684.921059
892.779293	2696.074612
893.087858	2709.539534
893.396381	2731.415621
893.704864	2773.468926
894.013306	2840.831345
894.321707	2935.226950
894.630068	2983.536328
894.938387	3004.058865
895.246665	2999.640294
895.554903	2952.661781
895.863100	2911.810791
896.171256	2853.719054
896.479371	2795.302164
896.787446	2754.564599
897.095480	2737.127248
897.403473	2728.562328
897.711425	2713.945502
898.019336	2696.576207
898.327207	2682.723116
898.635038	2678.538958
898.942827	2676.600635
899.250576	2667.647545
899.558284	2658.323931
899.865952	2654.376708
900.173579	2651.142808
900.481165	2647.999648
900.788711	2641.347846
901.096216	2634.872484
901.403681	2630.022894
901.711105	2632.283851
902.018489	2628.520630
902.325832	2635.018677
902.633135	2633.952473
902.940397	2651.072232
903.247619	2687.650844
903.554800	2755.708941
903.861941	2881.604197
904.169041	3010.294772
904.476101	3068.391550
904.783121	3062.667320
905.090100	3007.607837
905.397039	2931.599840
905.703938	2858.276257
906.010796	2794.626649
906.317614	2742.725450
906.624391	2706.774461
906.931129	2682.881912
907.237826	2659.188489
907.544483	2641.380613
907.851099	2626.640279
908.157675	2615.673249
908.464211	2610.884153
908.770707	2601.426948
909.077163	2596.693305
909.383578	2592.156267
909.689954	2591.523602
909.996289	2588.261975
910.302584	2586.053950
910.608839	2587.357088
910.915054	2588.153590
911.221229	2587.689804
911.527363	2590.023858
911.833458	2590.538056
912.139513	2588.647623
912.445527	2592.562079
912.751502	2595.697677
913.057436	2602.503235
913.363331	2610.606890
913.669186	2619.875051
913.975000	2631.018522
914.280775	2649.746408
914.586510	2670.140396
914.892205	2702.290355
915.197859	2771.961621
915.503475	2854.923890
915.809050	2920.390835
916.114585	2935.060592
916.420081	2946.037705
916.725536	2958.610343
917.030952	2934.780808
917.336328	2887.020917
917.641665	2836.770695
917.946961	2786.273457
918.252218	2754.451173
918.557435	2728.045610
918.862612	2707.603731
919.167750	2689.947089
919.472848	2672.993689
919.777906	2656.302429
920.082925	2643.427322
920.387904	2631.991464
920.692843	2626.110958
920.997743	2624.328910
921.302603	2615.950513
921.607423	2610.622013
921.912204	2602.528441
922.216946	2601.784870
922.521647	2603.483739
922.826310	2595.450661
923.130932	2592.095773
923.435516	2585.257447
923.740059	2584.350040
924.044564	2582.038671
924.349028	2580.566654
924.653454	2571.966445
924.957840	2570.869994
925.262186	2570.229768
925.566493	2570.638101
925.870761	2563.933367
926.174989	2566.645507
926.479178	2562.894889
926.783328	2563.154508
927.087438	2562.461350
927.391509	2560.649055
927.695541	2557.773077
927.999533	2557.972202
928.303486	2555.771739
928.607400	2556.825340
928.911275	2556.293498
929.215110	2554.115720
929.518906	2555.411296
929.822663	2555.365926
930.126381	2556.049002
930.430060	2555.940617
930.733699	2554.282078
931.037299	2555.716286
931.340861	2557.213509
931.644383	2557.147974
931.947866	2554.294681
932.251309	2554.214022
932.554714	2554.760987
932.858080	2555.708724
933.161407	2556.510268
933.464694	2556.543035
933.767943	2554.972716
934.071153	2551.960626
934.374323	2552.787376
934.677455	2554.360216
934.980548	2552.777293
935.283602	2552.668908
935.586617	2551.650595
935.889593	2553.810730
936.192530	2553.593960
936.495428	2554.014897
936.798287	2554.642520
937.101108	2554.297201
937.403890	2558.269630
937.706632	2560.810372
938.009336	2562.073181
938.312002	2568.954356
938.614628	2570.358317
938.917216	2575.848134
939.219765	2574.681107
939.522275	2575.724626
939.824747	2575.427197
940.127179	2568.178018
940.429573	2569.632391
940.731929	2570.103739
941.034246	2567.237843
941.336524	2565.677606
941.638763	2567.610888
941.940964	2567.542833
942.243126	2564.689540
942.545250	2563.739282
942.847335	2560.606205
943.149381	2559.640824
943.451389	2560.094528
943.753359	2560.233160
944.055290	2560.260886
944.357182	2556.976574
944.659036	2553.220915
944.960851	2555.323076
945.262628	2554.513971
945.564367	2555.812068
945.866067	2556.727037
946.167729	2558.509085
946.469352	2556.200237
946.770937	2552.421892
947.072484	2554.319886
947.373992	2557.074877
947.675462	2556.961451
947.976893	2555.454146
948.278286	2553.326779
948.579641	2551.643034
948.880958	2555.527243
949.182236	2555.078580
949.483476	2554.791234
949.784678	2553.689742
950.085841	2551.428785
950.386967	2554.392983
950.688054	2553.692263
950.989103	2553.442726
951.290114	2555.058415
951.591087	2552.918446
951.892021	2557.082439
952.192917	2560.714590
952.493776	2559.844991
952.794596	2564.992009
953.095378	2563.310784
953.396122	2561.042265
953.696828	2558.461194
953.997496	2558.645196
954.298126	2555.817109
954.598718	2561.763150
954.899272	2553.276367
955.199788	2556.984136
955.500266	2554.153528
955.800706	2546.052394
956.101108	2546.390151
956.401472	2544.540048
956.701798	2542.974770
957.002087	2544.371169
957.302337	2544.973587
957.602550	2543.778834
957.902724	2546.115408
958.202861	2544.933258
958.502960	2544.270346
958.803022	2541.971580
959.103045	2542.752959
959.403031	2542.490819
959.702979	2542.601724
960.002889	2542.589121
960.302762	2540.123997
960.602596	2539.443441
960.902393	2541.505273
961.202153	2538.810777
961.501875	2541.840510
961.801559	2541.535520
962.101205	2540.426466
962.400814	2540.746580
962.700385	2539.105684
962.999918	2538.962011
963.299414	2538.536034
963.598873	2538.006712
963.898293	2538.669624
964.197677	2536.993441
964.497022	2541.472506
964.796331	2538.140303
965.095601	2540.199614
965.394835	2538.911600
965.694030	2536.645601
965.993189	2539.440921
966.292309	2538.382278
966.591393	2538.263811
966.890439	2536.297761
967.189447	2537.018646
967.488419	2538.730118
967.787353	2538.389840
968.086249	2536.489325
968.385108	2538.588966
968.683930	2539.806404
968.982714	2540.000489
969.281462	2537.575694
969.580172	2536.494366
969.878844	2537.956301
970.177480	2537.953780
970.476078	2539.123328
970.774639	2540.040818
971.073162	2538.440252
971.371649	2537.973945
971.670098	2536.239788
971.968510	2537.878163
972.266885	2534.815662
972.565223	2539.786240
972.863524	2541.684234
973.161788	2535.967566
973.460014	2539.635005
973.758204	2538.057124
974.056356	2538.566281
974.354471	2540.323123
974.652550	2537.026208
974.950591	2539.995448
975.248595	2538.830941
975.546563	2539.372865
975.844493	2539.370345
976.142386	2539.899666
976.440243	2537.936136
976.738062	2537.918492
977.035845	2537.603420
977.333590	2536.811959
977.631299	2537.981507
977.928971	2536.733821
978.226606	2533.699047
978.524204	2538.828421
978.821765	2537.064017
979.119290	2538.102494
979.416777	2537.752134
979.714228	2538.233564
980.011642	2536.501928
980.309020	2541.117104
980.606360	2535.208872
980.903664	2540.633154
981.200931	2536.993441
981.498162	2536.343132
981.795356	2540.176929
982.092513	2544.419060
982.389633	2545.944009
982.686717	2548.777138
982.983764	2551.428785
983.280775	2551.635472
983.577749	2549.717313
983.874686	2553.717468
984.171587	2545.235727
984.468451	2546.334699
984.765279	2544.787064
985.062070	2542.087527
985.358824	2543.380582
985.655543	2542.664739
985.952224	2536.847247
986.248869	2536.769109
986.545478	2533.847761
986.842050	2535.415559
987.138586	2537.076620
987.435086	2534.402288
987.731549	2531.853984
988.027975	2536.547298
988.324366	2536.151568
988.620719	2535.337422
988.917037	2532.733666
989.213318	2533.225178
989.509563	2535.516383
989.805772	2536.098636
990.101944	2534.598892
990.398080	2532.312729
990.694180	2534.815662
990.990244	2531.727955
991.286271	2533.953625
991.582262	2536.494366
991.878217	2533.991433
992.174136	2536.804397
992.470019	2535.324819
992.765865	2536.101156
993.061676	2535.397915
993.357450	2534.238450
993.653188	2535.922195
993.948890	2535.160981
994.244556	2533.076464
994.540186	2534.354397
994.835780	2533.184849
995.131337	2536.486805
995.426859	2535.370189
995.722345	2536.610313
996.017795	2537.663914
996.313208	2536.075951
996.608586	2536.716177
996.903928	2540.300437
997.199234	2537.774819
997.494504	2539.367824
997.789738	2537.689120
998.084936	2538.483102
998.380099	2534.016639
998.675225	2537.124511
998.970316	2535.574356
999.265371	2536.237267
999.560390	2533.875487
999.855373	2533.600744
1000.150320	2535.168543
1000.445232	2535.952442
1000.740108	2530.974303
1001.034948	2535.851619
1001.329752	2532.877338
1001.624521	2530.606299
1001.919254	2529.593027
1002.213951	2531.614529
1002.508613	2530.283665
1002.803239	2529.333407
1003.097829	2528.501617
1003.392384	2532.403470
1003.686903	2533.078985
1003.981386	2532.952956
1004.275834	2530.669313
1004.570246	2534.931609
1004.864623	2531.821217
1005.158964	2532.710980
1005.453270	2531.833820
1005.747540	2532.814324
1006.041775	2532.390867
1006.335974	2531.624612
1006.630138	2532.055630
1006.924266	2533.285672
1007.218359	2531.274252
1007.512416	2534.553522
1007.806438	2532.085877
1008.100425	2536.229706
1008.394376	2531.856505
1008.688292	2530.197965
1008.982172	2531.354910
1009.276017	2533.268028
1009.569827	2534.664428
1009.863602	2533.353727
1010.157341	2532.539581
1010.451045	2532.539581
1010.744714	2532.801721
1011.038347	2532.305168
1011.331945	2530.555887
1011.625508	2531.077647
1011.919036	2531.327184
1012.212528	2531.143182
1012.505986	2530.228212
1012.799408	2531.312060
1013.092795	2532.264838
1013.386147	2532.249715
1013.679464	2532.642925
1013.972745	2530.888603
1014.265992	2529.600588
1014.559204	2529.560259
1014.852380	2531.168387
1015.145521	2529.587986
1015.438628	2528.627646
1015.731699	2530.003881
1016.024736	2530.805424
1016.317737	2530.681916
1016.610703	2530.611340
1016.903635	2528.015146
1017.196531	2530.349200
1017.489393	2527.914322
1017.782219	2526.769981
1018.075011	2528.360465
1018.367768	2532.514375
1018.660490	2530.933974
1018.953177	2530.933974
1019.245829	2530.933974
