Dividing Wavelength (nm)	Counts (n)	Blue Motor Position (mm): 44.900000	Red Motor Position (mm): 0.000000	
326.493990	2128.906996
326.888308	2128.906996
327.282561	2128.906996
327.676750	2098.803745
328.070874	2096.237798
328.464933	2097.485484
328.858929	2106.695672
329.252859	2113.982660
329.646726	2126.653600
330.040528	2141.121711
330.434265	2157.452529
330.827938	2172.661690
331.221547	2190.870338
331.615091	2209.699048
332.008571	2229.979610
332.401986	2247.411920
332.795338	2269.719025
333.188625	2287.116047
333.581847	2307.010961
333.975006	2324.942345
334.368100	2341.868019
334.761129	2360.336286
335.154095	2377.226672
335.546996	2399.201062
335.939833	2426.277099
336.332606	2440.556167
336.725315	2454.058898
337.117960	2461.035855
337.510540	2469.568008
337.903056	2481.225676
338.295508	2488.822695
338.687896	2495.018273
339.080220	2506.688544
339.472480	2513.536952
339.864676	2516.163393
340.256807	2522.048940
340.648875	2523.873838
341.040879	2525.638242
341.432818	2525.426513
341.824694	2530.220650
342.216506	2528.569673
342.608253	2530.777698
342.999937	2530.734848
343.391557	2531.662420
343.783113	2531.175949
344.174605	2526.888448
344.566033	2526.018849
344.957397	2526.296112
345.348697	2523.157994
345.739934	2520.718075
346.131106	2518.434433
346.522215	2519.185565
346.913260	2514.769514
347.304241	2514.051149
347.695159	2511.336488
348.086012	2508.964625
348.476802	2508.556292
348.867528	2507.076713
349.258191	2504.004130
349.648789	2506.091168
350.039324	2501.223933
350.429796	2503.986486
350.820203	2499.053717
351.210548	2500.722339
351.600828	2503.295848
351.991045	2500.293841
352.381198	2497.503562
352.771288	2497.881648
353.161314	2499.406598
353.551276	2498.557163
353.941175	2499.182266
354.331010	2495.303098
354.720782	2496.639004
355.110490	2496.263438
355.500135	2498.970538
355.889717	2496.921309
356.279235	2500.079592
356.668689	2499.441886
357.058080	2498.370640
357.447408	2496.207985
357.836672	2495.698829
358.225873	2499.449447
358.615010	2495.048520
359.004084	2501.564211
359.393095	2502.196876
359.782043	2501.760816
360.170927	2500.866012
360.559748	2503.164778
360.948505	2502.779129
361.337199	2505.014881
361.725830	2504.692247
362.114398	2506.562515
362.502903	2509.733401
362.891344	2506.718791
363.279722	2507.981600
363.668037	2508.745335
364.056289	2508.863802
364.444478	2508.009327
364.832603	2510.111488
365.220665	2510.431601
365.608665	2511.722136
365.996601	2511.517970
366.384474	2513.007631
366.772284	2512.924452
367.160031	2511.880933
367.547715	2513.562158
367.935336	2513.786489
368.322893	2515.346726
368.710388	2513.965450
369.097820	2515.218177
369.485189	2512.879081
369.872495	2516.352436
370.259738	2515.203053
370.646918	2515.770183
371.034035	2514.376304
371.421090	2519.931655
371.808081	2516.047446
372.195010	2518.641120
372.581875	2517.716068
372.968678	2518.421830
373.355418	2519.311593
373.742096	2523.838550
374.128710	2520.680267
374.515262	2523.566327
374.901751	2523.702438
375.288177	2527.425331
375.674540	2531.465815
376.060841	2534.072092
376.447079	2539.869419
376.833254	2547.458876
377.219367	2548.666232
377.605417	2562.045455
377.991404	2566.776577
378.377329	2580.206211
378.763191	2588.960175
379.148991	2604.252515
379.534727	2618.970164
379.920402	2634.748975
380.306013	2646.071407
380.691563	2669.971517
381.077049	2686.791327
381.462474	2704.689944
381.847835	2728.726165
382.233134	2749.901532
382.618371	2764.281423
383.003545	2806.853968
383.388657	2821.327120
383.773706	2850.540607
384.158693	2874.995244
384.543618	2909.723753
384.928480	2943.123918
385.313280	2986.356853
385.698017	3002.163391
386.082692	3051.838921
386.467305	3075.945719
386.851856	3113.988786
387.236344	3149.309631
387.620770	3193.323945
388.005133	3228.155797
388.389435	3267.262548
388.773674	3294.472176
389.157851	3349.705578
389.541965	3378.387223
389.926018	3367.032024
390.310008	3444.590176
390.693936	3479.459837
391.077802	3530.496479
391.461606	3539.590720
391.845348	3608.208386
392.229027	3620.385293
392.612645	3647.814211
392.996200	3733.216398
393.379694	3782.445786
393.763125	3852.734594
394.146494	3837.094415
394.529801	3907.249632
394.913047	3964.134012
395.296230	3943.258594
395.679351	4005.751258
396.062410	4035.489024
396.445408	4024.761449
396.828343	4063.900967
397.211217	4094.281481
397.594028	4023.977549
397.976778	4093.091769
398.359466	4124.422540
398.742092	4158.730112
399.124656	4081.764296
399.507158	4163.519208
399.889598	4192.334444
400.271977	4257.549331
400.654294	4231.776432
401.036549	4234.216350
401.418742	4210.152402
401.800874	4310.829286
402.182944	4332.924663
402.564952	4399.914036
402.946898	4384.795615
403.328783	4383.661356
403.710606	4298.407883
404.092367	4488.509794
404.474067	4455.772541
404.855705	4463.460301
405.237282	4391.545720
405.618797	4503.300539
406.000250	4539.889234
406.381642	4621.651708
406.762972	4579.686623
407.144240	4590.578036
407.525447	4591.155248
407.906593	4648.420235
408.287677	4690.385320
408.668700	4621.255978
409.049661	4670.477804
409.430560	4713.004978
409.811399	4642.690964
410.192176	4804.968227
410.572891	4741.837857
410.953545	4839.444678
411.334138	4722.348756
411.714669	4789.295279
412.095139	4685.714691
412.475547	4825.435311
412.855894	4808.229853
413.236180	4818.571780
413.616405	4773.929842
413.996568	4859.450497
414.376670	4800.106034
414.756711	4757.238582
415.136691	4790.863078
415.516609	4864.708420
415.896466	4902.963216
416.276262	4936.486889
416.655997	4919.488119
417.035670	5099.848000
417.415283	5191.150858
417.794834	5131.672805
418.174324	5084.588428
418.553753	4994.712216
418.933121	5179.389846
419.312428	5245.192028
419.691674	5185.613151
420.070859	5315.432945
420.449983	5222.665632
420.829045	5340.190051
421.208047	5246.429631
421.586988	5320.557278
421.965867	5328.328216
422.344686	5461.281087
422.723444	5317.378830
423.102141	5136.194720
423.480777	5432.581798
423.859352	5203.226942
424.237866	5462.009534
424.616319	5451.982679
424.994712	5558.645932
425.373044	5440.294764
425.751314	5581.847843
426.129524	5384.831989
426.507673	5578.606381
426.885762	5663.005379
427.263789	5587.788843
427.641756	5475.653417
428.019662	5597.926603
428.397508	5599.312921
428.775292	5547.958686
429.153016	5653.754862
429.530679	5573.141770
429.908282	5659.342981
430.285824	5533.200708
430.663305	5806.403521
431.040726	5539.580289
431.418086	5544.165218
431.795385	5646.666999
432.172624	5664.069062
432.549802	5654.642105
432.926920	5665.210884
433.303977	5669.848745
433.680974	5714.931784
434.057910	5733.581533
434.434786	5741.919601
434.811601	5706.548345
435.188355	5941.907215
435.565050	5817.103370
435.941683	5796.190143
436.318257	6015.213154
436.694770	5995.918138
437.071222	6023.468043
437.447614	5959.271470
437.823946	5875.855497
438.200218	6025.353435
438.576429	5891.243619
438.952580	5989.084854
439.328670	6035.097985
439.704700	5944.039623
440.080670	5929.987407
440.456580	6201.720723
440.832429	6085.065902
441.208218	5928.984218
441.583947	6083.772846
441.959616	6089.176963
442.335224	6015.147619
442.710773	6155.246326
443.086261	6180.923443
443.461689	5972.496937
443.837057	6120.989165
444.212365	6272.672443
444.587612	6168.146638
444.962800	6323.235216
445.337927	6302.170754
445.712995	5916.908133
446.088002	6489.434496
446.462949	6324.903838
446.837837	6256.119814
447.212664	6423.115597
447.587431	6572.232928
447.962139	7113.385670
448.336786	8036.864560
448.711374	7775.755476
449.085901	6852.223653
449.460369	6775.330934
449.834776	6709.957251
450.209124	7099.409071
450.583412	7249.027996
450.957640	7392.463947
451.331808	7158.521641
451.705917	6707.469441
452.079965	6633.258616
452.453954	6844.460277
452.827883	6724.090126
453.201752	6817.434651
453.575562	6618.477953
453.949311	6821.631411
454.323001	6706.859462
454.696632	6785.193951
455.070202	6925.771567
455.443713	7071.304638
455.817164	7178.552665
456.190556	7263.024760
456.563888	7331.702919
456.937160	7380.095476
457.310373	7036.709720
457.683526	7058.784932
458.056619	6949.727131
458.429653	6939.664988
458.802628	6872.453804
459.175542	6986.232646
459.548398	7339.869588
459.921194	7499.989238
460.293930	7501.662901
460.666607	8028.483642
461.039224	8334.398502
461.411782	8462.234601
461.784280	8485.439032
462.156719	8367.110549
462.529099	8248.247703
462.901419	7839.735280
463.273680	7727.932570
463.645882	7744.427226
464.018024	7609.992256
464.390106	7782.190509
464.762130	8165.124117
465.134094	8636.991241
465.505999	9663.607098
465.877845	10889.789633
466.249631	11525.141376
466.621358	11140.282047
466.993026	10513.432210
467.364634	10262.894426
467.736184	9894.754084
468.107674	9560.530625
468.479105	9596.489176
468.850477	9355.673256
469.221790	9128.836457
469.593043	8807.026839
469.964238	8661.614757
470.335373	8676.713012
470.706449	8729.211588
471.077467	8717.069969
471.448425	10028.342140
471.819324	11097.442322
472.190164	11118.186670
472.560945	9871.642914
472.931667	9082.094878
473.302330	8947.110422
473.672934	8595.089170
474.043479	8948.085886
474.413965	8890.021876
474.784393	8769.198021
475.154761	8930.918236
475.525070	9017.114405
475.895321	8846.786420
476.265513	9025.936424
476.635645	9194.999080
477.005719	9194.182413
477.375734	9297.924318
477.745691	9540.708808
478.115588	9675.287451
478.485427	9928.252551
478.855207	10460.021185
479.224928	11274.966554
479.594591	11905.199005
479.964194	11710.915457
480.333739	11654.436890
480.703226	11564.457335
481.072653	11660.708085
481.442022	11897.977553
481.811333	12083.522261
482.180584	11889.606717
482.549777	11590.391551
482.918912	11425.555902
483.287988	11446.360744
483.657005	11457.484050
484.025964	11137.274999
484.394864	11265.993301
484.763706	11239.865000
485.132489	10998.824750
485.501213	10964.653288
485.869879	11038.803620
486.238487	10881.312933
486.607036	10992.384676
486.975527	10770.347054
487.343959	10960.159100
487.712333	11008.939825
488.080648	10943.172932
488.448905	10985.251443
488.817104	10926.398492
489.185244	11187.406753
489.553326	11338.606081
489.921350	11881.034234
490.289315	12945.824229
490.657222	13293.376499
491.025070	13193.082743
491.392861	13071.825349
491.760593	12685.652800
492.128267	12329.943943
492.495883	12010.468380
492.863440	11668.489106
493.230939	11330.704072
493.598380	11271.440267
493.965763	11133.705862
494.333088	11037.220698
494.700354	10956.988214
495.067563	11023.198728
495.434713	10846.261790
495.801805	10976.215175
496.168839	10897.764738
496.535815	10829.126908
496.902733	10831.561786
497.269593	10770.062229
497.636395	10872.100224
498.003139	10855.330826
498.369825	10729.518749
498.736453	10885.582790
499.103023	10806.663527
499.469535	10838.644607
499.835989	10825.421660
500.202385	10793.238934
500.568723	10642.090018
500.935003	10865.037568
501.301226	10672.740234
501.667390	10930.814543
502.033497	11029.336333
502.399546	10882.764785
502.765537	10790.262133
503.131470	10864.246107
503.497345	11036.078877
503.863163	10651.706019
504.228923	10957.850251
504.594625	11016.957780
504.960269	10776.189752
505.325856	10995.961374
505.691385	10785.379775
506.056856	10948.871956
506.422270	10962.747732
506.787625	10851.867553
507.152924	10972.106634
507.518164	10953.444283
507.883347	10877.983251
508.248472	10793.347319
508.613540	11028.628051
508.978550	10911.494321
509.343503	10881.411235
509.708398	11010.719352
510.073236	11117.879159
510.438016	11126.441559
510.802738	11071.477859
511.167403	11124.009202
511.532010	11022.939109
511.896561	11252.631722
512.261053	11328.627117
512.625488	11194.814729
512.989866	11176.774960
513.354186	11168.439412
513.718449	11069.005173
514.082655	11262.106571
514.446803	11161.147383
514.810894	11279.753130
515.174927	11144.614919
515.538904	11166.672487
515.902822	11323.018833
516.266684	11202.149608
516.630488	11146.616257
516.994235	11202.368898
517.357925	11260.551375
517.721558	11349.384067
518.085133	11369.566327
518.448651	11376.079498
518.812112	11266.729309
519.175516	11275.508478
519.538863	11394.618341
519.902152	11311.492235
520.265385	11473.870321
520.628560	11385.655169
520.991678	11360.081396
521.354739	11421.727146
521.717743	11361.830676
522.080690	11335.674650
522.443580	11471.460649
522.806413	11426.564133
523.169189	11464.070317
523.531908	11516.999912
523.894569	11337.416368
524.257174	11343.715290
524.619722	11460.107971
524.982213	11404.209136
525.344647	11459.561005
525.707025	11409.187276
526.069345	11506.365598
526.431608	11419.362845
526.793815	11528.715554
527.155964	11318.353245
527.518057	11367.093641
527.880093	11315.164715
528.242072	11390.540048
528.603995	11293.510439
528.965860	11213.988757
529.327669	11266.169741
529.689421	11216.073275
530.051117	11184.855929
530.412755	11285.018615
530.774337	11176.429641
531.135862	11158.924234
531.497331	11184.498007
531.858743	11036.204905
532.220098	11195.064266
532.581396	11066.797148
532.942638	11053.538913
533.303824	11022.331650
533.664953	11035.332786
534.026025	10945.088570
534.387040	11043.701101
534.747999	11049.440455
535.108902	11102.417941
535.469748	10863.532783
535.830537	10972.174690
536.191270	10944.781060
536.551947	10972.910698
536.912567	10964.585233
537.273131	10894.961857
537.633638	10875.250945
537.994089	10864.422547
538.354483	10811.001440
538.714821	10954.971752
539.075103	10964.796961
539.435328	10934.318145
539.795497	10759.667370
540.155609	10918.483881
540.515665	11002.731644
540.875665	10735.558052
541.235609	10809.915071
541.595496	10795.401589
541.955328	10957.981321
542.315102	10840.325832
542.674821	10784.734507
543.034483	10788.134766
543.394090	10793.158276
543.753640	10716.247912
544.113134	10945.368354
544.472571	10800.641868
544.831953	10947.175608
545.191278	10752.919786
545.550548	10778.296954
545.909761	10918.035218
546.268918	10882.096832
546.628019	10969.656633
546.987064	10832.930459
547.346053	10760.216856
547.704986	10856.608758
548.063863	10843.486635
548.422684	10833.711838
548.781449	10751.820814
549.140158	10853.349652
549.498811	10737.554349
549.857408	10594.688049
550.215949	10818.323716
550.574434	10676.281644
550.932864	10767.924780
551.291237	10832.595222
551.649555	10776.099011
552.007817	10787.030753
552.366022	10751.866184
552.724173	10744.642211
553.082267	10723.766793
553.440305	10865.080418
553.798288	10667.300829
554.156215	10819.856226
554.514086	10802.761674
554.871902	10647.990689
555.229661	10691.006855
555.587365	10658.894705
555.945014	10552.929651
556.302606	10680.899341
556.660143	10572.285161
557.017625	10724.407019
557.375050	10621.028077
557.732421	10757.282904
558.089735	10669.702938
558.446994	10673.854329
558.804197	10706.500841
559.161345	10716.167253
559.518437	10560.831659
559.875474	10650.133179
560.232455	10678.111583
560.589381	10624.922369
560.946251	10625.318099
561.303065	10730.721065
561.659825	10666.592547
562.016528	10604.072157
562.373177	10474.464091
562.729770	10595.287946
563.086307	10505.303350
563.442789	10604.205747
563.799216	10479.318722
564.155587	10528.601042
564.511904	10487.452624
564.868164	10469.959820
565.224370	10488.395320
565.580520	10409.712991
565.936615	10417.602396
566.292654	10284.957036
566.648638	10413.745914
567.004567	10378.031859
567.360441	10360.458397
567.716260	10270.123441
568.072023	10364.420744
568.427732	10313.452158
568.783385	10225.594929
569.138982	10294.459611
569.494525	10308.932763
569.850013	10193.089569
570.205445	10261.470300
570.560823	10163.603860
570.916145	10082.975645
571.271412	10149.604576
571.626625	10098.754457
571.981782	10073.387371
572.336884	10047.266632
572.691931	10048.751252
573.046923	9993.500206
573.401860	9950.456313
573.756743	9886.534483
574.111570	9929.008724
574.466342	9917.794678
574.821059	9943.401219
575.175722	9832.483231
575.530330	9849.482002
575.884882	9839.283748
576.239380	9766.728941
576.593823	9743.552236
576.948211	9760.364484
577.302544	9645.887442
577.656823	9653.093772
578.011047	9655.090068
578.365216	9636.626842
578.719330	9556.994256
579.073389	9562.859638
579.427394	9512.667390
579.781344	9491.802054
580.135239	9443.429662
580.489080	9444.510990
580.842866	9346.737811
581.196597	9356.749543
581.550273	9397.585409
581.903895	9365.571562
582.257463	9428.374257
582.610975	9311.079209
582.964434	9333.527468
583.317837	9256.470910
583.671186	9237.735462
584.024481	9234.887210
584.377721	9151.766145
584.730906	9130.754616
585.084037	9163.340634
585.437113	9096.696580
585.790135	9118.323130
586.143103	9013.522583
586.496016	8990.494592
586.848874	9043.227582
587.201679	9035.897744
587.554428	8922.812061
587.907124	8971.373496
588.259765	8939.578938
588.612352	8940.904762
588.964884	8814.787696
589.317362	8832.290582
589.669786	8831.446188
590.022155	8881.071307
590.374470	8892.222339
590.726731	8828.610539
591.078937	8682.056635
591.431090	8799.848236
591.783188	8671.818052
592.135232	8656.079570
592.487222	8665.060385
592.839157	8713.697437
593.191038	8643.723702
593.542866	8595.066485
593.894639	8489.368612
594.246358	8540.995068
594.598022	8561.303357
594.949633	8456.230587
595.301190	8434.152854
595.652692	8465.234088
596.004141	8573.543278
596.355535	8353.832150
596.706876	8326.662851
597.058162	8260.785053
597.409395	8340.518462
597.760573	8402.759068
598.111698	8312.275398
598.462768	8294.545660
598.813785	8264.220599
599.164748	8234.634067
599.515657	8218.751912
599.866511	8130.977862
600.217312	8258.118282
600.568060	8111.823997
600.918753	8220.554124
601.269392	8186.211264
601.619978	8100.607430
601.970510	8162.031369
602.320988	8163.914240
602.671412	8218.509936
603.021783	8156.380236
603.372100	8133.417780
603.722363	8129.843602
604.072572	8101.618182
604.422728	8109.860468
604.772830	8044.779172
605.122878	8055.390801
605.472872	8048.272692
605.822813	8080.107578
606.172701	8021.370574
606.522534	8092.944876
606.872314	8096.690454
607.222041	8066.279693
607.571714	8127.096173
607.921333	8080.291580
608.270899	8084.311900
608.620411	8173.515118
608.969870	8087.119823
609.319276	8072.107267
609.668627	8088.531346
610.017926	8126.224053
610.367171	8169.204931
610.716362	8144.820870
611.065500	8137.478429
611.414585	8165.159405
611.763616	8155.689598
612.112594	8138.771485
612.461518	8149.912435
612.810389	8212.160603
613.159207	8155.467787
613.507971	8099.016946
613.856682	8213.241931
614.205340	8176.184409
614.553945	8256.172397
614.902496	8154.925863
615.250994	8203.522586
615.599439	8186.601953
615.947830	8196.825413
616.296169	8169.008326
616.644454	8190.148405
616.992686	8186.052467
617.340864	8239.927278
617.688990	8146.010582
618.037063	8243.440963
618.385082	8184.000718
618.733048	8271.220241
619.080961	8213.257054
619.428821	8227.737768
619.776628	8230.956545
620.124382	8181.931324
620.472083	8167.561515
620.819731	8197.445475
621.167326	8089.448836
621.514868	8094.043848
621.862357	7981.167372
622.209793	8002.793922
622.557176	7931.756503
622.904506	7902.169971
623.251783	7836.723191
623.599007	7787.677805
623.946179	7795.461347
624.293297	7760.843743
624.640363	7673.765372
624.987376	7646.820405
625.334336	7598.589166
625.681243	7549.047226
626.028097	7536.010802
626.374899	7513.408789
626.721647	7504.420412
627.068343	7440.279291
627.414987	7415.249962
627.761577	7365.418156
628.108115	7402.032057
628.454600	7295.051210
628.801032	7352.530446
629.147412	7305.244423
629.493739	7291.033411
629.840014	7232.465285
630.186236	7291.285468
630.532405	7171.527817
630.878521	7225.243832
631.224585	7182.245311
631.570597	7109.798889
631.916556	7135.324771
632.262462	7133.068855
632.608316	7096.313802
632.954117	7074.084834
633.299866	7062.444810
633.645562	7054.847791
633.991206	6972.666901
634.336797	6915.265803
634.682336	6874.505553
635.027823	6843.409196
635.373257	6835.978535
635.718639	6760.514983
636.063968	6783.132119
636.409245	6668.924779
636.754470	6669.070973
637.099642	6625.880887
637.444762	6571.305355
637.789829	6577.364822
638.134845	6523.409353
638.479808	6507.885119
638.824719	6513.558938
639.169577	6439.559841
639.514383	6457.143385
639.859137	6389.178549
640.203839	6394.229785
640.548489	6386.925153
640.893086	6358.803077
641.237632	6331.701834
641.582125	6353.502303
641.926566	6319.658517
642.270955	6329.647563
642.615292	6325.914589
642.959576	6345.229770
643.303809	6330.892728
643.647990	6341.610222
643.992118	6327.358880
644.336195	6278.850377
644.680219	6301.303676
645.024192	6293.056348
645.368112	6390.516976
645.711981	6413.965903
646.055797	6487.518858
646.399562	6447.862621
646.743274	6572.237969
647.086935	6623.791329
647.430544	6615.687674
647.774101	6639.199615
648.117606	6643.908053
648.461059	6639.549976
648.804460	6598.590601
649.147810	6509.233628
649.491108	6472.438246
649.834354	6455.164732
650.177548	6365.613676
650.520690	6285.953362
650.863781	6262.978304
651.206820	6286.301202
651.549807	6202.156783
651.892742	6145.552187
652.235626	6152.715666
652.578458	6138.807123
652.921238	6045.825561
653.263967	6084.725624
653.606644	6025.701275
653.949269	6032.322830
654.291843	5970.969467
654.634365	6020.574421
654.976836	5971.413089
655.319255	5969.633562
655.661622	5946.653462
656.003938	5946.265293
656.346203	5906.208284
656.688416	5938.469148
657.030577	5892.370317
657.372687	5860.921079
657.714746	5848.829871
658.056753	5892.032560
658.398708	5829.058466
658.740612	5823.223330
659.082465	5865.198498
659.424266	5863.943251
659.766016	5860.109453
660.107715	5833.585422
660.449362	5857.349421
660.790958	5845.490107
661.132503	5830.732129
661.473996	5871.832656
661.815438	5855.655594
662.156829	5855.572415
662.498168	5844.570096
662.839456	5819.795346
663.180693	5857.959401
663.521879	5856.568043
663.863013	5843.758471
664.204097	5862.768662
664.545129	5902.797944
664.886110	5904.030506
665.227040	5936.752636
665.567918	5900.216873
665.908746	5930.662922
666.249522	5931.141831
666.590248	5918.334780
666.930922	5948.218740
667.271545	5963.543848
667.612118	5958.860616
667.952639	5936.508140
668.293109	5957.343228
668.633528	5915.889820
668.973896	5917.790335
669.314213	5912.081229
669.654480	5892.561881
669.994695	5885.592486
670.334859	5878.476897
670.674973	5862.713209
671.015035	5873.685280
671.355047	5867.920721
671.695008	5854.841447
672.034918	5833.923179
672.374777	5843.841650
672.714585	5825.138969
673.054342	5831.082489
673.394049	5820.410367
673.733705	5855.587538
674.073310	5840.529612
674.412864	5801.170803
674.752368	5788.507424
675.091820	5798.713240
675.431223	5733.163117
675.770574	5732.109516
676.109875	5687.354152
676.449125	5690.933371
676.788324	5657.160161
677.127473	5601.218477
677.466571	5591.012661
677.805619	5579.725517
678.144616	5563.795471
678.483562	5546.529519
678.822458	5513.338562
679.161303	5510.870918
679.500098	5502.734495
679.838842	5481.728007
680.177535	5488.652032
680.516179	5506.228015
680.854771	5516.796794
681.193314	5598.282005
681.531805	5706.853335
681.870247	5859.426377
682.208638	5963.531245
682.546978	5968.766483
682.885268	5944.314366
683.223508	5860.394278
683.561697	5807.086597
683.899836	5777.212719
684.237925	5729.137756
684.575963	5699.984763
684.913951	5657.172764
685.251889	5720.134255
685.589776	5690.966139
685.927614	5660.560419
686.265401	5728.570626
686.603137	5712.648141
686.940824	5790.357528
687.278460	5813.894675
687.616046	5824.743238
687.953582	5890.447117
688.291068	5870.703438
688.628504	5936.503098
688.965889	5899.130504
689.303224	5842.160425
689.640510	5791.879956
689.977745	5719.496549
690.314930	5623.815449
690.652065	5561.083330
690.989150	5474.642665
691.326185	5391.113267
691.663170	5342.146019
692.000105	5264.565182
692.336990	5187.296896
692.673825	5165.856869
693.010610	5094.196867
693.347345	5025.354870
693.684030	5011.993292
694.020665	4970.759174
694.357251	4878.241398
694.693786	4889.790681
695.030272	4859.097616
695.366707	4819.643026
695.703093	4792.675373
696.039429	4806.278927
696.375716	4790.454745
696.711952	4768.850880
697.048139	4754.385289
697.384276	4736.040530
697.720363	4749.807921
698.056400	4753.361935
698.392388	4704.193041
698.728326	4688.351215
699.064214	4661.050846
699.400053	4656.788551
699.735842	4625.256133
700.071581	4600.274695
700.407270	4572.540787
700.742910	4552.378693
701.078501	4499.101258
701.414042	4496.890712
701.749533	4469.272751
702.084974	4404.320004
702.420366	4458.144404
702.755709	4402.041403
703.091002	4346.117363
703.426246	4397.678284
703.761440	4352.093650
704.096584	4317.158454
704.431679	4332.397862
704.766725	4319.588290
705.101721	4306.761074
705.436668	4335.457843
705.771565	4284.695944
706.106413	4314.607630
706.441212	4341.494624
706.775961	4351.178681
707.110661	4333.123788
707.445311	4363.315259
707.779913	4385.355183
708.114465	4399.180548
708.448967	4420.731481
708.783421	4483.181294
709.117825	4523.127398
709.452180	4525.910114
709.786485	4574.806786
710.120742	4658.149662
710.454949	4640.949245
710.789107	4710.799473
711.123216	4784.332263
711.457275	4774.585192
711.791286	4851.462789
712.125247	4870.747723
712.459159	4769.423051
712.793023	4841.045244
713.126837	4802.815654
713.460602	4796.625117
713.794318	4714.358527
714.127985	4723.339343
714.461602	4637.639728
714.795171	4610.283906
715.128691	4540.680695
715.462162	4486.800843
715.795584	4435.481897
716.128957	4420.963374
716.462281	4365.735013
716.795556	4340.277186
717.128782	4305.324346
717.461960	4234.796083
717.795088	4249.717898
718.128167	4203.790466
718.461198	4140.468533
718.794180	4140.163543
719.127113	4121.970018
719.459997	4098.604270
719.792833	4057.352508
720.125619	4046.294737
720.458357	4010.467257
720.791046	4015.808360
721.123686	3987.615707
721.456278	3948.697999
721.788821	3964.764156
722.121315	3936.606792
722.453761	3912.739449
722.786158	3925.332251
723.118506	3948.579532
723.450805	3897.295874
723.783056	3924.651695
724.115259	3941.731124
724.447412	3941.768933
724.779518	3936.188376
725.111574	3943.170374
725.443582	3970.690033
725.775542	3959.460862
726.107453	4006.794777
726.439315	4006.762009
726.771129	4019.813556
727.102895	4058.038105
727.434612	4105.619036
727.766281	4116.155047
728.097901	4118.980614
728.429473	4123.568064
728.760996	4129.143580
729.092471	4125.551758
729.423897	4109.188173
729.755276	4114.267135
730.086606	4113.480715
730.417887	4153.361283
730.749120	4218.455183
731.080305	4279.596817
731.411442	4309.700067
731.742530	4276.793935
732.073570	4283.097898
732.404562	4335.888861
732.735506	4327.901153
733.066401	4291.108292
733.397249	4226.901636
733.728048	4148.262156
734.058798	4060.669588
734.389501	3995.205164
734.720156	3931.868107
735.050762	3886.659039
735.381320	3877.852143
735.711831	3830.467818
736.042293	3800.276347
736.372707	3824.408351
736.703073	3796.717293
737.033391	3784.253040
737.363661	3803.517809
737.693883	3830.029238
738.024056	3840.187163
738.354182	3835.587110
738.684260	3896.940472
739.014290	3915.844799
739.344272	3915.864964
739.674207	3956.050522
740.004093	3960.859783
740.333931	3956.292497
740.663722	3956.199236
740.993464	3952.715799
741.323159	3932.344496
741.652806	3903.229312
741.982405	3873.695712
742.311956	3839.100794
742.641460	3830.606450
742.970915	3805.887152
743.300323	3766.435082
743.629683	3729.972416
743.958996	3721.233576
744.288260	3700.814382
744.617477	3664.812982
744.946647	3647.158861
745.275768	3621.905201
745.604842	3623.422588
745.933869	3575.418201
746.262847	3566.364288
746.591778	3608.556226
746.920662	3575.345104
747.249498	3546.655897
747.578286	3588.134511
747.907027	3608.092439
748.235720	3603.842747
748.564365	3630.182776
748.892963	3630.802837
749.221514	3613.045373
749.550017	3590.433278
749.878473	3586.417998
750.206881	3560.743402
750.535242	3554.469686
750.863555	3554.928431
751.191821	3550.461969
751.520039	3532.790204
751.848210	3510.137779
752.176334	3545.030125
752.504411	3549.098337
752.832440	3508.988396
753.160421	3493.000377
753.488356	3501.199813
753.816243	3510.911596
754.144082	3470.534474
754.471875	3454.312041
754.799620	3474.166626
755.127318	3466.131027
755.454969	3468.717138
755.782572	3469.241418
756.110129	3449.913635
756.437638	3438.225719
756.765100	3453.881023
757.092515	3462.806386
757.419882	3470.572283
757.747203	3441.404167
758.074477	3443.453396
758.401703	3460.492496
758.728882	3481.060404
759.056014	3488.075169
759.383099	3491.596415
759.710138	3486.638440
760.037129	3508.350690
760.364073	3535.588044
760.690970	3524.701672
761.017820	3496.904750
761.344623	3520.159593
761.671379	3563.258938
761.998088	3616.266670
762.324751	3743.790219
762.651366	3989.843897
762.977935	4467.218481
763.304456	4911.933950
763.630931	5007.799052
763.957359	4646.018125
764.283740	4299.930311
764.610074	4106.360086
764.936362	3909.440013
765.262602	3749.786671
765.588796	3637.865494
765.914943	3548.173285
766.241044	3460.648772
766.567097	3433.353444
766.893104	3385.031464
767.219064	3352.019468
767.544978	3323.962926
767.870845	3268.948814
768.196665	3251.783686
768.522438	3257.762494
768.848165	3255.861979
769.173846	3218.955692
769.499479	3203.063454
769.825066	3184.267512
770.150607	3166.610871
770.476101	3182.125022
770.801548	3179.622089
771.126949	3131.640387
771.452303	3119.650002
771.777611	3122.122688
772.102872	3127.904892
772.428087	3103.709874
772.753256	3096.412803
773.078378	3082.693303
773.403453	3047.601831
773.728482	3040.458516
774.053465	3059.677915
774.378401	3047.672407
774.703291	3018.287522
775.028135	3017.402799
775.352932	3012.873323
775.677683	3001.997033
776.002388	2996.577793
776.327046	2998.538802
776.651658	2992.527226
776.976224	2976.624906
777.300743	2978.205308
777.625216	2967.543267
777.949643	2965.108390
778.274024	2967.117290
778.598359	2953.072635
778.922647	2958.638069
779.246889	2957.271916
779.571086	2945.576439
779.895236	2937.767692
780.219339	2949.173303
780.543397	2961.874490
780.867409	2962.587813
781.191374	2956.785445
781.515294	2951.167079
781.839167	2955.235290
782.162995	2945.919238
782.486776	2956.394755
782.810511	2952.424847
783.134201	2936.003288
783.457844	2945.911676
783.781441	2934.906837
784.104993	2915.823549
784.428498	2914.026378
784.751958	2929.666558
785.075372	2925.666402
785.398739	2907.119997
785.722061	2923.473500
786.045337	2937.472784
786.368568	2921.414189
786.691752	2911.861202
787.014891	2958.809468
787.337983	2989.517657
787.661030	3020.775331
787.984031	3084.397213
788.306987	3131.317753
788.629897	3127.133595
788.952760	3108.937550
789.275579	3092.145467
789.598351	3031.512989
789.921078	2988.131339
790.243759	2982.205463
790.566395	2962.149233
790.888984	2938.362548
791.211529	2925.673964
791.534027	2912.602252
791.856480	2903.576066
792.178888	2884.833056
792.501249	2879.270143
792.823566	2876.439535
793.145836	2877.041953
793.468062	2872.038607
793.790241	2864.239943
794.112375	2875.128835
794.434464	2886.975546
794.756507	2891.746998
795.078505	2895.767319
795.400457	2911.314237
795.722364	2948.580967
796.044226	2974.457210
796.366042	2972.801191
796.687812	2960.820888
797.009538	2984.458859
797.331218	2974.545430
797.652852	2954.174127
797.974442	2937.351797
798.295986	2936.754420
798.617484	2931.282248
798.938938	2913.673497
799.260346	2896.094994
799.581709	2894.282699
799.903026	2886.509240
800.224299	2883.663508
800.545526	2872.204966
800.866708	2854.392048
801.187845	2845.214628
801.508936	2844.481140
801.829983	2854.656709
802.150984	2840.130624
802.471940	2826.453974
802.792851	2828.601505
803.113717	2827.011021
803.434538	2835.568380
803.755314	2827.447081
804.076045	2822.224446
804.396731	2820.051708
804.717372	2818.652788
805.037967	2816.580874
805.358518	2821.601863
805.679024	2834.101404
805.999485	2829.302226
806.319901	2831.759788
806.640272	2825.090342
806.960598	2830.680981
807.280879	2839.923937
807.601115	2846.555575
807.921306	2835.623833
808.241453	2829.196362
808.561554	2837.037876
808.881611	2837.264728
809.201623	2831.532936
809.521590	2832.543688
809.841513	2829.597133
810.161390	2831.331290
810.481223	2825.178562
810.801011	2815.459217
811.120755	2810.707930
811.440453	2812.721871
811.760107	2816.389310
812.079716	2813.707416
812.399281	2802.143009
812.718801	2794.959365
813.038276	2791.390228
813.357707	2796.958183
813.677093	2802.601754
813.996434	2797.066567
814.315731	2794.435085
814.634983	2789.214970
814.954191	2790.865948
815.273354	2804.696354
815.592473	2813.200780
815.911547	2813.717499
816.230577	2824.893737
816.549562	2834.194666
816.868502	2833.461178
817.187399	2842.605831
817.506250	2859.836495
817.825058	2852.121009
818.143821	2862.936804
818.462539	2879.441542
818.781213	2909.746438
819.099843	2944.890842
819.418429	3002.397805
819.736970	3065.122362
820.055466	3140.336377
820.373919	3243.254053
820.692327	3389.203019
821.010691	3558.207702
821.329011	4005.214375
821.647286	4907.858177
821.965517	6300.766793
822.283704	7057.779222
822.601847	7044.084928
822.919945	6398.151803
823.237999	5887.198093
823.556010	5296.445439
823.873976	4737.235284
824.191897	4325.851924
824.509775	4025.469731
824.827609	3756.655243
825.145398	3630.553300
825.463144	3620.576857
825.780845	3708.101370
826.098502	3815.205725
826.416116	4100.557718
826.733685	4421.966563
827.051210	4488.799660
827.368692	4369.803224
827.686129	4099.869600
828.003522	3774.705095
828.320872	3511.209024
828.638177	3316.638130
828.955439	3176.788960
829.272656	3090.575147
829.589830	3024.452853
829.906960	2974.951243
830.224046	2928.088677
830.541088	2895.933677
830.858086	2876.409288
831.175041	2860.254910
831.491952	2862.442771
831.808819	2872.772095
832.125642	2899.144892
832.442421	2944.243054
832.759157	3026.645755
833.075849	3208.013867
833.392497	3490.714213
833.709101	3697.986295
834.025662	3646.957215
834.342179	3485.804129
834.658653	3306.465081
834.975083	3154.643172
835.291469	3061.507854
835.607811	2970.114256
835.924110	2915.042170
836.240366	2859.700383
836.556578	2819.330823
836.872746	2793.257976
837.188871	2771.797784
837.504952	2753.019486
837.820990	2744.119329
838.136984	2731.524006
838.452935	2724.655434
838.768842	2723.904302
839.084706	2740.565315
839.400526	2820.830567
839.716303	2957.168573
840.032037	3038.457178
840.347727	3025.100641
840.663373	2961.420786
840.978977	2886.277347
841.294537	2813.871254
841.610054	2762.895106
841.925527	2742.246540
842.240957	2716.508929
842.556344	2696.588810
842.871687	2681.268743
843.186987	2671.075530
843.502244	2666.873728
843.817458	2661.003305
844.132629	2650.401758
844.447756	2640.642084
844.762840	2634.549850
845.077881	2637.279635
845.392879	2634.383492
845.707833	2630.590023
846.022745	2622.239352
846.337613	2626.925105
846.652438	2624.681791
846.967221	2625.604322
847.281960	2623.197171
847.596656	2622.798920
847.911309	2619.915380
848.225919	2619.338168
848.540485	2615.839607
848.855009	2618.481172
849.169490	2618.408075
849.483928	2616.293311
849.798323	2615.562344
850.112675	2613.185440
850.426984	2612.177209
850.741251	2612.194853
851.055474	2611.781478
851.369654	2617.026799
851.683792	2616.638630
851.997887	2612.114195
852.311938	2610.362394
852.625947	2613.896242
852.939914	2615.171654
853.253837	2618.352622
853.567718	2613.117384
853.881555	2612.096551
854.195350	2615.655605
854.509103	2612.600666
854.822812	2609.974225
855.136479	2609.702002
855.450103	2612.051180
855.763685	2615.020420
856.077224	2614.319699
856.390720	2612.199894
856.704173	2611.978083
857.017584	2617.210801
857.330953	2619.093672
857.644278	2619.897736
857.957561	2617.062087
858.270802	2613.611417
858.584000	2616.482354
858.897155	2621.072325
859.210268	2619.363374
859.523339	2617.362036
859.836367	2610.201077
860.149352	2612.507405
860.462295	2613.049329
860.775195	2612.855244
861.088054	2608.635798
861.400869	2606.954574
861.713642	2606.715119
862.026373	2608.434152
862.339062	2612.714092
862.651708	2616.893208
862.964312	2617.447735
863.276873	2615.080914
863.589392	2617.989659
863.901869	2622.440998
864.214303	2626.282357
864.526696	2630.211937
864.839045	2630.930301
865.151353	2633.264356
865.463619	2633.828965
865.775842	2634.388533
866.088023	2633.246712
866.400162	2635.643780
866.712258	2633.108080
867.024313	2634.708646
867.336325	2629.034827
867.648296	2629.513737
867.960224	2635.353914
868.272110	2635.308543
868.583954	2627.761936
868.895755	2629.843933
869.207515	2637.665283
869.519233	2640.238792
869.830909	2635.802577
870.142542	2631.641104
870.454134	2637.090591
870.765684	2639.228041
871.077191	2642.129225
871.388657	2646.658701
871.700081	2643.197949
872.011463	2644.831283
872.322803	2646.971253
872.634101	2649.015441
872.945357	2655.838642
873.256571	2660.484066
873.567744	2659.334683
873.878874	2657.661020
874.189963	2657.897954
874.501010	2664.743841
874.812015	2668.096208
875.122979	2667.897083
875.433900	2658.676812
875.744780	2657.061122
876.055618	2665.119407
876.366415	2669.023780
876.677169	2667.879438
876.987882	2662.863490
877.298554	2660.587409
877.609183	2670.946981
877.919771	2679.753876
878.230317	2686.703107
878.540822	2697.544108
878.851285	2714.852910
879.161707	2734.296640
879.472087	2778.931017
879.782425	2824.233346
880.092722	2940.936057
880.402977	3131.549646
880.713191	3398.027559
881.023363	3698.790359
881.333494	3896.454001
881.643583	4066.804672
881.953631	4067.870876
882.263637	3884.952609
882.573602	3663.013290
882.883526	3528.429606
883.193408	3411.623551
883.503248	3308.408446
883.813048	3190.180786
884.122806	3075.318095
884.432522	2986.271154
884.742197	2920.257244
885.051831	2884.036554
885.361424	2846.860565
885.670975	2810.289514
885.980485	2777.902621
886.289954	2758.879827
886.599382	2743.106057
886.908768	2731.435786
887.218113	2715.795606
887.527417	2702.224820
887.836680	2692.513037
888.145901	2686.491378
888.455082	2679.743794
888.764221	2665.406752
889.073319	2661.439364
889.382376	2660.297543
889.691392	2658.742347
890.000366	2661.235198
890.309300	2659.087666
890.618193	2662.210661
890.927044	2662.248470
891.235855	2662.946669
891.544625	2660.821823
891.853353	2661.855260
892.162041	2668.159222
892.470687	2690.554548
892.779293	2701.133410
893.087858	2711.745039
893.396381	2736.519789
893.704864	2776.428084
894.013306	2851.929445
894.321707	2945.321861
894.630068	2997.737258
894.938387	3020.719878
895.246665	3008.865605
895.554903	2967.041672
895.863100	2919.077614
896.171256	2862.319263
896.479371	2800.940694
896.787446	2760.760177
897.095480	2740.053638
897.403473	2731.266907
897.711425	2717.071018
898.019336	2701.304809
898.327207	2683.817046
898.635038	2684.777386
898.942827	2680.568023
899.250576	2673.283555
899.558284	2661.691422
899.865952	2654.908550
900.173579	2651.036943
900.481165	2649.050729
900.788711	2643.636530
901.096216	2635.795015
901.403681	2629.821247
901.711105	2636.344501
902.018489	2630.000208
902.325832	2635.147227
902.633135	2636.899027
902.940397	2654.248158
903.247619	2693.105372
903.554800	2760.248500
903.861941	2892.667009
904.169041	3023.185003
904.476101	3088.122626
904.783121	3081.932089
905.090100	3023.878161
905.397039	2943.030657
905.703938	2868.560211
906.010796	2804.482105
906.317614	2752.951430
906.624391	2715.236038
906.931129	2685.674712
907.237826	2664.136382
907.544483	2641.544451
907.851099	2630.693367
908.157675	2617.288939
908.464211	2613.331633
908.770707	2602.089860
909.077163	2597.331011
909.383578	2592.685588
909.689954	2593.764395
909.996289	2591.596698
910.302584	2589.653334
910.608839	2586.472366
910.915054	2591.334558
911.221229	2589.834815
911.527363	2593.169538
911.833458	2593.030907
912.139513	2590.091914
912.445527	2591.173242
912.751502	2599.193717
913.057436	2602.397371
913.363331	2611.118567
913.669186	2621.473097
913.975000	2638.066055
914.280775	2651.031902
914.586510	2671.259532
914.892205	2710.668752
915.197859	2779.987138
915.503475	2864.978472
915.809050	2937.545881
916.114585	2953.332254
916.420081	2963.343986
916.725536	2973.985862
917.030952	2945.463013
917.336328	2897.007443
917.641665	2849.093796
917.946961	2800.502114
918.252218	2763.638676
918.557435	2737.354100
918.862612	2710.220090
919.167750	2693.806093
919.472848	2678.785975
919.777906	2660.085815
920.082925	2646.487302
920.387904	2635.648821
920.692843	2630.471556
920.997743	2624.492748
921.302603	2618.571913
921.607423	2610.440532
921.912204	2608.184615
922.216946	2604.217227
922.521647	2603.861826
922.826310	2599.092894
923.130932	2592.572162
923.435516	2587.485637
923.740059	2590.235587
924.044564	2586.560586
924.349028	2583.538414
924.653454	2573.829152
924.957840	2572.440314
925.262186	2567.442010
925.566493	2569.783626
925.870761	2565.975034
926.174989	2566.360682
926.479178	2562.907492
926.783328	2564.624005
927.087438	2564.187945
927.391509	2562.017728
927.695541	2560.795248
927.999533	2559.834909
928.303486	2555.917932
928.607400	2556.212840
928.911275	2557.576472
929.215110	2556.167469
929.518906	2556.653941
929.822663	2555.728889
930.126381	2555.408776
930.430060	2555.804506
930.733699	2554.390463
931.037299	2555.048333
931.340861	2561.337173
931.644383	2558.340207
931.947866	2556.616132
932.251309	2559.381205
932.554714	2555.625545
932.858080	2558.887172
933.161407	2556.227963
933.464694	2554.292160
933.767943	2554.327448
934.071153	2554.531615
934.374323	2551.844680
934.677455	2554.808878
934.980548	2551.408620
935.283602	2551.781665
935.586617	2552.563044
935.889593	2553.120092
936.192530	2553.714948
936.495428	2553.568754
936.798287	2550.634803
937.101108	2554.647561
937.403890	2559.729044
937.706632	2560.318859
938.009336	2567.230281
938.312002	2566.630384
938.614628	2573.751014
938.917216	2578.373752
939.219765	2576.672362
939.522275	2578.053639
939.824747	2575.553226
940.127179	2572.140365
940.429573	2570.249932
940.731929	2567.436969
941.034246	2565.697771
941.336524	2567.159705
941.638763	2566.564849
941.940964	2566.247256
942.243126	2563.404046
942.545250	2563.343552
942.847335	2562.395815
943.149381	2559.381205
943.451389	2562.186607
943.753359	2561.732903
944.055290	2556.893395
944.357182	2556.182593
944.659036	2558.627552
944.960851	2554.660164
945.262628	2555.141594
945.564367	2557.470607
945.866067	2553.697304
946.167729	2559.401369
946.469352	2558.458674
946.770937	2556.969013
947.072484	2555.749053
947.373992	2558.143602
947.675462	2556.333827
947.976893	2553.803168
948.278286	2554.710576
948.579641	2554.080432
948.880958	2554.377860
949.182236	2555.290308
949.483476	2553.798127
949.784678	2553.989691
950.085841	2552.026161
950.386967	2555.766697
950.688054	2552.253013
950.989103	2555.073539
951.290114	2555.204609
951.591087	2558.456153
951.892021	2558.912377
952.192917	2560.490259
952.493776	2557.205947
952.794596	2560.689384
953.095378	2563.255332
953.396122	2563.603171
953.696828	2561.175856
953.997496	2560.081925
954.298126	2555.824671
954.598718	2557.664692
954.899272	2555.713765
955.199788	2553.752757
955.500266	2551.403579
955.800706	2547.950388
956.101108	2544.214893
956.401472	2545.772610
956.701798	2542.750438
957.002087	2543.118442
957.302337	2544.051056
957.602550	2546.516180
957.902724	2545.165151
958.202861	2542.024512
958.502960	2542.357228
958.803022	2544.005686
959.103045	2539.032587
959.403031	2541.535520
959.702979	2538.510828
960.002889	2539.763555
960.302762	2539.483771
960.602596	2540.239944
960.902393	2541.381765
961.202153	2539.947557
961.501875	2536.065868
961.801559	2538.735159
962.101205	2536.693492
962.400814	2538.321785
962.700385	2538.256250
962.999918	2538.064686
963.299414	2535.642411
963.598873	2538.571322
963.898293	2536.766589
964.197677	2538.064686
964.497022	2536.491846
964.796331	2539.309851
965.095601	2536.537216
965.394835	2537.873122
965.694030	2536.675848
965.993189	2538.523431
966.292309	2537.898328
966.591393	2538.594007
966.890439	2537.419418
967.189447	2535.438245
967.488419	2534.727442
967.787353	2536.713657
968.086249	2535.660055
968.385108	2537.253060
968.683930	2536.237267
968.982714	2536.191897
969.281462	2535.881866
969.580172	2537.510159
969.878844	2537.623585
970.177480	2537.235416
970.476078	2535.712987
970.774639	2538.717515
971.073162	2534.452699
971.371649	2533.192411
971.670098	2532.312729
971.968510	2536.486805
972.266885	2533.751979
972.565223	2538.019315
972.863524	2538.538554
973.161788	2538.833462
973.460014	2537.258101
973.758204	2538.306661
974.056356	2538.422608
974.354471	2537.419418
974.652550	2539.461085
974.950591	2537.459747
975.248595	2538.289017
975.546563	2537.008564
975.844493	2536.940508
976.142386	2539.715664
976.440243	2537.595858
976.738062	2538.415046
977.035845	2537.225334
977.333590	2536.058307
977.631299	2535.735673
977.928971	2536.874973
978.226606	2539.080478
978.524204	2534.351876
978.821765	2537.520241
979.119290	2535.755837
979.416777	2538.190715
979.714228	2537.147196
980.011642	2535.579397
980.309020	2541.875798
980.606360	2537.497556
980.903664	2537.137113
981.200931	2538.725077
981.498162	2540.181970
981.795356	2541.706919
982.092513	2544.051056
982.389633	2544.088865
982.686717	2548.883002
982.983764	2552.656306
983.280775	2552.963816
983.577749	2553.062118
983.874686	2550.279402
984.171587	2550.498692
984.468451	2544.545089
984.765279	2542.019471
985.062070	2540.502084
985.358824	2542.516025
985.655543	2538.289017
985.952224	2538.052083
986.248869	2537.263142
986.545478	2534.551002
986.842050	2532.837009
987.138586	2530.288706
987.435086	2531.294416
987.731549	2529.726617
988.027975	2535.652494
988.324366	2535.344983
988.620719	2534.603934
988.917037	2535.478574
989.213318	2531.312060
989.509563	2530.739889
989.805772	2535.032432
990.101944	2534.717360
990.398080	2532.960517
990.694180	2532.000178
990.990244	2532.022863
991.286271	2534.251053
991.582262	2533.613347
991.878217	2529.371216
992.174136	2533.431865
992.470019	2534.505631
992.765865	2534.994623
993.061676	2534.513193
993.357450	2534.745086
993.653188	2532.204344
993.948890	2534.273738
994.244556	2531.980013
994.540186	2534.525796
994.835780	2533.257946
995.131337	2534.820703
995.426859	2533.988913
995.722345	2532.191742
996.017795	2540.970911
996.313208	2538.047042
996.608586	2539.685417
996.903928	2538.425128
997.199234	2535.894469
997.494504	2534.341794
997.789738	2534.722401
998.084936	2539.461085
998.380099	2535.811290
998.675225	2534.407329
998.970316	2532.751310
999.265371	2531.806093
999.560390	2533.187369
999.855373	2536.050745
1000.150320	2531.790970
1000.445232	2534.936650
1000.740108	2531.372554
1001.034948	2532.910106
1001.329752	2531.145702
1001.624521	2531.070085
1001.919254	2528.428520
1002.213951	2527.828623
1002.508613	2527.604292
1002.803239	2530.785260
1003.097829	2527.868952
1003.392384	2530.180321
1003.686903	2530.608819
1003.981386	2533.794828
1004.275834	2529.204858
1004.570246	2531.559077
1004.864623	2531.196114
1005.158964	2533.182328
1005.453270	2531.117976
1005.747540	2531.060002
1006.041775	2529.020856
1006.335974	2529.487163
1006.630138	2528.123530
1006.924266	2531.985054
1007.218359	2529.892975
1007.512416	2530.749972
1007.806438	2531.818696
1008.100425	2531.959848
1008.394376	2529.066226
1008.688292	2532.605116
1008.982172	2529.981196
1009.276017	2532.184180
1009.569827	2529.499765
1009.863602	2532.257277
1010.157341	2530.296268
1010.451045	2532.925229
1010.744714	2530.414735
1011.038347	2530.918850
1011.331945	2530.863397
1011.625508	2532.055630
1011.919036	2527.858870
1012.212528	2531.475898
1012.505986	2532.169056
1012.799408	2528.247039
1013.092795	2528.791483
1013.386147	2528.274765
1013.679464	2534.588810
1013.972745	2527.448016
1014.265992	2531.027235
1014.559204	2531.259128
1014.852380	2531.959848
1015.145521	2531.596885
1015.438628	2530.228212
1015.731699	2529.880372
1016.024736	2528.068078
1016.317737	2530.560928
1016.610703	2532.395908
1016.903635	2525.953314
1017.196531	2526.598581
1017.489393	2527.178314
1017.782219	2524.740916
1018.075011	2529.023376
1018.367768	2529.998840
1018.660490	2529.582944
1018.953177	2529.582944
1019.245829	2529.582944
