Dividing Wavelength (nm)	Counts (n)	Blue Motor Position (mm): 7.100000	Red Motor Position (mm): 0.000000	
326.493990	2142.379479
326.888308	2142.379479
327.282561	2142.379479
327.676750	2109.816146
328.070874	2107.671135
328.464933	2110.433687
328.858929	2118.076077
329.252859	2127.772736
329.646726	2139.490898
330.040528	2152.277785
330.434265	2171.807215
330.827938	2185.909843
331.221547	2202.979190
331.615091	2222.765718
332.008571	2241.231465
332.401986	2260.821389
332.795338	2278.939296
333.188625	2298.955197
333.581847	2318.633341
333.975006	2337.693944
334.368100	2355.980729
334.761129	2373.037473
335.154095	2387.959289
335.546996	2407.251785
335.939833	2422.904567
336.332606	2437.506269
336.725315	2451.296346
337.117960	2457.050823
337.510540	2467.521299
337.903056	2480.658546
338.295508	2487.164155
338.687896	2493.891575
339.080220	2503.915910
339.472480	2509.622496
339.864676	2513.496622
340.256807	2517.196829
340.648875	2518.222704
341.040879	2521.968282
341.432818	2525.502130
341.824694	2527.143026
342.216506	2528.511699
342.608253	2528.950280
342.999937	2525.663447
343.391557	2526.908612
343.783113	2525.996163
344.174605	2525.403828
344.566033	2522.104393
344.957397	2522.384177
345.348697	2517.889988
345.739934	2517.529546
346.131106	2516.110461
346.522215	2514.252796
346.913260	2511.601149
347.304241	2511.941427
347.695159	2506.670900
348.086012	2508.694923
348.476802	2505.871877
348.867528	2501.952380
349.258191	2503.805004
349.648789	2503.116887
350.039324	2498.826865
350.429796	2502.416166
350.820203	2496.379385
351.210548	2494.524240
351.600828	2498.151350
351.991045	2497.075064
352.381198	2493.626915
352.771288	2491.950731
353.161314	2493.077429
353.551276	2494.113386
353.941175	2494.219250
354.331010	2494.612460
354.720782	2493.382419
355.110490	2495.197234
355.500135	2493.153046
355.889717	2495.603047
356.279235	2493.006853
356.668689	2494.743530
357.058080	2492.502737
357.447408	2493.485762
357.836672	2488.999135
358.225873	2491.708756
358.615010	2490.960144
359.004084	2494.763695
359.393095	2493.800834
359.782043	2499.330980
360.170927	2499.041114
360.559748	2497.740496
360.948505	2499.343583
361.337199	2502.075888
361.725830	2496.656648
362.114398	2501.982627
362.502903	2501.455827
362.891344	2503.318533
363.279722	2499.232678
363.668037	2504.167967
364.056289	2503.777278
364.444478	2505.672752
364.832603	2502.995899
365.220665	2503.172339
365.608665	2502.282576
365.996601	2505.156033
366.384474	2506.050838
366.772284	2506.262567
367.160031	2509.536796
367.547715	2506.610406
367.935336	2505.791219
368.322893	2509.196518
368.710388	2507.447238
369.097820	2509.539317
369.485189	2505.420694
369.872495	2507.928668
370.259738	2507.071672
370.646918	2508.102588
371.034035	2508.483195
371.421090	2510.013185
371.808081	2507.013699
372.195010	2510.877743
372.581875	2506.895232
372.968678	2508.813391
373.355418	2508.344563
373.742096	2510.020747
374.128710	2514.111643
374.515262	2512.755573
374.901751	2510.570233
375.288177	2511.500326
375.674540	2511.553258
376.060841	2511.492764
376.447079	2511.192815
376.833254	2515.069463
377.219367	2507.676610
377.605417	2508.959584
377.991404	2508.609224
378.377329	2509.861951
378.763191	2507.104439
379.148991	2511.805315
379.534727	2513.988135
379.920402	2515.659278
380.306013	2512.506036
380.691563	2514.557785
381.077049	2513.723474
381.462474	2514.850172
381.847835	2513.728516
382.233134	2513.720954
382.618371	2515.555934
383.003545	2514.220028
383.388657	2514.431757
383.773706	2517.078362
384.158693	2515.477796
384.543618	2516.488547
384.928480	2515.883609
385.313280	2517.605163
385.698017	2516.609535
386.082692	2518.081552
386.467305	2517.932838
386.851856	2517.670698
387.236344	2516.700276
387.620770	2519.871162
388.005133	2516.153311
388.389435	2518.681449
388.773674	2516.493588
389.157851	2517.708507
389.541965	2518.232787
389.926018	2518.358815
390.310008	2516.425533
390.693936	2519.167921
391.077802	2518.288239
391.461606	2521.411234
391.845348	2519.760256
392.229027	2518.565503
392.612645	2520.019876
392.996200	2520.516429
393.379694	2521.096162
393.763125	2521.338137
394.146494	2521.121368
394.529801	2521.892664
394.913047	2518.968795
395.296230	2522.505164
395.679351	2521.509537
396.062410	2522.979033
396.445408	2520.627335
396.828343	2521.630524
397.211217	2519.588857
397.594028	2521.396111
397.976778	2517.884947
398.359466	2522.704290
398.742092	2516.783455
399.124656	2525.197141
399.507158	2524.025072
399.889598	2524.917357
400.271977	2522.243024
400.654294	2526.596061
401.036549	2523.304187
401.418742	2523.047088
401.800874	2522.825278
402.182944	2526.331400
402.564952	2522.674043
402.946898	2524.377953
403.328783	2523.551204
403.710606	2525.393746
404.092367	2524.685463
404.474067	2526.689322
404.855705	2527.158149
405.237282	2525.517254
405.618797	2524.829136
406.000250	2526.981709
406.381642	2525.930628
406.762972	2526.928777
407.144240	2524.942562
407.525447	2527.601771
407.906593	2527.543798
408.287677	2527.647141
408.668700	2527.155629
409.049661	2526.853160
409.430560	2529.535053
409.811399	2525.751668
410.192176	2527.402645
410.572891	2527.264014
410.953545	2527.684950
411.334138	2527.327028
411.714669	2528.418438
412.095139	2529.189734
412.475547	2529.600588
412.855894	2528.660413
413.236180	2529.494724
413.616405	2529.126720
413.996568	2531.420445
414.376670	2530.704601
414.756711	2531.924560
415.136691	2530.954138
415.516609	2532.214427
415.896466	2531.755682
416.276262	2533.003367
416.655997	2525.761750
417.035670	2526.512882
417.415283	2529.651000
417.794834	2527.127902
418.174324	2529.623274
418.553753	2531.294416
418.933121	2531.080167
419.312428	2532.002698
419.691674	2529.489683
420.070859	2528.879703
420.449983	2531.463295
420.829045	2531.627132
421.208047	2531.884231
421.586988	2533.328522
421.965867	2534.475384
422.344686	2531.705270
422.723444	2534.530837
423.102141	2529.812317
423.480777	2535.244160
423.859352	2532.476567
424.237866	2532.249715
424.616319	2533.167205
424.994712	2533.608306
425.373044	2533.260466
425.751314	2536.189377
426.129524	2533.028573
426.507673	2535.690302
426.885762	2533.068902
427.263789	2535.468492
427.641756	2533.779705
428.019662	2535.327339
428.397508	2533.585621
428.775292	2535.776002
429.153016	2533.199972
429.530679	2537.248019
429.908282	2532.600075
430.285824	2534.576207
430.663305	2534.926567
431.040726	2534.956814
431.418086	2534.893800
431.795385	2537.051414
432.172624	2538.137782
432.549802	2534.044366
432.926920	2537.691640
433.303977	2533.857843
433.680974	2537.305992
434.057910	2535.758358
434.434786	2536.144006
434.811601	2536.411187
435.188355	2533.164684
435.565050	2536.370858
435.941683	2538.624254
436.318257	2535.508821
436.694770	2532.819365
437.071222	2533.951104
437.447614	2533.774664
437.823946	2535.279448
438.200218	2538.377237
438.576429	2535.750796
438.952580	2536.232226
439.328670	2535.274407
439.704700	2535.665097
440.080670	2537.734490
440.456580	2535.811290
440.832429	2537.280786
441.208218	2539.592155
441.583947	2538.422608
441.959616	2541.956457
442.335224	2538.243647
442.710773	2540.698689
443.086261	2538.384799
443.461689	2538.783050
443.837057	2538.578883
444.212365	2541.185160
444.587612	2537.328677
444.962800	2538.460416
445.337927	2541.996786
445.712995	2537.535365
446.088002	2541.754810
446.462949	2540.842362
446.837837	2538.220962
447.212664	2538.649460
447.587431	2542.553833
447.962139	2539.012423
448.336786	2540.302958
448.711374	2539.060314
449.085901	2539.095602
449.460369	2542.463093
449.834776	2538.427649
450.209124	2539.332536
450.583412	2540.305479
450.957640	2540.607948
451.331808	2537.104346
451.705917	2539.163657
452.079965	2539.060314
452.453954	2541.782537
452.827883	2541.515356
453.201752	2541.233051
453.575562	2539.899666
453.949311	2539.093081
454.323001	2538.541075
454.696632	2541.336395
455.070202	2541.074255
455.443713	2541.321271
455.817164	2538.994779
456.190556	2536.567463
456.563888	2538.720036
456.937160	2537.500077
457.310373	2543.083154
457.683526	2539.735828
458.056619	2540.386137
458.429653	2542.465613
458.802628	2544.930737
459.175542	2540.234903
459.548398	2543.337733
459.921194	2540.769265
460.293930	2540.076106
460.666607	2545.197918
461.039224	2541.843031
461.411782	2542.047197
461.784280	2541.964018
462.156719	2542.059800
462.529099	2544.114070
462.901419	2541.558205
463.273680	2541.845551
463.645882	2541.822866
464.018024	2543.168854
464.390106	2542.667259
464.762130	2544.124153
465.134094	2544.822352
465.505999	2541.258257
465.877845	2543.148689
466.249631	2546.879143
466.621358	2543.168854
466.993026	2546.969884
467.364634	2546.433001
467.736184	2543.035263
468.107674	2542.221117
468.479105	2546.571633
468.850477	2543.569626
469.221790	2544.819832
469.593043	2542.581560
469.964238	2544.368649
470.335373	2543.730943
470.706449	2544.214893
471.077467	2542.916796
471.448425	2542.962167
471.819324	2543.042825
472.190164	2544.792106
472.560945	2544.744215
472.931667	2542.957126
473.302330	2545.268495
473.672934	2544.262784
474.043479	2545.230686
474.413965	2544.532486
474.784393	2540.948226
475.154761	2543.393185
475.525070	2540.144162
475.895321	2541.485109
476.265513	2539.682896
476.635645	2544.973587
477.005719	2545.505429
477.375734	2544.212373
477.745691	2544.343443
478.115588	2546.097764
478.485427	2546.705223
478.855207	2544.900490
479.224928	2545.565923
479.594591	2544.277908
479.964194	2547.196736
480.333739	2547.088351
480.703226	2545.205480
481.072653	2546.705223
481.442022	2545.800336
481.811333	2543.652805
482.180584	2545.656663
482.549777	2547.340409
482.918912	2544.524924
483.287988	2543.919986
483.657005	2545.044163
484.025964	2543.829245
484.394864	2546.377548
484.763706	2547.279915
485.132489	2544.887887
485.501213	2547.453835
485.869879	2547.743701
486.238487	2544.040974
486.607036	2544.585418
486.975527	2545.921324
487.343959	2546.158258
487.712333	2547.620193
488.080648	2545.704554
488.448905	2545.823022
488.817104	2545.651622
489.185244	2547.721016
489.553326	2548.875440
489.921350	2547.547096
490.289315	2547.284956
490.657222	2547.842004
491.025070	2541.850592
491.392861	2546.692621
491.760593	2546.864020
492.128267	2548.827549
492.495883	2546.959802
492.863440	2547.746222
493.230939	2545.853268
493.598380	2548.361242
493.965763	2542.510983
494.333088	2546.644730
494.700354	2543.675490
495.067563	2547.045501
495.434713	2543.216745
495.801805	2546.770758
496.168839	2548.363763
496.535815	2547.549617
496.902733	2546.496016
497.269593	2549.795451
497.636395	2546.027188
498.003139	2546.503577
498.369825	2545.941489
498.736453	2547.673125
499.103023	2549.251006
499.469535	2549.142621
499.835989	2548.061294
500.202385	2546.438042
500.568723	2547.708413
500.935003	2549.503064
501.301226	2548.020965
501.667390	2550.329813
502.033497	2548.799823
502.399546	2546.417878
502.765537	2547.620193
503.131470	2547.892415
503.497345	2547.466438
503.863163	2550.032385
504.228923	2549.122457
504.594625	2548.204967
504.960269	2548.073897
505.325856	2548.767055
505.691385	2547.315203
506.056856	2549.223280
506.422270	2547.625234
506.787625	2549.157745
507.152924	2545.883515
507.518164	2549.800492
507.883347	2549.734957
508.248472	2551.116233
508.613540	2547.247147
508.978550	2547.773948
509.343503	2548.630944
509.708398	2549.840821
510.073236	2547.358053
510.438016	2549.462735
510.802738	2544.792106
511.167403	2550.536500
511.532010	2546.795964
511.896561	2549.510626
512.261053	2546.543907
512.625488	2544.817311
512.989866	2544.993752
513.354186	2546.445604
513.718449	2543.400747
514.082655	2547.592467
514.446803	2547.962991
514.810894	2547.922662
515.174927	2548.371325
515.538904	2549.843342
515.902822	2548.043650
516.266684	2547.461397
516.630488	2549.268650
516.994235	2548.676315
517.357925	2549.608928
517.721558	2548.583053
518.085133	2550.554144
518.448651	2550.203784
518.812112	2546.082641
519.175516	2548.885522
519.538863	2551.010369
519.902152	2548.877961
520.265385	2550.617159
520.628560	2548.819988
520.991678	2549.936603
521.354739	2550.559186
521.717743	2549.558517
522.080690	2549.414844
522.443580	2549.825698
522.806413	2550.632282
523.169189	2549.203115
523.531908	2550.944834
523.894569	2551.620348
524.257174	2547.872251
524.619722	2551.716130
524.982213	2552.822664
525.344647	2549.528270
525.707025	2550.102961
526.069345	2549.601366
526.431608	2547.975594
526.793815	2550.859134
527.155964	2550.198743
527.518057	2549.361912
527.880093	2550.423074
528.242072	2547.887374
528.603995	2550.942313
528.965860	2550.773435
529.327669	2550.160934
529.689421	2548.502395
530.051117	2550.327292
530.412755	2550.241593
530.774337	2550.057591
531.135862	2554.448436
531.497331	2548.172199
531.858743	2547.531973
532.220098	2546.755635
532.581396	2549.195553
532.942638	2547.574823
533.303824	2549.450132
533.664953	2548.625903
534.026025	2551.650595
534.387040	2551.539690
534.747999	2549.114895
535.108902	2552.928528
535.469748	2550.859134
535.830537	2551.511964
536.191270	2549.253527
536.551947	2548.759494
536.912567	2550.125646
537.273131	2552.431974
537.633638	2549.301418
537.994089	2553.815771
538.354483	2549.664381
538.714821	2550.700338
539.075103	2552.600853
539.435328	2551.587581
539.795497	2550.844011
540.155609	2552.971378
540.515665	2550.123126
540.875665	2551.532128
541.235609	2550.826367
541.595496	2552.492468
541.955328	2549.319062
542.315102	2550.539021
542.674821	2552.084135
543.034483	2554.758467
543.394090	2550.092879
543.753640	2549.883671
544.113134	2552.139587
544.472571	2550.866696
544.831953	2552.578168
545.191278	2552.293343
545.550548	2548.729247
545.909761	2552.285781
546.268918	2553.268806
546.628019	2553.624207
546.987064	2552.563044
547.346053	2552.646223
547.704986	2551.456511
548.063863	2550.181099
548.422684	2551.784186
548.781449	2551.542211
549.140158	2555.575134
549.498811	2552.205122
549.857408	2554.246790
550.215949	2551.837118
550.574434	2548.716644
550.932864	2551.201933
551.291237	2550.907025
551.649555	2553.614125
552.007817	2549.324103
552.366022	2551.159083
552.724173	2548.300749
553.082267	2553.125133
553.440305	2555.123950
553.798288	2552.472303
554.156215	2553.281409
554.514086	2551.338044
554.871902	2553.188147
555.229661	2552.772252
555.587365	2553.556152
555.945014	2551.779145
556.302606	2551.590102
556.660143	2555.789383
557.017625	2555.607901
557.375050	2554.708055
557.732421	2554.909701
558.089735	2552.716799
558.446994	2553.409958
558.804197	2551.585060
559.161345	2553.614125
559.518437	2552.827705
559.875474	2552.353836
560.232455	2554.448436
560.589381	2551.040616
560.946251	2556.827860
561.303065	2555.701163
561.659825	2552.782334
562.016528	2553.057077
562.373177	2552.517674
562.729770	2553.137736
563.086307	2555.058415
563.442789	2554.135884
563.799216	2552.726882
564.155587	2553.830894
564.511904	2552.210163
564.868164	2552.273178
565.224370	2553.881306
565.580520	2553.881306
565.936615	2556.255689
566.292654	2552.943651
566.648638	2554.405586
567.004567	2554.423230
567.360441	2554.153528
567.716260	2552.172355
568.072023	2552.958775
568.427732	2547.594987
568.783385	2553.669578
569.138982	2550.241593
569.494525	2550.624721
569.850013	2550.425595
570.205445	2555.050854
570.560823	2551.310318
570.916145	2555.905329
571.271412	2555.532284
571.626625	2553.856100
571.981782	2552.999104
572.336884	2556.288457
572.691931	2553.767880
573.046923	2554.201419
573.401860	2550.155893
573.756743	2552.588250
574.111570	2551.968188
574.466342	2553.919115
574.821059	2554.203940
575.175722	2551.695966
575.530330	2552.069011
575.884882	2551.426264
576.239380	2553.203271
576.593823	2555.270144
576.948211	2552.744526
577.302544	2551.146480
577.656823	2552.943651
578.011047	2555.088662
578.365216	2552.956254
578.719330	2554.735782
579.073389	2553.931718
579.427394	2550.113043
579.781344	2552.842828
580.135239	2554.796275
580.489080	2553.543549
580.842866	2555.338199
581.196597	2557.082439
581.550273	2553.203271
581.903895	2554.977757
582.257463	2552.802499
582.610975	2552.726882
582.964434	2552.411810
583.317837	2551.983312
583.671186	2552.321069
584.024481	2556.016235
584.377721	2554.251831
584.730906	2550.019782
585.084037	2551.519525
585.437113	2552.409289
585.790135	2553.490617
586.143103	2551.897612
586.496016	2553.891388
586.848874	2549.152704
587.201679	2549.387117
587.554428	2550.211346
587.907124	2551.280071
588.259765	2548.149514
588.612352	2551.690925
588.964884	2553.755277
589.317362	2551.380894
589.669786	2554.077911
590.022155	2555.134033
590.374470	2552.878116
590.726731	2551.786707
591.078937	2551.764021
591.431090	2552.303425
591.783188	2551.469114
592.135232	2550.234031
592.487222	2552.605894
592.839157	2552.391645
593.191038	2555.640669
593.542866	2554.340051
593.894639	2553.470452
594.246358	2552.442057
594.598022	2547.867209
594.949633	2551.993394
595.301190	2549.548434
595.652692	2553.979608
596.004141	2552.217725
596.355535	2549.903836
596.706876	2553.591440
597.058162	2552.784855
597.409395	2554.309804
597.760573	2551.980791
598.111698	2553.167983
598.462768	2551.673281
598.813785	2551.789227
599.164748	2550.884340
599.515657	2553.435164
599.866511	2554.138405
600.217312	2553.828374
600.568060	2553.233518
600.918753	2552.399207
601.269392	2550.783517
601.619978	2552.295863
601.970510	2550.604556
602.320988	2552.200081
602.671412	2553.430123
603.021783	2553.813250
603.372100	2553.891388
603.722363	2551.945503
604.072572	2553.861141
604.422728	2555.819630
604.772830	2550.907025
605.122878	2549.286294
605.472872	2549.918959
605.822813	2547.219421
606.172701	2551.872406
606.522534	2553.843497
606.872314	2551.595143
607.222041	2551.239741
607.571714	2553.611604
607.921333	2551.569937
608.270899	2550.314690
608.620411	2554.085473
608.969870	2554.271995
609.319276	2553.243600
609.668627	2554.957592
610.017926	2559.106462
610.367171	2560.699467
610.716362	2560.253324
611.065500	2558.156204
611.414585	2558.347768
611.763616	2557.863818
612.112594	2553.604042
612.461518	2555.214691
612.810389	2553.372149
613.159207	2555.398693
613.507971	2553.987170
613.856682	2555.542366
614.205340	2553.155380
614.553945	2555.471790
614.902496	2553.624207
615.250994	2552.426933
615.599439	2553.863662
615.947830	2556.457336
616.296169	2551.857283
616.644454	2552.119423
616.992686	2551.469114
617.340864	2554.982798
617.688990	2553.677139
618.037063	2552.487427
618.385082	2552.636141
618.733048	2551.910215
619.080961	2553.730071
619.428821	2552.769732
619.776628	2554.519012
620.124382	2553.331820
620.472083	2552.023641
620.819731	2552.578168
621.167326	2554.284598
621.514868	2555.257541
621.862357	2551.191850
622.209793	2554.410627
622.557176	2549.762683
622.904506	2552.590771
623.251783	2549.271171
623.599007	2552.835267
623.946179	2548.424257
624.293297	2552.104299
624.640363	2553.533466
624.987376	2553.092365
625.334336	2553.888868
625.681243	2550.128167
626.028097	2552.000956
626.374899	2555.983467
626.721647	2553.185627
627.068343	2551.990873
627.414987	2551.269988
627.761577	2554.140925
628.108115	2551.262427
628.454600	2553.036913
628.801032	2551.065822
629.147412	2554.592109
629.493739	2551.731254
629.840014	2555.350802
630.186236	2554.907181
630.532405	2552.550441
630.878521	2552.847869
631.224585	2554.829043
631.570597	2553.084804
631.916556	2552.734443
632.262462	2551.224618
632.608316	2551.978270
632.954117	2550.980122
633.299866	2552.797458
633.645562	2551.330482
633.991206	2553.533466
634.336797	2551.088507
634.682336	2553.319217
635.027823	2554.090514
635.373257	2553.074721
635.718639	2554.133364
636.063968	2552.444577
636.409245	2552.250493
636.754470	2551.854762
637.099642	2551.267468
637.444762	2553.450287
637.789829	2549.873589
638.134845	2551.411141
638.479808	2549.127498
638.824719	2552.000956
639.169577	2554.579506
639.514383	2553.256203
639.859137	2552.074052
640.203839	2553.447767
640.548489	2553.641851
640.893086	2549.729916
641.237632	2549.077086
641.582125	2550.312169
641.926566	2549.876109
642.270955	2552.973898
642.615292	2551.209494
642.959576	2551.847200
643.303809	2555.721327
643.647990	2551.416182
643.992118	2553.835936
644.336195	2550.697817
644.680219	2551.476676
645.024192	2552.905843
645.368112	2554.715617
645.711981	2552.167314
646.055797	2550.811243
646.399562	2552.628579
646.743274	2553.967006
647.086935	2553.389793
647.430544	2550.992725
647.774101	2553.462890
648.117606	2554.642520
648.461059	2553.399876
648.804460	2555.446584
649.147810	2553.911553
649.491108	2555.320555
649.834354	2553.732592
650.177548	2554.559341
650.520690	2554.614794
650.863781	2551.464073
651.206820	2554.589588
651.549807	2552.701676
651.892742	2552.545400
652.235626	2552.684032
652.578458	2552.424413
652.921238	2552.290822
653.263967	2555.365926
653.606644	2552.963816
653.949269	2554.181255
654.291843	2552.784855
654.634365	2552.298384
654.976836	2554.395504
655.319255	2554.382901
655.661622	2552.852911
656.003938	2552.560524
656.346203	2553.785524
656.688416	2552.442057
657.030577	2551.690925
657.372687	2551.786707
657.714746	2549.762683
658.056753	2553.440205
658.398708	2548.676315
658.740612	2550.854093
659.082465	2549.026675
659.424266	2549.182951
659.766016	2546.619524
660.107715	2554.614794
660.449362	2551.834597
660.790958	2553.541028
661.132503	2553.329300
661.473996	2553.011707
661.815438	2552.769732
662.156829	2553.959444
662.498168	2553.190668
662.839456	2553.994732
663.180693	2555.754095
663.521879	2553.510781
663.863013	2554.612273
664.204097	2553.190668
664.545129	2553.336861
664.886110	2554.284598
665.227040	2555.444064
665.567918	2555.073539
665.908746	2553.238559
666.249522	2556.422047
666.590248	2553.992211
666.930922	2552.590771
667.271545	2551.504402
667.612118	2556.049002
667.952639	2554.589588
668.293109	2554.856769
668.633528	2553.329300
668.973896	2552.091696
669.314213	2553.949362
669.654480	2555.093703
669.994695	2556.003632
670.334859	2555.204609
670.674973	2553.853580
671.015035	2554.047664
671.355047	2554.440874
671.695008	2554.188816
672.034918	2555.277706
672.374777	2553.480534
672.714585	2555.537325
673.054342	2557.208468
673.394049	2555.680998
673.733705	2555.910370
674.073310	2558.448591
674.412864	2556.124619
674.752368	2554.929866
675.091820	2557.357182
675.431223	2554.566903
675.770574	2557.241235
676.109875	2553.538508
676.449125	2553.619166
676.788324	2553.102448
677.127473	2551.635472
677.466571	2552.119423
677.805619	2556.359033
678.144616	2557.382387
678.483562	2555.915412
678.822458	2556.376677
679.161303	2558.141081
679.500098	2559.096380
679.838842	2558.151163
680.177535	2555.595298
680.516179	2559.575289
680.854771	2559.255176
681.193314	2558.743499
681.531805	2558.899775
681.870247	2561.521175
682.208638	2560.873386
682.546978	2558.433468
682.885268	2562.625187
683.223508	2561.740465
683.561697	2559.713921
683.899836	2561.495969
684.237925	2561.606874
684.575963	2562.294992
684.913951	2563.010836
685.251889	2564.984447
685.589776	2562.746175
685.927614	2563.275496
686.265401	2564.835733
686.603137	2565.944787
686.940824	2564.792883
687.278460	2566.421176
687.616046	2566.254818
687.953582	2568.508214
688.291068	2570.222206
688.628504	2570.612896
688.965889	2569.581980
689.303224	2569.786146
689.640510	2570.345714
689.977745	2569.735735
690.314930	2567.600806
690.652065	2566.678275
690.989150	2562.715928
691.326185	2568.291444
691.663170	2568.672051
692.000105	2567.348748
692.336990	2565.904458
692.673825	2567.046279
693.010610	2567.653738
693.347345	2562.405897
693.684030	2562.955383
694.020665	2565.990157
694.357251	2560.215516
694.693786	2564.024107
695.030272	2566.998388
695.366707	2567.439489
695.703093	2565.624674
696.039429	2568.319171
696.375716	2566.612740
696.711952	2566.191804
697.048139	2566.874880
697.384276	2568.389747
697.720363	2568.243553
698.056400	2571.021229
698.392388	2569.221537
698.728326	2568.246074
699.064214	2568.908986
699.400053	2569.511403
699.735842	2569.014850
700.071581	2570.728842
700.407270	2569.458471
700.742910	2568.664490
701.078501	2568.883780
701.414042	2569.405539
701.749533	2568.445199
702.084974	2567.847823
702.420366	2569.602144
702.755709	2569.077864
703.091002	2570.587690
703.426246	2571.653894
703.761440	2568.664490
704.096584	2572.069789
704.431679	2570.794377
704.766725	2569.115673
705.101721	2569.854202
705.436668	2572.266394
705.771565	2570.363358
706.106413	2571.580797
706.441212	2572.515931
706.775961	2576.248906
707.110661	2573.577094
707.445311	2574.063565
707.779913	2575.522979
708.114465	2578.058680
708.448967	2578.731674
708.783421	2579.686972
709.117825	2582.389031
709.452180	2583.987077
709.786485	2580.914493
710.120742	2586.477407
710.454949	2586.699218
710.789107	2586.026223
711.123216	2583.495564
711.457275	2585.224680
711.791286	2589.698704
712.125247	2593.474528
712.459159	2592.178952
712.793023	2592.373036
713.126837	2595.052409
713.460602	2597.946032
713.794318	2592.990577
714.127985	2594.507965
714.461602	2594.616350
714.795171	2590.527974
715.128691	2588.763570
715.462162	2586.404310
715.795584	2587.664598
716.128957	2586.933631
716.462281	2587.009248
716.795556	2588.211564
717.128782	2591.085021
717.461960	2587.478076
717.795088	2587.427664
718.128167	2588.299784
718.461198	2583.669484
718.794180	2585.358271
719.127113	2585.605287
719.459997	2583.629155
719.792833	2581.138825
720.125619	2582.021027
720.458357	2579.634040
720.791046	2584.579412
721.123686	2581.451376
721.456278	2584.826429
721.788821	2582.076479
722.121315	2583.946747
722.453761	2581.406006
722.786158	2583.167889
723.118506	2586.318610
723.450805	2585.854824
723.783056	2581.141345
724.115259	2584.531521
724.447412	2584.158476
724.779518	2584.115626
725.111574	2587.692325
725.443582	2586.563106
725.775542	2591.155597
726.107453	2591.478231
726.439315	2592.864549
726.771129	2594.313880
727.102895	2596.416042
727.434612	2599.032400
727.766281	2598.455188
728.097901	2597.734303
728.429473	2595.498552
728.760996	2596.708428
729.092471	2593.111565
729.423897	2597.661207
729.755276	2595.773294
730.086606	2602.578852
730.417887	2601.721856
730.749120	2605.270828
731.080305	2611.494133
731.411442	2613.437497
731.742530	2605.059100
732.073570	2608.187136
732.404562	2615.673249
732.735506	2614.629730
733.066401	2608.703854
733.397249	2611.594956
733.728048	2607.340222
734.058798	2603.687906
734.389501	2601.646239
734.720156	2600.814448
735.050762	2597.578027
735.381320	2599.927205
735.711831	2595.896803
736.042293	2599.266814
736.372707	2599.027359
736.703073	2602.157916
737.033391	2596.509303
737.363661	2597.610795
737.693883	2600.753954
738.024056	2605.132197
738.354182	2601.343769
738.684260	2603.806373
739.014290	2607.269646
739.344272	2602.536002
739.674207	2607.075561
740.004093	2610.881632
740.333931	2611.143772
740.663722	2612.315841
740.993464	2611.741149
741.323159	2611.226952
741.652806	2612.131839
741.982405	2612.167127
742.311956	2607.809049
742.641460	2611.252157
742.970915	2608.335850
743.300323	2607.309975
743.629683	2600.723707
743.958996	2604.164295
744.288260	2603.443410
744.617477	2602.188163
744.946647	2598.001484
745.275768	2599.241608
745.604842	2602.064654
745.933869	2598.792946
746.262847	2595.100300
746.591778	2604.393667
746.920662	2603.208996
747.249498	2601.792432
747.578286	2606.400047
747.907027	2604.953236
748.235720	2605.482557
748.564365	2609.207969
748.892963	2607.912393
749.221514	2606.722681
749.550017	2608.565222
749.878473	2608.527414
750.206881	2606.175715
750.535242	2609.966663
750.863555	2605.658997
751.191821	2605.285952
751.520039	2605.409460
751.848210	2601.626074
752.176334	2606.848709
752.504411	2609.969184
752.832440	2605.613627
753.160421	2599.702874
753.488356	2604.827207
753.816243	2607.410798
754.144082	2602.450303
754.471875	2604.509614
754.799620	2604.471805
755.127318	2603.997937
755.454969	2604.184460
755.782572	2607.188987
756.110129	2602.510797
756.437638	2605.021291
756.765100	2607.761158
757.092515	2608.136724
757.419882	2611.582353
757.747203	2605.172526
758.074477	2607.632609
758.401703	2611.526900
758.728882	2610.874071
759.056014	2610.223762
759.383099	2608.923144
759.710138	2610.367435
760.037129	2613.984463
760.364073	2614.546551
760.690970	2613.102261
761.017820	2610.034719
761.344623	2612.431787
761.671379	2616.620986
761.998088	2615.562344
762.324751	2626.249590
762.651366	2637.977834
762.977935	2666.084788
763.304456	2701.146013
763.630931	2719.742829
763.957359	2691.827440
764.283740	2668.353307
764.610074	2665.986485
764.936362	2652.934938
765.262602	2640.384985
765.588796	2633.796197
765.914943	2624.424692
766.241044	2615.920266
766.567097	2617.646861
766.893104	2611.506736
767.219064	2606.175715
767.544978	2607.695623
767.870845	2601.348811
768.196665	2601.207658
768.522438	2600.824531
768.848165	2602.314192
769.173846	2600.683378
769.499479	2598.810590
769.825066	2596.262286
770.150607	2595.493510
770.476101	2601.981475
770.801548	2599.831423
771.126949	2593.847574
771.452303	2593.260279
771.777611	2597.709097
772.102872	2596.607605
772.428087	2595.065012
772.753256	2598.666917
773.078378	2595.349837
773.403453	2590.079311
773.728482	2588.821543
774.053465	2594.719693
774.378401	2593.693818
774.703291	2587.341965
775.028135	2593.159456
775.352932	2588.332551
775.677683	2586.127047
776.002388	2588.151070
776.327046	2590.049064
776.651658	2587.314238
776.976224	2585.196954
777.300743	2584.118147
777.625216	2583.702252
777.949643	2583.908939
778.274024	2586.729464
778.598359	2582.799885
778.922647	2585.380956
779.246889	2587.934300
779.571086	2581.610173
779.895236	2581.978177
780.219339	2587.344485
780.543397	2588.894640
780.867409	2587.226018
781.191374	2585.774166
781.515294	2587.956985
781.839167	2587.278950
782.162995	2585.932962
782.486776	2588.771132
782.810511	2587.946903
783.134201	2587.823395
783.457844	2588.307346
783.781441	2588.786255
784.104993	2581.963053
784.428498	2582.832652
784.751958	2587.606625
785.075372	2584.768456
785.398739	2583.409865
785.722061	2585.275092
786.045337	2589.000504
786.368568	2587.372212
786.691752	2585.602767
787.014891	2591.672316
787.337983	2593.472008
787.661030	2592.826740
787.984031	2602.888883
788.306987	2609.666714
788.629897	2604.476847
788.952760	2606.223606
789.275579	2607.473812
789.598351	2600.204469
789.921078	2595.531319
790.243759	2596.748758
790.566395	2593.356061
790.888984	2590.762387
791.211529	2590.757346
791.534027	2590.296081
791.856480	2587.064701
792.178888	2584.566809
792.501249	2585.716192
792.823566	2586.452201
793.145836	2582.479772
793.468062	2582.759556
793.790241	2586.752150
794.112375	2587.079825
794.434464	2586.686615
794.756507	2586.419433
795.078505	2584.624783
795.400457	2586.547983
795.722364	2585.572520
796.044226	2593.963520
796.366042	2592.761205
796.687812	2590.958992
797.009538	2597.131885
797.331218	2596.569797
797.652852	2596.413521
797.974442	2591.914291
798.295986	2593.832450
798.617484	2594.349168
798.938938	2591.382449
799.260346	2587.619228
799.581709	2589.849939
799.903026	2588.745926
800.224299	2587.891450
800.545526	2587.067222
800.866708	2582.015986
801.187845	2581.774010
801.508936	2581.963053
801.829983	2582.315934
802.150984	2585.033116
802.471940	2582.257961
802.792851	2581.801737
803.113717	2581.143866
803.434538	2585.146542
803.755314	2581.879874
804.076045	2577.670511
804.396731	2579.621437
804.717372	2581.136304
805.037967	2578.696386
805.358518	2579.548341
805.679024	2583.573702
805.999485	2583.296439
806.319901	2580.917014
806.640272	2582.263002
806.960598	2580.052456
807.280879	2583.999680
807.601115	2585.819536
807.921306	2582.714185
808.241453	2582.953640
808.561554	2582.373907
808.881611	2584.642427
809.201623	2583.729978
809.521590	2585.817016
809.841513	2582.053794
810.161390	2583.019175
810.481223	2582.068918
810.801011	2582.333578
811.120755	2582.426840
811.440453	2585.945565
811.760107	2584.551686
812.079716	2581.905080
812.399281	2580.992631
812.718801	2578.698906
813.038276	2576.319482
813.357707	2581.612693
813.677093	2583.818198
813.996434	2580.322158
814.315731	2581.542117
814.634983	2582.620924
814.954191	2581.474062
815.273354	2583.125039
815.592473	2587.021851
815.911547	2585.443970
816.230577	2588.052767
816.549562	2589.141657
816.868502	2589.572675
817.187399	2590.038982
817.506250	2596.867225
817.825058	2594.195413
818.143821	2594.533171
818.462539	2597.459560
818.781213	2601.164808
819.099843	2605.069182
819.418429	2611.597476
819.736970	2621.158025
820.055466	2630.186731
820.373919	2650.406799
820.692327	2670.523524
821.010691	2686.587160
821.329011	2732.123903
821.647286	2812.008547
821.965517	2935.037907
822.283704	2990.049498
822.601847	3007.708660
822.919945	2989.966319
823.237999	2980.766214
823.556010	2915.579053
823.873976	2851.463138
824.191897	2810.438228
824.509775	2773.690737
824.827609	2732.486866
825.145398	2715.112529
825.463144	2715.414999
825.780845	2723.107799
826.098502	2729.598285
826.416116	2763.835281
826.733685	2793.787297
827.051210	2810.844041
827.368692	2798.291568
827.686129	2774.557816
828.003522	2733.868142
828.320872	2696.956814
828.638177	2673.822959
828.955439	2648.039977
829.272656	2634.481794
829.589830	2621.704990
829.906960	2617.220883
830.224046	2608.769389
830.541088	2607.710747
830.858086	2603.834099
831.175041	2599.468460
831.491952	2598.331680
831.808819	2602.964500
832.125642	2606.168154
832.442421	2612.356170
832.759157	2623.625669
833.075849	2649.481747
833.392497	2682.720595
833.709101	2715.556151
834.025662	2714.235369
834.342179	2699.931095
834.658653	2674.909328
834.975083	2649.890081
835.291469	2643.472692
835.607811	2624.971657
835.924110	2612.832559
836.240366	2607.239399
836.556578	2598.414859
836.872746	2591.543766
837.188871	2589.058477
837.504952	2581.973136
837.820990	2584.309711
838.136984	2577.915007
838.452935	2579.278639
838.768842	2579.591191
839.084706	2580.354925
839.400526	2592.927563
839.716303	2609.707044
840.032037	2623.744137
840.347727	2625.740433
840.663373	2619.398662
840.978977	2608.928185
841.294537	2597.792277
841.610054	2590.215422
841.925527	2585.648137
842.240957	2579.404668
842.556344	2575.354101
842.871687	2572.747824
843.186987	2572.271435
843.502244	2571.452248
843.817458	2570.600293
844.132629	2565.818758
844.447756	2565.465878
844.762840	2559.726524
845.077881	2561.715259
845.392879	2562.012687
845.707833	2564.192986
846.022745	2557.150494
846.337613	2562.148798
846.652438	2561.869014
846.967221	2565.377657
847.281960	2561.954714
847.596656	2560.369271
847.911309	2562.292471
848.225919	2561.959755
848.540485	2559.902964
848.855009	2559.650907
849.169490	2560.520506
849.483928	2559.081256
849.798323	2560.381874
850.112675	2562.857080
850.426984	2558.748540
850.741251	2560.946483
851.055474	2560.830537
851.369654	2561.523695
851.683792	2560.412121
851.997887	2562.378171
852.311938	2560.276010
852.625947	2559.166956
852.939914	2560.656617
853.253837	2564.147616
853.567718	2561.687533
853.881555	2557.463046
854.195350	2562.471432
854.509103	2561.155691
854.822812	2561.163253
855.136479	2561.148129
855.450103	2560.157543
855.763685	2562.423541
856.077224	2560.288612
856.390720	2561.173335
856.704173	2559.171997
857.017584	2562.194169
857.330953	2559.595454
857.644278	2563.855229
857.957561	2567.076526
858.270802	2561.705177
858.584000	2560.770043
858.897155	2563.446895
859.210268	2563.424210
859.523339	2563.976217
859.836367	2563.000753
860.149352	2562.675599
860.462295	2562.312636
860.775195	2559.421534
861.088054	2558.877089
861.400869	2559.824826
861.713642	2554.408107
862.026373	2559.890361
862.339062	2561.667368
862.651708	2562.937739
862.964312	2559.038406
863.276873	2561.342214
863.589392	2562.075702
863.901869	2564.243398
864.214303	2563.900599
864.526696	2565.851526
864.839045	2568.460323
865.151353	2565.990158
865.463619	2563.754406
865.775842	2564.450085
866.088023	2566.980744
866.400162	2566.239695
866.712258	2571.127093
867.024313	2565.118038
867.336325	2565.644838
867.648296	2565.352452
867.960224	2569.463512
868.272110	2566.801783
868.583954	2568.349418
868.895755	2568.538461
869.207515	2567.860426
869.519233	2569.990313
869.830909	2567.867987
870.142542	2565.405384
870.454134	2568.412432
870.765684	2569.029973
871.077191	2566.811866
871.388657	2568.790518
871.700081	2568.258677
872.011463	2570.496949
872.322803	2570.812021
872.634101	2571.091805
872.945357	2572.548699
873.256571	2574.577763
873.567744	2570.441496
873.878874	2573.284707
874.189963	2575.389389
874.501010	2573.899728
874.812015	2575.979204
875.122979	2576.435428
875.433900	2572.735221
875.744780	2575.069276
876.055618	2578.676221
876.366415	2578.300655
876.677169	2577.436097
876.987882	2576.357290
877.298554	2573.761096
877.609183	2579.777713
877.919771	2579.301324
878.230317	2583.586305
878.540822	2586.863055
878.851285	2592.519230
879.161707	2599.062647
879.472087	2609.654112
879.782425	2621.984774
880.092722	2646.877992
880.402977	2677.180367
880.713191	2713.154041
881.023363	2743.789133
881.333494	2760.324118
881.643583	2787.034671
881.953631	2797.122020
882.263637	2787.934517
882.573602	2765.544232
882.883526	2750.723240
883.193408	2731.171125
883.503248	2717.315514
883.813048	2698.509489
884.122806	2673.971673
884.432522	2657.154384
884.742197	2640.269039
885.051831	2634.244860
885.361424	2624.563324
885.670975	2619.131481
885.980485	2611.756273
886.289954	2605.480036
886.599382	2599.959973
886.908768	2597.278079
887.218113	2590.190217
887.527417	2588.753488
887.836680	2587.704928
888.145901	2585.733837
888.455082	2584.415575
888.764221	2580.715368
889.073319	2577.637743
889.382376	2577.274780
889.691392	2580.319637
890.000366	2581.731160
890.309300	2577.254616
890.618193	2577.408371
890.927044	2579.011458
891.235855	2577.526838
891.544625	2577.229410
891.853353	2577.539441
892.162041	2580.117991
892.470687	2587.906574
892.779293	2586.505133
893.087858	2590.061667
893.396381	2593.784559
893.704864	2600.484253
894.013306	2614.700307
894.321707	2638.605458
894.630068	2651.420071
894.938387	2657.540032
895.246665	2662.694612
895.554903	2652.340082
895.863100	2650.865544
896.171256	2631.273100
896.479371	2617.485544
896.787446	2605.177567
897.095480	2600.862339
897.403473	2602.372165
897.711425	2594.150043
898.019336	2593.033427
898.327207	2585.796851
898.635038	2586.353898
898.942827	2584.216449
899.250576	2584.564289
899.558284	2576.082547
899.865952	2581.118660
900.173579	2575.611200
900.481165	2578.035995
900.788711	2575.749831
901.096216	2573.262022
901.403681	2572.515931
901.711105	2572.783112
902.018489	2573.632547
902.325832	2569.594582
902.633135	2572.944429
902.940397	2577.400809
903.247619	2587.538570
903.554800	2601.628595
903.861941	2629.080198
904.169041	2652.070380
904.476101	2666.490601
904.783121	2669.220385
905.090100	2659.803510
905.397039	2650.242962
905.703938	2634.194448
906.010796	2619.028137
906.317614	2605.538009
906.624391	2593.696339
906.931129	2586.847932
907.237826	2579.344174
907.544483	2576.009451
907.851099	2571.482495
908.157675	2566.254818
908.464211	2566.847154
908.770707	2558.282233
909.077163	2562.113510
909.383578	2557.266441
909.689954	2557.878941
909.996289	2554.249310
910.302584	2558.078067
910.608839	2557.863817
910.915054	2556.485062
911.221229	2558.090669
911.527363	2562.662996
911.833458	2559.237532
912.139513	2558.829198
912.445527	2561.253993
912.751502	2562.421021
913.057436	2562.000084
913.363331	2564.427400
913.669186	2569.529047
913.975000	2572.037022
914.280775	2575.381827
914.586510	2581.917683
914.892205	2587.868765
915.197859	2607.826693
915.503475	2627.174642
915.809050	2640.533699
916.114585	2642.434214
916.420081	2648.581902
916.725536	2656.506595
917.030952	2652.196409
917.336328	2639.286014
917.641665	2625.722789
917.946961	2613.518156
918.252218	2606.997423
918.557435	2599.128182
918.862612	2591.962182
919.167750	2586.164855
919.472848	2583.321644
919.777906	2579.654205
920.082925	2574.897876
920.387904	2570.070972
920.692843	2572.445355
920.997743	2566.688357
921.302603	2566.776577
921.607423	2563.903120
921.912204	2563.472101
922.216946	2561.735424
922.521647	2564.077040
922.826310	2560.815413
923.130932	2561.977399
923.435516	2555.832232
923.740059	2557.153015
924.044564	2554.937428
924.349028	2555.192006
924.653454	2552.888199
924.957840	2549.014072
925.262186	2549.132539
925.566493	2553.767880
925.870761	2549.283774
926.174989	2553.427602
926.479178	2551.527087
926.783328	2550.082797
927.087438	2551.547252
927.391509	2549.084648
927.695541	2548.603218
927.999533	2552.066491
928.303486	2548.734288
928.607400	2549.306459
928.911275	2549.674463
929.215110	2548.709082
929.518906	2547.597508
929.822663	2549.109854
930.126381	2546.072559
930.430060	2548.951057
930.733699	2545.124822
931.037299	2548.535162
931.340861	2550.294525
931.644383	2549.679504
931.947866	2547.874771
932.251309	2549.964329
932.554714	2547.196736
932.858080	2550.712941
933.161407	2546.753114
933.464694	2547.630275
933.767943	2546.856458
934.071153	2545.684390
934.374323	2549.112374
934.677455	2548.363763
934.980548	2547.388300
935.283602	2549.571119
935.586617	2547.116078
935.889593	2548.141952
936.192530	2548.751932
936.495428	2548.096582
936.798287	2549.397200
937.101108	2549.540872
937.403890	2550.473486
937.706632	2549.863506
938.009336	2550.503733
938.312002	2553.326779
938.614628	2554.156049
938.917216	2552.414330
939.219765	2555.585216
939.522275	2555.633107
939.824747	2554.685370
940.127179	2549.936603
940.429573	2553.601522
940.731929	2549.714792
941.034246	2546.972405
941.336524	2551.998435
941.638763	2551.887530
941.940964	2552.608415
942.243126	2552.716799
942.545250	2550.085317
942.847335	2549.969371
943.149381	2553.508261
943.451389	2550.319731
943.753359	2548.865358
944.055290	2546.657332
944.357182	2550.826367
944.659036	2547.279915
944.960851	2551.368291
945.262628	2548.341078
945.564367	2549.669422
945.866067	2548.499874
946.167729	2547.143804
946.469352	2549.717313
946.770937	2547.519370
947.072484	2548.701520
947.373992	2547.597508
947.675462	2547.748742
947.976893	2549.119936
948.278286	2549.215718
948.579641	2550.445760
948.880958	2548.104144
949.182236	2548.759494
949.483476	2548.794782
949.784678	2547.451314
950.085841	2548.371325
950.386967	2550.838970
950.688054	2547.703372
950.989103	2548.462066
951.290114	2549.671942
951.591087	2547.100954
951.892021	2550.133208
952.192917	2550.884340
952.493776	2550.274360
952.794596	2552.016079
953.095378	2551.320400
953.396122	2553.104968
953.696828	2550.985163
953.997496	2550.675132
954.298126	2546.818649
954.598718	2552.250493
954.899272	2548.081458
955.199788	2548.877961
955.500266	2548.966181
955.800706	2546.778320
956.101108	2543.415871
956.401472	2542.805891
956.701798	2541.921168
957.002087	2544.040974
957.302337	2544.290511
957.602550	2542.964687
957.902724	2544.509801
958.202861	2544.348484
958.502960	2543.239430
958.803022	2543.113401
959.103045	2542.427804
959.403031	2545.276056
959.702979	2545.306303
960.002889	2545.059287
960.302762	2543.047866
960.602596	2544.945861
960.902393	2544.850079
961.202153	2543.433515
961.501875	2543.516694
961.801559	2542.972249
962.101205	2542.503422
962.400814	2547.055584
962.700385	2545.649102
962.999918	2540.645757
963.299414	2543.768751
963.598873	2542.813453
963.898293	2539.700540
964.197677	2544.547610
964.497022	2542.702547
964.796331	2543.804039
965.095601	2541.651467
965.394835	2541.820345
965.694030	2543.589790
965.993189	2542.137938
966.292309	2539.970242
966.591393	2541.946374
966.890439	2542.389996
967.189447	2544.580377
967.488419	2541.338915
967.787353	2541.525438
968.086249	2543.849410
968.385108	2543.219266
968.683930	2542.034594
968.982714	2543.539379
969.281462	2542.284132
969.580172	2539.312371
969.878844	2541.356559
970.177480	2541.475026
970.476078	2541.878319
970.774639	2544.812270
971.073162	2545.066848
971.371649	2537.772299
971.670098	2539.796322
971.968510	2538.745242
972.266885	2538.974614
972.565223	2541.505273
972.863524	2544.915614
973.161788	2543.630120
973.460014	2542.198432
973.758204	2540.895294
974.056356	2541.343956
974.354471	2540.970911
974.652550	2541.427135
974.950591	2542.637012
975.248595	2542.405119
975.546563	2541.439738
975.844493	2544.141797
976.142386	2543.650284
976.440243	2542.702547
976.738062	2542.906714
977.035845	2541.613658
977.333590	2543.007537
977.631299	2542.402599
977.928971	2541.802701
978.226606	2543.690613
978.524204	2543.922507
978.821765	2542.810932
979.119290	2543.226827
979.416777	2540.741538
979.714228	2541.535520
980.011642	2543.884698
980.309020	2542.090047
980.606360	2541.762372
980.903664	2541.248174
981.200931	2542.493339
981.498162	2544.121632
981.795356	2542.533669
982.092513	2544.787064
982.389633	2545.084493
982.686717	2547.385779
982.983764	2547.141283
983.280775	2546.730429
983.577749	2546.251520
983.874686	2547.569781
984.171587	2545.777651
984.468451	2546.435522
984.765279	2543.274718
985.062070	2543.410829
985.358824	2544.466951
985.655543	2545.107178
985.952224	2544.935778
986.248869	2541.961498
986.545478	2538.657021
986.842050	2541.777496
987.138586	2540.318082
987.435086	2542.702547
987.731549	2537.863040
988.027975	2542.516025
988.324366	2540.066024
988.620719	2542.576518
988.917037	2542.314378
989.213318	2539.488812
989.509563	2540.434028
989.805772	2540.466796
990.101944	2540.645757
990.398080	2538.649460
990.694180	2541.946374
990.990244	2545.452497
991.286271	2539.597197
991.582262	2541.585932
991.878217	2539.851775
992.174136	2540.572660
992.470019	2539.549306
992.765865	2543.206663
993.061676	2540.431507
993.357450	2540.925541
993.653188	2541.810263
993.948890	2541.303627
994.244556	2541.096940
994.540186	2540.817156
994.835780	2542.783206
995.131337	2538.866229
995.426859	2542.616848
995.722345	2540.577701
996.017795	2541.406971
996.313208	2545.034081
996.608586	2543.133566
996.903928	2544.053577
997.199234	2543.874616
997.494504	2543.557023
997.789738	2542.758000
998.084936	2542.614327
998.380099	2542.349667
998.675225	2540.955788
998.970316	2542.884029
999.265371	2543.234389
999.560390	2541.507794
999.855373	2545.369318
1000.150320	2540.413863
1000.445232	2543.070552
1000.740108	2542.924358
1001.034948	2541.633823
1001.329752	2542.654656
1001.624521	2542.155582
1001.919254	2535.402957
1002.213951	2539.176260
1002.508613	2538.962011
1002.803239	2539.272042
1003.097829	2539.370345
1003.392384	2541.386806
1003.686903	2540.338246
1003.981386	2541.754810
1004.275834	2543.015099
1004.570246	2541.991745
1004.864623	2539.831610
1005.158964	2538.591486
1005.453270	2539.771116
1005.747540	2538.853626
1006.041775	2540.860006
1006.335974	2541.704399
1006.630138	2539.428318
1006.924266	2538.936805
1007.218359	2540.721374
1007.512416	2542.531148
1007.806438	2540.638195
1008.100425	2539.796322
1008.394376	2541.674152
1008.688292	2542.188350
1008.982172	2539.786240
1009.276017	2539.584594
1009.569827	2538.364634
1009.863602	2540.585263
1010.157341	2541.495191
1010.451045	2542.667259
1010.744714	2542.284132
1011.038347	2541.709440
1011.331945	2539.035108
1011.625508	2543.224307
1011.919036	2543.123484
1012.212528	2542.405119
1012.505986	2540.408822
1012.799408	2541.278421
1013.092795	2539.698020
1013.386147	2540.849923
1013.679464	2539.637526
1013.972745	2540.436549
1014.265992	2539.443441
1014.559204	2535.889428
1014.852380	2542.011909
1015.145521	2539.629964
1015.438628	2540.746580
1015.731699	2541.354039
1016.024736	2541.273380
1016.317737	2542.805891
1016.610703	2540.726415
1016.903635	2537.250539
1017.196531	2536.975797
1017.489393	2541.137269
1017.782219	2537.527803
1018.075011	2536.801877
1018.367768	2540.733977
1018.660490	2540.325643
1018.953177	2540.325643
1019.245829	2540.325643
