Dividing Wavelength (nm)	Counts (n)	Blue Motor Position (mm): 45.900000	Red Motor Position (mm): 0.000000	
326.493990	2129.504372
326.888308	2129.504372
327.282561	2129.504372
327.676750	2096.797366
328.070874	2098.087902
328.464933	2097.659403
328.858929	2105.435383
329.252859	2115.273195
329.646726	2126.517489
330.040528	2141.184726
330.434265	2159.274906
330.827938	2173.785868
331.221547	2192.107941
331.615091	2209.452031
332.008571	2230.027501
332.401986	2250.247569
332.795338	2268.506628
333.188625	2286.679988
333.581847	2306.514407
333.975006	2326.820175
334.368100	2342.861127
334.761129	2364.071781
335.154095	2378.791951
335.546996	2399.717780
335.939833	2425.790628
336.332606	2441.486260
336.725315	2454.860442
337.117960	2461.875207
337.510540	2472.375931
337.903056	2481.618886
338.295508	2490.791266
338.687896	2499.325939
339.080220	2508.173164
339.472480	2512.246416
339.864676	2517.277488
340.256807	2520.120699
340.648875	2526.452388
341.040879	2525.315608
341.432818	2527.198479
341.824694	2530.986906
342.216506	2530.586134
342.608253	2531.296937
342.999937	2530.132430
343.391557	2528.478932
343.783113	2529.240146
344.174605	2528.262162
344.566033	2528.073119
344.957397	2526.094466
345.348697	2522.767304
345.739934	2523.314270
346.131106	2521.098682
346.522215	2519.684639
346.913260	2516.791017
347.304241	2514.058711
347.695159	2509.670387
348.086012	2514.114164
348.476802	2509.844307
348.867528	2510.943278
349.258191	2507.202742
349.648789	2504.820797
350.039324	2501.148316
350.429796	2503.172339
350.820203	2503.575632
351.210548	2500.881135
351.600828	2500.102277
351.991045	2500.412308
352.381198	2498.446258
352.771288	2500.785353
353.161314	2500.445075
353.551276	2500.094715
353.941175	2498.380723
354.331010	2498.446258
354.720782	2496.742348
355.110490	2500.929026
355.500135	2497.095228
355.889717	2499.819972
356.279235	2501.488594
356.668689	2500.336690
357.058080	2501.712925
357.447408	2500.964314
357.836672	2498.168994
358.225873	2500.908861
358.615010	2493.087511
359.004084	2502.955570
359.393095	2501.889366
359.782043	2505.907165
360.170927	2501.470950
360.559748	2503.121928
360.948505	2503.068996
361.337199	2508.894049
361.725830	2506.938081
362.114398	2507.666528
362.502903	2509.345232
362.891344	2508.762979
363.279722	2508.054697
363.668037	2510.366066
364.056289	2511.311282
364.444478	2510.194667
364.832603	2511.412105
365.220665	2509.960253
365.608665	2511.505367
365.996601	2515.354288
366.384474	2513.509225
366.772284	2512.503515
367.160031	2515.649195
367.547715	2514.257837
367.935336	2515.563496
368.322893	2515.858403
368.710388	2515.190450
369.097820	2519.127591
369.485189	2514.950995
369.872495	2514.842611
370.259738	2517.844618
370.646918	2519.326717
371.034035	2517.005266
371.421090	2518.757067
371.808081	2519.094824
372.195010	2521.834691
372.581875	2522.358971
372.968678	2523.246214
373.355418	2528.327697
373.742096	2533.013450
374.128710	2533.346166
374.515262	2536.799356
374.901751	2541.679193
375.288177	2549.235883
375.674540	2557.747871
376.060841	2569.085426
376.447079	2575.560788
376.833254	2588.393045
377.219367	2594.989395
377.605417	2614.896912
377.991404	2624.283540
378.377329	2638.948257
378.763191	2653.776811
379.148991	2677.019050
379.534727	2696.099818
379.920402	2717.192005
380.306013	2732.401167
380.691563	2766.161774
381.077049	2786.444856
381.462474	2807.249698
381.847835	2839.681962
382.233134	2867.688092
382.618371	2878.501367
383.003545	2931.241918
383.388657	2950.138683
383.773706	2991.652585
384.158693	3013.200998
384.543618	3045.862633
384.928480	3087.096751
385.313280	3136.197590
385.698017	3150.748880
386.082692	3206.662838
386.467305	3225.297463
386.851856	3263.103597
387.236344	3298.459729
387.620770	3338.922550
388.005133	3377.371431
388.389435	3410.786719
388.773674	3434.452416
389.157851	3485.917555
389.541965	3512.028212
389.926018	3494.253103
390.310008	3570.956780
390.693936	3594.428392
391.077802	3645.565857
391.461606	3643.148623
391.845348	3717.213256
392.229027	3721.044533
392.612645	3741.141092
392.996200	3822.306190
393.379694	3864.941748
393.763125	3935.913633
394.146494	3908.794746
394.529801	3974.687668
394.913047	4027.536604
395.296230	3999.033920
395.679351	4056.916449
396.062410	4079.520983
396.445408	4066.275351
396.828343	4101.901185
397.211217	4126.406234
397.594028	4050.839338
397.976778	4120.669401
398.359466	4143.215961
398.742092	4173.011701
399.124656	4099.398252
399.507158	4179.875232
399.889598	4204.692833
400.271977	4269.915281
400.654294	4237.107452
401.036549	4246.549533
401.418742	4216.264801
401.800874	4321.032581
402.182944	4339.029500
402.564952	4405.280344
402.946898	4395.820619
403.328783	4385.314854
403.710606	4302.163542
404.092367	4496.298377
404.474067	4459.732367
404.855705	4468.188903
405.237282	4392.188468
405.618797	4506.597454
406.000250	4541.998957
406.381642	4621.916369
406.762972	4582.179474
407.144240	4591.256071
407.525447	4594.111885
407.906593	4654.734280
408.287677	4694.728274
408.668700	4621.744970
409.049661	4678.054658
409.430560	4715.853230
409.811399	4638.796673
410.192176	4803.977640
410.572891	4742.843567
410.953545	4844.979865
411.334138	4726.593408
411.714669	4793.902894
412.095139	4690.914642
412.475547	4828.490251
412.855894	4811.398218
413.236180	4824.207790
413.616405	4773.120737
413.996568	4863.707751
414.376670	4805.477383
414.756711	4758.755969
415.136691	4791.626813
415.516609	4867.793607
415.896466	4907.051592
416.276262	4943.292447
416.655997	4920.219086
417.035670	5103.152477
417.415283	5192.569943
417.794834	5136.474504
418.174324	5087.298048
418.553753	4998.319162
418.933121	5181.096277
419.312428	5248.360393
419.691674	5188.877298
420.070859	5316.181556
420.449983	5226.590170
420.829045	5343.744065
421.208047	5250.535651
421.586988	5321.744469
421.965867	5335.479093
422.344686	5467.496830
422.723444	5321.419315
423.102141	5138.304443
423.480777	5437.844763
423.859352	5206.511254
424.237866	5465.976922
424.616319	5458.019461
424.994712	5567.357046
425.373044	5443.195948
425.751314	5586.876394
426.129524	5391.327516
426.507673	5582.770374
426.885762	5665.873795
427.263789	5596.661274
427.641756	5481.798583
428.019662	5599.721254
428.397508	5605.508499
428.775292	5554.970931
429.153016	5652.880221
429.530679	5583.526547
429.908282	5664.116953
430.285824	5536.530391
430.663305	5813.781249
431.040726	5544.379467
431.418086	5547.794849
431.795385	5652.222351
432.172624	5666.277088
432.549802	5657.825593
432.926920	5668.585936
433.303977	5678.355692
433.680974	5716.880190
434.057910	5733.682356
434.434786	5739.048664
434.811601	5706.238314
435.188355	5943.714469
435.565050	5818.673689
435.941683	5798.942613
436.318257	6017.859760
436.694770	5999.930896
437.071222	6032.224528
437.447614	5963.639630
437.823946	5878.446650
438.200218	6032.007758
438.576429	5894.217900
438.952580	5996.381924
439.328670	6039.216608
439.704700	5949.375685
440.080670	5933.644764
440.456580	6207.805396
440.832429	6082.124389
441.208218	5938.201967
441.583947	6088.539257
441.959616	6093.073775
442.335224	6021.139030
442.710773	6157.484598
443.086261	6182.823958
443.461689	5979.466332
443.837057	6127.240195
444.212365	6282.046468
444.587612	6173.598646
444.962800	6332.538665
445.337927	6308.028575
445.712995	5920.076499
446.088002	6501.069479
446.462949	6324.929043
446.837837	6257.029742
447.212664	6432.116577
447.587431	6576.850625
447.962139	7115.500434
448.336786	8041.073924
448.711374	7780.993235
449.085901	6855.888572
449.460369	6781.536594
449.834776	6713.181069
450.209124	7104.256140
450.583412	7252.904643
450.957640	7399.503918
451.331808	7168.165368
451.705917	6720.783129
452.079965	6635.360777
452.453954	6856.516196
452.827883	6730.905766
453.201752	6821.938922
453.575562	6626.112780
453.949311	6824.474622
454.323001	6716.611574
454.696632	6788.702594
455.070202	6928.856754
455.443713	7084.424241
455.817164	7180.473345
456.190556	7264.607682
456.563888	7338.435380
456.937160	7383.296608
457.310373	7039.948661
457.683526	7066.139976
458.056619	6958.037473
458.429653	6948.363498
458.802628	6883.181379
459.175542	6989.650548
459.548398	7342.508632
459.921194	7505.161461
460.293930	7503.142479
460.666607	8039.924541
461.039224	8340.543668
461.411782	8473.680541
461.784280	8490.762491
462.156719	8383.358188
462.529099	8259.323118
462.901419	7841.461876
463.273680	7740.696772
463.645882	7757.453567
464.018024	7615.678677
464.390106	7785.895757
464.762130	8175.624841
465.134094	8643.665728
465.505999	9672.008181
465.877845	10886.550692
466.249631	11535.342151
466.621358	11148.262194
466.993026	10518.564105
467.364634	10266.738306
467.736184	9904.644828
468.107674	9569.085463
468.479105	9608.948387
468.850477	9371.920895
469.221790	9140.415987
469.593043	8813.232500
469.964238	8677.169237
470.335373	8678.598404
470.706449	8738.953618
471.077467	8726.600271
471.448425	10036.478563
471.819324	11111.184507
472.190164	11132.420368
472.560945	9882.884687
472.931667	9088.492103
473.302330	8958.195920
473.672934	8602.088812
474.043479	8966.912075
474.413965	8905.495697
474.784393	8781.884084
475.154761	8945.570350
475.525070	9024.771918
475.895321	8854.847225
476.265513	9039.058548
476.635645	9201.335811
477.005719	9201.174494
477.375734	9311.086771
477.745691	9549.624089
478.115588	9684.268267
478.485427	9932.083828
478.855207	10475.797476
479.224928	11282.886207
479.594591	11919.873804
479.964194	11719.795449
480.333739	11667.871565
480.703226	11575.880589
481.072653	11671.475990
481.442022	11908.001887
481.811333	12098.607914
482.180584	11894.206769
482.549777	11611.309818
482.918912	11437.987388
483.287988	11457.073196
483.657005	11465.648199
484.025964	11143.135340
484.394864	11281.068871
484.763706	11251.681465
485.132489	11005.116110
485.501213	10972.290636
485.869879	11046.705629
486.238487	10892.300128
486.607036	11001.438588
486.975527	10779.426172
487.343959	10970.652261
487.712333	11018.976762
488.080648	10948.284662
488.448905	10995.651343
488.817104	10930.577609
489.185244	11205.431399
489.553326	11351.342556
489.921350	11893.115360
490.289315	12955.798152
490.657222	13297.903455
491.025070	13207.397099
491.392861	13080.589395
491.760593	12699.329450
492.128267	12346.405831
492.495883	12018.430882
492.863440	11681.296157
493.230939	11352.595283
493.598380	11271.654516
493.965763	11141.502006
494.333088	11044.084229
494.700354	10963.511467
495.067563	11020.650425
495.434713	10856.974242
495.801805	10985.006947
496.168839	10912.857953
496.535815	10845.835813
496.902733	10843.474032
497.269593	10776.472056
497.636395	10877.199351
498.003139	10866.307938
498.369825	10737.997970
498.736453	10895.465972
499.103023	10817.179374
499.469535	10852.180105
499.835989	10837.711993
500.202385	10803.825357
500.568723	10657.707513
500.935003	10876.695236
501.301226	10683.205669
501.667390	10939.697056
502.033497	11033.727178
502.399546	10898.916642
502.765537	10804.233691
503.131470	10869.861952
503.497345	11054.441279
503.863163	10662.453759
504.228923	10966.795779
504.594625	11032.865141
504.960269	10780.212592
505.325856	11000.813485
505.691385	10793.324634
506.056856	10952.337749
506.422270	10971.930194
506.787625	10859.721671
507.152924	10989.531383
507.518164	10962.886364
507.883347	10875.162725
508.248472	10800.888885
508.613540	11034.531242
508.978550	10921.579149
509.343503	10894.760211
509.708398	11020.075734
510.073236	11129.551951
510.438016	11136.458332
510.802738	11083.342214
511.167403	11132.740481
511.532010	11030.785665
511.896561	11260.589184
512.261053	11335.561224
512.625488	11209.978520
512.989866	11185.591938
513.354186	11178.118427
513.718449	11079.311812
514.082655	11274.838005
514.446803	11165.845738
514.810894	11289.906014
515.174927	11151.052472
515.538904	11180.875938
515.902822	11329.584936
516.266684	11211.886596
516.630488	11161.074286
516.994235	11210.182686
517.357925	11272.811461
517.721558	11360.615758
518.085133	11380.203162
518.448651	11392.906869
518.812112	11276.128540
519.175516	11281.762030
519.538863	11403.866338
519.902152	11317.208903
520.265385	11479.443316
520.628560	11387.805222
520.991678	11382.643080
521.354739	11438.168869
521.717743	11369.878878
522.080690	11349.943636
522.443580	11487.133596
522.806413	11438.413365
523.169189	11468.186420
523.531908	11529.549865
523.894569	11342.318890
524.257174	11349.379026
524.619722	11471.311935
524.982213	11411.208778
525.344647	11470.311266
525.707025	11425.727301
526.069345	11520.632064
526.431608	11429.853486
526.793815	11547.496372
527.155964	11334.421923
527.518057	11388.107691
527.880093	11336.234218
528.242072	11398.540359
528.603995	11302.473610
528.965860	11228.514842
529.327669	11274.880855
529.689421	11224.567619
530.051117	11192.987311
530.412755	11300.457149
530.774337	11191.951353
531.135862	11168.875472
531.497331	11195.293638
531.858743	11046.871987
532.220098	11214.901206
532.581396	11090.188101
532.942638	11069.710934
533.303824	11027.024964
533.664953	11042.619774
534.026025	10960.007865
534.387040	11049.460619
534.747999	11060.624255
535.108902	11118.461413
535.469748	10870.164421
535.830537	10976.636111
536.191270	10951.821031
536.551947	10982.955197
536.912567	10975.353137
537.273131	10901.923690
537.633638	10884.435928
537.994089	10868.185768
538.354483	10822.830507
538.714821	10967.967847
539.075103	10978.231636
539.435328	10939.450040
539.795497	10767.012331
540.155609	10926.852196
540.515665	11008.370174
540.875665	10742.676161
541.235609	10813.338014
541.595496	10809.458847
541.955328	10962.263781
542.315102	10853.294200
542.674821	10798.431323
543.034483	10798.887547
543.394090	10800.034409
543.753640	10736.349513
544.113134	10952.572163
544.472571	10809.226953
544.831953	10949.373551
545.191278	10755.886505
545.550548	10784.656370
545.909761	10920.835579
546.268918	10900.071066
546.628019	10978.604682
546.987064	10843.771460
547.346053	10763.354974
547.704986	10869.362878
548.063863	10850.458551
548.422684	10846.080309
548.781449	10758.742318
549.140158	10869.088135
549.498811	10741.602395
549.857408	10598.496640
550.215949	10828.443832
550.574434	10683.745073
550.932864	10777.213106
551.291237	10837.603608
551.649555	10789.647112
552.007817	10801.140943
552.366022	10760.153841
552.724173	10748.289486
553.082267	10738.837322
553.440305	10878.951152
553.798288	10676.422797
554.156215	10826.273615
554.514086	10809.479011
554.871902	10655.411267
555.229661	10694.656650
555.587365	10663.527525
555.945014	10566.260982
556.302606	10686.000989
556.660143	10579.136089
557.017625	10740.876469
557.375050	10631.173400
557.732421	10763.077711
558.089735	10681.118631
558.446994	10685.804384
558.804197	10717.566174
559.161345	10719.509538
559.518437	10563.780734
559.875474	10659.572740
560.232455	10691.044663
560.589381	10646.589248
560.946251	10635.125664
561.303065	10744.707746
561.659825	10682.593169
562.016528	10609.917374
562.373177	10481.284772
562.729770	10599.318348
563.086307	10513.706953
563.442789	10606.476787
563.799216	10485.612603
564.155587	10535.235201
564.511904	10495.699952
564.868164	10476.329318
565.224370	10505.517599
565.580520	10422.585577
565.936615	10429.849880
566.292654	10300.272061
566.648638	10432.320045
567.004567	10381.361541
567.360441	10369.721517
567.716260	10281.735738
568.072023	10373.094049
568.427732	10325.354322
568.783385	10227.656761
569.138982	10307.158277
569.494525	10319.151182
569.850013	10188.653353
570.205445	10282.156675
570.560823	10169.186938
570.916145	10084.722405
571.271412	10155.979115
571.626625	10103.508265
571.981782	10075.383668
572.336884	10053.676459
572.691931	10063.572244
573.046923	10005.833388
573.401860	9964.286719
573.756743	9899.107120
574.111570	9936.426782
574.466342	9922.634185
574.821059	9955.389083
575.175722	9841.317853
575.530330	9862.331903
575.884882	9845.444038
576.239380	9772.009550
576.593823	9752.472558
576.948211	9763.663919
577.302544	9647.102360
577.656823	9661.477210
578.011047	9663.052571
578.365216	9642.194797
578.719330	9557.400069
579.073389	9582.257998
579.427394	9524.471252
579.781344	9497.269186
580.135239	9446.993758
580.489080	9451.019120
580.842866	9352.018420
581.196597	9366.473928
581.550273	9408.953211
581.903895	9370.617757
582.257463	9435.852808
582.610975	9317.194129
582.964434	9339.874280
583.317837	9266.306202
583.671186	9244.384744
584.024481	9238.592458
584.377721	9163.126385
584.730906	9140.027818
585.084037	9166.937498
585.437113	9102.778733
585.790135	9125.461404
586.143103	9025.255869
586.496016	8991.913677
586.848874	9057.889778
587.201679	9039.658445
587.554428	8924.349613
587.907124	8971.383578
588.259765	8945.484650
588.612352	8947.654867
588.964884	8824.849839
589.317362	8837.634205
589.669786	8838.839041
590.022155	8884.607676
590.374470	8900.111745
590.726731	8842.861881
591.078937	8695.090539
591.431090	8803.402250
591.783188	8671.424842
592.135232	8669.708329
592.487222	8673.244698
592.839157	8718.478972
593.191038	8656.346751
593.542866	8599.540509
593.894639	8502.979727
594.246358	8554.066780
594.598022	8566.659583
594.949633	8462.958007
595.301190	8434.336856
595.652692	8474.093916
596.004141	8581.097447
596.355535	8350.217642
596.706876	8338.675921
597.058162	8275.169985
597.409395	8350.598249
597.760573	8409.269718
598.111698	8318.864186
598.462768	8306.379768
598.813785	8266.836958
599.164748	8238.485508
599.515657	8226.661482
599.866511	8136.407184
600.217312	8260.893437
600.568060	8123.491748
600.918753	8225.350782
601.269392	8194.388015
601.619978	8109.411805
601.970510	8173.011002
602.320988	8166.152512
602.671412	8229.960917
603.021783	8157.799321
603.372100	8131.587841
603.722363	8138.796691
604.072572	8116.940769
604.422728	8126.826471
604.772830	8051.746047
605.122878	8061.452788
605.472872	8053.512971
605.822813	8085.529339
606.172701	8022.968620
606.522534	8100.907379
606.872314	8097.532326
607.222041	8068.288593
607.571714	8124.681460
607.921333	8091.354392
608.270899	8089.446316
608.620411	8184.653547
608.969870	8085.741067
609.319276	8078.131446
609.668627	8094.300947
610.017926	8131.623129
610.367171	8176.847320
610.716362	8156.922160
611.065500	8146.885222
611.414585	8174.372114
611.763616	8165.610588
612.112594	8144.959502
612.461518	8154.575503
612.810389	8216.027168
613.159207	8156.143302
613.507971	8107.896939
613.856682	8224.652582
614.205340	8181.417126
614.553945	8256.890761
614.902496	8158.356368
615.250994	8206.575005
615.599439	8193.263838
615.947830	8208.288997
616.296169	8179.350253
616.644454	8192.931122
616.992686	8189.684619
617.340864	8247.665450
617.688990	8155.752612
618.037063	8247.201663
618.385082	8190.080349
618.733048	8274.648226
619.080961	8214.469452
619.428821	8237.278152
619.776628	8237.396619
620.124382	8187.882406
620.472083	8168.589910
620.819731	8203.416722
621.167326	8094.442099
621.514868	8103.891742
621.862357	7989.959144
622.209793	8007.542689
622.557176	7941.496012
622.904506	7911.004593
623.251783	7843.231321
623.599007	7796.638456
623.946179	7799.141389
624.293297	7760.195955
624.640363	7675.416350
624.987376	7657.091756
625.334336	7610.488809
625.681243	7557.292033
626.028097	7542.695372
626.374899	7518.765015
626.721647	7517.101434
627.068343	7440.760721
627.414987	7422.995695
627.761577	7371.144907
628.108115	7409.268633
628.454600	7301.196377
628.801032	7354.748554
629.147412	7317.300343
629.493739	7299.585728
629.840014	7235.311017
630.186236	7297.584390
630.532405	7181.864703
630.878521	7232.245995
631.224585	7186.532812
631.570597	7108.309228
631.916556	7139.874412
632.262462	7143.428426
632.608316	7106.217149
632.954117	7079.670433
633.299866	7065.716519
633.645562	7058.968934
633.991206	6977.637479
634.336797	6918.446771
634.682336	6879.019907
635.027823	6844.346851
635.373257	6836.434760
635.718639	6769.911693
636.063968	6781.118178
636.409245	6680.509351
636.754470	6675.105234
637.099642	6632.870447
637.444762	6576.349030
637.789829	6585.894455
638.134845	6526.716350
638.479808	6510.962744
638.824719	6514.153794
639.169577	6446.304905
639.514383	6464.707637
639.859137	6390.884980
640.203839	6397.556947
640.548489	6388.979424
640.893086	6362.135279
641.237632	6334.101423
641.582125	6357.696543
641.926566	6325.365103
642.270955	6340.208781
642.615292	6333.975394
642.959576	6351.947107
643.303809	6339.248441
643.647990	6343.992167
643.992118	6340.266754
644.336195	6284.834226
644.680219	6307.600077
645.024192	6299.899715
645.368112	6392.084774
645.711981	6412.481283
646.055797	6495.478840
646.399562	6449.289268
646.743274	6575.212250
647.086935	6625.056658
647.430544	6624.860053
647.774101	6648.193034
648.117606	6650.567417
648.461059	6644.003835
648.804460	6604.942454
649.147810	6517.972468
649.491108	6484.083312
649.834354	6458.461647
650.177548	6370.206167
650.520690	6290.840761
650.863781	6269.378049
651.206820	6287.468229
651.549807	6214.462239
651.892742	6154.895965
652.235626	6158.802860
652.578458	6143.712166
652.921238	6051.416200
653.263967	6090.812818
653.606644	6029.726636
653.949269	6033.472213
654.291843	5973.336289
654.634365	6024.017529
654.976836	5977.676722
655.319255	5976.721424
655.661622	5955.903979
656.003938	5950.167146
656.346203	5911.667854
656.688416	5945.917453
657.030577	5892.957612
657.372687	5865.488364
657.714746	5850.732907
658.056753	5895.382407
658.398708	5835.574157
658.740612	5828.216593
659.082465	5867.388879
659.424266	5866.998190
659.766016	5864.616245
660.107715	5840.708573
660.449362	5852.885480
660.790958	5850.501014
661.132503	5833.471996
661.473996	5873.269385
661.815438	5860.132138
662.156829	5859.058373
662.498168	5848.635787
662.839456	5828.544268
663.180693	5860.343867
663.521879	5858.919741
663.863013	5853.341704
664.204097	5866.859558
664.545129	5909.757257
664.886110	5908.038223
665.227040	5942.348316
665.567918	5907.939921
665.908746	5935.590650
666.249522	5937.942348
666.590248	5924.358959
666.930922	5951.992044
667.271545	5963.919414
667.612118	5973.336289
667.952639	5940.473007
668.293109	5960.226768
668.633528	5921.145223
668.973896	5922.037508
669.314213	5918.745634
669.654480	5898.197891
669.994695	5892.193877
670.334859	5882.769440
670.674973	5872.334251
671.015035	5878.383636
671.355047	5874.461618
671.695008	5860.374114
672.034918	5832.874619
672.374777	5845.888358
672.714585	5827.490667
673.054342	5836.710938
673.394049	5827.399926
673.733705	5857.372107
674.073310	5848.822310
674.412864	5806.171628
674.752368	5797.573940
675.091820	5804.341689
675.431223	5737.816102
675.770574	5739.104117
676.109875	5689.778947
676.449125	5692.304565
676.788324	5662.861706
677.127473	5605.223673
677.466571	5597.596408
677.805619	5584.118883
678.144616	5570.255710
678.483562	5549.894489
678.822458	5520.562536
679.161303	5513.376371
679.500098	5502.426985
679.838842	5482.708512
680.177535	5489.957691
680.516179	5508.428478
680.854771	5520.207134
681.193314	5602.509012
681.531805	5707.894333
681.870247	5859.121387
682.208638	5960.806501
682.546978	5973.200178
682.885268	5952.778464
683.223508	5863.318148
683.561697	5806.489220
683.899836	5782.687412
684.237925	5735.194702
684.575963	5700.188930
684.913951	5664.290873
685.251889	5720.499738
685.589776	5692.165933
685.927614	5663.925389
686.265401	5736.250824
686.603137	5715.801383
686.940824	5789.089678
687.278460	5814.713863
687.616046	5825.958156
687.953582	5898.762500
688.291068	5876.339448
688.628504	5936.823212
688.965889	5902.457666
689.303224	5846.218554
689.640510	5797.077386
689.977745	5720.545109
690.314930	5627.210666
690.652065	5567.528446
690.989150	5471.255010
691.326185	5397.334051
691.663170	5346.771278
692.000105	5270.574237
692.336990	5191.440725
692.673825	5163.013658
693.010610	5099.976550
693.347345	5025.312020
693.684030	5015.597717
694.020665	4973.473835
694.357251	4881.094691
694.693786	4892.175147
695.030272	4860.229355
695.366707	4824.860620
695.703093	4791.236124
696.039429	4811.715811
696.375716	4795.584119
696.711952	4769.329790
697.048139	4755.562398
697.384276	4735.929625
697.720363	4747.335235
698.056400	4758.970218
698.392388	4707.182445
698.728326	4685.051780
699.064214	4666.691897
699.400053	4659.667049
699.735842	4626.360146
700.071581	4600.277216
700.407270	4575.129420
700.742910	4556.242737
701.078501	4503.270293
701.414042	4503.277854
701.749533	4474.865911
702.084974	4406.835540
702.420366	4463.094817
702.755709	4403.175662
703.091002	4348.958053
703.426246	4396.947317
703.761440	4353.890822
704.096584	4316.752641
704.431679	4338.603523
704.766725	4321.829083
705.101721	4310.126045
705.436668	4338.800128
705.771565	4288.068476
706.106413	4317.077796
706.441212	4344.365562
706.775961	4353.689176
707.110661	4335.369623
707.445311	4363.302656
707.779913	4385.009864
708.114465	4400.665168
708.448967	4423.410854
708.783421	4487.327643
709.117825	4524.760731
709.452180	4528.561761
709.786485	4575.830140
710.120742	4660.526566
710.454949	4646.149195
710.789107	4714.580338
711.123216	4784.848982
711.457275	4777.579638
711.791286	4846.860215
712.125247	4868.822002
712.459159	4770.703504
712.793023	4845.052962
713.126837	4804.673319
713.460602	4800.317762
713.794318	4718.439342
714.127985	4722.764652
714.461602	4637.818689
714.795171	4613.343887
715.128691	4542.613978
715.462162	4486.125328
715.795584	4439.963482
716.128957	4422.672325
716.462281	4368.948748
716.795556	4344.897403
717.128782	4302.206392
717.461960	4234.828850
717.795088	4244.588524
718.128167	4203.341803
718.461198	4146.401971
718.794180	4139.379643
719.127113	4122.383393
719.459997	4101.208026
719.792833	4058.743867
720.125619	4049.742887
720.458357	4010.767206
720.791046	4017.459337
721.123686	3991.434381
721.456278	3950.177578
721.788821	3965.308601
722.121315	3939.346659
722.453761	3915.030653
722.786158	3926.242179
723.118506	3947.243626
723.450805	3899.148498
723.783056	3922.587343
724.115259	3940.554015
724.447412	3943.495528
724.779518	3934.912964
725.111574	3938.809776
725.443582	3968.923108
725.775542	3955.662353
726.107453	4008.770909
726.439315	4008.249149
726.771129	4020.158875
727.102895	4057.138259
727.434612	4104.933439
727.766281	4117.319554
728.097901	4118.418526
728.429473	4121.755769
728.760996	4128.336996
729.092471	4125.912201
729.423897	4109.203296
729.755276	4116.233185
730.086606	4114.360397
730.417887	4152.204339
730.749120	4221.132035
731.080305	4284.940440
731.411442	4310.741065
731.742530	4279.702681
732.073570	4282.908855
732.404562	4336.944983
732.735506	4326.257737
733.066401	4295.597439
733.397249	4226.916759
733.728048	4149.625788
734.058798	4067.041606
734.389501	3995.217767
734.720156	3934.857511
735.050762	3887.095099
735.381320	3882.555540
735.711831	3832.885051
736.042293	3804.944456
736.372707	3822.669153
736.703073	3796.361892
737.033391	3785.835962
737.363661	3803.376657
737.693883	3826.079493
738.024056	3839.859487
738.354182	3830.896316
738.684260	3897.474835
739.014290	3921.304369
739.344272	3909.838265
739.674207	3955.995069
740.004093	3961.852890
740.333931	3956.549596
740.663722	3954.850727
740.993464	3951.962146
741.323159	3929.322324
741.652806	3900.413827
741.982405	3872.836195
742.311956	3837.822861
742.641460	3830.266172
742.970915	3807.457471
743.300323	3765.610853
743.629683	3730.622725
743.958996	3721.520922
744.288260	3696.967982
744.617477	3663.663599
744.946647	3648.525014
745.275768	3624.229173
745.604842	3623.097434
745.933869	3576.393664
746.262847	3565.829926
746.591778	3606.454064
746.920662	3576.801997
747.249498	3543.348901
747.578286	3590.380345
747.907027	3608.538582
748.235720	3605.962552
748.564365	3629.363588
748.892963	3630.817961
749.221514	3613.887246
749.550017	3591.441508
749.878473	3589.921600
750.206881	3559.210891
750.535242	3556.743246
750.863555	3554.865417
751.191821	3547.127245
751.520039	3530.932539
751.848210	3509.432017
752.176334	3544.042059
752.504411	3552.218811
752.832440	3510.699868
753.160421	3492.781086
753.488356	3499.647138
753.816243	3516.192205
754.144082	3469.221254
754.471875	3457.659368
754.799620	3476.735094
755.127318	3467.822334
755.454969	3467.807210
755.782572	3471.509938
756.110129	3448.867595
756.437638	3438.898713
756.765100	3452.633337
757.092515	3464.288485
757.419882	3470.663024
757.747203	3440.446348
758.074477	3445.573201
758.401703	3461.790593
758.728882	3482.045949
759.056014	3491.273781
759.383099	3491.684635
759.710138	3484.664829
760.037129	3505.837675
760.364073	3534.783980
760.690970	3520.658667
761.017820	3496.713186
761.344623	3517.553316
761.671379	3563.410172
761.998088	3616.760703
762.324751	3743.074375
762.651366	3990.748784
762.977935	4465.270075
763.304456	4911.878497
763.630931	4999.319831
763.957359	4639.421776
764.283740	4296.056184
764.610074	4107.012915
764.936362	3907.436155
765.262602	3748.896908
765.588796	3638.997233
765.914943	3547.606155
766.241044	3461.712455
766.567097	3427.611570
766.893104	3386.533728
767.219064	3353.420909
767.544978	3323.110971
767.870845	3268.911006
768.196665	3250.954416
768.522438	3261.666868
768.848165	3253.008686
769.173846	3216.888819
769.499479	3205.715101
769.825066	3184.965712
770.150607	3168.166067
770.476101	3183.763397
770.801548	3176.539423
771.126949	3132.467136
771.452303	3118.271247
771.777611	3121.898357
772.102872	3127.546970
772.428087	3102.610902
772.753256	3093.020107
773.078378	3082.683221
773.403453	3049.958571
773.728482	3037.189328
774.053465	3061.419634
774.378401	3050.147614
774.703291	3015.353570
775.028135	3018.146369
775.352932	3011.595390
775.677683	3002.014677
776.002388	2997.654079
776.327046	2997.457474
776.651658	2990.513285
776.976224	2977.302941
777.300743	2977.023157
777.625216	2968.057465
777.949643	2961.221660
778.274024	2964.896661
778.598359	2951.512398
778.922647	2959.802575
779.246889	2955.310907
779.571086	2943.018054
779.895236	2935.884821
780.219339	2945.775565
780.543397	2963.031434
780.867409	2963.054120
781.191374	2955.149590
781.515294	2953.463324
781.839167	2955.469704
782.162995	2947.945782
782.486776	2952.818057
782.810511	2952.482820
783.134201	2939.249791
783.457844	2943.985955
783.781441	2936.605706
784.104993	2917.522418
784.428498	2917.086358
784.751958	2928.917946
785.075372	2925.673964
785.398739	2908.072775
785.722061	2922.987029
786.045337	2936.893052
786.368568	2923.155908
786.691752	2913.600400
787.014891	2961.851804
787.337983	2993.474963
787.661030	3019.726771
787.984031	3086.075917
788.306987	3133.704739
788.629897	3125.500261
788.952760	3110.943929
789.275579	3096.286775
789.598351	3036.004657
789.921078	2990.556134
790.243759	2979.851244
790.566395	2964.369861
790.888984	2938.259204
791.211529	2921.983839
791.534027	2913.267684
791.856480	2901.582290
792.178888	2887.966133
792.501249	2879.905328
792.823566	2874.907024
793.145836	2874.044987
793.468062	2869.646580
793.790241	2871.466437
794.112375	2874.032384
794.434464	2886.867162
794.756507	2889.801113
795.078505	2897.705642
795.400457	2909.970770
795.722364	2948.107098
796.044226	2972.400419
796.366042	2975.256233
796.687812	2966.426652
797.009538	2983.672439
797.331218	2974.376551
797.652852	2956.157821
797.974442	2939.209462
798.295986	2932.882814
798.617484	2928.799479
798.938938	2912.932448
799.260346	2900.306878
799.581709	2892.311608
799.903026	2886.920094
800.224299	2880.502705
800.545526	2872.812425
800.866708	2857.041175
801.187845	2846.187571
801.508936	2845.983404
801.829983	2854.371884
802.150984	2841.143896
802.471940	2829.660148
802.792851	2827.689057
803.113717	2827.280723
803.434538	2833.856908
803.755314	2828.344407
804.076045	2819.971050
804.396731	2820.926349
804.717372	2820.449960
805.037967	2815.297900
805.358518	2822.995742
805.679024	2833.486383
805.999485	2830.045796
806.319901	2833.572083
806.640272	2823.751915
806.960598	2829.866835
807.280879	2840.758248
807.601115	2848.398117
807.921306	2831.157370
808.241453	2832.175683
808.561554	2837.010150
808.881611	2839.024091
809.201623	2833.297340
809.521590	2830.234839
809.841513	2827.457163
810.161390	2829.398008
810.481223	2821.546411
810.801011	2813.931748
811.120755	2813.155410
811.440453	2815.796975
811.760107	2816.038950
812.079716	2813.352015
812.399281	2803.171405
812.718801	2795.370219
813.038276	2791.949796
813.357707	2794.120013
813.677093	2805.341622
813.996434	2798.200827
814.315731	2793.830147
814.634983	2787.717748
814.954191	2796.091104
815.273354	2806.392702
815.592473	2813.961995
815.911547	2815.229845
816.230577	2822.720999
816.549562	2832.190807
816.868502	2833.090653
817.187399	2843.298989
817.506250	2858.286340
817.825058	2851.947089
818.143821	2864.454192
818.462539	2881.117726
818.781213	2907.303999
819.099843	2943.433949
819.418429	3000.945953
819.736970	3063.826785
820.055466	3135.196921
820.373919	3241.807242
820.692327	3386.541290
821.010691	3554.235272
821.329011	4006.494828
821.647286	4915.125000
821.965517	6311.506971
822.283704	7056.768471
822.601847	7044.165586
822.919945	6396.999899
823.237999	5891.399895
823.556010	5299.744874
823.873976	4741.840378
824.191897	4324.775638
824.509775	4027.622304
824.827609	3759.397631
825.145398	3632.229484
825.463144	3620.607104
825.780845	3710.808470
826.098502	3818.185047
826.416116	4105.379581
826.733685	4422.947068
827.051210	4491.816791
827.368692	4372.802710
827.686129	4101.729786
828.003522	3773.522944
828.320872	3513.180115
828.638177	3317.885815
828.955439	3175.747962
829.272656	3089.947524
829.589830	3024.606608
829.906960	2974.260605
830.224046	2929.757298
830.541088	2893.965106
830.858086	2879.091182
831.175041	2862.029397
831.491952	2863.403111
831.808819	2875.275028
832.125642	2899.558266
832.442421	2940.658794
832.759157	3025.319931
833.075849	3205.324412
833.392497	3491.296467
833.709101	3699.314639
834.025662	3643.763644
834.342179	3485.171465
834.658653	3306.770071
834.975083	3155.999242
835.291469	3058.654561
835.607811	2971.230871
835.924110	2910.303486
836.240366	2860.741382
836.556578	2817.319403
836.872746	2793.411731
837.188871	2773.579832
837.504952	2755.172058
837.820990	2746.423136
838.136984	2735.909810
838.452935	2726.898747
838.768842	2727.012173
839.084706	2742.163361
839.400526	2821.024651
839.716303	2956.349385
840.032037	3036.861653
840.347727	3023.157276
840.663373	2963.782566
840.978977	2885.334651
841.294537	2812.807570
841.610054	2764.377205
841.925527	2740.686303
842.240957	2719.163097
842.556344	2695.716690
842.871687	2682.130780
843.186987	2673.240706
843.502244	2667.345076
843.817458	2663.808707
844.132629	2650.371511
844.447756	2641.312558
844.762840	2635.711836
845.077881	2635.558081
845.392879	2635.840385
845.707833	2630.622791
846.022745	2624.638941
846.337613	2631.726804
846.652438	2625.195989
846.967221	2625.006946
847.281960	2625.647172
847.596656	2623.802110
847.911309	2622.640124
848.225919	2620.182561
848.540485	2615.821963
848.855009	2613.129987
849.169490	2618.360184
849.483928	2616.575616
849.798323	2613.946654
850.112675	2613.503032
850.426984	2616.066459
850.741251	2613.094699
851.055474	2611.047991
851.369654	2617.780452
851.683792	2613.195522
851.997887	2611.904987
852.311938	2611.657970
852.625947	2613.578650
852.939914	2619.252468
853.253837	2617.180554
853.567718	2611.431118
853.881555	2611.494133
854.195350	2616.363887
854.509103	2615.378342
854.822812	2612.086468
855.136479	2609.306272
855.450103	2614.816253
855.763685	2615.524535
856.077224	2613.588732
856.390720	2610.982456
856.704173	2613.802981
857.017584	2617.611573
857.330953	2620.492592
857.644278	2620.941255
857.957561	2619.454115
858.270802	2618.224073
858.584000	2616.258023
858.897155	2618.713065
859.210268	2622.924949
859.523339	2614.100409
859.836367	2611.632764
860.149352	2611.768876
860.462295	2616.096706
860.775195	2611.584873
861.088054	2607.461210
861.400869	2609.039091
861.713642	2606.783174
862.026373	2606.175715
862.339062	2611.602518
862.651708	2616.555451
862.964312	2617.520832
863.276873	2613.850872
863.589392	2616.300873
863.901869	2625.765639
864.214303	2626.161370
864.526696	2630.383336
864.839045	2632.190590
865.151353	2633.539098
865.463619	2631.588172
865.775842	2632.056999
866.088023	2632.891310
866.400162	2637.541775
866.712258	2635.885756
867.024313	2633.206382
867.336325	2632.500621
867.648296	2631.600775
867.960224	2636.742752
868.272110	2635.984058
868.583954	2630.708491
868.895755	2633.145888
869.207515	2635.376599
869.519233	2642.272897
869.830909	2637.811476
870.142542	2634.910292
870.454134	2635.593369
870.765684	2641.415901
871.077191	2639.795170
871.388657	2647.666932
871.700081	2640.639564
872.011463	2644.339771
872.322803	2648.143321
872.634101	2649.375883
872.945357	2656.493992
873.256571	2662.661844
873.567744	2657.043478
873.878874	2659.710249
874.189963	2660.347955
874.501010	2664.007832
874.812015	2670.674758
875.122979	2665.031187
875.433900	2659.223777
875.744780	2659.569096
876.055618	2664.695950
876.366415	2667.884480
876.677169	2668.300375
876.987882	2662.840805
877.298554	2663.791063
877.609183	2673.253308
877.919771	2681.137673
878.230317	2689.949610
878.540822	2698.196938
878.851285	2713.559854
879.161707	2736.754203
879.472087	2775.760131
879.782425	2825.934735
880.092722	2940.651232
880.402977	3133.974441
880.713191	3400.308681
881.023363	3702.762788
881.333494	3899.410638
881.643583	4071.871032
881.953631	4069.794076
882.263637	3892.713465
882.573602	3668.553518
882.883526	3534.904968
883.193408	3420.140580
883.503248	3311.090340
883.813048	3193.334027
884.122806	3077.634505
884.432522	2987.198726
884.742197	2921.673808
885.051831	2883.429095
885.361424	2848.851820
885.670975	2812.598362
885.980485	2778.454627
886.289954	2760.394694
886.599382	2743.595049
886.908768	2734.258832
887.218113	2716.970195
887.527417	2702.421425
887.836680	2696.165353
888.145901	2688.520443
888.455082	2680.875533
888.764221	2668.469253
889.073319	2665.144612
889.382376	2660.000115
889.691392	2662.281237
890.000366	2661.386432
890.309300	2661.396515
890.618193	2661.978768
890.927044	2664.194355
891.235855	2666.167967
891.544625	2660.809220
891.853353	2662.863490
892.162041	2673.225582
892.470687	2690.383149
892.779293	2702.126517
893.087858	2712.977601
893.396381	2735.940057
893.704864	2780.403033
894.013306	2852.995649
894.321707	2945.674742
894.630068	3001.253463
894.938387	3020.082173
895.246665	3014.332737
895.554903	2969.587455
895.863100	2923.254210
896.171256	2866.309336
896.479371	2801.956487
896.787446	2764.031886
897.095480	2741.087075
897.403473	2732.864953
897.711425	2720.710731
898.019336	2701.309850
898.327207	2685.079855
898.635038	2685.856193
898.942827	2679.186747
899.250576	2671.425890
899.558284	2663.123110
899.865952	2657.668581
900.173579	2653.028199
900.481165	2651.503250
900.788711	2644.644760
901.096216	2636.954480
901.403681	2633.617236
901.711105	2634.000364
902.018489	2631.787297
902.325832	2635.467340
902.633135	2637.629995
902.940397	2651.415030
903.247619	2690.935156
903.554800	2763.159767
903.861941	2894.186917
904.169041	3024.699869
904.476101	3087.547934
904.783121	3085.102975
905.090100	3024.541073
905.397039	2948.480144
905.703938	2868.958462
906.010796	2805.908751
906.317614	2750.834146
906.624391	2714.941130
906.931129	2687.607994
907.237826	2663.412976
907.544483	2644.652322
907.851099	2630.426186
908.157675	2620.568210
908.464211	2610.770727
908.770707	2601.174891
909.077163	2597.157091
909.383578	2593.572831
909.689954	2592.703232
909.996289	2592.670464
910.302584	2593.391349
910.608839	2588.239290
910.915054	2588.758529
911.221229	2591.717686
911.527363	2593.817327
911.833458	2591.059816
912.139513	2594.674323
912.445527	2594.908737
912.751502	2600.426279
913.057436	2606.092536
913.363331	2611.408433
913.669186	2622.705659
913.975000	2638.139151
914.280775	2651.964516
914.586510	2673.626354
914.892205	2711.077086
915.197859	2782.762293
915.503475	2867.582228
915.809050	2934.899275
916.114585	2953.559106
916.420081	2967.754996
916.725536	2977.794453
917.030952	2952.891153
917.336328	2904.755696
917.641665	2849.481965
917.946961	2800.497073
918.252218	2764.803183
918.557435	2735.236816
918.862612	2713.106150
919.167750	2694.887420
919.472848	2676.852692
919.777906	2663.241577
920.082925	2647.508136
920.387904	2634.514562
920.692843	2633.886938
920.997743	2627.963582
921.302603	2622.383025
921.607423	2614.546551
921.912204	2608.232506
922.216946	2606.621857
922.521647	2601.270673
922.826310	2598.278748
923.130932	2594.399580
923.435516	2589.333220
923.740059	2585.217118
924.044564	2583.167889
924.349028	2583.782910
924.653454	2572.067268
924.957840	2571.507700
925.262186	2570.023081
925.566493	2571.802608
925.870761	2569.511403
926.174989	2566.509396
926.479178	2565.334807
926.783328	2564.442523
927.087438	2566.030487
927.391509	2565.347410
927.695541	2562.594940
927.999533	2560.243242
928.303486	2559.119065
928.607400	2556.590926
928.911275	2557.208467
929.215110	2555.620504
929.518906	2554.879454
929.822663	2557.561348
930.126381	2556.530432
930.430060	2555.028168
930.733699	2555.723848
931.037299	2556.696790
931.340861	2557.319373
931.644383	2559.908005
931.947866	2557.546225
932.251309	2557.742830
932.554714	2559.252655
932.858080	2561.017059
933.161407	2557.276523
933.464694	2556.916081
933.767943	2554.322407
934.071153	2556.749722
934.374323	2553.205791
934.677455	2557.306770
934.980548	2553.175544
935.283602	2553.309135
935.586617	2553.203271
935.889593	2554.161090
936.192530	2551.648075
936.495428	2556.238045
936.798287	2556.164949
937.101108	2555.877603
937.403890	2560.661658
937.706632	2565.392781
938.009336	2566.811866
938.312002	2572.813359
938.614628	2572.694892
938.917216	2576.221179
939.219765	2580.314596
939.522275	2578.588001
939.824747	2578.845100
940.127179	2572.382341
940.429573	2568.266238
940.731929	2568.908986
941.034246	2567.948646
941.336524	2569.148440
941.638763	2569.884449
941.940964	2568.646846
942.243126	2564.681978
942.545250	2565.420507
942.847335	2563.353634
943.149381	2562.584858
943.451389	2558.952707
943.753359	2557.649568
944.055290	2559.542522
944.357182	2557.208467
944.659036	2557.760474
944.960851	2559.023283
945.262628	2553.115051
945.564367	2554.667726
945.866067	2558.052861
946.167729	2559.051009
946.469352	2557.284085
946.770937	2557.889023
947.072484	2556.971533
947.373992	2556.530432
947.675462	2557.163097
947.976893	2557.644527
948.278286	2558.877089
948.579641	2555.030689
948.880958	2555.522202
949.182236	2552.812581
949.483476	2555.244938
949.784678	2556.137222
950.085841	2552.633620
950.386967	2557.122768
950.688054	2549.702189
950.989103	2556.338868
951.290114	2555.255020
951.591087	2558.244425
951.892021	2558.743499
952.192917	2559.572769
952.493776	2560.822975
952.794596	2561.911864
953.095378	2564.384550
953.396122	2560.621329
953.696828	2560.737275
953.997496	2559.829867
954.298126	2558.536812
954.598718	2555.721327
954.899272	2556.008673
955.199788	2553.873744
955.500266	2554.907181
955.800706	2548.983825
956.101108	2542.664739
956.401472	2544.376210
956.701798	2542.624409
957.002087	2545.003834
957.302337	2545.664225
957.602550	2545.238248
957.902724	2544.771941
958.202861	2545.119781
958.502960	2544.986190
958.803022	2545.276056
959.103045	2540.386137
959.403031	2543.068031
959.702979	2540.905376
960.002889	2540.998637
960.302762	2541.366642
960.602596	2542.493339
960.902393	2540.008051
961.202153	2539.687937
961.501875	2539.708102
961.801559	2538.755324
962.101205	2537.200128
962.400814	2535.944881
962.700385	2538.052083
962.999918	2538.619213
963.299414	2541.278421
963.598873	2539.541744
963.898293	2538.783050
964.197677	2540.088709
964.497022	2537.822710
964.796331	2542.289173
965.095601	2538.367155
965.394835	2537.484953
965.694030	2538.392361
965.993189	2536.227185
966.292309	2535.085364
966.591393	2540.033256
966.890439	2533.862884
967.189447	2539.067875
967.488419	2537.401774
967.787353	2538.467978
968.086249	2539.423277
968.385108	2539.201466
968.683930	2535.108049
968.982714	2539.418236
969.281462	2536.489325
969.580172	2536.126362
969.878844	2535.680220
970.177480	2542.004348
970.476078	2538.702392
970.774639	2539.042670
971.073162	2538.130221
971.371649	2535.733152
971.670098	2535.859181
971.968510	2535.498738
972.266885	2533.441948
972.565223	2538.440252
972.863524	2536.748945
973.161788	2540.411343
973.460014	2537.757175
973.758204	2537.278266
974.056356	2540.368493
974.354471	2538.586445
974.652550	2538.465458
974.950591	2538.089892
975.248595	2537.477391
975.546563	2538.861188
975.844493	2536.995961
976.142386	2540.146682
976.440243	2534.714839
976.738062	2535.937319
977.035845	2536.103677
977.333590	2536.522093
977.631299	2539.025026
977.928971	2536.461599
978.226606	2538.490663
978.524204	2538.094933
978.821765	2536.106198
979.119290	2537.283307
979.416777	2538.155427
979.714228	2539.680376
980.011642	2534.634181
980.309020	2538.846065
980.606360	2536.806918
980.903664	2535.198790
981.200931	2535.657535
981.498162	2537.489994
981.795356	2540.585263
982.092513	2542.326981
982.389633	2545.419729
982.686717	2551.401058
982.983764	2553.059598
983.280775	2554.675288
983.577749	2554.014897
983.874686	2548.643547
984.171587	2548.285625
984.468451	2545.273536
984.765279	2543.985521
985.062070	2544.061138
985.358824	2540.839841
985.655543	2539.589635
985.952224	2541.175078
986.248869	2538.720036
986.545478	2537.084181
986.842050	2534.576207
987.138586	2530.124868
987.435086	2533.270548
987.731549	2530.152595
988.027975	2536.912782
988.324366	2534.427493
988.620719	2535.347504
988.917037	2533.487318
989.213318	2535.188708
989.509563	2533.310878
989.805772	2535.730632
990.101944	2536.837165
990.398080	2532.514375
990.694180	2535.032432
990.990244	2533.477236
991.286271	2532.710980
991.582262	2534.122503
991.878217	2534.049407
992.174136	2536.275076
992.470019	2533.832637
992.765865	2534.356917
993.061676	2534.031763
993.357450	2535.821372
993.653188	2532.020342
993.948890	2533.888090
994.244556	2533.706608
994.540186	2535.103008
994.835780	2536.358255
995.131337	2538.939326
995.426859	2535.546629
995.722345	2535.236598
996.017795	2537.374048
996.313208	2537.873122
996.608586	2538.110056
996.903928	2534.798018
997.199234	2537.164840
997.494504	2535.849099
997.789738	2534.243491
998.084936	2537.784902
998.380099	2536.106197
998.675225	2535.881866
998.970316	2535.254242
999.265371	2534.298944
999.560390	2532.413552
999.855373	2538.026877
1000.150320	2537.200128
1000.445232	2535.995292
1000.740108	2534.669469
1001.034948	2534.235929
1001.329752	2535.644932
1001.624521	2535.019829
1001.919254	2528.249559
1002.213951	2528.453726
1002.508613	2529.814837
1002.803239	2529.003212
1003.097829	2525.784435
1003.392384	2533.023532
1003.686903	2531.780887
1003.981386	2533.348686
1004.275834	2532.564787
1004.570246	2533.154602
1004.864623	2534.016639
1005.158964	2532.499252
1005.453270	2532.695857
1005.747540	2531.256607
1006.041775	2531.168387
1006.335974	2533.169725
1006.630138	2531.669982
1006.924266	2530.989426
1007.218359	2534.490508
1007.512416	2531.541433
1007.806438	2534.089736
1008.100425	2532.244674
1008.394376	2531.327184
1008.688292	2530.742410
1008.982172	2530.576052
1009.276017	2532.214427
1009.569827	2531.659900
1009.863602	2531.261649
1010.157341	2532.136289
1010.451045	2533.283151
1010.744714	2529.358613
1011.038347	2534.039324
1011.331945	2531.811134
1011.625508	2531.954807
1011.919036	2533.215096
1012.212528	2532.133768
1012.505986	2530.502955
1012.799408	2530.765095
1013.092795	2530.109745
1013.386147	2530.601258
1013.679464	2528.970444
1013.972745	2529.451874
1014.265992	2531.843902
1014.559204	2531.932122
1014.852380	2529.250228
1015.145521	2530.220650
1015.438628	2530.523120
1015.731699	2533.562935
1016.024736	2528.940197
1016.317737	2530.351720
1016.610703	2532.224509
1016.903635	2528.244518
1017.196531	2524.990453
1017.489393	2526.896009
1017.782219	2525.824764
1018.075011	2526.384332
1018.367768	2532.305167
1018.660490	2531.072605
1018.953177	2531.072605
1019.245829	2531.072605
