Dividing Wavelength (nm)	Counts (n)	Blue Motor Position (mm): 32.600000	Red Motor Position (mm): 0.000000	
326.493990	2130.636111
326.888308	2130.636111
327.282561	2130.636111
327.676750	2099.912799
328.070874	2098.047572
328.464933	2100.124528
328.858929	2107.464448
329.252859	2116.125150
329.646726	2127.097221
330.040528	2141.711526
330.434265	2159.055616
330.827938	2172.371824
331.221547	2192.022242
331.615091	2211.039995
332.008571	2229.404918
332.401986	2249.745974
332.795338	2267.952101
333.188625	2288.283074
333.581847	2309.891980
333.975006	2325.887562
334.368100	2344.502022
334.761129	2362.748478
335.154095	2376.765407
335.546996	2401.767009
335.939833	2425.594023
336.332606	2438.242278
336.725315	2451.742488
337.117960	2459.644497
337.510540	2468.703450
337.903056	2481.875985
338.295508	2487.665750
338.687896	2495.545074
339.080220	2507.575787
339.472480	2510.222393
339.864676	2516.695235
340.256807	2518.610873
340.648875	2521.673374
341.040879	2525.323169
341.432818	2527.314425
341.824694	2528.831813
342.216506	2530.296268
342.608253	2530.384488
342.999937	2530.381967
343.391557	2530.019004
343.783113	2530.273582
344.174605	2526.119672
344.566033	2522.389218
344.957397	2525.955834
345.348697	2522.202695
345.739934	2520.251769
346.131106	2519.661954
346.522215	2517.882426
346.913260	2514.046108
347.304241	2512.644667
347.695159	2511.830521
348.086012	2509.998062
348.476802	2507.361538
348.867528	2507.011178
349.258191	2507.124604
349.648789	2504.654439
350.039324	2502.643018
350.429796	2500.573625
350.820203	2501.483553
351.210548	2500.140085
351.600828	2499.330980
351.991045	2496.848212
352.381198	2497.049858
352.771288	2496.916268
353.161314	2497.112873
353.551276	2496.754951
353.941175	2496.051710
354.331010	2492.472490
354.720782	2496.744868
355.110490	2495.976092
355.500135	2496.676813
355.889717	2491.524753
356.279235	2496.023983
356.668689	2495.230002
357.058080	2495.124137
357.447408	2494.625063
357.836672	2491.731441
358.225873	2494.675475
358.615010	2491.088694
359.004084	2497.682523
359.393095	2498.970538
359.782043	2499.477174
360.170927	2501.765858
360.559748	2499.683861
360.948505	2500.921464
361.337199	2501.234016
361.725830	2501.286948
362.114398	2506.504542
362.502903	2501.377689
362.891344	2504.190652
363.279722	2501.596979
363.668037	2504.934223
364.056289	2505.140910
364.444478	2503.888183
364.832603	2507.653925
365.220665	2504.364572
365.608665	2507.671569
365.996601	2505.229130
366.384474	2504.621671
366.772284	2507.827845
367.160031	2507.522855
367.547715	2506.832217
367.935336	2509.108298
368.322893	2507.958915
368.710388	2510.121570
369.097820	2512.604338
369.485189	2511.001251
369.872495	2510.623165
370.259738	2511.558299
370.646918	2507.739625
371.034035	2511.802795
371.421090	2512.984945
371.808081	2510.759276
372.195010	2512.861437
372.581875	2512.992507
372.968678	2513.385717
373.355418	2514.797240
373.742096	2511.815398
374.128710	2512.407733
374.515262	2515.626510
374.901751	2512.828670
375.288177	2515.813033
375.674540	2515.041736
376.060841	2515.205574
376.447079	2514.688855
376.833254	2513.713392
377.219367	2512.059894
377.605417	2512.957219
377.991404	2512.311951
378.377329	2512.347239
378.763191	2511.938906
379.148991	2516.508712
379.534727	2515.606345
379.920402	2517.728671
380.306013	2516.624658
380.691563	2515.545852
381.077049	2518.431912
381.462474	2515.450070
381.847835	2517.688342
382.233134	2517.993332
382.618371	2518.883095
383.003545	2519.102386
383.388657	2520.390400
383.773706	2521.128929
384.158693	2519.800585
384.543618	2519.742612
384.928480	2520.879392
385.313280	2519.646830
385.698017	2523.193282
386.082692	2523.896523
386.467305	2520.919722
386.851856	2521.625483
387.236344	2519.936697
387.620770	2521.713703
388.005133	2518.467200
388.389435	2521.799403
388.773674	2519.664474
389.157851	2522.789990
389.541965	2522.605988
389.926018	2521.953158
390.310008	2522.442150
390.693936	2523.646986
391.077802	2523.072294
391.461606	2525.202182
391.845348	2523.427696
392.229027	2525.600433
392.612645	2525.867614
392.996200	2524.672861
393.379694	2524.929959
393.763125	2528.136133
394.146494	2525.761750
394.529801	2525.620597
394.913047	2525.408869
395.296230	2527.503468
395.679351	2528.433561
396.062410	2527.536236
396.445408	2527.667306
396.828343	2528.499096
397.211217	2527.712676
397.594028	2530.001360
397.976778	2524.609846
398.359466	2527.468180
398.742092	2524.267048
399.124656	2530.041689
399.507158	2532.826927
399.889598	2530.636546
400.271977	2532.053110
400.654294	2534.387164
401.036549	2532.166536
401.418742	2533.361289
401.800874	2534.717360
402.182944	2533.482277
402.564952	2532.781557
402.946898	2532.136289
403.328783	2535.589479
403.710606	2535.173584
404.092367	2533.089067
404.474067	2536.738862
404.855705	2536.524613
405.237282	2539.153575
405.618797	2536.597710
406.000250	2535.660055
406.381642	2538.878832
406.762972	2535.465971
407.144240	2539.478729
407.525447	2538.122659
407.906593	2542.576518
408.287677	2538.898997
408.668700	2539.541744
409.049661	2540.713812
409.430560	2541.338915
409.811399	2543.123484
410.192176	2538.788091
410.572891	2545.046684
410.953545	2545.933927
411.334138	2548.454504
411.714669	2550.541542
412.095139	2551.295194
412.475547	2551.907694
412.855894	2557.730227
413.236180	2560.855742
413.616405	2563.371278
413.996568	2569.324881
414.376670	2574.983576
414.756711	2580.145717
415.136691	2587.561255
415.516609	2593.288006
415.896466	2606.563884
416.276262	2614.899432
416.655997	2621.208436
417.035670	2636.984727
417.415283	2653.862510
417.794834	2663.271824
418.174324	2672.681137
418.553753	2684.918538
418.933121	2711.099771
419.312428	2729.620970
419.691674	2744.205028
420.070859	2772.664862
420.449983	2782.608538
420.829045	2812.868064
421.208047	2821.871565
421.586988	2858.160311
421.965867	2884.926317
422.344686	2925.542894
422.723444	2929.437185
423.102141	2929.326280
423.480777	2999.363030
423.859352	2994.072339
424.237866	3068.991447
424.616319	3095.071857
424.994712	3151.202584
425.373044	3160.548883
425.751314	3229.045561
426.129524	3220.667163
426.507673	3304.733445
426.885762	3356.785879
427.263789	3391.968092
427.641756	3391.370715
428.019662	3470.645380
428.397508	3517.447452
428.775292	3551.452555
429.153016	3627.016931
429.530679	3648.646002
429.908282	3721.364646
430.285824	3715.693348
430.663305	3875.563460
431.040726	3817.393585
431.418086	3861.400338
431.795385	3959.531439
432.172624	4009.645549
432.549802	4057.851583
432.926920	4115.459368
433.303977	4168.593130
433.680974	4232.945979
434.057910	4297.104744
434.434786	4350.356973
434.811601	4380.588773
435.188355	4567.575251
435.565050	4541.023494
435.941683	4578.174277
436.318257	4766.461373
436.694770	4802.651817
437.071222	4877.689392
437.447614	4883.607706
437.823946	4868.466601
438.200218	5017.188201
438.576429	4969.758505
438.952580	5090.340384
439.328670	5167.096993
439.704700	5135.511643
440.080670	5165.652702
440.456580	5420.956898
440.832429	5367.929000
441.208218	5285.281803
441.583947	5442.782573
441.959616	5486.388554
442.335224	5456.290345
442.710773	5607.532522
443.086261	5661.919010
443.461689	5515.271845
443.837057	5677.271844
444.212365	5844.040775
444.587612	5773.923366
444.962800	5940.170538
445.337927	5951.525737
445.712995	5622.983658
446.088002	6172.169479
446.462949	6039.004880
446.837837	5993.455534
447.212664	6174.422875
447.587431	6332.420198
447.962139	6858.908223
448.336786	7751.588185
448.711374	7519.679984
449.085901	6669.900242
449.460369	6611.092662
449.834776	6559.032666
450.209124	6948.320649
450.583412	7115.520598
450.957640	7260.370592
451.331808	7043.946296
451.705917	6614.014011
452.079965	6549.310801
452.453954	6763.317864
452.827883	6652.220916
453.201752	6750.485607
453.575562	6556.713736
453.949311	6764.963801
454.323001	6652.956924
454.696632	6734.890798
455.070202	6877.951182
455.443713	7029.112701
455.817164	7131.937116
456.190556	7219.701084
456.563888	7296.097250
456.937160	7344.842687
457.310373	7006.135122
457.683526	7030.660335
458.056619	6916.891575
458.429653	6909.493682
458.802628	6850.156780
459.175542	6956.416742
459.548398	7312.475958
459.921194	7469.802808
460.293930	7476.898232
460.666607	8004.739807
461.039224	8312.504770
461.411782	8438.228627
461.784280	8452.600956
462.156719	8345.965429
462.529099	8228.627532
462.901419	7818.010428
463.273680	7710.343985
463.645882	7724.802014
464.018024	7589.653720
464.390106	7764.375072
464.762130	8144.664594
465.134094	8611.901418
465.505999	9629.201223
465.877845	10847.569970
466.249631	11495.406130
466.621358	11112.207861
466.993026	10482.106480
467.364634	10233.292771
467.736184	9874.271876
468.107674	9540.214775
468.479105	9571.147295
468.850477	9338.548457
469.221790	9107.446841
469.593043	8783.421636
469.964238	8644.626068
470.335373	8655.996391
470.706449	8723.298315
471.077467	8697.422072
471.448425	10006.597123
471.819324	11069.463918
472.190164	11092.204563
472.560945	9844.763482
472.931667	9058.887927
473.302330	8931.742465
473.672934	8575.811798
474.043479	8932.087784
474.413965	8871.145275
474.784393	8757.114375
475.154761	8916.455166
475.525070	8993.494079
475.895321	8822.730033
476.265513	9004.395574
476.635645	9171.910596
477.005719	9170.332715
477.375734	9288.572978
477.745691	9520.617290
478.115588	9654.492692
478.485427	9900.221215
478.855207	10435.679974
479.224928	11249.128120
479.594591	11873.268337
479.964194	11677.724500
480.333739	11616.499686
480.703226	11538.805423
481.072653	11630.458641
481.442022	11861.693848
481.811333	12054.268445
482.180584	11863.165865
482.549777	11571.189796
482.918912	11387.495191
483.287988	11405.897923
483.657005	11423.864595
484.025964	11110.587130
484.394864	11245.874056
484.763706	11212.524302
485.132489	10963.395520
485.501213	10937.536922
485.869879	11011.936791
486.238487	10853.697492
486.607036	10961.968874
486.975527	10742.121634
487.343959	10939.513054
487.712333	10981.518468
488.080648	10914.597151
488.448905	10952.650301
488.817104	10894.409851
489.185244	11161.069245
489.553326	11317.710498
489.921350	11850.164729
490.289315	12914.662337
490.657222	13247.943100
491.025070	13161.676355
491.392861	13035.995348
491.760593	12648.791883
492.128267	12297.408336
492.495883	11977.804224
492.863440	11641.914663
493.230939	11301.939248
493.598380	11242.877090
493.965763	11108.041348
494.333088	11009.443940
494.700354	10934.053484
495.067563	10995.006076
495.434713	10825.590539
495.801805	10953.913110
496.168839	10872.904288
496.535815	10809.645369
496.902733	10810.469598
497.269593	10743.913764
497.636395	10845.145175
498.003139	10831.909625
498.369825	10697.361229
498.736453	10856.356701
499.103023	10785.513366
499.469535	10813.499331
499.835989	10803.580861
500.202385	10768.547363
500.568723	10619.369538
500.935003	10840.615698
501.301226	10649.687037
501.667390	10901.880841
502.033497	10997.841725
502.399546	10862.963133
502.765537	10770.347054
503.131470	10842.007056
503.497345	11018.134889
503.863163	10625.756680
504.228923	10934.877713
504.594625	11003.402117
504.960269	10748.730587
505.325856	10966.205964
505.691385	10770.606674
506.056856	10913.195710
506.422270	10934.900398
506.787625	10832.023051
507.152924	10944.120669
507.518164	10931.283370
507.883347	10843.637870
508.248472	10771.698084
508.613540	10999.953968
508.978550	10884.342666
509.343503	10861.972546
509.708398	10977.883797
510.073236	11095.148597
510.438016	11097.394431
510.802738	11045.586493
511.167403	11100.582961
511.532010	10995.321148
511.896561	11226.609286
512.261053	11301.508229
512.625488	11170.781028
512.989866	11148.279838
513.354186	11136.118054
513.718449	11042.173632
514.082655	11236.169834
514.446803	11127.792588
514.810894	11252.586352
515.174927	11115.378747
515.538904	11142.016204
515.902822	11292.068669
516.266684	11181.248984
516.630488	11120.941660
516.994235	11172.691625
517.357925	11240.091852
517.721558	11332.045019
518.085133	11342.883500
518.448651	11356.666014
518.812112	11233.752601
519.175516	11252.646846
519.538863	11368.598425
519.902152	11283.367637
520.265385	11440.223139
520.628560	11353.779954
520.991678	11335.972078
521.354739	11393.784030
521.717743	11334.442087
522.080690	11316.369551
522.443580	11445.579365
522.806413	11399.460369
523.169189	11428.648650
523.531908	11489.487815
523.894569	11312.535753
524.257174	11319.994141
524.619722	11435.406317
524.982213	11380.654345
525.344647	11435.456728
525.707025	11382.285158
526.069345	11472.715896
526.431608	11393.065666
526.793815	11505.294353
527.155964	11291.740994
527.518057	11341.129178
527.880093	11291.549430
528.242072	11360.900583
528.603995	11269.678384
528.965860	11189.723163
529.327669	11241.576472
529.689421	11190.595283
530.051117	11158.863740
530.412755	11261.899884
530.774337	11158.057156
531.135862	11136.329782
531.497331	11156.915334
531.858743	11008.770946
532.220098	11181.770743
532.581396	11051.600589
532.942638	11033.828001
533.303824	10994.091106
533.664953	11001.494041
534.026025	10925.783472
534.387040	11020.305106
534.747999	11022.190498
535.108902	11078.301061
535.469748	10841.044196
535.830537	10939.334093
536.191270	10928.122567
536.551947	10945.512027
536.912567	10942.162180
537.273131	10867.699297
537.633638	10847.572490
537.994089	10833.885758
538.354483	10787.194591
538.714821	10926.159038
539.075103	10945.756523
539.435328	10902.117775
539.795497	10732.215767
540.155609	10887.949612
540.515665	10974.586882
540.875665	10710.362365
541.235609	10778.538929
541.595496	10778.281831
541.955328	10925.710375
542.315102	10815.926647
542.674821	10765.159707
543.034483	10763.481003
543.394090	10769.071643
543.753640	10697.646054
544.113134	10915.219734
544.472571	10779.196800
544.831953	10917.551267
545.191278	10729.334747
545.550548	10754.227965
545.909761	10886.066741
546.268918	10864.389779
546.628019	10941.663106
546.987064	10812.596965
547.346053	10735.081663
547.704986	10833.006076
548.063863	10826.084572
548.422684	10814.578138
548.781449	10721.299148
549.140158	10826.258492
549.498811	10707.483866
549.857408	10567.357433
550.215949	10787.517224
550.574434	10648.792232
550.932864	10740.359751
551.291237	10806.754268
551.649555	10752.138407
552.007817	10765.303380
552.366022	10720.293438
552.724173	10717.694723
553.082267	10700.753926
553.440305	10840.038486
553.798288	10642.079936
554.156215	10788.349015
554.514086	10774.558938
554.871902	10623.052101
555.229661	10663.560292
555.587365	10626.913625
555.945014	10525.266319
556.302606	10658.221711
556.660143	10547.787674
557.017625	10705.391787
557.375050	10601.884296
557.732421	10736.352033
558.089735	10642.379885
558.446994	10646.485904
558.804197	10683.712305
559.161345	10685.380927
559.518437	10532.550786
559.875474	10619.341812
560.232455	10651.186780
560.589381	10604.442681
560.946251	10597.269119
561.303065	10707.040244
561.659825	10638.001642
562.016528	10576.839843
562.373177	10451.904928
562.729770	10559.964581
563.086307	10481.168826
563.442789	10581.830586
563.799216	10453.671852
564.155587	10498.762453
564.511904	10456.643612
564.868164	10451.078178
565.224370	10463.234921
565.580520	10391.915197
565.936615	10385.918744
566.292654	10260.953582
566.648638	10392.368901
567.004567	10350.794505
567.360441	10331.345733
567.716260	10241.759388
568.072023	10340.616415
568.427732	10297.575044
568.783385	10194.657368
569.138982	10269.009346
569.494525	10284.941912
569.850013	10162.444394
570.205445	10239.639583
570.560823	10140.114603
570.916145	10058.281553
571.271412	10124.648343
571.626625	10073.752854
571.981782	10045.098936
572.336884	10021.193784
572.691931	10025.773673
573.046923	9972.579417
573.401860	9935.519375
573.756743	9866.281647
574.111570	9910.847968
574.466342	9891.721830
574.821059	9926.820864
575.175722	9813.107556
575.530330	9823.207508
575.884882	9812.807608
576.239380	9738.143078
576.593823	9722.487775
576.948211	9735.161236
577.302544	9619.086148
577.656823	9633.443354
578.011047	9636.241194
578.365216	9604.809600
578.719330	9532.133806
579.073389	9544.494715
579.427394	9491.726437
579.781344	9467.604516
580.135239	9415.090816
580.489080	9429.652189
580.842866	9334.339093
581.196597	9332.985543
581.550273	9375.704281
581.903895	9341.326133
582.257463	9406.157892
582.610975	9287.186661
582.964434	9313.216659
583.317837	9235.958455
583.671186	9220.126712
584.024481	9214.924241
584.377721	9134.603537
584.730906	9115.048901
585.084037	9134.127148
585.437113	9070.001150
585.790135	9096.779759
586.143103	8993.045416
586.496016	8968.794946
586.848874	9026.274182
587.201679	9022.334520
587.554428	8908.895956
587.907124	8942.863250
588.259765	8913.543899
588.612352	8920.445239
588.964884	8800.276734
589.317362	8812.569588
589.669786	8809.401223
590.022155	8861.133543
590.374470	8879.064928
590.726731	8815.531266
591.078937	8663.827823
591.431090	8779.343343
591.783188	8649.561358
592.135232	8644.926017
592.487222	8642.821335
592.839157	8698.311836
593.191038	8627.213923
593.542866	8571.393226
593.894639	8472.470664
594.246358	8524.848253
594.598022	8541.922641
594.949633	8443.584853
595.301190	8415.540914
595.652692	8441.699461
596.004141	8557.603150
596.355535	8328.898603
596.706876	8312.875295
597.058162	8247.418433
597.409395	8325.079929
597.760573	8394.942759
598.111698	8298.840723
598.462768	8279.833052
598.813785	8242.694872
599.164748	8214.240079
599.515657	8210.219759
599.866511	8116.844987
600.217312	8243.357784
600.568060	8097.623067
600.918753	8204.263636
601.269392	8177.008637
601.619978	8087.868434
601.970510	8149.433526
602.320988	8147.129718
602.671412	8207.058955
603.021783	8135.792163
603.372100	8112.587732
603.722363	8112.922969
604.072572	8093.335566
604.422728	8104.181608
604.772830	8029.280144
605.122878	8039.059983
605.472872	8032.844240
605.822813	8060.384064
606.172701	8006.050507
606.522534	8080.137825
606.872314	8082.033299
607.222041	8047.481230
607.571714	8108.774099
607.921333	8066.325063
608.270899	8072.901249
608.620411	8157.171697
608.969870	8062.909682
609.319276	8065.846154
609.668627	8072.084582
610.017926	8106.271167
610.367171	8157.678333
610.716362	8131.890310
611.065500	8128.482490
611.414585	8152.617014
611.763616	8141.266857
612.112594	8122.249104
612.461518	8136.674365
612.810389	8195.900361
613.159207	8136.356773
613.507971	8091.556038
613.856682	8206.217083
614.205340	8157.461563
614.553945	8235.861588
614.902496	8132.986761
615.250994	8192.129578
615.599439	8174.604007
615.947830	8183.599946
616.296169	8158.424424
616.644454	8166.323912
616.992686	8170.301382
617.340864	8229.081236
617.688990	8131.897872
618.037063	8212.198412
618.385082	8173.331116
618.733048	8254.894464
619.080961	8193.498252
619.428821	8210.799492
619.776628	8214.446766
620.124382	8167.402719
620.472083	8151.881006
620.819731	8171.284407
621.167326	8067.141730
621.514868	8079.484996
621.862357	7961.516954
622.209793	7985.517888
622.557176	7919.937517
622.904506	7891.618836
623.251783	7821.544277
623.599007	7782.104810
623.946179	7778.727237
624.293297	7742.403203
624.640363	7660.678537
624.987376	7643.790672
625.334336	7591.594565
625.681243	7535.899897
626.028097	7525.731890
626.374899	7503.563416
626.721647	7495.895821
627.068343	7430.875018
627.414987	7398.072230
627.761577	7354.229315
628.108115	7391.932105
628.454600	7286.866897
628.801032	7339.998138
629.147412	7297.438197
629.493739	7282.924715
629.840014	7224.464974
630.186236	7277.167717
630.532405	7165.478433
630.878521	7215.181689
631.224585	7168.790471
631.570597	7097.374965
631.916556	7124.476208
632.262462	7129.603062
632.608316	7086.647390
632.954117	7065.068731
633.299866	7049.231946
633.645562	7042.996038
633.991206	6965.994934
634.336797	6908.314052
634.682336	6859.833275
635.027823	6835.058525
635.373257	6823.105949
635.718639	6752.292861
636.063968	6769.561333
636.409245	6663.376989
636.754470	6659.810373
637.099642	6619.166070
637.444762	6560.134158
637.789829	6572.505150
638.134845	6514.453743
638.479808	6500.439335
638.824719	6506.156004
639.169577	6431.899807
639.514383	6454.153981
639.859137	6379.991046
640.203839	6387.807355
640.548489	6376.905860
640.893086	6349.973496
641.237632	6322.206820
641.582125	6339.296332
641.926566	6313.513351
642.270955	6326.438869
642.615292	6322.466440
642.959576	6335.003789
643.303809	6330.688562
643.647990	6334.227452
643.992118	6321.848898
644.336195	6272.962309
644.680219	6298.399971
645.024192	6285.446727
645.368112	6380.948866
645.711981	6400.211114
646.055797	6476.972764
646.399562	6433.820487
646.743274	6563.859571
647.086935	6615.977540
647.430544	6610.671726
647.774101	6632.426825
648.117606	6632.920858
648.461059	6628.918182
648.804460	6591.666576
649.147810	6497.943964
649.491108	6473.065870
649.834354	6446.720800
650.177548	6364.726432
650.520690	6281.055882
650.863781	6253.939515
651.206820	6279.220902
651.549807	6199.356422
651.892742	6138.587833
652.235626	6146.870448
652.578458	6132.901411
652.921238	6037.316093
653.263967	6076.601805
653.606644	6020.960069
653.949269	6021.869998
654.291843	5961.383713
654.634365	6009.241907
654.976836	5966.112316
655.319255	5964.045442
655.661622	5940.898985
656.003938	5939.968892
656.346203	5899.589249
656.688416	5933.180978
657.030577	5881.156270
657.372687	5855.343042
657.714746	5841.900805
658.056753	5884.672475
658.398708	5825.237271
658.740612	5812.271424
659.082465	5858.806315
659.424266	5857.099884
659.766016	5849.775088
660.107715	5828.317416
660.449362	5843.735785
660.790958	5839.047512
661.132503	5826.467313
661.473996	5864.429722
661.815438	5851.405901
662.156829	5849.737279
662.498168	5841.862997
662.839456	5814.209747
663.180693	5848.403894
663.521879	5852.845150
663.863013	5840.912739
664.204097	5860.285893
664.545129	5899.856431
664.886110	5899.087655
665.227040	5930.438590
665.567918	5891.563733
665.908746	5921.399802
666.249522	5930.083189
666.590248	5912.587865
666.930922	5940.473007
667.271545	5951.921468
667.612118	5956.627385
667.952639	5930.912459
668.293109	5949.186642
668.633528	5908.958234
668.973896	5912.023255
669.314213	5899.921966
669.654480	5886.222630
669.994695	5878.219798
670.334859	5872.170414
670.674973	5857.304051
671.015035	5863.706316
671.355047	5864.646492
671.695008	5847.778791
672.034918	5822.928423
672.374777	5831.495864
672.714585	5820.702753
673.054342	5823.177960
673.394049	5816.170756
673.733705	5843.834088
674.073310	5837.023489
674.412864	5792.515142
674.752368	5788.590603
675.091820	5789.230830
675.431223	5730.655143
675.770574	5726.702878
676.109875	5678.481721
676.449125	5683.618657
676.788324	5655.471374
677.127473	5592.983752
677.466571	5586.684830
677.805619	5579.876752
678.144616	5567.054577
678.483562	5546.690836
678.822458	5509.852604
679.161303	5502.890771
679.500098	5494.000696
679.838842	5476.850691
680.177535	5483.348738
680.516179	5498.308362
680.854771	5508.252038
681.193314	5591.206745
681.531805	5696.395461
681.870247	5847.554459
682.208638	5947.888544
682.546978	5963.253981
682.885268	5933.669970
683.223508	5854.491087
683.561697	5804.208098
683.899836	5769.754332
684.237925	5725.369493
684.575963	5692.516293
684.913951	5650.606661
685.251889	5714.684767
685.589776	5674.990722
685.927614	5652.113966
686.265401	5722.206169
686.603137	5707.211257
686.940824	5780.323111
687.278460	5809.902081
687.616046	5817.161343
687.953582	5879.827926
688.291068	5860.991655
688.628504	5929.034629
688.965889	5892.372838
689.303224	5837.134394
689.640510	5787.325274
689.977745	5708.113623
690.314930	5616.578872
690.652065	5557.751128
690.989150	5466.564216
691.326185	5392.403802
691.663170	5339.501934
692.000105	5262.440335
692.336990	5183.006874
692.673825	5155.887987
693.010610	5088.407102
693.347345	5022.577194
693.684030	5006.667313
694.020665	4966.436384
694.357251	4874.707549
694.693786	4886.975197
695.030272	4852.213921
695.366707	4815.584897
695.703093	4779.752375
696.039429	4805.016118
696.375716	4788.513901
696.711952	4759.693624
697.048139	4750.790946
697.384276	4734.107248
697.720363	4743.181325
698.056400	4750.506121
698.392388	4700.182803
698.728326	4683.201676
699.064214	4657.504394
699.400053	4653.400895
699.735842	4620.945947
700.071581	4595.591463
700.407270	4569.763112
700.742910	4550.538672
701.078501	4497.236031
701.414042	4495.912728
701.749533	4463.314107
702.084974	4402.979057
702.420366	4457.186585
702.755709	4402.046444
703.091002	4342.548226
703.426246	4394.361205
703.761440	4348.892518
704.096584	4309.768123
704.431679	4331.548428
704.766725	4317.836489
705.101721	4305.551198
705.436668	4335.939273
705.771565	4279.649749
706.106413	4309.934481
706.441212	4343.072506
706.775961	4350.379658
707.110661	4333.151515
707.445311	4357.585987
707.779913	4378.937795
708.114465	4395.429929
708.448967	4412.317795
708.783421	4474.742403
709.117825	4513.493752
709.452180	4526.671329
709.786485	4569.342175
710.120742	4656.521369
710.454949	4637.627125
710.789107	4706.685891
711.123216	4779.891007
711.457275	4770.829533
711.791286	4845.310060
712.125247	4862.205487
712.459159	4765.506074
712.793023	4837.934852
713.126837	4799.455725
713.460602	4791.836021
713.794318	4713.388105
714.127985	4721.683324
714.461602	4634.567144
714.795171	4603.667392
715.128691	4540.496693
715.462162	4483.466120
715.795584	4436.845529
716.128957	4416.960698
716.462281	4365.740054
716.795556	4337.660827
717.128782	4299.925270
717.461960	4233.429930
717.795088	4240.820262
718.128167	4202.540260
718.461198	4142.479953
718.794180	4137.693377
719.127113	4120.218218
719.459997	4094.967078
719.792833	4053.934606
720.125619	4040.646125
720.458357	4008.113038
720.791046	4011.049510
721.123686	3986.947754
721.456278	3943.359417
721.788821	3959.927169
722.121315	3933.526647
722.453761	3911.000251
722.786158	3919.862599
723.118506	3945.706074
723.450805	3898.351996
723.783056	3915.892690
724.115259	3934.575207
724.447412	3938.824899
724.779518	3934.484466
725.111574	3937.191565
725.443582	3965.895895
725.775542	3950.790078
726.107453	4000.332017
726.439315	4002.136750
726.771129	4018.142414
727.102895	4051.338412
727.434612	4103.411011
727.766281	4111.035756
728.097901	4114.030201
728.429473	4119.031026
728.760996	4129.168786
729.092471	4119.005820
729.423897	4105.319087
729.755276	4112.890900
730.086606	4112.762351
730.417887	4148.002537
730.749120	4214.777661
731.080305	4274.638842
731.411442	4306.793842
731.742530	4271.472998
732.073570	4278.346611
732.404562	4328.450639
732.735506	4325.592305
733.066401	4285.573105
733.397249	4223.599680
733.728048	4142.341321
734.058798	4060.878796
734.389501	3990.658043
734.720156	3932.737706
735.050762	3885.272722
735.381320	3877.912637
735.711831	3828.350533
736.042293	3799.401707
736.372707	3821.910459
736.703073	3791.265285
737.033391	3779.529479
737.363661	3799.585709
737.693883	3825.348526
738.024056	3835.889579
738.354182	3829.905729
738.684260	3891.518712
739.014290	3912.058893
739.344272	3905.752409
739.674207	3951.205973
740.004093	3955.044812
740.333931	3950.074234
740.663722	3950.641364
740.993464	3948.135910
741.323159	3925.617076
741.652806	3893.469638
741.982405	3871.069271
742.311956	3837.086853
742.641460	3826.104699
742.970915	3805.012512
743.300323	3764.385853
743.629683	3729.904360
743.958996	3718.206363
744.288260	3692.534287
744.617477	3659.456756
744.946647	3643.448572
745.275768	3619.180457
745.604842	3619.550982
745.933869	3573.270669
746.262847	3565.237591
746.591778	3604.251080
746.920662	3571.450813
747.249498	3540.024260
747.578286	3585.802978
747.907027	3604.500617
748.235720	3602.249742
748.564365	3625.257568
748.892963	3628.486427
749.221514	3607.457254
749.550017	3587.343050
749.878473	3585.530755
750.206881	3553.763924
750.535242	3551.107236
750.863555	3550.671177
751.191821	3546.469375
751.520039	3529.074873
751.848210	3506.059486
752.176334	3540.238509
752.504411	3547.883418
752.832440	3507.382788
753.160421	3488.125581
753.488356	3500.736027
753.816243	3511.355218
754.144082	3467.920636
754.471875	3451.524283
754.799620	3473.377685
755.127318	3467.945842
755.454969	3462.045171
755.782572	3470.826861
756.110129	3444.806946
756.437638	3437.275462
756.765100	3449.046556
757.092515	3459.985860
757.419882	3466.660348
757.747203	3440.743776
758.074477	3441.968776
758.401703	3457.777835
758.728882	3477.445896
759.056014	3484.483347
759.383099	3487.843276
759.710138	3485.393275
760.037129	3502.581089
760.364073	3531.300543
760.690970	3519.468955
761.017820	3495.722600
761.344623	3515.584746
761.671379	3558.676529
761.998088	3609.302316
762.324751	3739.956421
762.651366	3981.896518
762.977935	4459.520639
763.304456	4904.301643
763.630931	4994.717258
763.957359	4630.851814
764.283740	4291.761121
764.610074	4099.768777
764.936362	3903.078077
765.262602	3743.394488
765.588796	3630.880975
765.914943	3545.042728
766.241044	3456.494861
766.567097	3428.937393
766.893104	3379.889487
767.219064	3350.491998
767.544978	3322.697597
767.870845	3265.863628
768.196665	3246.193046
768.522438	3254.742843
768.848165	3251.808891
769.173846	3213.546534
769.499479	3199.237218
769.825066	3184.189374
770.150607	3164.919564
770.476101	3180.428673
770.801548	3177.310720
771.126949	3126.687453
771.452303	3113.325875
771.777611	3120.587657
772.102872	3123.239304
772.428087	3097.027824
772.753256	3090.746547
773.078378	3083.550299
773.403453	3047.853889
773.728482	3035.339225
774.053465	3057.142215
774.378401	3046.790206
774.703291	3013.165709
775.028135	3012.926255
775.352932	3008.845441
775.677683	2998.105262
776.002388	2995.403204
776.327046	2993.406907
776.651658	2984.758808
776.976224	2976.884525
777.300743	2976.145996
777.625216	2965.453709
777.949643	2963.298616
778.274024	2963.795169
778.598359	2949.911832
778.922647	2959.464818
779.246889	2955.835187
779.571086	2940.560491
779.895236	2933.449944
780.219339	2945.445369
780.543397	2958.050774
780.867409	2964.490848
781.191374	2955.746967
781.515294	2950.441153
781.839167	2951.759414
782.162995	2942.193825
782.486776	2953.939713
782.810511	2951.078859
783.134201	2935.216868
783.457844	2941.742642
783.781441	2933.681837
784.104993	2911.979669
784.428498	2912.158630
784.751958	2928.297884
785.075372	2924.574992
785.398739	2906.028587
785.722061	2919.710279
786.045337	2936.051179
786.368568	2920.965526
786.691752	2911.130235
787.014891	2959.376598
787.337983	2987.972543
787.661030	3016.230731
787.984031	3083.237748
788.306987	3127.302474
788.629897	3119.448356
788.952760	3106.991665
789.275579	3091.666557
789.598351	3031.563400
789.921078	2986.883654
790.243759	2978.268322
790.566395	2957.960034
790.888984	2938.906993
791.211529	2921.930907
791.534027	2907.598907
791.856480	2902.983730
792.178888	2887.262892
792.501249	2878.453476
792.823566	2876.348794
793.145836	2870.874101
793.468062	2870.201107
793.790241	2864.882690
794.112375	2873.180429
794.434464	2885.400186
794.756507	2888.019065
795.078505	2894.131464
795.400457	2907.871129
795.722364	2944.684155
796.044226	2970.883032
796.366042	2971.190542
796.687812	2960.152936
797.009538	2982.283601
797.331218	2966.030921
797.652852	2954.869806
797.974442	2935.539502
798.295986	2934.518668
798.617484	2928.713780
798.938938	2912.461100
799.260346	2894.267575
799.581709	2891.648696
799.903026	2884.969167
800.224299	2878.866850
800.545526	2870.291848
800.866708	2852.821729
801.187845	2841.993331
801.508936	2845.585153
801.829983	2851.455576
802.150984	2840.044925
802.471940	2824.641679
802.792851	2822.821822
803.113717	2824.871052
803.434538	2829.839109
803.755314	2824.828202
804.076045	2818.834270
804.396731	2818.345278
804.717372	2818.095741
805.037967	2815.164310
805.358518	2823.671257
805.679024	2834.119048
805.999485	2824.467759
806.319901	2829.708039
806.640272	2821.722851
806.960598	2830.444047
807.280879	2836.808504
807.601115	2843.656911
807.921306	2830.779284
808.241453	2827.741989
808.561554	2834.590396
808.881611	2836.511076
809.201623	2828.800631
809.521590	2831.422031
809.841513	2825.259220
810.161390	2828.843481
810.481223	2823.872903
810.801011	2813.614155
811.120755	2808.943526
811.440453	2811.774134
811.760107	2812.991572
812.079716	2812.530307
812.399281	2799.955149
812.718801	2792.927780
813.038276	2787.911832
813.357707	2795.312246
813.677093	2801.112093
813.996434	2797.293419
814.315731	2792.292595
814.634983	2790.399642
814.954191	2789.434261
815.273354	2805.152578
815.592473	2812.250523
815.911547	2814.970225
816.230577	2822.199240
816.549562	2828.190651
816.868502	2831.232988
817.187399	2840.082733
817.506250	2856.365660
817.825058	2852.990608
818.143821	2862.783049
818.462539	2881.251316
818.781213	2905.995820
819.099843	2942.266922
819.418429	2998.364882
819.736970	3060.534912
820.055466	3134.128196
820.373919	3238.457395
820.692327	3379.778582
821.010691	3548.342163
821.329011	3992.271212
821.647286	4890.115836
821.965517	6268.332009
822.283704	7012.431523
822.601847	6991.709860
822.919945	6360.350711
823.237999	5856.416808
823.556010	5275.743940
823.873976	4719.518148
824.191897	4310.133606
824.509775	4017.124101
824.827609	3748.163420
825.145398	3618.555354
825.463144	3609.922378
825.780845	3701.973847
826.098502	3805.748520
826.416116	4086.013989
826.733685	4405.986106
827.051210	4468.095642
827.368692	4351.929813
827.686129	4088.307714
828.003522	3759.453084
828.320872	3501.424145
828.638177	3306.550781
828.955439	3168.929802
829.272656	3086.592636
829.589830	3019.935979
829.906960	2969.988227
830.224046	2922.581216
830.541088	2892.198182
830.858086	2875.839638
831.175041	2858.697194
831.491952	2859.463449
831.808819	2870.352342
832.125642	2894.441495
832.442421	2941.324226
832.759157	3020.167872
833.075849	3199.811910
833.392497	3482.066114
833.709101	3684.629758
834.025662	3634.288795
834.342179	3472.689568
834.658653	3299.702373
834.975083	3150.159065
835.291469	3050.117367
835.607811	2967.802887
835.924110	2906.444483
836.240366	2856.857173
836.556578	2813.528455
836.872746	2793.351237
837.188871	2770.973555
837.504952	2753.447984
837.820990	2745.321644
838.136984	2730.740106
838.452935	2723.117882
838.768842	2721.892881
839.084706	2739.163874
839.400526	2817.573981
839.716303	2953.296966
840.032037	3031.485262
840.347727	3016.094620
840.663373	2955.999025
840.978977	2881.619320
841.294537	2808.331026
841.610054	2764.422576
841.925527	2740.756879
842.240957	2716.206460
842.556344	2695.207533
842.871687	2678.682631
843.186987	2673.079389
843.502244	2665.736948
843.817458	2661.099087
844.132629	2651.588950
844.447756	2639.149903
844.762840	2635.275776
845.077881	2638.403812
845.392879	2634.862401
845.707833	2631.656227
846.022745	2622.710700
846.337613	2626.693212
846.652438	2622.448560
846.967221	2626.758747
847.281960	2623.920577
847.596656	2622.090638
847.911309	2618.791203
848.225919	2618.508898
848.540485	2613.608897
848.855009	2615.852210
849.169490	2614.662498
849.483928	2616.379011
849.798323	2614.556634
850.112675	2613.238372
850.426984	2614.206273
850.741251	2611.670573
851.055474	2611.766355
851.369654	2617.230966
851.683792	2614.370111
851.997887	2614.440687
852.311938	2612.101592
852.625947	2615.290122
852.939914	2614.065121
853.253837	2616.568054
853.567718	2611.320213
853.881555	2608.540017
854.195350	2615.335492
854.509103	2614.735595
854.822812	2611.083279
855.136479	2608.628237
855.450103	2613.795419
855.763685	2613.263578
856.077224	2611.060593
856.390720	2607.781323
856.704173	2611.927672
857.017584	2615.453959
857.330953	2616.817591
857.644278	2620.898405
857.957561	2621.566358
858.270802	2613.193002
858.584000	2615.459000
858.897155	2619.159207
859.210268	2619.375977
859.523339	2615.569906
859.836367	2609.409616
860.149352	2610.445573
860.462295	2612.424226
860.775195	2608.419029
861.088054	2608.366097
861.400869	2607.146137
861.713642	2601.817638
862.026373	2606.526076
862.339062	2607.015067
862.651708	2614.450769
862.964312	2614.677621
863.276873	2618.637448
863.589392	2617.538476
863.901869	2623.691204
864.214303	2625.551390
864.526696	2631.167236
864.839045	2628.636576
865.151353	2632.419962
865.463619	2634.386012
865.775842	2633.118162
866.088023	2629.654889
866.400162	2632.979530
866.712258	2630.857205
867.024313	2631.535240
867.336325	2626.143726
867.648296	2627.910650
867.960224	2635.704274
868.272110	2634.154119
868.583954	2626.988119
868.895755	2625.674898
869.207515	2633.342493
869.519233	2639.901035
869.830909	2635.676548
870.142542	2632.331742
870.454134	2634.494397
870.765684	2637.410705
871.077191	2639.379275
871.388657	2646.946047
871.700081	2642.774492
872.011463	2646.215080
872.322803	2644.405306
872.634101	2645.905049
872.945357	2653.892757
873.256571	2661.618325
873.567744	2658.349137
873.878874	2657.298057
874.189963	2656.713283
874.501010	2662.452636
874.812015	2664.884993
875.122979	2666.311640
875.433900	2656.809065
875.744780	2657.431647
876.055618	2665.505055
876.366415	2666.354489
876.677169	2666.760302
876.987882	2662.291319
877.298554	2660.153870
877.609183	2670.727690
877.919771	2677.150120
878.230317	2684.434588
878.540822	2696.185517
878.851285	2707.321426
879.161707	2733.928636
879.472087	2771.132352
879.782425	2819.678663
880.092722	2932.527413
880.402977	3121.661423
880.713191	3382.697410
881.023363	3672.132737
881.333494	3864.351933
881.643583	4040.338614
881.953631	4035.398283
882.263637	3859.560317
882.573602	3636.665699
882.883526	3506.752644
883.193408	3393.697208
883.503248	3293.660551
883.813048	3179.543951
884.122806	3065.792835
884.432522	2977.935606
884.742197	2911.641912
885.051831	2873.767723
885.361424	2838.809842
885.670975	2804.540078
885.980485	2774.015892
886.289954	2753.705083
886.599382	2740.093967
886.908768	2731.037534
887.218113	2710.257898
887.527417	2698.471681
887.836680	2688.076821
888.145901	2687.320648
888.455082	2676.582991
888.764221	2664.895075
889.073319	2656.504075
889.382376	2657.502223
889.691392	2660.105979
890.000366	2658.684374
890.309300	2658.023983
890.618193	2657.744199
890.927044	2660.652944
891.235855	2662.739982
891.544625	2659.526247
891.853353	2658.676812
892.162041	2666.180570
892.470687	2685.163034
892.779293	2699.938656
893.087858	2710.149513
893.396381	2731.629870
893.704864	2774.446910
894.013306	2843.888804
894.321707	2936.903134
894.630068	2985.618324
894.938387	3006.811335
895.246665	3000.051148
895.554903	2955.661268
895.863100	2913.721388
896.171256	2855.717872
896.479371	2793.474745
896.787446	2756.581061
897.095480	2736.320664
897.403473	2725.794734
897.711425	2712.864175
898.019336	2696.535877
898.327207	2682.692869
898.635038	2683.018023
898.942827	2680.691531
899.250576	2671.254491
899.558284	2659.032213
899.865952	2654.369146
900.173579	2649.738846
900.481165	2648.198774
900.788711	2638.678555
901.096216	2635.512710
901.403681	2631.933491
901.711105	2632.563635
902.018489	2629.377626
902.325832	2634.156640
902.633135	2635.943729
902.940397	2648.123157
903.247619	2686.841739
903.554800	2757.664909
903.861941	2884.737274
904.169041	3012.223014
904.476101	3071.196952
904.783121	3066.841395
905.090100	3011.590349
905.397039	2931.791404
905.703938	2857.129395
906.010796	2795.793676
906.317614	2743.915162
906.624391	2709.481561
906.931129	2681.692200
907.237826	2659.722852
907.544483	2641.879687
907.851099	2627.222533
908.157675	2616.900770
908.464211	2611.605038
908.770707	2600.680858
909.077163	2596.960486
909.383578	2595.596854
909.689954	2592.935125
909.996289	2588.299784
910.302584	2588.927408
910.608839	2585.161666
910.915054	2587.049578
911.221229	2589.426482
911.527363	2592.032758
911.833458	2589.093766
912.139513	2591.483272
912.445527	2593.013263
912.751502	2595.745568
913.057436	2604.156733
913.363331	2609.848196
913.669186	2618.098044
913.975000	2633.730662
914.280775	2651.914104
914.586510	2668.242402
914.892205	2703.719522
915.197859	2774.315840
915.503475	2856.176617
915.809050	2923.579364
916.114585	2938.370110
916.420081	2950.216821
916.725536	2960.442802
917.030952	2931.299892
917.336328	2887.865310
917.641665	2839.525686
917.946961	2788.554579
918.252218	2755.197264
918.557435	2731.496279
918.862612	2704.306816
919.167750	2688.903571
919.472848	2672.398833
919.777906	2655.518529
920.082925	2642.540079
920.387904	2630.579941
920.692843	2630.552215
920.997743	2625.425361
921.302603	2618.113168
921.607423	2607.887187
921.912204	2604.207145
922.216946	2603.866867
922.521647	2600.181783
922.826310	2593.451843
923.130932	2593.081318
923.435516	2585.333065
923.740059	2582.872982
924.044564	2581.577405
924.349028	2581.862230
924.653454	2571.583318
924.957840	2571.432083
925.262186	2570.431414
925.566493	2572.268915
925.870761	2563.293140
926.174989	2568.548543
926.479178	2565.070147
926.783328	2562.015208
927.087438	2562.592420
927.391509	2563.257852
927.695541	2560.956565
927.999533	2556.298539
928.303486	2556.706873
928.607400	2558.123437
928.911275	2555.496996
929.215110	2555.756615
929.518906	2554.551779
929.822663	2559.023283
930.126381	2554.375339
930.430060	2555.171841
930.733699	2556.132181
931.037299	2558.383056
931.340861	2558.428427
931.644383	2555.590257
931.947866	2556.169990
932.251309	2555.653272
932.554714	2553.780483
932.858080	2556.810216
933.161407	2554.559341
933.464694	2551.859803
933.767943	2556.512788
934.071153	2551.809392
934.374323	2550.854093
934.677455	2555.590257
934.980548	2551.441387
935.283602	2553.097407
935.586617	2552.043805
935.889593	2551.648075
936.192530	2552.162272
936.495428	2553.911553
936.798287	2554.035061
937.101108	2556.485062
937.403890	2557.959599
937.706632	2560.810372
938.009336	2563.845147
938.312002	2566.958059
938.614628	2572.853688
938.917216	2577.398289
939.219765	2575.152455
939.522275	2577.738567
939.824747	2573.977866
940.127179	2569.405539
940.429573	2567.399160
940.731929	2569.337484
941.034246	2562.274827
941.336524	2566.537123
941.638763	2567.832699
941.940964	2565.528892
942.243126	2565.138203
942.545250	2563.703994
942.847335	2561.669889
943.149381	2559.285423
943.451389	2558.922460
943.753359	2560.041596
944.055290	2558.768705
944.357182	2554.352654
944.659036	2555.991029
944.960851	2558.209137
945.262628	2557.241235
945.564367	2552.187478
945.866067	2558.700649
946.167729	2555.018086
946.469352	2557.571431
946.770937	2556.747202
947.072484	2554.584547
947.373992	2554.944989
947.675462	2555.544887
947.976893	2554.035061
948.278286	2552.651264
948.579641	2553.130174
948.880958	2550.418033
949.182236	2552.946172
949.483476	2553.543549
949.784678	2550.728064
950.085841	2553.543549
950.386967	2553.243600
950.688054	2551.834598
950.989103	2555.459187
951.290114	2553.387273
951.591087	2559.272820
951.892021	2558.385577
952.192917	2555.963303
952.493776	2558.433468
952.794596	2562.438665
953.095378	2559.726524
953.396122	2562.693243
953.696828	2558.909857
953.997496	2559.610577
954.298126	2554.183775
954.598718	2554.347613
954.899272	2551.438867
955.199788	2552.835267
955.500266	2551.511964
955.800706	2546.309493
956.101108	2541.472506
956.401472	2543.834286
956.701798	2542.936961
957.002087	2541.777496
957.302337	2545.255892
957.602550	2542.954605
957.902724	2543.012578
958.202861	2544.459389
958.502960	2540.975952
958.803022	2542.107691
959.103045	2542.115253
959.403031	2541.401930
959.702979	2540.028215
960.002889	2541.527958
960.302762	2541.870757
960.602596	2539.128369
960.902393	2540.333205
961.202153	2539.390509
961.501875	2539.229192
961.801559	2539.604758
962.101205	2539.806404
962.400814	2541.192722
962.700385	2539.188863
962.999918	2536.416228
963.299414	2536.804397
963.598873	2537.341280
963.898293	2537.923533
964.197677	2538.097453
964.497022	2537.888245
964.796331	2537.031249
965.095601	2537.542926
965.394835	2538.339429
965.694030	2535.075282
965.993189	2537.537885
966.292309	2534.886238
966.591393	2535.944881
966.890439	2536.789274
967.189447	2537.805066
967.488419	2536.078471
967.787353	2539.062834
968.086249	2535.655014
968.385108	2539.367824
968.683930	2537.537885
968.982714	2537.008564
969.281462	2537.608461
969.580172	2538.914120
969.878844	2535.284489
970.177480	2537.603420
970.476078	2538.755324
970.774639	2539.524100
971.073162	2537.013605
971.371649	2533.754499
971.670098	2536.305323
971.968510	2537.119469
972.266885	2536.738862
972.565223	2539.708102
972.863524	2541.709440
973.161788	2540.713812
973.460014	2539.019984
973.758204	2538.588966
974.056356	2543.269677
974.354471	2538.271373
974.652550	2539.806404
974.950591	2539.352701
975.248595	2539.014943
975.546563	2538.218441
975.844493	2537.489994
976.142386	2539.819007
976.440243	2538.311702
976.738062	2537.222813
977.035845	2535.425642
977.333590	2535.589479
977.631299	2535.362627
977.928971	2537.827752
978.226606	2534.366999
978.524204	2535.992772
978.821765	2533.694005
979.119290	2536.834644
979.416777	2536.575025
979.714228	2536.610313
980.011642	2536.625436
980.309020	2540.544933
980.606360	2537.656352
980.903664	2537.426980
981.200931	2536.443955
981.498162	2537.666435
981.795356	2540.950746
982.092513	2544.396375
982.389633	2545.820501
982.686717	2549.732436
982.983764	2551.275029
983.280775	2550.511295
983.577749	2552.096737
983.874686	2550.385266
984.171587	2547.174051
984.468451	2545.951571
984.765279	2543.078113
985.062070	2542.868905
985.358824	2540.862526
985.655543	2538.465457
985.952224	2539.307330
986.248869	2537.079140
986.545478	2533.257946
986.842050	2535.188708
987.138586	2530.480270
987.435086	2535.322298
987.731549	2529.466998
988.027975	2535.665097
988.324366	2534.974458
988.620719	2535.919675
988.917037	2535.526465
989.213318	2534.803059
989.509563	2532.461443
989.805772	2535.712988
990.101944	2534.495549
990.398080	2534.009078
990.694180	2533.552853
990.990244	2535.836496
991.286271	2534.634181
991.582262	2533.699047
991.878217	2532.597554
992.174136	2533.814993
992.470019	2535.677699
992.765865	2532.481608
993.061676	2532.761392
993.357450	2531.022194
993.653188	2533.678882
993.948890	2536.091074
994.244556	2533.840199
994.540186	2535.783564
994.835780	2534.122503
995.131337	2532.746268
995.426859	2535.859181
995.722345	2537.525282
996.017795	2537.873122
996.313208	2536.355735
996.608586	2537.575694
996.903928	2537.989068
997.199234	2539.927392
997.494504	2536.900179
997.789738	2537.500077
998.084936	2535.730632
998.380099	2536.161650
998.675225	2536.791794
998.970316	2534.316588
999.265371	2534.828265
999.560390	2531.138140
999.855373	2536.680889
1000.150320	2533.998995
1000.445232	2533.807431
1000.740108	2531.617050
1001.034948	2534.543440
1001.329752	2532.360620
1001.624521	2531.163346
1001.919254	2530.387008
1002.213951	2531.687626
1002.508613	2528.673016
1002.803239	2531.831299
1003.097829	2530.165198
1003.392384	2533.245343
1003.686903	2531.433048
1003.981386	2530.815507
1004.275834	2532.232071
1004.570246	2533.580579
1004.864623	2534.240971
1005.158964	2531.922040
1005.453270	2533.131917
1005.747540	2531.770805
1006.041775	2532.632842
1006.335974	2532.983203
1006.630138	2530.752492
1006.924266	2531.266690
1007.218359	2533.288192
1007.512416	2532.368182
1007.806438	2529.111597
1008.100425	2533.154602
1008.394376	2530.001360
1008.688292	2532.400949
1008.982172	2529.595547
1009.276017	2529.708973
1009.569827	2531.370033
1009.863602	2534.883718
1010.157341	2529.570342
1010.451045	2533.270548
1010.744714	2529.474560
1011.038347	2531.541433
1011.331945	2532.612678
1011.625508	2530.868439
1011.919036	2531.148223
1012.212528	2531.939684
1012.505986	2531.168387
1012.799408	2530.576052
1013.092795	2532.433717
1013.386147	2532.559746
1013.679464	2535.481094
1013.972745	2532.108562
1014.265992	2532.748789
1014.559204	2531.422966
1014.852380	2529.703932
1015.145521	2530.853315
1015.438628	2530.543284
1015.731699	2533.058820
1016.024736	2529.860208
1016.317737	2533.326001
1016.610703	2532.567308
1016.903635	2528.027748
1017.196531	2529.126720
1017.489393	2530.079498
1017.782219	2527.178314
1018.075011	2528.690660
1018.367768	2530.109745
1018.660490	2532.491690
1018.953177	2532.491690
1019.245829	2532.491690
