Dividing Wavelength (nm)	Counts (n)	Blue Motor Position (mm): 41.800000	Red Motor Position (mm): 0.000000	
326.493990	2130.263066
326.888308	2130.263066
327.282561	2130.263066
327.676750	2097.440113
328.070874	2095.597572
328.464933	2098.433221
328.858929	2105.579056
329.252859	2114.779162
329.646726	2126.797273
330.040528	2138.074334
330.434265	2156.414052
330.827938	2173.916938
331.221547	2191.366892
331.615091	2207.899356
332.008571	2230.284599
332.401986	2250.209760
332.795338	2272.063162
333.188625	2288.509926
333.581847	2306.882412
333.975006	2325.990905
334.368100	2343.617300
334.761129	2361.422655
335.154095	2377.725747
335.546996	2399.952194
335.939833	2425.203333
336.332606	2439.328647
336.725315	2453.738785
337.117960	2462.296143
337.510540	2471.251753
337.903056	2480.252733
338.295508	2486.975112
338.687896	2496.535660
339.080220	2504.092350
339.472480	2511.003772
339.864676	2514.731705
340.256807	2519.306552
340.648875	2524.168745
341.040879	2526.119672
341.432818	2528.335259
341.824694	2533.804911
342.216506	2531.183511
342.608253	2531.301978
342.999937	2531.785929
343.391557	2530.160157
343.783113	2529.789632
344.174605	2528.925074
344.566033	2525.517254
344.957397	2525.885258
345.348697	2521.869979
345.739934	2522.225380
346.131106	2520.135822
346.522215	2520.211439
346.913260	2514.449401
347.304241	2514.519977
347.695159	2511.447393
348.086012	2511.248268
348.476802	2509.090654
348.867528	2507.454800
349.258191	2505.818945
349.648789	2507.918586
350.039324	2501.314674
350.429796	2503.031187
350.820203	2501.957421
351.210548	2498.771412
351.600828	2500.107318
351.991045	2499.025990
352.381198	2499.262925
352.771288	2497.173366
353.161314	2493.823520
353.551276	2499.265445
353.941175	2496.407111
354.331010	2495.260248
354.720782	2495.882831
355.110490	2496.828047
355.500135	2497.838799
355.889717	2496.369302
356.279235	2499.255363
356.668689	2498.703357
357.058080	2500.029180
357.447408	2494.972903
357.836672	2497.543891
358.225873	2496.250835
358.615010	2493.344610
359.004084	2502.887514
359.393095	2497.889210
359.782043	2501.786022
360.170927	2500.235867
360.559748	2501.251660
360.948505	2504.755262
361.337199	2506.209635
361.725830	2504.777947
362.114398	2506.217196
362.502903	2504.782988
362.891344	2505.473626
363.279722	2506.466733
363.668037	2505.924809
364.056289	2506.202073
364.444478	2506.882629
364.832603	2508.243740
365.220665	2507.537979
365.608665	2509.012516
365.996601	2512.816067
366.384474	2510.025788
366.772284	2512.579133
367.160031	2509.980418
367.547715	2511.623834
367.935336	2510.605521
368.322893	2513.118536
368.710388	2512.264060
369.097820	2515.989473
369.485189	2512.813546
369.872495	2515.813033
370.259738	2515.719771
370.646918	2514.890502
371.034035	2516.831346
371.421090	2517.562313
371.808081	2513.995697
372.195010	2515.336644
372.581875	2517.156500
372.968678	2518.502488
373.355418	2516.932169
373.742096	2519.508198
374.128710	2519.571213
374.515262	2519.714886
374.901751	2517.630369
375.288177	2519.062056
375.674540	2517.292611
376.060841	2521.328055
376.447079	2522.056502
376.833254	2521.960720
377.219367	2518.454597
377.605417	2520.642458
377.991404	2519.515760
378.377329	2521.564989
378.763191	2520.040040
379.148991	2523.520957
379.534727	2523.551204
379.920402	2522.026255
380.306013	2526.709487
380.691563	2526.049096
381.077049	2527.258973
381.462474	2527.619415
381.847835	2530.767616
382.233134	2531.690147
382.618371	2531.934643
383.003545	2535.765920
383.388657	2542.977290
383.773706	2549.896274
384.158693	2557.243756
384.543618	2561.397666
384.928480	2571.366548
385.313280	2580.430543
385.698017	2593.497213
386.082692	2610.160747
386.467305	2620.719444
386.851856	2633.508852
387.236344	2653.902839
387.620770	2672.353462
388.005133	2691.320804
388.389435	2711.314020
388.773674	2729.721793
389.157851	2753.803385
389.541965	2779.016716
389.926018	2790.013993
390.310008	2828.122596
390.693936	2854.613859
391.077802	2891.227760
391.461606	2913.013106
391.845348	2959.096814
392.229027	2983.964826
392.612645	3016.634023
392.996200	3072.497570
393.379694	3120.685959
393.763125	3178.152592
394.146494	3198.775953
394.529801	3258.160745
394.913047	3315.939930
395.296230	3330.317301
395.679351	3391.158987
396.062410	3442.540947
396.445408	3462.007363
396.828343	3517.402082
397.211217	3567.962334
397.594028	3545.723284
397.976778	3619.719861
398.359466	3674.829755
398.742092	3721.568813
399.124656	3695.997560
399.507158	3784.598359
399.889598	3829.167200
400.271977	3905.190321
400.654294	3913.578801
401.036549	3941.587452
401.418742	3942.237760
401.800874	4052.669277
402.182944	4091.022375
402.564952	4170.231505
402.946898	4181.306920
403.328783	4198.582954
403.710606	4136.465856
404.092367	4330.081452
404.474067	4311.000685
404.855705	4337.711238
405.237282	4282.371972
405.618797	4399.049478
406.000250	4441.027166
406.381642	4531.324314
406.762972	4507.396477
407.144240	4523.825597
407.525447	4531.437740
407.906593	4599.465590
408.287677	4644.137775
408.668700	4583.286007
409.049661	4634.133605
409.430560	4684.091440
409.811399	4614.208445
410.192176	4775.918578
410.572891	4719.140062
410.953545	4823.161751
411.334138	4704.800500
411.714669	4776.425214
412.095139	4672.564842
412.475547	4817.377027
412.855894	4798.109737
413.236180	4808.350841
413.616405	4765.392648
413.996568	4851.722408
414.376670	4793.539931
414.756711	4752.184825
415.136691	4781.063075
415.516609	4860.047874
415.896466	4900.568668
416.276262	4933.532773
416.655997	4916.032408
417.035670	5095.719295
417.415283	5185.900497
417.794834	5127.471003
418.174324	5084.159930
418.553753	4993.411599
418.933121	5178.331204
419.312428	5246.573304
419.691674	5187.022153
420.070859	5311.387419
420.449983	5223.671342
420.829045	5340.978992
421.208047	5245.418879
421.586988	5317.472091
421.965867	5327.380479
422.344686	5461.071879
422.723444	5316.622657
423.102141	5132.857476
423.480777	5431.855872
423.859352	5201.618814
424.237866	5465.349298
424.616319	5453.409325
424.994712	5560.632147
425.373044	5440.360299
425.751314	5585.409418
426.129524	5385.638574
426.507673	5578.036731
426.885762	5662.801212
427.263789	5589.036528
427.641756	5477.221216
428.019662	5595.711016
428.397508	5605.324497
428.775292	5554.061003
429.153016	5651.667824
429.530679	5575.445578
429.908282	5662.491181
430.285824	5531.151479
430.663305	5805.838911
431.040726	5543.325866
431.418086	5542.360485
431.795385	5648.343183
432.172624	5659.058155
432.549802	5651.589686
432.926920	5664.928579
433.303977	5670.725906
433.680974	5715.367844
434.057910	5732.757304
434.434786	5742.791721
434.811601	5705.323345
435.188355	5938.000321
435.565050	5814.071116
435.941683	5797.722654
436.318257	6010.096383
436.694770	5994.047870
437.071222	6028.012644
437.447614	5962.263395
437.823946	5869.017172
438.200218	6029.003230
438.576429	5892.773609
438.952580	5989.699874
439.328670	6036.149066
439.704700	5940.498213
440.080670	5930.882212
440.456580	6201.574529
440.832429	6086.595893
441.208218	5931.320792
441.583947	6089.313074
441.959616	6085.794349
442.335224	6015.523185
442.710773	6151.102497
443.086261	6181.772877
443.461689	5977.964068
443.837057	6124.822962
444.212365	6274.804851
444.587612	6174.271640
444.962800	6324.427449
445.337927	6303.438605
445.712995	5914.606847
446.088002	6494.674776
446.462949	6324.467778
446.837837	6254.597386
447.212664	6427.685403
447.587431	6572.931128
447.962139	7115.598736
448.336786	8038.293727
448.711374	7775.188347
449.085901	6850.827254
449.460369	6770.304903
449.834776	6709.100255
450.209124	7102.194308
450.583412	7252.990343
450.957640	7395.140799
451.331808	7162.073133
451.705917	6716.805658
452.079965	6636.195088
452.453954	6846.196954
452.827883	6726.456947
453.201752	6818.135371
453.575562	6617.341172
453.949311	6821.840619
454.323001	6710.544545
454.696632	6784.256297
455.070202	6922.643532
455.443713	7082.944662
455.817164	7182.610794
456.190556	7261.830006
456.563888	7332.761562
456.937160	7380.675208
457.310373	7033.528752
457.683526	7056.402987
458.056619	6944.154135
458.429653	6941.255472
458.802628	6874.621500
459.175542	6984.846329
459.548398	7336.401275
459.921194	7503.281111
460.293930	7502.759352
460.666607	8033.368520
461.039224	8340.198349
461.411782	8462.756361
461.784280	8477.030388
462.156719	8369.071558
462.529099	8247.022702
462.901419	7838.568253
463.273680	7729.717139
463.645882	7747.507371
464.018024	7610.773634
464.390106	7780.988194
464.762130	8168.945312
465.134094	8645.878795
465.505999	9663.355040
465.877845	10876.780936
466.249631	11527.392251
466.621358	11144.902265
466.993026	10508.438947
467.364634	10258.047357
467.736184	9899.807841
468.107674	9565.546573
468.479105	9601.805072
468.850477	9364.480152
469.221790	9133.234863
469.593043	8804.536509
469.964238	8661.524016
470.335373	8677.653187
470.706449	8738.157116
471.077467	8711.320533
471.448425	10026.340802
471.819324	11098.228742
472.190164	11122.363266
472.560945	9871.080826
472.931667	9084.771731
473.302330	8948.411040
473.672934	8590.363088
474.043479	8955.791289
474.413965	8898.075119
474.784393	8770.717929
475.154761	8938.253115
475.525070	9019.997945
475.895321	8848.056790
476.265513	9029.336683
476.635645	9197.993526
477.005719	9194.673926
477.375734	9315.833018
477.745691	9547.118635
478.115588	9677.666876
478.485427	9929.351523
478.855207	10462.176279
479.224928	11276.783890
479.594591	11910.116651
479.964194	11715.782691
480.333739	11657.320430
480.703226	11570.519322
481.072653	11658.157261
481.442022	11894.834393
481.811333	12081.173083
482.180584	11894.695761
482.549777	11599.972263
482.918912	11429.089751
483.287988	11451.626229
483.657005	11458.489760
484.025964	11135.724844
484.394864	11269.479258
484.763706	11241.820968
485.132489	11001.584781
485.501213	10960.942999
485.869879	11044.230422
486.238487	10884.894673
486.607036	10992.150262
486.975527	10774.495924
487.343959	10964.592794
487.712333	11015.546257
488.080648	10938.535070
488.448905	10992.921558
488.817104	10920.081927
489.185244	11192.677280
489.553326	11346.084632
489.921350	11887.423897
490.289315	12950.404117
490.657222	13281.136577
491.025070	13196.863608
491.392861	13067.605903
491.760593	12685.607429
492.128267	12330.354797
492.495883	12013.533402
492.863440	11675.624859
493.230939	11340.120947
493.598380	11270.827767
493.965763	11134.020934
494.333088	11035.431088
494.700354	10962.818308
495.067563	11017.156906
495.434713	10843.978147
495.801805	10975.469084
496.168839	10905.835626
496.535815	10840.424134
496.902733	10840.225008
497.269593	10768.476786
497.636395	10871.142405
498.003139	10863.247958
498.369825	10727.623276
498.736453	10884.904755
499.103023	10817.323047
499.469535	10832.683442
499.835989	10828.295118
500.202385	10791.850096
500.568723	10645.835596
500.935003	10867.338854
501.301226	10665.574233
501.667390	10926.819429
502.033497	11025.837773
502.399546	10884.806453
502.765537	10792.429829
503.131470	10863.530263
503.497345	11043.544825
503.863163	10657.203398
504.228923	10965.626231
504.594625	11027.403051
504.960269	10777.165215
505.325856	10991.200004
505.691385	10788.883377
506.056856	10949.305495
506.422270	10970.775770
506.787625	10859.653615
507.152924	10974.697787
507.518164	10956.990734
507.883347	10871.054185
508.248472	10798.559872
508.613540	11027.319872
508.978550	10915.509600
509.343503	10890.490353
509.708398	11007.021666
510.073236	11122.176743
510.438016	11127.049018
510.802738	11073.592623
511.167403	11133.053032
511.532010	11027.461024
511.896561	11258.416446
512.261053	11333.605256
512.625488	11194.996210
512.989866	11178.791421
513.354186	11164.466983
513.718449	11068.591798
514.082655	11254.043245
514.446803	11156.222176
514.810894	11285.084150
515.174927	11145.028293
515.538904	11166.637199
515.902822	11321.148565
516.266684	11203.535925
516.630488	11145.618108
516.994235	11202.570544
517.357925	11259.588515
517.721558	11350.820796
518.085133	11374.032789
518.448651	11373.546318
518.812112	11263.760069
519.175516	11275.198448
519.538863	11398.169834
519.902152	11314.375775
520.265385	11472.320166
520.628560	11382.580066
520.991678	11361.243382
521.354739	11423.983062
521.717743	11368.711851
522.080690	11342.069353
522.443580	11475.145733
522.806413	11429.813157
523.169189	11465.514608
523.531908	11520.165757
523.894569	11337.348313
524.257174	11343.422903
524.619722	11462.300872
524.982213	11405.025803
525.344647	11462.353805
525.707025	11416.708677
526.069345	11504.455001
526.431608	11424.557754
526.793815	11531.881398
527.155964	11324.354739
527.518057	11376.450022
527.880093	11320.634367
528.242072	11391.427291
528.603995	11293.649071
528.965860	11220.282638
529.327669	11266.699062
529.689421	11212.776360
530.051117	11188.162926
530.412755	11297.301387
530.774337	11184.734942
531.135862	11165.150059
531.497331	11186.428769
531.858743	11036.048630
532.220098	11207.024403
532.581396	11070.855276
532.942638	11054.640405
533.303824	11023.778461
533.664953	11032.867662
534.026025	10949.524786
534.387040	11050.902389
534.747999	11045.851153
535.108902	11118.350507
535.469748	10871.414627
535.830537	10964.255037
536.191270	10947.621750
536.551947	10970.180913
536.912567	10967.133536
537.273131	10896.242310
537.633638	10879.750175
537.994089	10867.021262
538.354483	10815.157871
538.714821	10961.633637
539.075103	10965.744698
539.435328	10930.897722
539.795497	10760.516804
540.155609	10911.922819
540.515665	11004.939669
540.875665	10744.710267
541.235609	10806.161932
541.595496	10798.214553
541.955328	10960.075921
542.315102	10841.946563
542.674821	10795.981322
543.034483	10793.672473
543.394090	10797.231528
543.753640	10730.378266
544.113134	10947.737697
544.472571	10799.522732
544.831953	10944.037490
545.191278	10749.832079
545.550548	10777.813003
545.909761	10920.026474
546.268918	10889.489684
546.628019	10974.067643
546.987064	10835.695532
547.346053	10764.073338
547.704986	10863.444563
548.063863	10840.711480
548.422684	10839.299957
548.781449	10750.293344
549.140158	10857.281753
549.498811	10733.773483
549.857408	10596.432288
550.215949	10813.776595
550.574434	10672.566314
550.932864	10775.491552
551.291237	10829.447022
551.649555	10778.044896
552.007817	10786.357759
552.366022	10753.751576
552.724173	10749.892573
553.082267	10733.539070
553.440305	10865.347599
553.798288	10669.460963
554.156215	10821.842441
554.514086	10800.931735
554.871902	10645.921295
555.229661	10686.411843
555.587365	10664.172793
555.945014	10546.905472
556.302606	10681.355566
556.660143	10573.016128
557.017625	10725.977339
557.375050	10624.952616
557.732421	10757.504715
558.089735	10665.589357
558.446994	10675.452374
558.804197	10710.170801
559.161345	10707.866994
559.518437	10557.388551
559.875474	10645.936419
560.232455	10673.657724
560.589381	10621.809456
560.946251	10618.678900
561.303065	10729.828780
561.659825	10666.335448
562.016528	10597.939593
562.373177	10476.621705
562.729770	10595.298028
563.086307	10508.814513
563.442789	10601.039902
563.799216	10478.232354
564.155587	10533.248986
564.511904	10485.607562
564.868164	10474.590120
565.224370	10497.308080
565.580520	10417.521738
565.936615	10418.759341
566.292654	10289.763776
566.648638	10416.755482
567.004567	10377.691581
567.360441	10356.818684
567.716260	10273.780798
568.072023	10364.667760
568.427732	10309.956118
568.783385	10224.453107
569.138982	10292.803592
569.494525	10304.418410
569.850013	10186.810812
570.205445	10270.801476
570.560823	10161.148818
570.916145	10079.003216
571.271412	10149.019802
571.626625	10091.240617
571.981782	10073.853677
572.336884	10041.040807
572.691931	10053.565554
573.046923	9999.025310
573.401860	9951.247775
573.756743	9883.192198
574.111570	9927.685422
574.466342	9918.041694
574.821059	9943.300396
575.175722	9838.630918
575.530330	9845.396147
575.884882	9843.525879
576.239380	9768.112738
576.593823	9741.485363
576.948211	9757.649823
577.302544	9642.953491
577.656823	9658.548300
578.011047	9656.332713
578.365216	9634.290268
578.719330	9552.091734
579.073389	9567.971368
579.427394	9515.341722
579.781344	9486.707968
580.135239	9441.292213
580.489080	9448.919479
580.842866	9353.732412
581.196597	9355.206950
581.550273	9394.036437
581.903895	9366.405873
582.257463	9433.425493
582.610975	9307.268097
582.964434	9337.751954
583.317837	9251.860775
583.671186	9239.895597
584.024481	9229.881344
584.377721	9154.460642
584.730906	9132.539184
585.084037	9157.157659
585.437113	9089.759953
585.790135	9113.987738
586.143103	9012.698354
586.496016	8987.941248
586.848874	9049.380310
587.201679	9035.761633
587.554428	8922.756608
587.907124	8965.112383
588.259765	8933.988299
588.612352	8941.267725
588.964884	8817.600659
589.317362	8829.278492
589.669786	8826.495775
590.022155	8881.409064
590.374470	8891.052792
590.726731	8826.702463
591.078937	8679.553703
591.431090	8786.048077
591.783188	8672.987600
592.135232	8665.466198
592.487222	8666.005602
592.839157	8715.872695
593.191038	8644.321078
593.542866	8592.339220
593.894639	8492.947831
594.246358	8544.571767
594.598022	8561.744458
594.949633	8458.748643
595.301190	8430.319056
595.652692	8460.911298
596.004141	8577.626613
596.355535	8347.409720
596.706876	8334.143923
597.058162	8265.415352
597.409395	8335.588214
597.760573	8397.969972
598.111698	8316.361253
598.462768	8296.136144
598.813785	8266.390816
599.164748	8234.964263
599.515657	8221.380873
599.866511	8134.927606
600.217312	8260.679188
600.568060	8116.479503
600.918753	8220.743168
601.269392	8188.603291
601.619978	8100.962832
601.970510	8166.951535
602.320988	8160.856780
602.671412	8215.835604
603.021783	8154.711614
603.372100	8125.467880
603.722363	8129.442830
604.072572	8104.484077
604.422728	8115.040254
604.772830	8044.615334
605.122878	8054.564052
605.472872	8043.871764
605.822813	8075.036177
606.172701	8021.695728
606.522534	8095.099970
606.872314	8095.843540
607.222041	8067.575270
607.571714	8116.650902
607.921333	8079.537928
608.270899	8088.506140
608.620411	8173.187443
608.969870	8077.715551
609.319276	8078.292763
609.668627	8089.214422
610.017926	8124.459650
610.367171	8171.871702
610.716362	8146.136611
611.065500	8137.833831
611.414585	8170.936567
611.763616	8154.451994
612.112594	8140.760221
612.461518	8152.922004
612.810389	8211.623720
613.159207	8149.809092
613.507971	8101.782019
613.856682	8218.976243
614.205340	8174.316661
614.553945	8254.110565
614.902496	8152.332189
615.250994	8208.732618
615.599439	8185.263527
615.947830	8199.098973
616.296169	8171.700302
616.644454	8187.234618
616.992686	8185.613887
617.340864	8240.766631
617.688990	8141.839027
618.037063	8240.814522
618.385082	8189.094804
618.733048	8279.359184
619.080961	8208.593987
619.428821	8232.841937
619.776628	8227.034528
620.124382	8185.303856
620.472083	8170.490425
620.819731	8196.855660
621.167326	8088.559072
621.514868	8097.940660
621.862357	7977.169737
622.209793	8001.515990
622.557176	7931.181811
622.904506	7901.328098
623.251783	7837.194539
623.599007	7786.188144
623.946179	7791.945142
624.293297	7753.491220
624.640363	7670.045001
624.987376	7650.608832
625.334336	7602.468333
625.681243	7553.871610
626.028097	7540.512553
626.374899	7519.760643
626.721647	7508.231524
627.068343	7439.094620
627.414987	7413.669560
627.761577	7362.388423
628.108115	7406.470793
628.454600	7303.762324
628.801032	7350.143460
629.147412	7312.160886
629.493739	7293.312012
629.840014	7234.078454
630.186236	7286.955117
630.532405	7173.882036
630.878521	7228.157619
631.224585	7180.115423
631.570597	7107.477437
631.916556	7140.204608
632.262462	7135.763352
632.608316	7095.663493
632.954117	7069.880512
633.299866	7063.437917
633.645562	7054.568007
633.991206	6976.566234
634.336797	6913.506440
634.682336	6869.872733
635.027823	6845.155956
635.373257	6835.459296
635.718639	6763.587566
636.063968	6776.883609
636.409245	6675.168248
636.754470	6669.824625
637.099642	6629.888604
637.444762	6569.795530
637.789829	6580.944042
638.134845	6524.110073
638.479808	6505.888823
638.824719	6511.504668
639.169577	6446.040244
639.514383	6462.965918
639.859137	6389.803652
640.203839	6399.273460
640.548489	6383.512292
640.893086	6358.477922
641.237632	6337.395817
641.582125	6354.971800
641.926566	6319.169525
642.270955	6335.104612
642.615292	6334.373645
642.959576	6346.858063
643.303809	6337.262226
643.647990	6343.142732
643.992118	6332.558830
644.336195	6275.518174
644.680219	6304.023378
645.024192	6296.575074
645.368112	6391.109311
645.711981	6413.189565
646.055797	6485.998950
646.399562	6449.150636
646.743274	6574.272074
647.086935	6627.441124
647.430544	6617.172294
647.774101	6643.524925
648.117606	6648.435009
648.461059	6638.292208
648.804460	6596.614468
649.147810	6514.635224
649.491108	6476.473690
649.834354	6459.676565
650.177548	6368.524942
650.520690	6286.366737
650.863781	6267.202791
651.206820	6284.219206
651.549807	6206.353543
651.892742	6149.920347
652.235626	6149.935470
652.578458	6139.853162
652.921238	6041.633841
653.263967	6085.227219
653.606644	6024.120873
653.949269	6031.985073
654.291843	5969.686494
654.634365	6017.814389
654.976836	5976.262679
655.319255	5972.317976
655.661622	5950.494821
656.003938	5950.530109
656.346203	5909.686681
656.688416	5942.731444
657.030577	5888.629781
657.372687	5857.109967
657.714746	5855.171643
658.056753	5897.797119
658.398708	5834.613818
658.740612	5819.676879
659.082465	5875.091762
659.424266	5866.506677
659.766016	5861.906624
660.107715	5840.653120
660.449362	5850.412794
660.790958	5849.502865
661.132503	5835.561554
661.473996	5871.583119
661.815438	5858.927303
662.156829	5858.849165
662.498168	5846.924315
662.839456	5820.727959
663.180693	5858.118197
663.521879	5860.399319
663.863013	5850.929512
664.204097	5866.249578
664.545129	5910.183234
664.886110	5902.976905
665.227040	5937.874292
665.567918	5907.075363
665.908746	5933.909425
666.249522	5935.222645
666.590248	5920.386530
666.930922	5952.929698
667.271545	5965.071317
667.612118	5971.047605
667.952639	5942.675991
668.293109	5963.304393
668.633528	5916.671199
668.973896	5918.181025
669.314213	5913.245735
669.654480	5896.151183
669.994695	5890.000975
670.334859	5882.212392
670.674973	5870.499271
671.015035	5875.147215
671.355047	5872.162852
671.695008	5862.151120
672.034918	5832.683056
672.374777	5847.524213
672.714585	5830.104505
673.054342	5833.434188
673.394049	5825.874977
673.733705	5861.888980
674.073310	5841.137071
674.412864	5807.489889
674.752368	5795.028157
675.091820	5799.633251
675.431223	5733.117747
675.770574	5736.815433
676.109875	5687.790212
676.449125	5692.254153
676.788324	5658.004554
677.127473	5602.957675
677.466571	5590.498463
677.805619	5580.960600
678.144616	5570.109516
678.483562	5550.847267
678.822458	5518.805694
679.161303	5516.232185
679.500098	5503.339434
679.838842	5490.671014
680.177535	5487.653883
680.516179	5506.467470
680.854771	5518.891393
681.193314	5600.394248
681.531805	5708.552204
681.870247	5859.464185
682.208638	5960.614937
682.546978	5972.421320
682.885268	5950.830058
683.223508	5860.550554
683.561697	5807.827647
683.899836	5780.943173
684.237925	5738.347944
684.575963	5698.777407
684.913951	5663.675852
685.251889	5718.387495
685.589776	5688.261560
685.927614	5658.067569
686.265401	5730.115739
686.603137	5715.415735
686.940824	5793.334329
687.278460	5818.479605
687.616046	5825.138969
687.953582	5893.968363
688.291068	5874.522112
688.628504	5941.912257
688.965889	5900.690742
689.303224	5843.808882
689.640510	5797.246265
689.977745	5720.650973
690.314930	5622.509790
690.652065	5566.454680
690.989150	5473.785669
691.326185	5398.546448
691.663170	5342.574517
692.000105	5268.585502
692.336990	5186.979303
692.673825	5166.529863
693.010610	5100.221046
693.347345	5027.807391
693.684030	5015.476729
694.020665	4973.509123
694.357251	4879.899938
694.693786	4895.467021
695.030272	4860.345302
695.366707	4821.709899
695.703093	4789.983397
696.039429	4813.107170
696.375716	4791.498264
696.711952	4767.129326
697.048139	4757.452831
697.384276	4737.615891
697.720363	4746.994957
698.056400	4754.597017
698.392388	4705.473494
698.728326	4687.249723
699.064214	4662.560672
699.400053	4659.215866
699.735842	4624.820073
700.071581	4599.284109
700.407270	4573.551539
700.742910	4557.800454
701.078501	4502.839274
701.414042	4499.771732
701.749533	4472.305005
702.084974	4405.358482
702.420366	4463.099858
702.755709	4407.707660
703.091002	4348.133824
703.426246	4397.516967
703.761440	4353.006099
704.096584	4315.159637
704.431679	4335.225950
704.766725	4319.918486
705.101721	4312.288700
705.436668	4338.535467
705.771565	4288.444042
706.106413	4314.635357
706.441212	4345.756920
706.775961	4354.392417
707.110661	4335.931711
707.445311	4361.812995
707.779913	4387.996748
708.114465	4400.975199
708.448967	4423.413374
708.783421	4485.041480
709.117825	4520.334598
709.452180	4526.119322
709.786485	4576.054472
710.120742	4661.302904
710.454949	4643.096777
710.789107	4710.078588
711.123216	4783.838230
711.457275	4772.737610
711.791286	4853.665773
712.125247	4867.423082
712.459159	4772.548566
712.793023	4844.314432
713.126837	4805.084173
713.460602	4804.322959
713.794318	4715.497828
714.127985	4725.416298
714.461602	4638.514368
714.795171	4607.281899
715.128691	4543.677661
715.462162	4487.733456
715.795584	4439.650931
716.128957	4423.156276
716.462281	4370.272051
716.795556	4345.577959
717.128782	4301.636742
717.461960	4236.739448
717.795088	4244.830499
718.128167	4206.101835
718.461198	4147.972290
718.794180	4143.659583
719.127113	4123.779793
719.459997	4100.945886
719.792833	4059.094227
720.125619	4046.589645
720.458357	4011.493132
720.791046	4016.625027
721.123686	3991.328517
721.456278	3950.810242
721.788821	3960.481696
722.121315	3937.637707
722.453761	3915.605345
722.786158	3925.511212
723.118506	3945.370837
723.450805	3900.096235
723.783056	3923.088937
724.115259	3941.385805
724.447412	3944.604582
724.779518	3936.705094
725.111574	3942.101649
725.443582	3974.244046
725.775542	3954.641519
726.107453	4009.885004
726.439315	4006.845188
726.771129	4021.658619
727.102895	4060.236048
727.434612	4105.671968
727.766281	4114.894759
728.097901	4120.687045
728.429473	4121.919607
728.760996	4126.620483
729.092471	4124.243579
729.423897	4107.922843
729.755276	4117.929534
730.086606	4115.572794
730.417887	4153.346160
730.749120	4217.764544
731.080305	4283.128145
731.411442	4311.252743
731.742530	4278.407105
732.073570	4280.660500
732.404562	4340.912371
732.735506	4332.702852
733.066401	4289.124598
733.397249	4227.909867
733.728048	4148.370541
734.058798	4065.040268
734.389501	3991.898167
734.720156	3934.650824
735.050762	3888.781365
735.381320	3882.850448
735.711831	3831.332376
736.042293	3799.210143
736.372707	3822.119667
736.703073	3797.997746
737.033391	3786.304790
737.363661	3801.841626
737.693883	3825.482117
738.024056	3838.848736
738.354182	3835.791276
738.684260	3899.632449
739.014290	3916.989141
739.344272	3914.342536
739.674207	3954.021457
740.004093	3961.452118
740.333931	3955.773258
740.663722	3957.956078
740.993464	3952.549441
741.323159	3933.047737
741.652806	3904.933222
741.982405	3874.257801
742.311956	3841.303778
742.641460	3835.675330
742.970915	3810.981238
743.300323	3767.864249
743.629683	3732.455184
743.958996	3720.963874
744.288260	3697.595605
744.617477	3662.960358
744.946647	3649.205570
745.275768	3625.406282
745.604842	3623.099954
745.933869	3575.735793
746.262847	3567.934608
746.591778	3605.125720
746.920662	3573.457192
747.249498	3546.487019
747.578286	3586.254161
747.907027	3609.957666
748.235720	3607.449692
748.564365	3630.674288
748.892963	3629.832415
749.221514	3614.353552
749.550017	3589.503185
749.878473	3589.137701
750.206881	3557.905232
750.535242	3553.479099
750.863555	3557.509502
751.191821	3550.769479
751.520039	3533.687529
751.848210	3508.791791
752.176334	3540.253632
752.504411	3550.237637
752.832440	3508.012933
753.160421	3493.932990
753.488356	3500.136130
753.816243	3512.350846
754.144082	3470.930205
754.471875	3455.738688
754.799620	3477.531596
755.127318	3467.897951
755.454969	3466.282261
755.782572	3472.036738
756.110129	3448.948254
756.437638	3439.496090
756.765100	3452.645940
757.092515	3462.836633
757.419882	3469.833754
757.747203	3438.404680
758.074477	3444.388530
758.401703	3461.193216
758.728882	3481.410764
759.056014	3488.468379
759.383099	3491.956858
759.710138	3485.821773
760.037129	3506.946729
760.364073	3537.002088
760.690970	3522.357536
761.017820	3500.478928
761.344623	3516.789582
761.671379	3565.179617
761.998088	3612.657204
762.324751	3742.797111
762.651366	3991.724247
762.977935	4465.222184
763.304456	4912.473353
763.630931	5006.216129
763.957359	4642.491838
764.283740	4298.959889
764.610074	4106.166001
764.936362	3909.152668
765.262602	3747.838265
765.588796	3637.051348
765.914943	3550.565312
766.241044	3459.426292
766.567097	3429.948145
766.893104	3382.195815
767.219064	3351.598532
767.544978	3326.680108
767.870845	3269.735234
768.196665	3249.996597
768.522438	3256.623193
768.848165	3256.028337
769.173846	3219.046432
769.499479	3202.355172
769.825066	3182.634178
770.150607	3168.168587
770.476101	3185.195084
770.801548	3177.968590
771.126949	3132.716673
771.452303	3116.859723
771.777611	3121.968933
772.102872	3126.929428
772.428087	3102.802466
772.753256	3093.458687
773.078378	3085.901998
773.403453	3053.429405
773.728482	3037.277548
774.053465	3058.669685
774.378401	3049.013354
774.703291	3016.475227
775.028135	3017.062521
775.352932	3013.780730
775.677683	3001.573576
776.002388	2995.327587
776.327046	3001.041734
776.651658	2987.589415
776.976224	2978.752273
777.300743	2975.089874
777.625216	2968.322125
777.949643	2963.172587
778.274024	2965.980509
778.598359	2953.735547
778.922647	2959.704273
779.246889	2957.982719
779.571086	2943.738939
779.895236	2936.131838
780.219339	2949.354784
780.543397	2961.743420
780.867409	2966.398925
781.191374	2955.900722
781.515294	2954.852162
781.839167	2956.911474
782.162995	2944.676593
782.486776	2955.986422
782.810511	2949.049794
783.134201	2936.782146
783.457844	2944.094340
783.781441	2935.221909
784.104993	2912.798857
784.428498	2915.672315
784.751958	2931.395673
785.075372	2923.992739
785.398739	2908.050090
785.722061	2920.595001
786.045337	2934.702670
786.368568	2920.463931
786.691752	2911.135276
787.014891	2961.879531
787.337983	2991.539159
787.661030	3015.792151
787.984031	3081.798498
788.306987	3129.389511
788.629897	3122.924232
788.952760	3107.710029
789.275579	3095.482711
789.598351	3032.788401
789.921078	2991.150991
790.243759	2981.726553
790.566395	2963.780046
790.888984	2939.869853
791.211529	2922.969385
791.534027	2912.773651
791.856480	2902.136817
792.178888	2887.948489
792.501249	2878.947509
792.823566	2874.024822
793.145836	2872.930892
793.468062	2867.708256
793.790241	2868.343442
794.112375	2877.374669
794.434464	2882.592263
794.756507	2890.070815
795.078505	2897.670354
795.400457	2912.052766
795.722364	2948.165072
796.044226	2970.953608
796.366042	2976.050214
796.687812	2964.178297
797.009538	2981.446769
797.331218	2970.361272
797.652852	2957.226546
797.974442	2936.368772
798.295986	2934.155705
798.617484	2928.517175
798.938938	2914.845565
799.260346	2897.902247
799.581709	2894.907802
799.903026	2886.839435
800.224299	2879.844834
800.545526	2871.907538
800.866708	2858.248531
801.187845	2844.589525
801.508936	2845.038187
801.829983	2852.920032
802.150984	2838.356138
802.471940	2829.030003
802.792851	2829.362720
803.113717	2825.783500
803.434538	2834.187104
803.755314	2824.016576
804.076045	2819.116574
804.396731	2819.368632
804.717372	2819.295535
805.037967	2813.155410
805.358518	2820.696976
805.679024	2835.805314
805.999485	2829.637462
806.319901	2834.991168
806.640272	2824.704693
806.960598	2829.718121
807.280879	2840.791015
807.601115	2845.628002
807.921306	2835.097032
808.241453	2827.731906
808.561554	2838.698937
808.881611	2836.995027
809.201623	2831.482525
809.521590	2830.449088
809.841513	2825.964982
810.161390	2832.009325
810.481223	2824.976916
810.801011	2813.031902
811.120755	2811.837148
811.440453	2814.130873
811.760107	2814.040132
812.079716	2813.541058
812.399281	2801.719552
812.718801	2796.529685
813.038276	2790.689508
813.357707	2795.418110
813.677093	2805.472692
813.996434	2797.023718
814.315731	2794.389715
814.634983	2791.183541
814.954191	2791.987605
815.273354	2807.174081
815.592473	2815.083651
815.911547	2813.001655
816.230577	2823.918273
816.549562	2833.796414
816.868502	2830.466732
817.187399	2842.028619
817.506250	2858.508151
817.825058	2851.692511
818.143821	2864.270189
818.462539	2877.750235
818.781213	2902.973648
819.099843	2943.408743
819.418429	3000.812362
819.736970	3063.375602
820.055466	3137.387302
820.373919	3242.853282
820.692327	3382.039539
821.010691	3554.484809
821.329011	4005.292513
821.647286	4908.342127
821.965517	6297.414426
822.283704	7053.385857
822.601847	7035.131838
822.919945	6394.872532
823.237999	5882.731631
823.556010	5291.840345
823.873976	4732.778904
824.191897	4322.015606
824.509775	4025.759597
824.827609	3752.496291
825.145398	3630.507930
825.463144	3619.992083
825.780845	3710.982389
826.098502	3816.251764
826.416116	4098.405145
826.733685	4419.410698
827.051210	4485.124659
827.368692	4365.992112
827.686129	4096.297943
828.003522	3768.930453
828.320872	3511.309847
828.638177	3313.789878
828.955439	3175.289217
829.272656	3092.405086
829.589830	3023.232894
829.906960	2971.949236
830.224046	2928.756629
830.541088	2893.687843
830.858086	2878.125801
831.175041	2860.728779
831.491952	2860.118799
831.808819	2871.960470
832.125642	2896.331928
832.442421	2940.868002
832.759157	3024.485620
833.075849	3205.919268
833.392497	3487.785303
833.709101	3694.883465
834.025662	3645.704488
834.342179	3483.969149
834.658653	3306.341573
834.975083	3155.280877
835.291469	3055.917215
835.607811	2971.306488
835.924110	2913.020668
836.240366	2860.043182
836.556578	2817.984835
836.872746	2792.199333
837.188871	2772.259049
837.504952	2754.448653
837.820990	2747.396079
838.136984	2733.003584
838.452935	2726.573593
838.768842	2723.997563
839.084706	2741.250912
839.400526	2821.473314
839.716303	2956.021710
840.032037	3038.500028
840.347727	3021.841535
840.663373	2960.941876
840.978977	2882.541852
841.294537	2809.974442
841.610054	2764.553646
841.925527	2739.146230
842.240957	2719.221070
842.556344	2696.311546
842.871687	2678.957374
843.186987	2671.020077
843.502244	2665.540343
843.817458	2661.381391
844.132629	2649.224649
844.447756	2641.320119
844.762840	2635.628657
845.077881	2636.972124
845.392879	2636.591517
845.707833	2634.025570
846.022745	2623.446708
846.337613	2628.210599
846.652438	2625.201030
846.967221	2624.659106
847.281960	2625.027110
847.596656	2623.582820
847.911309	2624.349075
848.225919	2618.594598
848.540485	2615.501850
848.855009	2615.890019
849.169490	2615.751387
849.483928	2614.786006
849.798323	2614.501181
850.112675	2612.928341
850.426984	2611.060593
850.741251	2614.375152
851.055474	2613.709720
851.369654	2620.681636
851.683792	2617.566202
851.997887	2613.003958
852.311938	2613.934051
852.625947	2612.880450
852.939914	2617.437653
853.253837	2615.388424
853.567718	2611.839452
853.881555	2610.135542
854.195350	2615.635441
854.509103	2614.014710
854.822812	2613.901284
855.136479	2611.988166
855.450103	2615.416150
855.763685	2616.741974
856.077224	2612.915738
856.390720	2611.368104
856.704173	2614.667539
857.017584	2615.516973
857.330953	2618.546707
857.644278	2619.181892
857.957561	2622.226749
858.270802	2617.238527
858.584000	2617.719958
858.897155	2618.284567
859.210268	2618.584516
859.523339	2613.366921
859.836367	2610.775768
860.149352	2611.718464
860.462295	2613.997066
860.775195	2608.628237
861.088054	2608.116560
861.400869	2606.959615
861.713642	2606.573967
862.026373	2607.196549
862.339062	2608.832403
862.651708	2615.272477
862.964312	2616.318517
863.276873	2616.021089
863.589392	2618.518981
863.901869	2624.510392
864.214303	2626.874693
864.526696	2629.503655
864.839045	2629.107924
865.151353	2635.306023
865.463619	2632.339304
865.775842	2633.478605
866.088023	2633.423152
866.400162	2634.292751
866.712258	2635.895838
867.024313	2631.920888
867.336325	2626.884775
867.648296	2630.297637
867.960224	2635.850467
868.272110	2633.821403
868.583954	2625.516102
868.895755	2631.328552
869.207515	2634.096146
869.519233	2642.726601
869.830909	2638.567649
870.142542	2632.455250
870.454134	2634.643111
870.765684	2638.933133
871.077191	2641.988072
871.388657	2646.978815
871.700081	2642.794657
872.011463	2643.754997
872.322803	2643.679379
872.634101	2647.649288
872.945357	2655.727737
873.256571	2661.983809
873.567744	2658.666730
873.878874	2654.974085
874.189963	2659.246462
874.501010	2662.613953
874.812015	2665.855415
875.122979	2665.631084
875.433900	2658.117244
875.744780	2658.185300
876.055618	2663.551608
876.366415	2667.723163
876.677169	2668.318019
876.987882	2664.438851
877.298554	2659.574137
877.609183	2673.306241
877.919771	2679.448887
878.230317	2686.924918
878.540822	2697.259283
878.851285	2710.998948
879.161707	2735.428379
879.472087	2776.163423
879.782425	2824.341730
880.092722	2939.471602
880.402977	3132.328504
880.713191	3395.421282
881.023363	3694.550748
881.333494	3891.654823
881.643583	4062.975916
881.953631	4065.491451
882.263637	3882.404305
882.573602	3662.279802
882.883526	3523.975746
883.193408	3408.336718
883.503248	3303.422745
883.813048	3191.191537
884.122806	3070.065213
884.432522	2988.388438
884.742197	2919.617018
885.051831	2882.141080
885.361424	2845.330574
885.670975	2808.837662
885.980485	2776.665018
886.289954	2758.957965
886.599382	2745.722416
886.908768	2732.892679
887.218113	2714.467262
887.527417	2699.883204
887.836680	2691.784590
888.145901	2684.916018
888.455082	2679.700944
888.764221	2667.181239
889.073319	2659.677481
889.382376	2655.962151
889.691392	2660.806700
890.000366	2658.061791
890.309300	2659.523726
890.618193	2660.274858
890.927044	2664.370795
891.235855	2663.339879
891.544625	2664.700991
891.853353	2662.661844
892.162041	2669.119562
892.470687	2689.994980
892.779293	2701.771116
893.087858	2711.069524
893.396381	2734.347052
893.704864	2776.536468
894.013306	2849.272757
894.321707	2943.655760
894.630068	2996.671054
894.938387	3017.291894
895.246665	3009.294103
895.554903	2965.209213
895.863100	2923.171031
896.171256	2863.198944
896.479371	2801.119655
896.787446	2759.373860
897.095480	2738.296796
897.403473	2732.287741
897.711425	2718.343909
898.019336	2700.581403
898.327207	2684.409382
898.635038	2685.402489
898.942827	2682.501305
899.250576	2674.057372
899.558284	2660.983140
899.865952	2656.201606
900.173579	2652.085503
900.481165	2651.389824
900.788711	2642.668628
901.096216	2634.592700
901.403681	2632.261166
901.711105	2636.057155
902.018489	2630.713532
902.325832	2635.525313
902.633135	2635.129582
902.940397	2650.812612
903.247619	2688.825433
903.554800	2761.458377
903.861941	2892.142729
904.169041	3020.946730
904.476101	3086.769076
904.783121	3080.757500
905.090100	3020.586288
905.397039	2944.021243
905.703938	2869.023998
906.010796	2803.478915
906.317614	2749.384814
906.624391	2712.912066
906.931129	2685.586491
907.237826	2660.710918
907.544483	2644.269194
907.851099	2630.826958
908.157675	2617.566202
908.464211	2613.261057
908.770707	2601.731938
909.077163	2597.058789
909.383578	2595.589292
909.689954	2592.882193
909.996289	2589.418920
910.302584	2589.330700
910.608839	2587.352047
910.915054	2589.751636
911.221229	2589.222315
911.527363	2592.095773
911.833458	2590.207861
912.139513	2590.913622
912.445527	2594.374374
912.751502	2600.096084
913.057436	2601.792432
913.363331	2609.061776
913.669186	2620.401852
913.975000	2636.251239
914.280775	2653.827222
914.586510	2673.991837
914.892205	2710.313351
915.197859	2779.273815
915.503475	2865.379243
915.809050	2931.677978
916.114585	2951.709003
916.420081	2961.377936
916.725536	2972.160964
917.030952	2946.461162
917.336328	2899.071795
917.641665	2847.243692
917.946961	2796.305353
918.252218	2761.423089
918.557435	2732.590210
918.862612	2709.229503
919.167750	2691.819878
919.472848	2676.351097
919.777906	2658.003818
920.082925	2646.648619
920.387904	2633.508852
920.692843	2631.136989
920.997743	2624.752367
921.302603	2618.478651
921.607423	2612.615789
921.912204	2607.413319
922.216946	2601.058944
922.521647	2604.045828
922.826310	2598.414859
923.130932	2595.327152
923.435516	2588.388004
923.740059	2584.438260
924.044564	2583.845924
924.349028	2582.333578
924.653454	2575.076837
924.957840	2573.297310
925.262186	2570.154151
925.566493	2570.338153
925.870761	2563.759447
926.174989	2566.390929
926.479178	2566.973182
926.783328	2564.140054
927.087438	2562.410938
927.391509	2562.330280
927.695541	2559.749209
927.999533	2557.279044
928.303486	2557.644527
928.607400	2557.657130
928.911275	2555.585216
929.215110	2557.150494
929.518906	2557.125288
929.822663	2557.498334
930.126381	2557.326935
930.430060	2555.680998
930.733699	2554.324927
931.037299	2558.405742
931.340861	2557.926832
931.644383	2557.717624
931.947866	2557.851215
932.251309	2558.178890
932.554714	2556.127140
932.858080	2557.319373
933.161407	2557.127809
933.464694	2555.534804
933.767943	2557.112686
934.071153	2553.324258
934.374323	2552.784855
934.677455	2557.352140
934.980548	2552.500030
935.283602	2552.255534
935.586617	2555.557490
935.889593	2554.675288
936.192530	2551.693445
936.495428	2551.748898
936.798287	2556.051523
937.101108	2554.304763
937.403890	2559.965979
937.706632	2560.618808
938.009336	2565.168449
938.312002	2569.304716
938.614628	2571.613565
938.917216	2573.987948
939.219765	2578.900552
939.522275	2578.456931
939.824747	2578.451890
940.127179	2570.532237
940.429573	2568.301527
940.731929	2569.029973
941.034246	2564.997050
941.336524	2569.377813
941.638763	2564.356824
941.940964	2566.143913
942.243126	2564.707184
942.545250	2562.214333
942.847335	2560.712069
943.149381	2559.366081
943.451389	2561.122923
943.753359	2560.180228
944.055290	2559.827347
944.357182	2557.805844
944.659036	2557.135371
944.960851	2558.468756
945.262628	2554.035061
945.564367	2557.248797
945.866067	2555.459187
946.167729	2556.089331
946.469352	2555.312994
946.770937	2556.485062
947.072484	2553.538508
947.373992	2556.989177
947.675462	2552.502550
947.976893	2554.455998
948.278286	2557.654610
948.579641	2553.790565
948.880958	2556.023796
949.182236	2554.231666
949.483476	2551.501881
949.784678	2556.346430
950.085841	2550.685214
950.386967	2555.595298
950.688054	2553.346944
950.989103	2555.749053
951.290114	2555.244938
951.591087	2558.488921
951.892021	2558.113355
952.192917	2562.456309
952.493776	2560.351627
952.794596	2561.024621
953.095378	2564.424879
953.396122	2561.125444
953.696828	2561.647203
953.997496	2559.386246
954.298126	2558.128478
954.598718	2559.373643
954.899272	2555.607901
955.199788	2551.769062
955.500266	2551.075904
955.800706	2547.370656
956.101108	2543.312527
956.401472	2544.023330
956.701798	2545.013916
957.002087	2545.268495
957.302337	2547.199257
957.602550	2544.479554
957.902724	2542.009389
958.202861	2544.754297
958.502960	2542.722712
958.803022	2544.066179
959.103045	2542.740356
959.403031	2542.815973
959.702979	2542.881508
960.002889	2539.282124
960.302762	2542.377393
960.602596	2539.876981
960.902393	2540.486960
961.202153	2540.454193
961.501875	2537.578214
961.801559	2539.130890
962.101205	2541.795140
962.400814	2537.671476
962.700385	2541.762372
962.999918	2541.724563
963.299414	2537.230375
963.598873	2538.704912
963.898293	2536.935467
964.197677	2538.977135
964.497022	2536.554860
964.796331	2536.890097
965.095601	2537.663914
965.394835	2539.476209
965.694030	2536.302803
965.993189	2537.537885
966.292309	2536.834644
966.591393	2537.147196
966.890439	2536.138965
967.189447	2536.809438
967.488419	2537.298430
967.787353	2536.322967
968.086249	2538.341949
968.385108	2538.866229
968.683930	2537.938657
968.982714	2537.351363
969.281462	2535.836496
969.580172	2537.893287
969.878844	2536.902700
970.177480	2536.358255
970.476078	2540.454193
970.774639	2538.984696
971.073162	2537.124511
971.371649	2538.704912
971.670098	2532.416073
971.968510	2536.590148
972.266885	2533.298275
972.565223	2537.484953
972.863524	2537.479912
973.161788	2538.969573
973.460014	2539.917310
973.758204	2537.616023
974.056356	2540.020653
974.354471	2540.920499
974.652550	2536.602751
974.950591	2539.713143
975.248595	2539.539223
975.546563	2537.905889
975.844493	2538.160468
976.142386	2537.963863
976.440243	2536.396064
976.738062	2539.554347
977.035845	2536.461599
977.333590	2538.720036
977.631299	2535.105528
977.928971	2537.545447
978.226606	2534.772812
978.524204	2538.362114
978.821765	2538.657021
979.119290	2539.105684
979.416777	2536.690971
979.714228	2535.886907
980.011642	2536.297761
980.309020	2539.723225
980.606360	2535.712987
980.903664	2536.728780
981.200931	2536.960673
981.498162	2537.762217
981.795356	2542.843700
982.092513	2544.529966
982.389633	2546.438042
982.686717	2553.140256
982.983764	2552.056408
983.280775	2554.239228
983.577749	2551.640513
983.874686	2553.414999
984.171587	2547.353012
984.468451	2548.237734
984.765279	2543.085675
985.062070	2543.131045
985.358824	2542.851261
985.655543	2540.355890
985.952224	2536.978317
986.248869	2535.022349
986.545478	2531.879190
986.842050	2532.814324
987.138586	2532.683254
987.435086	2529.890455
987.731549	2530.755013
988.027975	2535.239119
988.324366	2533.522606
988.620719	2534.089736
988.917037	2535.453368
989.213318	2536.781712
989.509563	2534.475384
989.805772	2534.689633
990.101944	2530.752492
990.398080	2536.151568
990.694180	2533.240302
990.990244	2535.675179
991.286271	2533.613347
991.582262	2533.323481
991.878217	2534.351876
992.174136	2532.058151
992.470019	2534.301464
992.765865	2534.979500
993.061676	2533.152081
993.357450	2532.458923
993.653188	2535.100487
993.948890	2533.520086
994.244556	2534.765251
994.540186	2536.436393
994.835780	2533.076464
995.131337	2535.733152
995.426859	2536.796836
995.722345	2535.133255
996.017795	2534.160312
996.313208	2537.442103
996.608586	2535.811290
996.903928	2541.051569
997.199234	2535.849099
997.494504	2538.344470
997.789738	2538.682227
998.084936	2534.427493
998.380099	2534.573687
998.675225	2533.993954
998.970316	2533.809952
999.265371	2533.252904
999.560390	2533.744417
999.855373	2535.012267
1000.150320	2530.956659
1000.445232	2534.984541
1000.740108	2532.547143
1001.034948	2531.864067
1001.329752	2530.649148
1001.624521	2534.636701
1001.919254	2527.662265
1002.213951	2530.926412
1002.508613	2530.820548
1002.803239	2530.205527
1003.097829	2526.744775
1003.392384	2532.348017
1003.686903	2532.257277
1003.981386	2532.511855
1004.275834	2531.702750
1004.570246	2532.262318
1004.864623	2531.783408
1005.158964	2530.896165
1005.453270	2530.581093
1005.747540	2533.053779
1006.041775	2534.669469
1006.335974	2530.429858
1006.630138	2530.999509
1006.924266	2531.980013
1007.218359	2528.723428
1007.512416	2530.477749
1007.806438	2528.753675
1008.100425	2533.227699
1008.394376	2530.717204
1008.688292	2532.332894
1008.982172	2531.470857
1009.276017	2532.209386
1009.569827	2528.912471
1009.863602	2532.332894
1010.157341	2531.022194
1010.451045	2531.642256
1010.744714	2532.600075
1011.038347	2531.612009
1011.331945	2531.609488
1011.625508	2531.753161
1011.919036	2530.268541
1012.212528	2532.615198
1012.505986	2529.824920
1012.799408	2529.938346
1013.092795	2531.927081
1013.386147	2531.438089
1013.679464	2532.814324
1013.972745	2531.730476
1014.265992	2531.612009
1014.559204	2531.054961
1014.852380	2531.165867
1015.145521	2530.951618
1015.438628	2532.269879
1015.731699	2530.941535
1016.024736	2533.807431
1016.317737	2530.901206
1016.610703	2532.244674
1016.903635	2527.495907
1017.196531	2528.199148
1017.489393	2529.051103
1017.782219	2525.691174
1018.075011	2530.437420
1018.367768	2532.048069
1018.660490	2531.826258
1018.953177	2531.826258
1019.245829	2531.826258
