Dividing Wavelength (nm)	Counts (n)	Blue Motor Position (mm): 32.400000	Red Motor Position (mm): 0.000000	
326.493990	2130.003447
326.888308	2130.003447
327.282561	2130.003447
327.676750	2100.006061
328.070874	2097.724938
328.464933	2103.297934
328.858929	2106.761207
329.252859	2117.864348
329.646726	2130.399177
330.040528	2140.715898
330.434265	2156.371202
330.827938	2175.693944
331.221547	2192.009639
331.615091	2212.406147
332.008571	2232.167470
332.401986	2252.450553
332.795338	2270.412184
333.188625	2288.799793
333.581847	2309.526497
333.975006	2327.122644
334.368100	2345.772393
334.761129	2362.708149
335.154095	2375.830273
335.546996	2399.127965
335.939833	2423.330545
336.332606	2440.430139
336.725315	2453.958075
337.117960	2461.751699
337.510540	2470.639253
337.903056	2480.121663
338.295508	2487.890082
338.687896	2497.596823
339.080220	2504.019253
339.472480	2514.577950
339.864676	2515.712210
340.256807	2519.989629
340.648875	2522.913498
341.040879	2527.465660
341.432818	2528.146216
341.824694	2529.192255
342.216506	2529.872811
342.608253	2530.616381
342.999937	2527.536236
343.391557	2530.591175
343.783113	2526.510361
344.174605	2529.943387
344.566033	2525.116482
344.957397	2524.239321
345.348697	2524.214116
345.739934	2518.996521
346.131106	2520.256810
346.522215	2518.172293
346.913260	2512.753052
347.304241	2513.814215
347.695159	2512.105264
348.086012	2510.141735
348.476802	2507.568226
348.867528	2506.779285
349.258191	2506.131497
349.648789	2504.256188
350.039324	2504.500683
350.429796	2502.547236
350.820203	2499.285610
351.210548	2500.553460
351.600828	2499.537668
351.991045	2497.380054
352.381198	2496.255876
352.771288	2498.524396
353.161314	2493.707573
353.551276	2497.737976
353.941175	2494.844353
354.331010	2495.910557
354.720782	2495.890393
355.110490	2495.540032
355.500135	2494.753613
355.889717	2495.613129
356.279235	2495.958448
356.668689	2498.657986
357.058080	2495.643376
357.447408	2495.797131
357.836672	2495.555156
358.225873	2494.584734
358.615010	2494.473828
359.004084	2496.989364
359.393095	2499.041114
359.782043	2499.262925
360.170927	2499.429283
360.559748	2501.652432
360.948505	2501.014726
361.337199	2501.813748
361.725830	2503.792401
362.114398	2505.549243
362.502903	2504.137720
362.891344	2503.774757
363.279722	2505.198883
363.668037	2507.051507
364.056289	2503.126969
364.444478	2504.631753
364.832603	2504.984634
365.220665	2506.025633
365.608665	2506.658297
365.996601	2505.413132
366.384474	2507.190139
366.772284	2505.080416
367.160031	2509.554440
367.547715	2508.173164
367.935336	2510.298010
368.322893	2508.634430
368.710388	2509.491426
369.097820	2512.712723
369.485189	2512.080058
369.872495	2510.040912
370.259738	2509.090654
370.646918	2510.774399
371.034035	2508.397495
371.421090	2511.676766
371.808081	2510.154338
372.195010	2509.234327
372.581875	2512.795902
372.968678	2512.695079
373.355418	2514.981242
373.742096	2512.551406
374.128710	2513.065604
374.515262	2511.462517
374.901751	2513.383197
375.288177	2513.337826
375.674540	2514.998886
376.060841	2515.470234
376.447079	2515.021572
376.833254	2516.823784
377.219367	2511.696931
377.605417	2515.182888
377.991404	2512.402692
378.377329	2515.908815
378.763191	2510.174502
379.148991	2518.126922
379.534727	2517.022910
379.920402	2517.653054
380.306013	2516.533918
380.691563	2518.026099
381.077049	2518.429392
381.462474	2517.900070
381.847835	2517.900070
382.233134	2518.462159
382.618371	2521.234794
383.003545	2520.339989
383.388657	2520.420647
383.773706	2519.004083
384.158693	2516.964936
384.543618	2521.796882
384.928480	2521.691018
385.313280	2521.786800
385.698017	2520.377798
386.082692	2520.723117
386.467305	2521.922911
386.851856	2520.634896
387.236344	2521.244876
387.620770	2523.493231
388.005133	2523.107582
388.389435	2522.958868
388.773674	2522.674043
389.157851	2519.311593
389.541965	2524.514064
389.926018	2521.529701
390.310008	2524.231760
390.693936	2526.084384
391.077802	2523.331914
391.461606	2527.841226
391.845348	2523.629342
392.229027	2527.188396
392.612645	2524.592202
392.996200	2524.251924
393.379694	2525.965917
393.763125	2528.297450
394.146494	2527.410207
394.529801	2529.156967
394.913047	2525.865093
395.296230	2526.671678
395.679351	2524.521626
396.062410	2527.495907
396.445408	2528.191586
396.828343	2528.723428
397.211217	2525.494569
397.594028	2526.011287
397.976778	2526.165042
398.359466	2529.847605
398.742092	2525.849970
399.124656	2532.405991
399.507158	2531.937163
399.889598	2530.886083
400.271977	2532.826927
400.654294	2534.858512
401.036549	2531.085208
401.418742	2533.706608
401.800874	2533.696526
402.182944	2529.872811
402.564952	2530.656710
402.946898	2533.961187
403.328783	2534.982020
403.710606	2533.888090
404.092367	2536.312885
404.474067	2534.598893
404.855705	2533.000847
405.237282	2538.742721
405.618797	2534.157792
406.000250	2540.865047
406.381642	2536.116280
406.762972	2537.724408
407.144240	2535.856660
407.525447	2541.462423
407.906593	2538.198276
408.287677	2536.708615
408.668700	2538.021836
409.049661	2538.107536
409.430560	2539.947557
409.811399	2542.326981
410.192176	2541.843031
410.572891	2543.325130
410.953545	2545.238248
411.334138	2543.355377
411.714669	2546.995090
412.095139	2546.548948
412.475547	2548.144473
412.855894	2552.820143
413.236180	2554.624876
413.616405	2556.026317
413.996568	2561.039744
414.376670	2563.764488
414.756711	2568.553584
415.136691	2573.531724
415.516609	2582.847776
415.896466	2588.473704
416.276262	2598.220775
416.655997	2602.460385
417.035670	2614.299535
417.415283	2627.958541
417.794834	2637.065386
418.174324	2646.353712
418.553753	2657.489620
418.933121	2677.074503
419.312428	2695.930939
419.691674	2706.807228
420.070859	2729.830178
420.449983	2741.742425
420.829045	2764.125148
421.208047	2777.627878
421.586988	2802.105201
421.965867	2825.392811
422.344686	2863.811444
422.723444	2869.954090
423.102141	2871.814276
423.480777	2929.243101
423.859352	2927.289654
424.237866	2990.833398
424.616319	3018.771473
424.994712	3067.484142
425.373044	3082.080803
425.751314	3139.912920
426.129524	3134.854122
426.507673	3210.385730
426.885762	3261.772732
427.263789	3290.298101
427.641756	3289.718368
428.019662	3364.027497
428.397508	3411.489960
428.775292	3439.990123
429.153016	3510.331863
429.530679	3532.308774
429.908282	3600.003908
430.285824	3600.450050
430.663305	3747.140065
431.040726	3700.282540
431.418086	3740.493304
431.795385	3834.193231
432.172624	3884.599728
432.549802	3931.835339
432.926920	3987.177126
433.303977	4040.383985
433.680974	4104.867904
434.057910	4162.755474
434.434786	4216.083320
434.811601	4253.773506
435.188355	4425.840690
435.565050	4404.703132
435.941683	4447.552940
436.318257	4628.369046
436.694770	4671.009646
437.071222	4738.130088
437.447614	4750.944702
437.823946	4737.910798
438.200218	4894.025251
438.576429	4849.199311
438.952580	4961.299449
439.328670	5038.703845
439.704700	5017.541082
440.080670	5048.092994
440.456580	5295.472496
440.832429	5257.016054
441.208218	5177.910268
441.583947	5340.147201
441.959616	5377.076174
442.335224	5360.268967
442.710773	5508.705742
443.086261	5570.651440
443.461689	5431.170275
443.837057	5592.378813
444.212365	5756.864102
444.587612	5695.636768
444.962800	5860.984093
445.337927	5869.052460
445.712995	5553.738369
446.088002	6099.029898
446.462949	5968.799251
446.837837	5932.664260
447.212664	6113.130006
447.587431	6272.831239
447.962139	6789.927595
448.336786	7678.645209
448.711374	7451.155580
449.085901	6613.656089
449.460369	6562.813532
449.834776	6516.553383
450.209124	6907.378918
450.583412	7071.917138
450.957640	7217.059519
451.331808	7004.350553
451.705917	6589.052738
452.079965	6523.575711
452.453954	6738.507826
452.827883	6630.359952
453.201752	6729.423666
453.575562	6535.364449
453.949311	6741.656026
454.323001	6643.325800
454.696632	6722.446709
455.070202	6865.560026
455.443713	7020.048706
455.817164	7126.013760
456.190556	7206.868827
456.563888	7292.114738
456.937160	7335.146027
457.310373	6998.974162
457.683526	7023.600199
458.056619	6919.777636
458.429653	6912.818323
458.802628	6844.276274
459.175542	6954.516227
459.548398	7309.325237
459.921194	7473.669373
460.293930	7470.488405
460.666607	8003.918099
461.039224	8311.975449
461.411782	8437.936240
461.784280	8451.580123
462.156719	8346.635903
462.529099	8228.650217
462.901419	7817.740726
463.273680	7713.734161
463.645882	7724.759164
464.018024	7598.095133
464.390106	7761.478929
464.762130	8148.304307
465.134094	8620.015155
465.505999	9637.584662
465.877845	10853.142965
466.249631	11497.830925
466.621358	11123.187494
466.993026	10493.252472
467.364634	10239.006918
467.736184	9878.871929
468.107674	9544.265342
468.479105	9581.398482
468.850477	9342.858643
469.221790	9116.173078
469.593043	8784.881050
469.964238	8650.451121
470.335373	8665.221702
470.706449	8720.024086
471.077467	8701.197897
471.448425	10013.465695
471.819324	11076.319887
472.190164	11091.503843
472.560945	9854.296304
472.931667	9068.352693
473.302330	8937.444010
473.672934	8583.194567
474.043479	8934.908309
474.413965	8881.048622
474.784393	8760.643183
475.154761	8913.972397
475.525070	9005.408846
475.895321	8841.440276
476.265513	9008.546964
476.635645	9177.012243
477.005719	9175.804887
477.375734	9287.113564
477.745691	9522.830356
478.115588	9661.260441
478.485427	9902.484693
478.855207	10439.143247
479.224928	11254.771692
479.594591	11883.181766
479.964194	11688.787312
480.333739	11625.447734
480.703226	11542.997143
481.072653	11630.183898
481.442022	11863.589322
481.811333	12056.342880
482.180584	11864.491688
482.549777	11573.329765
482.918912	11399.934238
483.287988	11421.086919
483.657005	11430.302148
484.025964	11116.427307
484.394864	11243.005639
484.763706	11213.156967
485.132489	10975.453960
485.501213	10939.427354
485.869879	11007.450164
486.238487	10851.681031
486.607036	10966.997425
486.975527	10748.478529
487.343959	10941.196799
487.712333	10987.731691
488.080648	10912.200082
488.448905	10960.814450
488.817104	10894.072093
489.185244	11166.690132
489.553326	11317.972638
489.921350	11854.711850
490.289315	12910.909198
490.657222	13253.314449
491.025070	13165.316068
491.392861	13041.953992
491.760593	12656.366217
492.128267	12305.201960
492.495883	11981.166673
492.863440	11645.768626
493.230939	11311.555249
493.598380	11242.130999
493.965763	11112.207861
494.333088	11015.558860
494.700354	10934.938207
495.067563	10994.759059
495.434713	10827.995169
495.801805	10952.683068
496.168839	10879.344362
496.535815	10819.594086
496.902733	10817.933026
497.269593	10746.855278
497.636395	10849.956956
498.003139	10833.714358
498.369825	10706.634432
498.736453	10861.985149
499.103023	10784.903386
499.469535	10817.645680
499.835989	10804.422734
500.202385	10765.315983
500.568723	10618.023550
500.935003	10842.904382
501.301226	10654.912193
501.667390	10907.436192
502.033497	11006.512509
502.399546	10869.993022
502.765537	10773.359144
503.131470	10842.286840
503.497345	11017.620692
503.863163	10633.487289
504.228923	10943.102356
504.594625	11001.685604
504.960269	10752.977759
505.325856	10977.155350
505.691385	10760.307597
506.056856	10926.053173
506.422270	10944.397932
506.787625	10830.949285
507.152924	10954.167688
507.518164	10928.767835
507.883347	10853.243788
508.248472	10773.583475
508.613540	11006.136943
508.978550	10887.901721
509.343503	10866.365912
509.708398	10985.974848
510.073236	11097.306211
510.438016	11101.079514
510.802738	11049.274097
511.167403	11107.582603
511.532010	10998.731488
511.896561	11230.617003
512.261053	11303.065946
512.625488	11175.244970
512.989866	11155.735704
513.354186	11145.305557
513.718449	11045.715042
514.082655	11236.149670
514.446803	11133.650409
514.810894	11257.526683
515.174927	11123.179933
515.538904	11143.306739
515.902822	11296.527569
516.266684	11183.225116
516.630488	11126.010541
516.994235	11184.303923
517.357925	11245.190979
517.721558	11328.100316
518.085133	11346.533295
518.448651	11354.445386
518.812112	11238.569424
519.175516	11249.589386
519.538863	11377.049920
519.902152	11297.440018
520.265385	11452.112701
520.628560	11366.992818
520.991678	11338.069198
521.354739	11404.448591
521.717743	11338.580875
522.080690	11319.076651
522.443580	11455.220572
522.806413	11407.957234
523.169189	11434.337592
523.531908	11488.933288
523.894569	11317.871815
524.257174	11322.784419
524.619722	11441.987543
524.982213	11382.716177
525.344647	11435.812130
525.707025	11384.861188
526.069345	11481.001033
526.431608	11402.084290
526.793815	11507.451967
527.155964	11299.602673
527.518057	11350.188132
527.880093	11297.800461
528.242072	11367.852335
528.603995	11274.127202
528.965860	11194.489574
529.327669	11248.694581
529.689421	11195.923783
530.051117	11170.448312
530.412755	11264.869123
530.774337	11158.972125
531.135862	11137.118723
531.497331	11162.014461
531.858743	11015.057265
532.220098	11181.599344
532.581396	11055.797350
532.942638	11037.606346
533.303824	11001.420944
533.664953	11014.265804
534.026025	10928.210787
534.387040	11029.911025
534.747999	11033.487723
535.108902	11087.768347
535.469748	10844.562921
535.830537	10949.486977
536.191270	10922.957905
536.551947	10942.479773
536.912567	10953.043511
537.273131	10871.883455
537.633638	10850.529127
537.994089	10841.339103
538.354483	10795.588112
538.714821	10937.095821
539.075103	10947.518406
539.435328	10910.377705
539.795497	10741.801521
540.155609	10898.251210
540.515665	10984.457461
540.875665	10720.210259
541.235609	10786.645105
541.595496	10784.719384
541.955328	10936.997518
542.315102	10821.061062
542.674821	10780.048755
543.034483	10771.236818
543.394090	10775.773857
543.753640	10706.881448
544.113134	10927.794892
544.472571	10775.231933
544.831953	10923.583008
545.191278	10730.017824
545.550548	10755.165620
545.909761	10892.756352
546.268918	10864.238545
546.628019	10953.610641
546.987064	10816.720629
547.346053	10737.156097
547.704986	10836.202168
548.063863	10827.380148
548.422684	10815.321708
548.781449	10727.429191
549.140158	10835.062867
549.498811	10718.246729
549.857408	10568.826929
550.215949	10803.379215
550.574434	10652.721812
550.932864	10749.234702
551.291237	10808.241408
551.649555	10757.595456
552.007817	10769.260686
552.366022	10732.805582
552.724173	10720.943747
553.082267	10707.866994
553.440305	10848.893273
553.798288	10650.677624
554.156215	10802.275202
554.514086	10777.079515
554.871902	10620.531524
555.229661	10663.401496
555.587365	10644.290482
555.945014	10536.361899
556.302606	10658.433439
556.660143	10555.162882
557.017625	10708.121572
557.375050	10608.606674
557.732421	10738.829761
558.089735	10646.120421
558.446994	10651.015381
558.804197	10693.915600
559.161345	10693.953409
559.518437	10542.935563
559.875474	10623.316761
560.232455	10656.182564
560.589381	10608.062230
560.946251	10601.140726
561.303065	10711.136182
561.659825	10649.964301
562.016528	10578.243805
562.373177	10456.338622
562.729770	10576.955790
563.086307	10491.946813
563.442789	10580.308157
563.799216	10461.268871
564.155587	10506.084729
564.511904	10465.692483
564.868164	10448.640781
565.224370	10471.827568
565.580520	10395.552389
565.936615	10394.642461
566.292654	10268.505230
566.648638	10395.905270
567.004567	10355.596204
567.360441	10340.714718
567.716260	10243.894317
568.072023	10344.601447
568.427732	10294.378952
568.783385	10201.112565
569.138982	10276.709708
569.494525	10292.589343
569.850013	10169.983440
570.205445	10249.086706
570.560823	10144.018977
570.916145	10067.932842
571.271412	10132.973809
571.626625	10074.995499
571.981782	10055.294669
572.336884	10035.258603
572.691931	10036.871773
573.046923	9978.966559
573.401860	9939.358213
573.756743	9872.638542
574.111570	9916.526828
574.466342	9900.140557
574.821059	9930.384959
575.175722	9816.406992
575.530330	9831.333848
575.884882	9817.173247
576.239380	9743.272452
576.593823	9726.303928
576.948211	9742.440662
577.302544	9622.322568
577.656823	9643.525662
578.011047	9639.802769
578.365216	9614.783523
578.719330	9539.640084
579.073389	9546.382627
579.427394	9497.422941
579.781344	9479.617585
580.135239	9418.264222
580.489080	9434.441285
580.842866	9339.922171
581.196597	9341.825207
581.550273	9382.431701
581.903895	9353.553451
582.257463	9408.938088
582.610975	9283.617524
582.964434	9321.474069
583.317837	9244.099919
583.671186	9222.743071
584.024481	9219.683090
584.377721	9132.249318
584.730906	9115.300959
585.084037	9148.133994
585.437113	9081.202594
585.790135	9097.180531
586.143103	9005.005554
586.496016	8976.659146
586.848874	9034.793732
587.201679	9016.791771
587.554428	8909.314371
587.907124	8955.405641
588.259765	8921.176206
588.612352	8919.615969
588.964884	8801.174060
589.317362	8814.911204
589.669786	8821.298346
590.022155	8867.747537
590.374470	8879.732881
590.726731	8814.701996
591.078937	8671.548350
591.431090	8784.939024
591.783188	8656.175352
592.135232	8649.699989
592.487222	8649.763004
592.839157	8699.705715
593.191038	8635.078123
593.542866	8576.205008
593.894639	8476.498546
594.246358	8530.045682
594.598022	8546.068990
594.949633	8448.333620
595.301190	8421.781862
595.652692	8449.069628
596.004141	8561.300836
596.355535	8335.197524
596.706876	8320.437026
597.058162	8243.897187
597.409395	8330.587389
597.760573	8392.830516
598.111698	8303.740724
598.462768	8288.365205
598.813785	8257.982171
599.164748	8220.423054
599.515657	8206.350673
599.866511	8118.616952
600.217312	8242.853668
600.568060	8104.441228
600.918753	8208.931744
601.269392	8177.550561
601.619978	8096.012418
601.970510	8152.715317
602.320988	8157.232191
602.671412	8205.108029
603.021783	8142.265005
603.372100	8119.904967
603.722363	8119.095862
604.072572	8091.508147
604.422728	8105.391485
604.772830	8037.416567
605.122878	8049.585912
605.472872	8036.544447
605.822813	8070.438645
606.172701	8011.631065
606.522534	8088.639731
606.872314	8080.926766
607.222041	8053.147487
607.571714	8115.035212
607.921333	8070.017709
608.270899	8078.557423
608.620411	8167.231319
608.969870	8071.895538
609.319276	8059.343065
609.668627	8076.278822
610.017926	8114.878937
610.367171	8163.952049
610.716362	8133.589179
611.065500	8126.599619
611.414585	8156.249166
611.763616	8145.226683
612.112594	8128.916030
612.461518	8142.227196
612.810389	8205.309675
613.159207	8141.917165
613.507971	8092.435720
613.856682	8208.984676
614.205340	8161.885176
614.553945	8242.505829
614.902496	8135.754355
615.250994	8194.057820
615.599439	8180.512239
615.947830	8193.339455
616.296169	8166.291144
616.644454	8175.660129
616.992686	8174.001589
617.340864	8234.765137
617.688990	8140.059500
618.037063	8230.394457
618.385082	8172.479161
618.733048	8261.029548
619.080961	8197.984878
619.428821	8224.045123
619.776628	8220.385246
620.124382	8175.271960
620.472083	8154.699011
620.819731	8185.205553
621.167326	8075.923420
621.514868	8084.775687
621.862357	7971.939540
622.209793	7992.734300
622.557176	7928.482273
622.904506	7894.341059
623.251783	7829.761357
623.599007	7781.862834
623.946179	7786.137733
624.293297	7740.845486
624.640363	7662.503435
624.987376	7648.821743
625.334336	7596.887776
625.681243	7539.456431
626.028097	7529.938733
626.374899	7513.302925
626.721647	7500.833631
627.068343	7433.393075
627.414987	7408.562871
627.761577	7359.477156
628.108115	7397.757158
628.454600	7284.414376
628.801032	7341.001327
629.147412	7300.979607
629.493739	7289.805890
629.840014	7219.844757
630.186236	7281.621576
630.532405	7166.615213
630.878521	7218.793676
631.224585	7171.794999
631.570597	7105.279494
631.916556	7127.773123
632.262462	7127.032073
632.608316	7092.490087
632.954117	7069.086530
633.299866	7053.312760
633.645562	7044.389918
633.991206	6968.495346
634.336797	6909.927221
634.682336	6870.127311
635.027823	6833.258833
635.373257	6825.694581
635.718639	6754.027018
636.063968	6769.175685
636.409245	6666.315982
636.754470	6663.626526
637.099642	6613.981243
637.444762	6566.715385
637.789829	6575.534883
638.134845	6519.235277
638.479808	6499.330281
638.824719	6508.250603
639.169577	6438.440705
639.514383	6458.199507
639.859137	6381.483228
640.203839	6389.657459
640.548489	6381.100100
640.893086	6353.651017
641.237632	6327.799981
641.582125	6349.786973
641.926566	6317.977292
642.270955	6324.107335
642.615292	6325.672614
642.959576	6340.395303
643.303809	6330.335681
643.647990	6331.890877
643.992118	6325.738149
644.336195	6272.443070
644.680219	6299.927441
645.024192	6290.742459
645.368112	6387.275514
645.711981	6406.406692
646.055797	6484.380740
646.399562	6441.782990
646.743274	6569.011630
647.086935	6620.426358
647.430544	6609.050995
647.774101	6634.965046
648.117606	6647.089021
648.461059	6635.443956
648.804460	6597.955415
649.147810	6499.557133
649.491108	6477.522250
649.834354	6456.122552
650.177548	6367.826742
650.520690	6281.222240
650.863781	6261.201297
651.206820	6282.359020
651.549807	6192.717222
651.892742	6138.169417
652.235626	6146.444471
652.578458	6136.183202
652.921238	6041.349016
653.263967	6082.489873
653.606644	6018.414287
653.949269	6021.428897
654.291843	5962.759948
654.634365	6014.378843
654.976836	5968.622810
655.319255	5965.358663
655.661622	5944.891578
656.003938	5941.950065
656.346203	5900.763838
656.688416	5933.516215
657.030577	5885.554677
657.372687	5854.574266
657.714746	5844.199572
658.056753	5883.538216
658.398708	5824.992775
658.740612	5817.925078
659.082465	5866.680597
659.424266	5853.901272
659.766016	5861.475606
660.107715	5831.200956
660.449362	5847.168811
660.790958	5839.992729
661.132503	5827.984700
661.473996	5867.214959
661.815438	5852.893041
662.156829	5850.614440
662.498168	5836.597512
662.839456	5815.835519
663.180693	5852.719122
663.521879	5852.416652
663.863013	5843.158573
664.204097	5862.748497
664.545129	5902.490433
664.886110	5895.334516
665.227040	5928.343991
665.567918	5897.751749
665.908746	5925.442807
666.249522	5927.237458
666.590248	5917.457619
666.930922	5946.769408
667.271545	5956.975224
667.612118	5960.100740
667.952639	5930.138642
668.293109	5953.907682
668.633528	5909.754736
668.973896	5917.434934
669.314213	5904.990846
669.654480	5889.590121
669.994695	5880.916816
670.334859	5870.287543
670.674973	5861.246233
671.015035	5863.875195
671.355047	5865.135483
671.695008	5852.756930
672.034918	5826.918496
672.374777	5834.026523
672.714585	5821.458927
673.054342	5821.605120
673.394049	5817.751158
673.733705	5851.723494
674.073310	5834.838149
674.412864	5799.023271
674.752368	5788.046159
675.091820	5787.365603
675.431223	5729.926696
675.770574	5728.714299
676.109875	5680.866187
676.449125	5683.674110
676.788324	5650.369727
677.127473	5593.074493
677.466571	5586.929326
677.805619	5576.020269
678.144616	5565.143980
678.483562	5544.026586
678.822458	5509.910578
679.161303	5504.012428
679.500098	5496.783413
679.838842	5477.329600
680.177535	5482.055682
680.516179	5498.930945
680.854771	5510.044168
681.193314	5588.978555
681.531805	5701.368560
681.870247	5848.766857
682.208638	5953.811900
682.546978	5964.027798
682.885268	5940.135250
683.223508	5856.794894
683.561697	5799.348426
683.899836	5771.576709
684.237925	5732.038940
684.575963	5687.535633
684.913951	5646.944263
685.251889	5713.217792
685.589776	5677.385270
685.927614	5653.313761
686.265401	5728.212704
686.603137	5708.015321
686.940824	5783.158760
687.278460	5810.922915
687.616046	5818.537578
687.953582	5885.703391
688.291068	5864.855699
688.628504	5928.462458
688.965889	5893.552468
689.303224	5838.616494
689.640510	5788.066323
689.977745	5712.151588
690.314930	5611.643583
690.652065	5561.274894
690.989150	5466.818795
691.326185	5385.562956
691.663170	5337.092262
692.000105	5262.203401
692.336990	5180.511503
692.673825	5158.504346
693.010610	5085.145475
693.347345	5021.097616
693.684030	5005.243187
694.020665	4964.266168
694.357251	4871.735789
694.693786	4884.202562
695.030272	4851.258622
695.366707	4818.160926
695.703093	4783.850833
696.039429	4806.379750
696.375716	4792.025064
696.711952	4759.474334
697.048139	4750.012088
697.384276	4729.993666
697.720363	4740.559925
698.056400	4752.305813
698.392388	4696.530487
698.728326	4680.524823
699.064214	4657.116226
699.400053	4654.724198
699.735842	4621.586173
700.071581	4594.628603
700.407270	4569.606836
700.742910	4546.442734
701.078501	4498.327441
701.414042	4497.805682
701.749533	4464.534066
702.084974	4399.311618
702.420366	4455.734732
702.755709	4399.709869
703.091002	4341.817258
703.426246	4390.051018
703.761440	4348.431252
704.096584	4309.977331
704.431679	4326.497192
704.766725	4319.885718
705.101721	4302.826454
705.436668	4329.600022
705.771565	4281.043628
706.106413	4308.195283
706.441212	4340.793904
706.775961	4348.050645
707.110661	4330.852749
707.445311	4356.164382
707.779913	4384.077251
708.114465	4394.444384
708.448967	4417.971449
708.783421	4477.063854
709.117825	4510.965614
709.452180	4521.988097
709.786485	4572.923915
710.120742	4653.050535
710.454949	4640.457733
710.789107	4703.893092
711.123216	4776.790697
711.457275	4772.374647
711.791286	4842.124051
712.125247	4859.175754
712.459159	4763.877782
712.793023	4834.927804
713.126837	4795.352226
713.460602	4790.668994
713.794318	4707.583217
714.127985	4718.005802
714.461602	4629.596567
714.795171	4604.710911
715.128691	4539.611971
715.462162	4484.360924
715.795584	4432.114406
716.128957	4414.566149
716.462281	4363.285012
716.795556	4338.268286
717.128782	4299.244714
717.461960	4229.018920
717.795088	4238.040065
718.128167	4202.295764
718.461198	4142.094305
718.794180	4137.557266
719.127113	4113.740335
719.459997	4093.918518
719.792833	4052.046694
720.125619	4043.315416
720.458357	4005.965507
720.791046	4011.268801
721.123686	3985.889112
721.456278	3944.884366
721.788821	3960.075883
722.121315	3934.300464
722.453761	3909.659304
722.786158	3922.516767
723.118506	3944.155919
723.450805	3895.793610
723.783056	3916.787495
724.115259	3934.348355
724.447412	3940.528809
724.779518	3931.863066
725.111574	3939.641566
725.443582	3968.323211
725.775542	3950.651446
726.107453	4003.026514
726.439315	3999.190196
726.771129	4018.553268
727.102895	4054.612641
727.434612	4102.067543
727.766281	4113.667238
728.097901	4112.734625
728.429473	4120.117394
728.760996	4124.508239
729.092471	4122.781644
729.423897	4100.981174
729.755276	4113.044656
730.086606	4110.650108
730.417887	4148.899862
730.749120	4209.925550
731.080305	4275.606744
731.411442	4302.677740
731.742530	4270.048872
732.073570	4275.969707
732.404562	4329.438705
732.735506	4321.289680
733.066401	4284.567395
733.397249	4221.671439
733.728048	4140.748317
734.058798	4061.282088
734.389501	3989.715347
734.720156	3928.316614
735.050762	3884.140983
735.381320	3874.033469
735.711831	3825.855162
736.042293	3798.118734
736.372707	3817.454079
736.703073	3792.066828
737.033391	3782.438225
737.363661	3798.138898
737.693883	3820.032629
738.024056	3836.519723
738.354182	3830.515709
738.684260	3892.055594
739.014290	3911.721136
739.344272	3908.446906
739.674207	3951.586580
740.004093	3955.463227
740.333931	3948.869398
740.663722	3951.702527
740.993464	3947.916620
741.323159	3921.627003
741.652806	3896.456522
741.982405	3866.779249
742.311956	3838.818489
742.641460	3824.902384
742.970915	3800.737613
743.300323	3762.102210
743.629683	3728.621387
743.958996	3718.256774
744.288260	3695.032179
744.617477	3658.811488
744.946647	3644.096360
745.275768	3619.558544
745.604842	3619.616517
745.933869	3569.273034
746.262847	3558.744584
746.591778	3599.313270
746.920662	3568.053075
747.249498	3542.413767
747.578286	3587.232145
747.907027	3601.067592
748.235720	3600.623970
748.564365	3628.647744
748.892963	3627.770583
749.221514	3609.052779
749.550017	3584.736774
749.878473	3582.495981
750.206881	3553.274932
750.535242	3547.338974
750.863555	3551.558420
751.191821	3547.180178
751.520039	3527.650747
751.848210	3506.268693
752.176334	3539.247922
752.504411	3550.895508
752.832440	3502.986902
753.160421	3490.099193
753.488356	3496.975326
753.816243	3512.391175
754.144082	3467.401397
754.471875	3451.615024
754.799620	3470.675627
755.127318	3464.275882
755.454969	3465.148002
755.782572	3471.336018
756.110129	3446.092440
756.437638	3434.170111
756.765100	3448.192081
757.092515	3458.967547
757.419882	3465.710090
757.747203	3435.952159
758.074477	3437.073816
758.401703	3454.617031
758.728882	3477.692913
759.056014	3483.825477
759.383099	3487.558451
759.710138	3485.327740
760.037129	3502.074453
760.364073	3532.389432
760.690970	3518.165817
761.017820	3494.847959
761.344623	3513.172554
761.671379	3559.437743
761.998088	3609.541771
762.324751	3736.225967
762.651366	3981.278976
762.977935	4454.918065
763.304456	4899.265530
763.630931	4995.077700
763.957359	4635.109068
764.283740	4287.642498
764.610074	4099.050412
764.936362	3903.279723
765.262602	3743.575970
765.588796	3630.727220
765.914943	3544.576422
766.241044	3457.354378
766.567097	3427.074687
766.893104	3378.467882
767.219064	3348.747759
767.544978	3323.138698
767.870845	3265.982095
768.196665	3246.354363
768.522438	3254.699993
768.848165	3253.984149
769.173846	3216.203222
769.499479	3200.888196
769.825066	3181.560412
770.150607	3164.075170
770.476101	3183.992769
770.801548	3176.090761
771.126949	3127.320118
771.452303	3111.984928
771.777611	3122.594036
772.102872	3123.519088
772.428087	3098.898092
772.753256	3089.314859
773.078378	3083.310845
773.403453	3045.794578
773.728482	3036.917106
774.053465	3059.403173
774.378401	3047.538817
774.703291	3015.272912
775.028135	3013.906759
775.352932	3011.890298
775.677683	2998.649707
776.002388	2996.471928
776.327046	2997.480159
776.651658	2986.452635
776.976224	2976.173723
777.300743	2975.316726
777.625216	2966.046044
777.949643	2960.533543
778.274024	2962.363482
778.598359	2953.415433
778.922647	2959.011114
779.246889	2955.744447
779.571086	2941.649380
779.895236	2935.723504
780.219339	2947.013168
780.543397	2958.325517
780.867409	2960.901547
781.191374	2954.143880
781.515294	2952.608849
781.839167	2953.261678
782.162995	2942.042590
782.486776	2955.389045
782.810511	2950.292439
783.134201	2934.443051
783.457844	2941.430090
783.781441	2936.898093
784.104993	2912.599731
784.428498	2914.323806
784.751958	2928.058430
785.075372	2920.468973
785.398739	2907.765265
785.722061	2920.413520
786.045337	2934.521189
786.368568	2920.728592
786.691752	2913.141655
787.014891	2959.467339
787.337983	2987.160917
787.661030	3016.263498
787.984031	3081.740525
788.306987	3131.758854
788.629897	3121.381638
788.952760	3104.869339
789.275579	3088.571289
789.598351	3031.465098
789.921078	2984.902480
790.243759	2979.198415
790.566395	2961.481280
790.888984	2936.830037
791.211529	2917.648447
791.534027	2910.913465
791.856480	2900.032135
792.178888	2885.652243
792.501249	2872.983824
792.823566	2876.479864
793.145836	2871.443751
793.468062	2866.064840
793.790241	2864.154243
794.112375	2871.211858
794.434464	2885.541338
794.756507	2890.471587
795.078505	2892.639283
795.400457	2907.125038
795.722364	2944.074175
796.044226	2969.400932
796.366042	2969.935295
796.687812	2959.850466
797.009538	2979.082468
797.331218	2968.019656
797.652852	2951.971143
797.974442	2936.260387
798.295986	2934.468257
798.617484	2927.786207
798.938938	2914.056625
799.260346	2898.058523
799.581709	2888.949158
799.903026	2885.213663
800.224299	2877.634288
800.545526	2865.706918
800.866708	2854.024044
801.187845	2843.992148
801.508936	2843.687158
801.829983	2853.734178
802.150984	2839.896211
802.471940	2826.683346
802.792851	2827.981443
803.113717	2829.342555
803.434538	2830.186948
803.755314	2828.286433
804.076045	2817.427788
804.396731	2816.638847
804.717372	2815.686069
805.037967	2813.707416
805.358518	2818.683035
805.679024	2830.736434
805.999485	2827.782318
806.319901	2832.228616
806.640272	2821.720330
806.960598	2827.716783
807.280879	2837.552074
807.601115	2843.762776
807.921306	2831.480004
808.241453	2825.463387
808.561554	2833.471260
808.881611	2838.328412
809.201623	2830.474294
809.521590	2828.646876
809.841513	2822.912563
810.161390	2829.612257
810.481223	2824.699652
810.801011	2813.107519
811.120755	2809.533341
811.440453	2812.628609
811.760107	2812.603404
812.079716	2811.199442
812.399281	2799.042700
812.718801	2795.029941
813.038276	2790.767646
813.357707	2794.316618
813.677093	2801.361631
813.996434	2794.931639
814.315731	2793.898202
814.634983	2790.644137
814.954191	2786.051646
815.273354	2803.773823
815.592473	2811.569967
815.911547	2811.595173
816.230577	2819.613128
816.549562	2832.457988
816.868502	2829.705518
817.187399	2839.646673
817.506250	2854.533201
817.825058	2849.638240
818.143821	2861.757174
818.462539	2878.239227
818.781213	2904.687640
819.099843	2942.705502
819.418429	2997.480159
819.736970	3058.987277
820.055466	3131.509317
820.373919	3237.905389
820.692327	3372.879763
821.010691	3546.471895
821.329011	3986.347857
821.647286	4884.419332
821.965517	6260.803046
822.283704	7001.809812
822.601847	6985.521843
822.919945	6354.918868
823.237999	5844.920457
823.556010	5262.483185
823.873976	4716.052355
824.191897	4303.159170
824.509775	4012.531610
824.827609	3742.038418
825.145398	3620.244141
825.463144	3604.296451
825.780845	3698.528219
826.098502	3802.509579
826.416116	4084.360490
826.733685	4398.295825
827.051210	4470.603616
827.368692	4350.104915
827.686129	4083.773196
828.003522	3758.820419
828.320872	3501.396418
828.638177	3307.717808
828.955439	3169.058351
829.272656	3086.199426
829.589830	3015.325844
829.906960	2970.255408
830.224046	2922.780342
830.541088	2890.690877
830.858086	2873.172867
831.175041	2854.255937
831.491952	2858.921525
831.808819	2870.702702
832.125642	2892.694735
832.442421	2938.203752
832.759157	3020.276257
833.075849	3199.280068
833.392497	3479.953870
833.709101	3685.537165
834.025662	3629.610605
834.342179	3475.079075
834.658653	3293.426137
834.975083	3148.802995
835.291469	3050.553427
835.607811	2966.083853
835.924110	2907.190573
836.240366	2858.997142
836.556578	2813.357056
836.872746	2790.944086
837.188871	2773.078237
837.504952	2752.094434
837.820990	2747.101171
838.136984	2729.477297
838.452935	2726.855897
838.768842	2720.277192
839.084706	2739.962897
839.400526	2815.781851
839.716303	2952.661781
840.032037	3031.389481
840.347727	3014.864578
840.663373	2957.917184
840.978977	2880.568240
841.294537	2806.027218
841.610054	2761.160949
841.925527	2740.620768
842.240957	2716.965153
842.556344	2697.309695
842.871687	2678.894360
843.186987	2668.370951
843.502244	2666.977072
843.817458	2660.234529
844.132629	2651.488127
844.447756	2639.843061
844.762840	2630.932822
845.077881	2639.638895
845.392879	2636.082361
845.707833	2632.218316
846.022745	2621.465535
846.337613	2626.471401
846.652438	2623.469394
846.967221	2625.707666
847.281960	2624.477624
847.596656	2620.530401
847.911309	2622.801441
848.225919	2615.519494
848.540485	2613.409771
848.855009	2615.239710
849.169490	2615.103599
849.483928	2615.637961
849.798323	2615.650564
850.112675	2611.103443
850.426984	2612.658639
850.741251	2612.509925
851.055474	2611.388268
851.369654	2615.564864
851.683792	2615.887498
851.997887	2612.454472
852.311938	2611.040429
852.625947	2613.500512
852.939914	2615.769031
853.253837	2617.727519
853.567718	2609.928854
853.881555	2614.309617
854.195350	2613.946654
854.509103	2614.685183
854.822812	2609.959101
855.136479	2609.613782
855.450103	2614.082765
855.763685	2614.322220
856.077224	2611.123608
856.390720	2610.516149
856.704173	2613.891201
857.017584	2616.895729
857.330953	2619.005452
857.644278	2620.280864
857.957561	2621.342027
858.270802	2613.881119
858.584000	2617.568723
858.897155	2620.444701
859.210268	2622.672891
859.523339	2616.250461
859.836367	2608.976076
860.149352	2612.746859
860.462295	2613.145111
860.775195	2610.276694
861.088054	2609.845675
861.400869	2609.913731
861.713642	2604.229830
862.026373	2604.933071
862.339062	2610.493464
862.651708	2616.593260
862.964312	2617.218363
863.276873	2612.706530
863.589392	2617.823301
863.901869	2619.237345
864.214303	2626.184055
864.526696	2628.893675
864.839045	2631.971300
865.151353	2634.675879
865.463619	2630.942904
865.775842	2633.604633
866.088023	2629.949797
866.400162	2631.136989
866.712258	2636.140334
867.024313	2631.724283
867.336325	2627.832512
867.648296	2627.207409
867.960224	2633.783594
868.272110	2632.419962
868.583954	2622.415792
868.895755	2629.352420
869.207515	2633.458440
869.519233	2640.579070
869.830909	2635.202679
870.142542	2629.349900
870.454134	2633.438275
870.765684	2638.078657
871.077191	2641.143679
871.388657	2642.845068
871.700081	2642.572846
872.011463	2642.247692
872.322803	2643.210552
872.634101	2646.908238
872.945357	2653.529794
873.256571	2659.659837
873.567744	2654.036430
873.878874	2656.022645
874.189963	2655.193375
874.501010	2663.569252
874.812015	2666.485559
875.122979	2667.944973
875.433900	2658.303767
875.744780	2656.007521
876.055618	2663.322235
876.366415	2668.963287
876.677169	2666.672082
876.987882	2661.527585
877.298554	2661.641011
877.609183	2669.389264
877.919771	2677.490398
878.230317	2683.380987
878.540822	2695.704087
878.851285	2707.593648
879.161707	2731.324880
879.472087	2769.146137
879.782425	2816.084320
880.092722	2931.541867
880.402977	3120.277626
880.713191	3380.595249
881.023363	3675.061648
881.333494	3857.823639
881.643583	4032.083725
881.953631	4030.773025
882.263637	3856.339019
882.573602	3633.182262
882.883526	3506.142665
883.193408	3390.647309
883.503248	3291.386990
883.813048	3173.406346
884.122806	3063.541960
884.432522	2975.964515
884.742197	2910.144689
885.051831	2874.624719
885.361424	2840.055007
885.670975	2805.429842
885.980485	2771.281066
886.289954	2753.768097
886.599382	2738.934502
886.908768	2728.849674
887.218113	2711.031715
887.527417	2699.817669
887.836680	2688.104548
888.145901	2685.251255
888.455082	2676.272960
888.764221	2666.344407
889.073319	2657.441729
889.382376	2656.244455
889.691392	2657.265289
890.000366	2657.928201
890.309300	2657.287974
890.618193	2658.074394
890.927044	2662.586227
891.235855	2659.276709
891.544625	2660.098417
891.853353	2659.879127
892.162041	2666.498162
892.470687	2687.953313
892.779293	2698.963193
893.087858	2708.533824
893.396381	2734.117679
893.704864	2774.706530
894.013306	2841.932837
894.321707	2934.201076
894.630068	2984.960454
894.938387	3005.929133
895.246665	2998.848833
895.554903	2953.226390
895.863100	2912.781213
896.171256	2856.020341
896.479371	2794.372071
896.787446	2755.991246
897.095480	2736.328225
897.403473	2727.065105
897.711425	2714.283260
898.019336	2699.227854
898.327207	2684.507684
898.635038	2681.465348
898.942827	2677.823114
899.250576	2667.650066
899.558284	2655.720175
899.865952	2651.599032
900.173579	2650.948723
900.481165	2649.413692
900.788711	2638.207207
901.096216	2635.081692
901.403681	2634.202010
901.711105	2634.186887
902.018489	2630.050620
902.325832	2635.404325
902.633135	2636.314254
902.940397	2651.004176
903.247619	2687.653364
903.554800	2756.064343
903.861941	2883.857593
904.169041	3010.135976
904.476101	3068.633525
904.783121	3066.057496
905.090100	3006.428207
905.397039	2930.483225
905.703938	2857.396576
906.010796	2794.266207
906.317614	2744.338619
906.624391	2708.637167
906.931129	2681.858558
907.237826	2657.797131
907.544483	2640.669811
907.851099	2624.553242
908.157675	2618.403034
908.464211	2609.732249
908.770707	2600.368306
909.077163	2600.184304
909.383578	2590.820361
909.689954	2590.107037
909.996289	2588.902202
910.302584	2591.367326
910.608839	2586.396748
910.915054	2586.469845
911.221229	2590.974116
911.527363	2591.770618
911.833458	2589.950762
912.139513	2592.511668
912.445527	2592.410845
912.751502	2596.713470
913.057436	2602.641867
913.363331	2609.397013
913.669186	2618.934876
913.975000	2632.087246
914.280775	2652.158600
914.586510	2667.937412
914.892205	2701.934953
915.197859	2771.409615
915.503475	2857.111751
915.809050	2921.751946
916.114585	2933.681837
916.420081	2947.116512
916.725536	2960.115127
917.030952	2931.982968
917.336328	2887.880433
917.641665	2838.877897
917.946961	2788.115999
918.252218	2753.866400
918.557435	2729.343707
918.862612	2704.790767
919.167750	2687.393745
919.472848	2673.250788
919.777906	2652.496357
920.082925	2643.039153
920.387904	2634.128913
920.692843	2630.932822
920.997743	2624.986781
921.302603	2617.157869
921.607423	2609.767537
921.912204	2604.237392
922.216946	2601.502566
922.521647	2601.474839
922.826310	2595.400249
923.130932	2592.050402
923.435516	2583.661922
923.740059	2584.579412
924.044564	2584.773497
924.349028	2582.641089
924.653454	2575.835531
924.957840	2571.265725
925.262186	2567.636094
925.566493	2569.798749
925.870761	2564.268603
926.174989	2566.174160
926.479178	2562.925136
926.783328	2562.042934
927.087438	2562.244580
927.391509	2561.392625
927.695541	2558.688046
927.999533	2561.937070
928.303486	2556.346430
928.607400	2556.323745
928.911275	2556.417006
929.215110	2553.888868
929.518906	2555.204609
929.822663	2557.639486
930.126381	2556.638817
930.430060	2555.192006
930.733699	2553.951882
931.037299	2557.868859
931.340861	2557.052192
931.644383	2557.006821
931.947866	2558.156204
932.251309	2556.089331
932.554714	2556.268292
932.858080	2559.444219
933.161407	2555.943138
933.464694	2557.702501
933.767943	2555.312994
934.071153	2552.542880
934.374323	2552.948692
934.677455	2554.811399
934.980548	2552.134546
935.283602	2551.706048
935.586617	2557.165618
935.889593	2553.236038
936.192530	2554.135884
936.495428	2556.094373
936.798287	2551.431305
937.101108	2558.015052
937.403890	2558.534291
937.706632	2562.640311
938.009336	2565.362534
938.312002	2568.961918
938.614628	2571.714388
938.917216	2577.436097
939.219765	2575.976683
939.522275	2575.144893
939.824747	2574.698751
940.127179	2572.745304
940.429573	2567.099211
940.731929	2566.343038
941.034246	2565.251628
941.336524	2566.116186
941.638763	2565.503686
941.940964	2565.123079
942.243126	2561.969837
942.545250	2564.442523
942.847335	2562.726010
943.149381	2560.429765
943.451389	2559.892882
943.753359	2557.505896
944.055290	2558.950186
944.357182	2556.603529
944.659036	2555.151677
944.960851	2558.781307
945.262628	2554.045143
945.564367	2559.035886
945.866067	2558.302398
946.167729	2554.955072
946.469352	2556.530432
946.770937	2554.216543
947.072484	2555.456667
947.373992	2556.351471
947.675462	2555.348282
947.976893	2553.223435
948.278286	2553.165462
948.579641	2554.365257
948.880958	2552.671429
949.182236	2549.429967
949.483476	2554.758467
949.784678	2557.097562
950.085841	2552.983981
950.386967	2554.077911
950.688054	2551.491799
950.989103	2553.599001
951.290114	2556.444733
951.591087	2556.190154
951.892021	2559.330793
952.192917	2559.260217
952.493776	2558.425906
952.794596	2558.902295
953.095378	2562.569735
953.396122	2561.685012
953.696828	2558.665361
953.997496	2557.551266
954.298126	2557.142932
954.598718	2558.078067
954.899272	2554.418189
955.199788	2555.224773
955.500266	2552.000956
955.800706	2547.264792
956.101108	2543.352856
956.401472	2545.399565
956.701798	2542.107691
957.002087	2544.083823
957.302337	2544.779503
957.602550	2544.351005
957.902724	2544.837476
958.202861	2547.204298
958.502960	2543.216745
958.803022	2543.909904
959.103045	2540.214738
959.403031	2539.748431
959.702979	2541.434697
960.002889	2541.727084
960.302762	2538.760365
960.602596	2538.112577
960.902393	2540.933102
961.202153	2537.452186
961.501875	2537.069058
961.801559	2540.214738
962.101205	2540.658359
962.400814	2541.149872
962.700385	2535.655014
962.999918	2538.954449
963.299414	2538.815818
963.598873	2538.634336
963.898293	2538.306661
964.197677	2539.330015
964.497022	2538.818338
964.796331	2538.321785
965.095601	2538.523431
965.394835	2540.928061
965.694030	2534.825744
965.993189	2538.911600
966.292309	2538.099974
966.591393	2538.462937
966.890439	2539.118287
967.189447	2539.773637
967.488419	2539.342618
967.787353	2538.848585
968.086249	2535.523944
968.385108	2536.454037
968.683930	2538.316743
968.982714	2538.702392
969.281462	2539.655170
969.580172	2537.671476
969.878844	2537.474871
970.177480	2539.188863
970.476078	2537.986548
970.774639	2540.076106
971.073162	2534.719880
971.371649	2536.088553
971.670098	2532.690816
971.968510	2534.941691
972.266885	2534.926568
972.565223	2539.975283
972.863524	2536.854809
973.161788	2538.208359
973.460014	2536.653163
973.758204	2538.543595
974.056356	2538.914120
974.354471	2542.145500
974.652550	2538.835982
974.950591	2538.084850
975.248595	2538.586445
975.546563	2538.611651
975.844493	2537.464788
976.142386	2536.764068
976.440243	2540.512166
976.738062	2538.994779
977.035845	2535.193749
977.333590	2537.313554
977.631299	2539.640046
977.928971	2538.344470
978.226606	2538.538554
978.524204	2535.685261
978.821765	2535.365148
979.119290	2536.572504
979.416777	2538.349511
979.714228	2537.484953
980.011642	2536.522093
980.309020	2536.164171
980.606360	2539.592155
980.903664	2538.218441
981.200931	2538.583925
981.498162	2537.633667
981.795356	2540.398740
982.092513	2541.923689
982.389633	2548.409133
982.686717	2549.177909
982.983764	2550.869217
983.280775	2554.239228
983.577749	2553.225956
983.874686	2552.580688
984.171587	2549.009031
984.468451	2548.913249
984.765279	2545.772610
985.062070	2544.610624
985.358824	2539.677855
985.655543	2539.758513
985.952224	2536.917823
986.248869	2537.618544
986.545478	2530.150074
986.842050	2532.884900
987.138586	2533.895652
987.435086	2533.797349
987.731549	2531.289375
988.027975	2537.618544
988.324366	2534.014119
988.620719	2535.985210
988.917037	2534.079654
989.213318	2536.519572
989.509563	2534.835827
989.805772	2534.694674
990.101944	2533.376413
990.398080	2535.763399
990.694180	2532.925229
990.990244	2535.879346
991.286271	2536.040662
991.582262	2536.902700
991.878217	2533.935981
992.174136	2533.033614
992.470019	2533.562935
992.765865	2534.382123
993.061676	2533.542771
993.357450	2533.981351
993.653188	2535.314736
993.948890	2537.033770
994.244556	2532.834489
994.540186	2534.099818
994.835780	2534.692154
995.131337	2536.176774
995.426859	2536.501928
995.722345	2537.868081
996.017795	2537.328677
996.313208	2542.430325
996.608586	2539.408153
996.903928	2539.965201
997.199234	2536.431352
997.494504	2538.959491
997.789738	2539.067875
998.084936	2536.864891
998.380099	2537.477391
998.675225	2538.309182
998.970316	2537.099305
999.265371	2537.608461
999.560390	2537.580735
999.855373	2535.186187
1000.150320	2535.428162
1000.445232	2533.570497
1000.740108	2532.627801
1001.034948	2535.256763
1001.329752	2534.215765
1001.624521	2536.491846
1001.919254	2528.912471
1002.213951	2531.828778
1002.508613	2532.451361
1002.803239	2531.491021
1003.097829	2528.196627
1003.392384	2534.424973
1003.686903	2534.616537
1003.981386	2535.231557
1004.275834	2532.514375
1004.570246	2534.677030
1004.864623	2531.632173
1005.158964	2534.301464
1005.453270	2533.888090
1005.747540	2535.095446
1006.041775	2532.562266
1006.335974	2535.617206
1006.630138	2531.947246
1006.924266	2534.896321
1007.218359	2530.460105
1007.512416	2532.327853
1007.806438	2531.864067
1008.100425	2532.758871
1008.394376	2532.209386
1008.688292	2531.856505
1008.982172	2533.767102
1009.276017	2529.497245
1009.569827	2529.361134
1009.863602	2532.320291
1010.157341	2531.123017
1010.451045	2532.199303
1010.744714	2532.741227
1011.038347	2531.773326
1011.331945	2530.336597
1011.625508	2530.581093
1011.919036	2530.928932
1012.212528	2530.165198
1012.505986	2530.502955
1012.799408	2532.791639
1013.092795	2530.848274
1013.386147	2533.134437
1013.679464	2529.030938
1013.972745	2531.543953
1014.265992	2530.097142
1014.559204	2532.882380
1014.852380	2531.458254
1015.145521	2531.811134
1015.438628	2532.589993
1015.731699	2531.707791
1016.024736	2533.225178
1016.317737	2533.089067
1016.610703	2533.706608
1016.903635	2529.600588
1017.196531	2527.687471
1017.489393	2531.455733
1017.782219	2528.428520
1018.075011	2529.340969
1018.367768	2531.720394
1018.660490	2531.329704
1018.953177	2531.329704
1019.245829	2531.329704
