Dividing Wavelength (nm)	Counts (n)	Blue Motor Position (mm): 31.500000	Red Motor Position (mm): 0.000000	
326.493990	2129.864815
326.888308	2129.864815
327.282561	2129.864815
327.676750	2097.830803
328.070874	2100.076637
328.464933	2099.552357
328.858929	2107.242637
329.252859	2114.438884
329.646726	2129.330453
330.040528	2139.430404
330.434265	2157.792807
330.827938	2176.298883
331.221547	2193.859742
331.615091	2211.881867
332.008571	2230.093036
332.401986	2252.478279
332.795338	2270.949067
333.188625	2287.383228
333.581847	2307.573050
333.975006	2326.217757
334.368100	2343.203925
334.761129	2362.299816
335.154095	2377.123329
335.546996	2399.627039
335.939833	2424.462284
336.332606	2436.477874
336.725315	2452.347426
337.117960	2462.679271
337.510540	2469.646146
337.903056	2479.763742
338.295508	2488.782366
338.687896	2496.732265
339.080220	2502.867350
339.472480	2508.674759
339.864676	2516.286901
340.256807	2519.767818
340.648875	2524.740916
341.040879	2523.324352
341.432818	2528.829292
341.824694	2528.458767
342.216506	2529.449354
342.608253	2528.947759
342.999937	2527.750485
343.391557	2529.202337
343.783113	2527.160670
344.174605	2527.984899
344.566033	2523.707480
344.957397	2524.302336
345.348697	2523.384846
345.739934	2519.830832
346.131106	2517.111130
346.522215	2518.835204
346.913260	2515.923938
347.304241	2515.560975
347.695159	2512.485871
348.086012	2510.348422
348.476802	2506.527227
348.867528	2507.931189
349.258191	2501.304592
349.648789	2501.914572
350.039324	2502.552278
350.429796	2503.303409
350.820203	2499.565394
351.210548	2500.293841
351.600828	2499.033552
351.991045	2496.802842
352.381198	2492.399394
352.771288	2493.518530
353.161314	2494.746051
353.551276	2496.117245
353.941175	2498.852071
354.331010	2494.831750
354.720782	2498.373161
355.110490	2497.400218
355.500135	2496.268479
355.889717	2494.224291
356.279235	2494.965341
356.668689	2499.409118
357.058080	2494.277223
357.447408	2496.255876
357.836672	2495.794611
358.225873	2496.071874
358.615010	2492.719507
359.004084	2499.013388
359.393095	2499.600682
359.782043	2498.531957
360.170927	2500.356855
360.559748	2499.328460
360.948505	2501.007164
361.337199	2503.865498
361.725830	2504.490601
362.114398	2500.515651
362.502903	2503.361383
362.891344	2504.319202
363.279722	2501.513800
363.668037	2504.687206
364.056289	2504.974552
364.444478	2504.369613
364.832603	2501.763337
365.220665	2505.448420
365.608665	2505.859274
365.996601	2509.824142
366.384474	2505.912207
366.772284	2508.387413
367.160031	2507.129645
367.547715	2509.120901
367.935336	2508.216014
368.322893	2507.822804
368.710388	2508.142917
369.097820	2511.517970
369.485189	2506.663338
369.872495	2511.250788
370.259738	2509.012516
370.646918	2509.609893
371.034035	2510.534945
371.421090	2511.391941
371.808081	2508.906652
372.195010	2512.596777
372.581875	2511.356653
372.968678	2512.795902
373.355418	2513.594925
373.742096	2512.798423
374.128710	2511.465038
374.515262	2511.124760
374.901751	2511.417147
375.288177	2514.731705
375.674540	2511.989317
376.060841	2514.192302
376.447079	2512.556447
376.833254	2515.356808
377.219367	2509.516632
377.605417	2513.791530
377.991404	2513.226921
378.377329	2511.303721
378.763191	2512.132990
379.148991	2515.704648
379.534727	2515.485358
379.920402	2515.505522
380.306013	2515.321520
380.691563	2518.081552
381.077049	2518.726820
381.462474	2515.563496
381.847835	2517.673218
382.233134	2518.000893
382.618371	2517.209432
383.003545	2517.884947
383.388657	2519.765297
383.773706	2516.891840
384.158693	2518.840246
384.543618	2520.271933
384.928480	2520.221522
385.313280	2518.323527
385.698017	2519.752694
386.082692	2521.196985
386.467305	2519.455266
386.851856	2520.957530
387.236344	2519.568692
387.620770	2523.468025
388.005133	2522.222860
388.389435	2519.679598
388.773674	2521.161697
389.157851	2519.886285
389.541965	2521.005421
389.926018	2523.742768
390.310008	2520.420647
390.693936	2525.129085
391.077802	2523.629342
391.461606	2522.482479
391.845348	2521.202026
392.229027	2521.610360
392.612645	2526.316277
392.996200	2524.940042
393.379694	2523.468025
393.763125	2525.731503
394.146494	2526.974147
394.529801	2525.101359
394.913047	2527.420289
395.296230	2525.930628
395.679351	2524.302336
396.062410	2526.964065
396.445408	2527.453057
396.828343	2529.358613
397.211217	2524.551873
397.594028	2522.802593
397.976778	2523.954496
398.359466	2526.243180
398.742092	2524.408200
399.124656	2531.370033
399.507158	2529.754344
399.889598	2532.559746
400.271977	2530.089580
400.654294	2529.386339
401.036549	2531.412883
401.418742	2529.159487
401.800874	2530.939015
402.182944	2534.903882
402.564952	2529.759385
402.946898	2532.494211
403.328783	2533.094108
403.710606	2528.899868
404.092367	2533.409180
404.474067	2535.975127
404.855705	2533.063861
405.237282	2532.297606
405.618797	2535.012267
406.000250	2536.741383
406.381642	2534.732483
406.762972	2533.903213
407.144240	2534.775333
407.525447	2539.007382
407.906593	2535.223996
408.287677	2537.303472
408.668700	2538.135262
409.049661	2539.834131
409.430560	2537.285827
409.811399	2539.206507
410.192176	2539.012423
410.572891	2538.299099
410.953545	2538.664583
411.334138	2537.144675
411.714669	2539.335057
412.095139	2539.816487
412.475547	2540.169368
412.855894	2539.181301
413.236180	2542.011909
413.616405	2542.689944
413.996568	2542.415202
414.376670	2543.294883
414.756711	2544.572815
415.136691	2546.054915
415.516609	2545.742363
415.896466	2547.264792
416.276262	2550.476007
416.655997	2550.881819
417.035670	2552.774773
417.415283	2556.795093
417.794834	2560.369271
418.174324	2564.518141
418.553753	2569.864284
418.933121	2576.236303
419.312428	2583.669484
419.691674	2591.513519
420.070859	2599.115579
420.449983	2604.192021
420.829045	2617.437653
421.208047	2625.117851
421.586988	2636.778040
421.965867	2649.650626
422.344686	2664.151505
422.723444	2669.984120
423.102141	2674.591735
423.480777	2704.034594
423.859352	2707.737321
424.237866	2737.719584
424.616319	2753.750453
424.994712	2779.140224
425.373044	2785.842438
425.751314	2820.850731
426.129524	2823.429282
426.507673	2863.493852
426.885762	2895.585837
427.263789	2911.636871
427.641756	2922.528284
428.019662	2966.136785
428.397508	2992.411279
428.775292	3016.802902
429.153016	3060.189593
429.530679	3078.909917
429.908282	3126.372381
430.285824	3133.339255
430.663305	3222.371073
431.040726	3204.631253
431.418086	3235.359606
431.795385	3300.698001
432.172624	3343.419260
432.549802	3376.703478
432.926920	3421.446239
433.303977	3466.720842
433.680974	3519.123636
434.057910	3569.719176
434.434786	3614.842544
434.811601	3651.547186
435.188355	3772.577728
435.565050	3779.199283
435.941683	3817.854851
436.318257	3955.763176
436.694770	3993.682735
437.071222	4062.393662
437.447614	4085.260336
437.823946	4090.959361
438.200218	4213.759348
438.576429	4205.322977
438.952580	4308.654028
439.328670	4381.327302
439.704700	4384.228486
440.080670	4424.920679
440.456580	4628.767297
440.832429	4620.983755
441.208218	4574.496755
441.583947	4718.923292
441.959616	4776.455461
442.335224	4778.310605
442.710773	4909.345317
443.086261	4986.308613
443.461689	4891.620620
443.837057	5040.997570
444.212365	5197.676632
444.587612	5165.418288
444.962800	5326.117670
445.337927	5351.167164
445.712995	5111.195638
446.088002	5592.653556
446.462949	5496.995142
446.837837	5490.000541
447.212664	5655.546992
447.587431	5825.985883
447.962139	6305.323996
448.336786	7091.776764
448.711374	6929.197032
449.085901	6206.701383
449.460369	6182.697929
449.834776	6165.205125
450.209124	6533.564757
450.583412	6703.030705
450.957640	6847.966399
451.331808	6686.339445
451.705917	6314.902188
452.079965	6269.816629
452.453954	6494.813407
452.827883	6404.339819
453.201752	6513.143043
453.575562	6347.531057
453.949311	6560.446710
454.323001	6475.841025
454.696632	6563.065589
455.070202	6711.532611
455.443713	6870.956581
455.817164	6985.274827
456.190556	7079.259579
456.563888	7170.310379
456.937160	7222.521609
457.310373	6900.696868
457.683526	6939.327230
458.056619	6843.310893
458.429653	6843.683939
458.802628	6786.814682
459.175542	6896.502628
459.548398	7256.748523
459.921194	7420.028976
460.293930	7425.256652
460.666607	7954.676109
461.039224	8261.742872
461.411782	8392.492758
461.784280	8416.130729
462.156719	8311.735994
462.529099	8205.695323
462.901419	7799.209445
463.273680	7698.288065
463.645882	7710.500260
464.018024	7580.340189
464.390106	7750.668174
464.762130	8135.419118
465.134094	8603.661652
465.505999	9613.813101
465.877845	10834.964564
466.249631	11486.238792
466.621358	11108.991605
466.993026	10484.352314
467.364634	10228.912008
467.736184	9866.982368
468.107674	9544.577894
468.479105	9570.002953
468.850477	9342.382254
469.221790	9112.019168
469.593043	8781.664794
469.964238	8644.053897
470.335373	8658.983274
470.706449	8719.131801
471.077467	8707.983290
471.448425	10009.483184
471.819324	11071.561038
472.190164	11093.197670
472.560945	9851.566519
472.931667	9064.443278
473.302330	8931.404707
473.672934	8582.458559
474.043479	8937.111294
474.413965	8880.244558
474.784393	8765.475129
475.154761	8918.269981
475.525070	9008.907407
475.895321	8832.041045
476.265513	9012.174074
476.635645	9179.860495
477.005719	9176.147686
477.375734	9290.208833
477.745691	9530.394607
478.115588	9661.746912
478.485427	9910.023739
478.855207	10445.479977
479.224928	11251.474778
479.594591	11881.918957
479.964194	11689.014164
480.333739	11629.394958
480.703226	11548.892772
481.072653	11639.391566
481.442022	11878.001980
481.811333	12063.987790
482.180584	11871.899664
482.549777	11581.388050
482.918912	11406.545711
483.287988	11428.681417
483.657005	11433.641913
484.025964	11122.280087
484.394864	11251.192473
484.763706	11227.126004
485.132489	10974.932201
485.501213	10947.949425
485.869879	11018.623881
486.238487	10867.664009
486.607036	10974.990174
486.975527	10757.111505
487.343959	10943.553539
487.712333	10990.090951
488.080648	10922.826835
488.448905	10967.756118
488.817104	10907.184134
489.185244	11169.485451
489.553326	11328.301962
489.921350	11867.738191
490.289315	12922.408070
490.657222	13266.938167
491.025070	13162.866067
491.392861	13041.853169
491.760593	12660.464675
492.128267	12316.521871
492.495883	11988.922488
492.863440	11656.196252
493.230939	11315.943573
493.598380	11250.108625
493.965763	11122.685900
494.333088	11024.486743
494.700354	10945.791811
495.067563	11001.796510
495.434713	10835.829122
495.801805	10965.313679
496.168839	10883.788139
496.535815	10819.934364
496.902733	10831.271919
497.269593	10758.422205
497.636395	10849.155413
498.003139	10844.557880
498.369825	10713.190452
498.736453	10869.110820
499.103023	10798.726230
499.469535	10827.596918
499.835989	10812.687706
500.202385	10783.501945
500.568723	10635.039965
500.935003	10852.964004
501.301226	10657.498305
501.667390	10914.443396
502.033497	11010.958807
502.399546	10871.901099
502.765537	10780.368868
503.131470	10859.333502
503.497345	11029.684173
503.863163	10638.742692
504.228923	10948.947573
504.594625	11013.287820
504.960269	10761.983780
505.325856	10979.675927
505.691385	10769.948803
506.056856	10927.449573
506.422270	10952.912441
506.787625	10839.138640
507.152924	10954.409664
507.518164	10942.119331
507.883347	10861.148318
508.248472	10781.430031
508.613540	11016.085660
508.978550	10896.063349
509.343503	10875.659279
509.708398	10993.362659
510.073236	11108.172418
510.438016	11113.417738
510.802738	11060.054604
511.167403	11107.030596
511.532010	11006.310863
511.896561	11241.762995
512.261053	11316.445168
512.625488	11182.859632
512.989866	11157.600931
513.354186	11146.462502
513.718449	11054.673173
514.082655	11245.105280
514.446803	11140.345062
514.810894	11265.002714
515.174927	11131.397013
515.538904	11160.565130
515.902822	11302.075359
516.266684	11189.584532
516.630488	11130.804678
516.994235	11190.272649
517.357925	11251.613409
517.721558	11342.719662
518.085133	11354.067299
518.448651	11367.345699
518.812112	11239.093704
519.175516	11258.955850
519.538863	11383.200128
519.902152	11303.073508
520.265385	11459.717281
520.628560	11367.259999
520.991678	11348.519510
521.354739	11418.294120
521.717743	11349.689057
522.080690	11326.656025
522.443580	11462.063938
522.806413	11417.202710
523.169189	11450.350817
523.531908	11499.174392
523.894569	11327.462610
524.257174	11324.576549
524.619722	11446.411156
524.982213	11394.837631
525.344647	11449.939963
525.707025	11395.558516
526.069345	11491.060655
526.431608	11407.075032
526.793815	11511.016063
527.155964	11301.208281
527.518057	11361.656757
527.880093	11304.563169
528.242072	11371.771832
528.603995	11279.158274
528.965860	11204.261851
529.327669	11251.986455
529.689421	11197.378156
530.051117	11168.182313
530.412755	11275.884044
530.774337	11169.112406
531.135862	11144.609878
531.497331	11169.722386
531.858743	11030.773062
532.220098	11186.857267
532.581396	11054.138810
532.942638	11045.621781
533.303824	11006.809937
533.664953	11016.602379
534.026025	10933.897209
534.387040	11035.287415
534.747999	11037.984433
535.108902	11092.189439
535.469748	10850.778664
535.830537	10958.336723
536.191270	10940.899371
536.551947	10953.338418
536.912567	10952.055445
537.273131	10883.425176
537.633638	10861.914573
537.994089	10852.757317
538.354483	10791.146855
538.714821	10947.657038
539.075103	10954.744900
539.435328	10913.684702
539.795497	10740.692467
540.155609	10899.708103
540.515665	10991.832669
540.875665	10725.047246
541.235609	10795.951075
541.595496	10783.809456
541.955328	10942.497417
542.315102	10825.958543
542.674821	10777.974320
543.034483	10774.800914
543.394090	10785.682244
543.753640	10707.342714
544.113134	10930.900243
544.472571	10788.832966
544.831953	10922.743656
545.191278	10738.761705
545.550548	10761.711558
545.909761	10896.184337
546.268918	10874.313291
546.628019	10960.353184
546.987064	10824.794037
547.346053	10742.545091
547.704986	10839.730975
548.063863	10828.889974
548.422684	10823.059880
548.781449	10740.135419
549.140158	10842.024700
549.498811	10717.603982
549.857408	10580.766902
550.215949	10804.258896
550.574434	10651.199383
550.932864	10757.643347
551.291237	10813.393467
551.649555	10760.801630
552.007817	10780.749475
552.366022	10737.254400
552.724173	10731.177289
553.082267	10711.388240
553.440305	10847.302788
553.798288	10650.362552
554.156215	10805.889710
554.514086	10774.478280
554.871902	10631.125509
555.229661	10669.836529
555.587365	10644.040945
555.945014	10538.413648
556.302606	10668.737557
556.660143	10560.009951
557.017625	10713.044259
557.375050	10612.974834
557.732421	10744.112890
558.089735	10655.121401
558.446994	10655.731381
558.804197	10696.776455
559.161345	10695.760663
559.518437	10545.173836
559.875474	10635.637341
560.232455	10664.417289
560.589381	10616.294434
560.946251	10611.265883
561.303065	10715.128776
561.659825	10649.724846
562.016528	10587.033057
562.373177	10461.407503
562.729770	10576.497045
563.086307	10491.732564
563.442789	10580.507283
563.799216	10462.491351
564.155587	10508.567497
564.511904	10466.514192
564.868164	10454.672521
565.224370	10476.120110
565.580520	10399.965920
565.936615	10405.430530
566.292654	10273.632084
566.648638	10402.456250
567.004567	10360.566782
567.360441	10344.109935
567.716260	10259.811760
568.072023	10343.275624
568.427732	10300.483790
568.783385	10205.934429
569.138982	10283.306058
569.494525	10296.377770
569.850013	10168.612246
570.205445	10258.435525
570.560823	10153.256892
570.916145	10068.114324
571.271412	10136.366506
571.626625	10086.517056
571.981782	10063.582326
572.336884	10022.421305
572.691931	10041.751610
573.046923	9984.975614
573.401860	9943.998595
573.756743	9878.438390
574.111570	9924.449001
574.466342	9906.547863
574.821059	9934.942162
575.175722	9825.120626
575.530330	9836.334673
575.884882	9825.808743
576.239380	9753.165717
576.593823	9732.983457
576.948211	9748.467361
577.302544	9631.051326
577.656823	9633.783632
578.011047	9645.090940
578.365216	9617.142783
578.719330	9539.473726
579.073389	9553.160458
579.427394	9505.277058
579.781344	9474.440320
580.135239	9426.514071
580.489080	9435.557901
580.842866	9332.481428
581.196597	9344.476854
581.550273	9384.007062
581.903895	9351.317699
582.257463	9418.483513
582.610975	9293.979616
582.964434	9324.604625
583.317837	9247.905990
583.671186	9226.029903
584.024481	9223.065704
584.377721	9138.737283
584.730906	9121.690621
585.084037	9148.794385
585.437113	9087.496475
585.790135	9104.991799
586.143103	9009.998817
586.496016	8972.774937
586.848874	9035.985965
587.201679	9027.408441
587.554428	8909.652129
587.907124	8956.313049
588.259765	8924.636958
588.612352	8926.476980
588.964884	8805.758989
589.317362	8824.000404
589.669786	8822.172986
590.022155	8869.882466
590.374470	8878.084423
590.726731	8819.755753
591.078937	8671.908793
591.431090	8788.677039
591.783188	8657.808685
592.135232	8655.915732
592.487222	8647.925503
592.839157	8708.527734
593.191038	8640.056262
593.542866	8585.571471
593.894639	8481.249834
594.246358	8535.454840
594.598022	8551.669712
594.949633	8447.277498
595.301190	8422.127181
595.652692	8452.167417
596.004141	8561.172287
596.355535	8339.205242
596.706876	8319.360740
597.058162	8256.679033
597.409395	8334.718615
597.760573	8396.429900
598.111698	8299.788460
598.462768	8291.460474
598.813785	8256.096779
599.164748	8224.614774
599.515657	8214.282929
599.866511	8126.821430
600.217312	8248.666119
600.568060	8105.212524
600.918753	8212.795788
601.269392	8182.130450
601.619978	8092.899506
601.970510	8157.622880
602.320988	8147.608628
602.671412	8211.837969
603.021783	8144.707444
603.372100	8115.516643
603.722363	8118.067467
604.072572	8093.895134
604.422728	8107.780992
604.772830	8036.216772
605.122878	8042.460241
605.472872	8039.122997
605.822813	8072.321516
606.172701	8017.330089
606.522534	8087.162673
606.872314	8090.411697
607.222041	8057.384577
607.571714	8116.383721
607.921333	8074.698420
608.270899	8078.867454
608.620411	8168.400867
608.969870	8069.246412
609.319276	8067.265239
609.668627	8077.060201
610.017926	8115.889688
610.367171	8161.181935
610.716362	8141.937330
611.065500	8131.991133
611.414585	8157.958117
611.763616	8144.102506
612.112594	8125.999722
612.461518	8144.122670
612.810389	8200.011422
613.159207	8144.394892
613.507971	8088.385153
613.856682	8210.597845
614.205340	8164.998088
614.553945	8240.428873
614.902496	8141.415571
615.250994	8201.813635
615.599439	8178.959564
615.947830	8194.403139
616.296169	8167.105291
616.644454	8179.330089
616.992686	8178.115171
617.340864	8234.492915
617.688990	8141.239130
618.037063	8227.339517
618.385082	8178.750356
618.733048	8260.288499
619.080961	8197.926905
619.428821	8217.355512
619.776628	8220.092859
620.124382	8175.403030
620.472083	8154.331007
620.819731	8183.370573
621.167326	8080.644461
621.514868	8088.944721
621.862357	7972.504149
622.209793	7988.744226
622.557176	7928.149557
622.904506	7896.917088
623.251783	7828.571645
623.599007	7788.623022
623.946179	7786.777959
624.293297	7745.392607
624.640363	7668.951070
624.987376	7649.010786
625.334336	7600.976152
625.681243	7548.384314
626.028097	7533.522993
626.374899	7509.078438
626.721647	7507.787903
627.068343	7433.382992
627.414987	7401.863178
627.761577	7362.096036
628.108115	7398.442755
628.454600	7297.717981
628.801032	7340.192222
629.147412	7305.279711
629.493739	7296.172867
629.840014	7229.387661
630.186236	7282.443284
630.532405	7164.074472
630.878521	7220.142185
631.224585	7173.771131
631.570597	7101.609534
631.916556	7134.422405
632.262462	7126.931250
632.608316	7089.266269
632.954117	7069.898156
633.299866	7051.815537
633.645562	7048.788324
633.991206	6971.459545
634.336797	6906.007724
634.682336	6865.917948
635.027823	6834.730850
635.373257	6828.321023
635.718639	6758.216217
636.063968	6773.788341
636.409245	6665.902607
636.754470	6664.044942
637.099642	6623.075485
637.444762	6564.736732
637.789829	6572.394245
638.134845	6516.578589
638.479808	6502.755745
638.824719	6510.519122
639.169577	6434.064983
639.514383	6456.745134
639.859137	6381.518516
640.203839	6391.137037
640.548489	6376.583226
640.893086	6354.699577
641.237632	6325.869219
641.582125	6350.669175
641.926566	6317.299257
642.270955	6332.054714
642.615292	6327.628581
642.959576	6341.027968
643.303809	6330.083623
643.647990	6335.954047
643.992118	6329.130845
644.336195	6272.987515
644.680219	6300.028264
645.024192	6291.748169
645.368112	6383.867694
645.711981	6408.095479
646.055797	6486.044320
646.399562	6443.658299
646.743274	6564.893008
647.086935	6619.720597
647.430544	6611.652230
647.774101	6634.841538
648.117606	6637.740201
648.461059	6630.942205
648.804460	6592.982317
649.147810	6502.445714
649.491108	6475.377239
649.834354	6450.589885
650.177548	6367.403285
650.520690	6280.531602
650.863781	6260.916472
651.206820	6277.428771
651.549807	6205.791455
651.892742	6135.956350
652.235626	6145.274923
652.578458	6127.157016
652.921238	6040.275250
653.263967	6079.787814
653.606644	6019.929153
653.949269	6025.245050
654.291843	5962.265915
654.634365	6015.074522
654.976836	5965.270443
655.319255	5967.170958
655.661622	5943.059119
656.003938	5940.251196
656.346203	5903.102934
656.688416	5934.390855
657.030577	5883.187855
657.372687	5855.345563
657.714746	5846.533626
658.056753	5885.133741
658.398708	5822.683927
658.740612	5814.219830
659.082465	5863.093816
659.424266	5862.438466
659.766016	5857.472930
660.107715	5831.705072
660.449362	5848.701322
660.790958	5836.771431
661.132503	5827.495708
661.473996	5862.335123
661.815438	5854.319688
662.156829	5845.490107
662.498168	5839.445763
662.839456	5820.949770
663.180693	5850.004460
663.521879	5850.223750
663.863013	5840.418706
664.204097	5860.585842
664.545129	5903.758284
664.886110	5895.788219
665.227040	5930.730977
665.567918	5896.562037
665.908746	5921.767806
666.249522	5927.338281
666.590248	5913.661630
666.930922	5942.779335
667.271545	5952.700326
667.612118	5958.550585
667.952639	5932.581081
668.293109	5953.252332
668.633528	5913.898565
668.973896	5915.705818
669.314213	5906.276340
669.654480	5886.235233
669.994695	5879.575869
670.334859	5869.402820
670.674973	5863.620617
671.015035	5864.061718
671.355047	5865.533735
671.695008	5853.258525
672.034918	5823.563608
672.374777	5839.942317
672.714585	5817.756199
673.054342	5827.546120
673.394049	5813.808976
673.733705	5846.896589
674.073310	5836.355536
674.412864	5793.142765
674.752368	5787.249657
675.091820	5791.970697
675.431223	5728.570626
675.770574	5726.239092
676.109875	5679.265621
676.449125	5690.910686
676.788324	5651.428369
677.127473	5594.589359
677.466571	5586.233647
677.805619	5575.932049
678.144616	5560.886725
678.483562	5540.427202
678.822458	5510.427296
679.161303	5502.421944
679.500098	5497.985728
679.838842	5476.505372
680.177535	5481.465867
680.516179	5500.871789
680.854771	5507.112737
681.193314	5590.959729
681.531805	5696.032498
681.870247	5848.260221
682.208638	5951.475325
682.546978	5958.490091
682.885268	5942.663388
683.223508	5856.018557
683.561697	5802.731040
683.899836	5768.544455
684.237925	5725.561057
684.575963	5687.434810
684.913951	5652.587834
685.251889	5713.573193
685.589776	5679.421896
685.927614	5653.636394
686.265401	5723.559719
686.603137	5706.891144
686.940824	5780.383605
687.278460	5807.414272
687.616046	5816.861394
687.953582	5885.141303
688.291068	5864.916193
688.628504	5929.884063
688.965889	5891.190687
689.303224	5837.951061
689.640510	5789.707219
689.977745	5712.358275
690.314930	5616.256239
690.652065	5555.137289
690.989150	5465.429957
691.326185	5391.244337
691.663170	5336.159649
692.000105	5260.116363
692.336990	5186.122307
692.673825	5159.399151
693.010610	5091.003296
693.347345	5021.241288
693.684030	5007.010111
694.020665	4965.743226
694.357251	4875.251994
694.693786	4886.405547
695.030272	4851.946739
695.366707	4818.402902
695.703093	4779.974186
696.039429	4807.582065
696.375716	4789.343170
696.711952	4763.855097
697.048139	4748.219958
697.384276	4728.357812
697.720363	4741.346345
698.056400	4748.696347
698.392388	4699.335889
698.728326	4682.107746
699.064214	4657.834590
699.400053	4659.203263
699.735842	4622.574239
700.071581	4597.741516
700.407270	4567.605498
700.742910	4550.301737
701.078501	4495.176720
701.414042	4495.380887
701.749533	4464.231597
702.084974	4401.854880
702.420366	4460.319662
702.755709	4400.962596
703.091002	4342.422197
703.426246	4390.338364
703.761440	4343.647197
704.096584	4312.644101
704.431679	4330.610773
704.766725	4314.504287
705.101721	4303.809479
705.436668	4335.878779
705.771565	4283.675110
706.106413	4305.941887
706.441212	4342.409594
706.775961	4349.593238
707.110661	4328.090196
707.445311	4356.481975
707.779913	4378.942836
708.114465	4394.935896
708.448967	4414.021705
708.783421	4475.269203
709.117825	4521.362994
709.452180	4521.572202
709.786485	4567.940735
710.120742	4650.572808
710.454949	4635.968585
710.789107	4703.583061
711.123216	4782.494763
711.457275	4770.640490
711.791286	4844.488352
712.125247	4859.581567
712.459159	4761.367287
712.793023	4836.775387
713.126837	4797.598060
713.460602	4791.218480
713.794318	4710.643197
714.127985	4720.642326
714.461602	4633.085045
714.795171	4602.712093
715.128691	4536.065519
715.462162	4481.570646
715.795584	4435.892751
716.128957	4411.639760
716.462281	4362.538921
716.795556	4335.067153
717.128782	4298.879230
717.461960	4226.896595
717.795088	4239.844798
718.128167	4200.375084
718.461198	4139.498110
718.794180	4135.563490
719.127113	4115.703864
719.459997	4092.920369
719.792833	4050.877146
720.125619	4041.498080
720.458357	4004.266638
720.791046	4011.566229
721.123686	3983.078668
721.456278	3944.917134
721.788821	3957.449442
722.121315	3935.850618
722.453761	3906.596803
722.786158	3920.306221
723.118506	3940.869087
723.450805	3894.795462
723.783056	3916.255653
724.115259	3934.214764
724.447412	3937.574693
724.779518	3933.198972
725.111574	3936.425310
725.443582	3965.028817
725.775542	3951.256385
726.107453	4003.850743
726.439315	4001.622553
726.771129	4017.943288
727.102895	4050.844379
727.434612	4098.770628
727.766281	4107.940487
728.097901	4111.983493
728.429473	4118.680666
728.760996	4119.393989
729.092471	4117.059935
729.423897	4101.167697
729.755276	4109.329325
730.086606	4108.636167
730.417887	4148.826766
730.749120	4211.939491
731.080305	4277.169501
731.411442	4300.678922
731.742530	4273.728914
732.073570	4275.760499
732.404562	4329.037933
732.735506	4327.099610
733.066401	4285.474802
733.397249	4218.800502
733.728048	4145.149244
734.058798	4060.994742
734.389501	3990.794154
734.720156	3925.087755
735.050762	3886.444790
735.381320	3874.696381
735.711831	3824.599915
736.042293	3796.770225
736.372707	3819.107578
736.703073	3786.425777
737.033391	3778.191052
737.363661	3797.556645
737.693883	3825.842559
738.024056	3830.069567
738.354182	3828.466480
738.684260	3893.446953
739.014290	3912.721805
739.344272	3907.204262
739.674207	3948.813946
740.004093	3953.696303
740.333931	3948.302268
740.663722	3950.875777
740.993464	3945.973255
741.323159	3921.092641
741.652806	3893.661202
741.982405	3867.018704
742.311956	3833.137109
742.641460	3823.185871
742.970915	3799.888179
743.300323	3761.681274
743.629683	3727.167014
743.958996	3716.547823
744.288260	3689.144111
744.617477	3657.336951
744.946647	3645.223058
745.275768	3625.083648
745.604842	3618.900673
745.933869	3572.154054
746.262847	3562.757343
746.591778	3598.980554
746.920662	3567.246490
747.249498	3538.143909
747.578286	3584.217535
747.907027	3602.181687
748.235720	3597.836212
748.564365	3623.810757
748.892963	3628.655306
749.221514	3606.224692
749.550017	3583.032864
749.878473	3581.588573
750.206881	3554.807443
750.535242	3546.076165
750.863555	3552.087741
751.191821	3545.362842
751.520039	3528.898433
751.848210	3504.131244
752.176334	3537.486039
752.504411	3547.941392
752.832440	3502.470184
753.160421	3484.327071
753.488356	3496.234277
753.816243	3511.972759
754.144082	3468.356696
754.471875	3449.396916
754.799620	3473.549084
755.127318	3462.450984
755.454969	3463.242445
755.782572	3468.016418
756.110129	3445.333746
756.437638	3433.630708
756.765100	3448.562605
757.092515	3457.750108
757.419882	3466.582210
757.747203	3436.221861
758.074477	3440.758899
758.401703	3456.827577
758.728882	3474.723673
759.056014	3482.534941
759.383099	3488.118019
759.710138	3481.599807
760.037129	3501.804752
760.364073	3530.909853
760.690970	3519.476517
761.017820	3492.113133
761.344623	3511.985362
761.671379	3556.730643
761.998088	3610.560084
762.324751	3736.515834
762.651366	3982.937516
762.977935	4453.630051
763.304456	4896.565992
763.630931	4991.634592
763.957359	4628.943737
764.283740	4288.000420
764.610074	4097.926235
764.936362	3900.073550
765.262602	3741.078078
765.588796	3631.269144
765.914943	3543.086761
766.241044	3451.355405
766.567097	3424.017227
766.893104	3380.491905
767.219064	3346.880012
767.544978	3321.180209
767.870845	3265.500665
768.196665	3248.249837
768.522438	3258.344747
768.848165	3251.725712
769.173846	3215.227758
769.499479	3196.547763
769.825066	3179.816173
770.150607	3163.941580
770.476101	3178.538241
770.801548	3174.462468
771.126949	3130.962351
771.452303	3113.464506
771.777611	3120.159159
772.102872	3123.297277
772.428087	3098.709049
772.753256	3091.379211
773.078378	3081.564085
773.403453	3050.369425
773.728482	3034.925850
774.053465	3056.499468
774.378401	3047.274156
774.703291	3014.481451
775.028135	3015.585463
775.352932	3009.412570
775.677683	2996.766836
776.002388	2995.123420
776.327046	2995.869511
776.651658	2985.772079
776.976224	2973.617858
777.300743	2974.605924
777.625216	2965.955304
777.949643	2959.726958
778.274024	2961.254428
778.598359	2953.130608
778.922647	2957.760908
779.246889	2957.546659
779.571086	2940.368927
779.895236	2932.000612
780.219339	2945.296655
780.543397	2958.184365
780.867409	2962.315591
781.191374	2953.571709
781.515294	2950.567182
781.839167	2951.709003
782.162995	2943.620472
782.486776	2953.937193
782.810511	2947.769341
783.134201	2937.641663
783.457844	2940.018567
783.781441	2935.489090
784.104993	2914.401944
784.428498	2912.350194
784.751958	2927.695467
785.075372	2921.825043
785.398739	2906.252919
785.722061	2922.074580
786.045337	2932.630756
786.368568	2917.650968
786.691752	2907.845923
787.014891	2958.738892
787.337983	2987.317193
787.661030	3016.777696
787.984031	3083.822522
788.306987	3128.134264
788.629897	3120.373408
788.952760	3104.685337
789.275579	3089.642534
789.598351	3029.332690
789.921078	2986.044302
790.243759	2978.293528
790.566395	2959.520271
790.888984	2934.606888
791.211529	2920.017789
791.534027	2907.790471
791.856480	2902.121693
792.178888	2885.654764
792.501249	2876.873074
792.823566	2872.550285
793.145836	2869.739841
793.468062	2865.285982
793.790241	2868.459388
794.112375	2871.421066
794.434464	2881.768034
794.756507	2889.511247
795.078505	2894.738923
795.400457	2906.721746
795.722364	2941.835903
796.044226	2968.264152
796.366042	2969.746251
796.687812	2957.193778
797.009538	2979.999958
797.331218	2965.786425
797.652852	2952.616411
797.974442	2934.851384
798.295986	2929.480035
798.617484	2927.173707
798.938938	2913.308013
799.260346	2894.880076
799.581709	2887.991339
799.903026	2883.388765
800.224299	2878.816439
800.545526	2870.032228
800.866708	2852.736029
801.187845	2843.818228
801.508936	2844.594566
801.829983	2853.519929
802.150984	2838.797239
802.471940	2826.045640
802.792851	2826.522029
803.113717	2825.284426
803.434538	2832.246260
803.755314	2824.611432
804.076045	2817.626913
804.396731	2819.005669
804.717372	2814.496357
805.037967	2813.644402
805.358518	2817.223621
805.679024	2831.600992
805.999485	2826.320383
806.319901	2831.301043
806.640272	2821.148159
806.960598	2828.848522
807.280879	2838.096519
807.601115	2844.120697
807.921306	2826.779128
808.241453	2825.871721
808.561554	2833.037721
808.881611	2835.097032
809.201623	2828.541012
809.521590	2828.906495
809.841513	2825.775939
810.161390	2828.256186
810.481223	2821.493478
810.801011	2811.587611
811.120755	2808.114256
811.440453	2810.859164
811.760107	2813.389824
812.079716	2813.094916
812.399281	2801.054120
812.718801	2795.904582
813.038276	2789.459466
813.357707	2795.922226
813.677093	2802.122845
813.996434	2797.343831
814.315731	2792.683284
814.634983	2786.573406
814.954191	2788.088272
815.273354	2803.143678
815.592473	2810.440749
815.911547	2810.423105
816.230577	2820.558344
816.549562	2830.645693
816.868502	2829.403049
817.187399	2837.168946
817.506250	2854.021524
817.825058	2848.723271
818.143821	2860.711135
818.462539	2876.994062
818.781213	2904.181004
819.099843	2939.920265
819.418429	2994.354644
819.736970	3058.430230
820.055466	3127.478914
820.373919	3235.372209
820.692327	3373.598127
821.010691	3541.329918
821.329011	3986.909945
821.647286	4881.815576
821.965517	6253.798363
822.283704	7000.529358
822.601847	6979.540514
822.919945	6345.035686
823.237999	5843.576989
823.556010	5267.315131
823.873976	4712.768043
824.191897	4306.380467
824.509775	4009.441382
824.827609	3739.404415
825.145398	3615.944037
825.463144	3606.622943
825.780845	3698.069474
826.098502	3802.217192
826.416116	4083.896704
826.733685	4393.542017
827.051210	4460.682625
827.368692	4350.530893
827.686129	4078.893359
828.003522	3757.940738
828.320872	3498.896006
828.638177	3303.422745
828.955439	3168.334945
829.272656	3085.355032
829.589830	3016.823067
829.906960	2968.732979
830.224046	2924.481731
830.541088	2887.968654
830.858086	2873.732435
831.175041	2859.410517
831.491952	2860.229705
831.808819	2868.943339
832.125642	2893.345044
832.442421	2938.786005
832.759157	3020.344313
833.075849	3199.043134
833.392497	3478.433963
833.709101	3680.299407
834.025662	3631.969865
834.342179	3468.946511
834.658653	3295.861014
834.975083	3145.246461
835.291469	3052.733726
835.607811	2965.942701
835.924110	2907.286355
836.240366	2858.465301
836.556578	2814.798826
836.872746	2793.593212
837.188871	2770.406425
837.504952	2752.230545
837.820990	2743.103536
838.136984	2728.706001
838.452935	2724.710886
838.768842	2719.415154
839.084706	2741.709657
839.400526	2818.514157
839.716303	2951.328396
840.032037	3030.063657
840.347727	3016.094620
840.663373	2957.077832
840.978977	2879.615462
841.294537	2807.106025
841.610054	2759.104158
841.925527	2739.947774
842.240957	2716.345092
842.556344	2692.898685
842.871687	2678.291942
843.186987	2669.419511
843.502244	2665.646207
843.817458	2658.644045
844.132629	2648.899494
844.447756	2635.396764
844.762840	2631.782256
845.077881	2633.347535
845.392879	2634.451547
845.707833	2630.025414
846.022745	2624.699435
846.337613	2623.676081
846.652438	2625.569034
846.967221	2623.759260
847.281960	2621.069804
847.596656	2619.108796
847.911309	2621.692387
848.225919	2619.572582
848.540485	2615.534617
848.855009	2613.185440
849.169490	2615.522015
849.483928	2614.034874
849.798323	2613.573609
850.112675	2612.313320
850.426984	2614.297014
850.741251	2609.848196
851.055474	2610.523711
851.369654	2613.684514
851.683792	2613.371962
851.997887	2611.927672
852.311938	2611.385748
852.625947	2612.414143
852.939914	2612.898094
853.253837	2615.514453
853.567718	2611.378186
853.881555	2610.836262
854.195350	2614.332302
854.509103	2611.693258
854.822812	2612.653598
855.136479	2611.080758
855.450103	2613.934051
855.763685	2614.193671
856.077224	2611.925151
856.390720	2609.434821
856.704173	2612.290635
857.017584	2614.486057
857.330953	2617.049484
857.644278	2619.101234
857.957561	2619.796913
858.270802	2615.958074
858.584000	2616.646192
858.897155	2617.490585
859.210268	2619.141563
859.523339	2613.167796
859.836367	2611.204266
860.149352	2612.285594
860.462295	2613.487909
860.775195	2606.775613
861.088054	2607.705706
861.400869	2608.028339
861.713642	2603.133379
862.026373	2607.052876
862.339062	2609.243257
862.651708	2615.474124
862.964312	2616.729371
863.276873	2614.027312
863.589392	2617.475462
863.901869	2621.213477
864.214303	2624.674229
864.526696	2631.079015
864.839045	2627.386370
865.151353	2633.934829
865.463619	2632.167905
865.775842	2629.982564
866.088023	2629.281844
866.400162	2633.029942
866.712258	2632.288892
867.024313	2630.963069
867.336325	2625.228756
867.648296	2629.861577
867.960224	2633.012298
868.272110	2631.487349
868.583954	2625.541308
868.895755	2628.339148
869.207515	2634.073461
869.519233	2640.137969
869.830909	2636.702422
870.142542	2630.968110
870.454134	2632.147740
870.765684	2641.229379
871.077191	2639.966570
871.388657	2645.539565
871.700081	2639.535551
872.011463	2640.924389
872.322803	2642.431694
872.634101	2644.508649
872.945357	2654.051553
873.256571	2658.296205
873.567744	2655.757984
873.878874	2655.793272
874.189963	2657.169507
874.501010	2660.234529
874.812015	2665.936074
875.122979	2666.515806
875.433900	2655.604229
875.744780	2657.459373
876.055618	2661.184786
876.366415	2664.181752
876.677169	2667.340035
876.987882	2660.393325
877.298554	2661.371309
877.609183	2670.097546
877.919771	2677.235820
878.230317	2683.287725
878.540822	2694.920188
878.851285	2708.843855
879.161707	2730.609036
879.472087	2770.358534
879.782425	2815.862510
880.092722	2932.348452
880.402977	3119.236627
880.713191	3380.746483
881.023363	3668.591327
881.333494	3861.523846
881.643583	4035.136143
881.953631	4032.212274
882.263637	3853.531097
882.573602	3632.844505
882.883526	3503.488497
883.193408	3393.188051
883.503248	3287.311217
883.813048	3173.219823
884.122806	3060.965930
884.432522	2977.229844
884.742197	2911.715009
885.051831	2874.302086
885.361424	2839.434945
885.670975	2802.861374
885.980485	2773.269801
886.289954	2756.228180
886.599382	2741.339132
886.908768	2729.399159
887.218113	2710.230172
887.527417	2694.912626
887.836680	2687.124043
888.145901	2683.801923
888.455082	2677.137517
888.764221	2664.655621
889.073319	2656.872079
889.382376	2655.924342
889.691392	2657.073725
890.000366	2659.112872
890.309300	2654.064156
890.618193	2658.182779
890.927044	2657.509785
891.235855	2662.767708
891.544625	2656.178920
891.853353	2658.845691
892.162041	2668.433965
892.470687	2688.613704
892.779293	2699.288347
893.087858	2710.363762
893.396381	2730.349417
893.704864	2773.085799
894.013306	2841.630367
894.321707	2934.296858
894.630068	2985.199908
894.938387	3007.872498
895.246665	3000.217506
895.554903	2954.378294
895.863100	2913.807088
896.171256	2853.015813
896.479371	2792.557255
896.787446	2754.544435
897.095480	2738.037177
897.403473	2728.010322
897.711425	2716.944989
898.019336	2693.778366
898.327207	2680.691531
898.635038	2680.119360
898.942827	2678.123063
899.250576	2666.997237
899.558284	2656.352840
899.865952	2648.907056
900.173579	2649.988383
900.481165	2648.223980
900.788711	2640.425315
901.096216	2632.064561
901.403681	2629.796042
901.711105	2631.482308
902.018489	2629.745630
902.325832	2631.966258
902.633135	2632.482977
902.940397	2648.803712
903.247619	2686.743436
903.554800	2757.246493
903.861941	2882.153683
904.169041	3006.050121
904.476101	3068.023546
904.783121	3065.029100
905.090100	3005.730007
905.397039	2930.014397
905.703938	2858.583768
906.010796	2794.787966
906.317614	2745.475399
906.624391	2708.604400
906.931129	2677.719771
907.237826	2657.814775
907.544483	2640.145531
907.851099	2626.705814
908.157675	2616.089144
908.464211	2610.450614
908.770707	2600.136413
909.077163	2596.095928
909.383578	2593.706421
909.689954	2590.112079
909.996289	2589.600402
910.302584	2587.830957
910.608839	2586.535380
910.915054	2584.307190
911.221229	2589.368508
911.527363	2593.968561
911.833458	2587.314238
912.139513	2591.997470
912.445527	2594.142481
912.751502	2595.806062
913.057436	2603.924840
913.363331	2609.578494
913.669186	2617.420009
913.975000	2632.520785
914.280775	2651.440236
914.586510	2666.485559
914.892205	2705.693133
915.197859	2771.654111
915.503475	2857.126874
915.809050	2921.394024
916.114585	2935.935233
916.420081	2951.371246
916.725536	2958.055816
917.030952	2930.521033
917.336328	2887.887995
917.641665	2836.818586
917.946961	2787.047274
918.252218	2754.262130
918.557435	2727.886813
918.862612	2704.969728
919.167750	2688.157480
919.472848	2670.674758
919.777906	2654.570792
920.082925	2646.005872
920.387904	2629.977523
920.692843	2626.796555
920.997743	2625.755557
921.302603	2617.689711
921.607423	2611.605038
921.912204	2604.610437
922.216946	2600.212030
922.521647	2600.141454
922.826310	2597.409149
923.130932	2588.375401
923.435516	2583.417426
923.740059	2583.621593
924.044564	2583.631675
924.349028	2581.118660
924.653454	2573.385530
924.957840	2572.168092
925.262186	2566.080898
925.566493	2570.295303
925.870761	2564.616443
926.174989	2565.327246
926.479178	2564.770198
926.783328	2567.250446
927.087438	2562.514282
927.391509	2560.752399
927.695541	2560.543191
927.999533	2557.581513
928.303486	2556.210319
928.607400	2558.776266
928.911275	2553.878785
929.215110	2554.307283
929.518906	2555.484393
929.822663	2557.362223
930.126381	2555.560010
930.430060	2557.614280
930.733699	2555.441543
931.037299	2557.392470
931.340861	2556.033879
931.644383	2553.616645
931.947866	2555.789383
932.251309	2553.878785
932.554714	2558.506565
932.858080	2554.455998
933.161407	2555.905329
933.464694	2554.909701
933.767943	2555.744012
934.071153	2553.445246
934.374323	2552.933569
934.677455	2555.872562
934.980548	2550.647406
935.283602	2552.812581
935.586617	2552.530277
935.889593	2551.885009
936.192530	2552.331151
936.495428	2552.336192
936.798287	2555.363405
937.101108	2554.219063
937.403890	2556.187634
937.706632	2565.390260
938.009336	2565.566701
938.312002	2570.025601
938.614628	2570.444017
938.917216	2576.238823
939.219765	2574.381158
939.522275	2577.478947
939.824747	2575.485171
940.127179	2570.340673
940.429573	2566.821948
940.731929	2567.394119
941.034246	2565.947308
941.336524	2567.300857
941.638763	2564.747513
941.940964	2564.666855
942.243126	2565.165929
942.545250	2561.125444
942.847335	2560.127296
943.149381	2559.698797
943.451389	2559.928170
943.753359	2555.186965
944.055290	2558.496482
944.357182	2555.834753
944.659036	2556.560679
944.960851	2557.110165
945.262628	2552.777293
945.564367	2557.795762
945.866067	2559.146791
946.167729	2559.724003
946.469352	2557.258879
946.770937	2556.568241
947.072484	2554.297201
947.373992	2555.769218
947.675462	2553.578837
947.976893	2556.595967
948.278286	2552.648744
948.579641	2553.944320
948.880958	2549.374514
949.182236	2554.188816
949.483476	2550.569268
949.784678	2553.170503
950.085841	2552.600853
950.386967	2551.816953
950.688054	2550.907025
950.989103	2555.058415
951.290114	2555.721327
951.591087	2556.434650
951.892021	2556.976574
952.192917	2561.168294
952.493776	2557.846173
952.794596	2558.622511
953.095378	2563.409087
953.396122	2562.410938
953.696828	2558.403221
953.997496	2555.741492
954.298126	2555.663354
954.598718	2555.678477
954.899272	2554.564382
955.199788	2551.360729
955.500266	2551.552293
955.800706	2548.391489
956.101108	2543.189019
956.401472	2547.103475
956.701798	2544.471992
957.002087	2542.790768
957.302337	2543.494008
957.602550	2542.700027
957.902724	2542.165664
958.202861	2541.530479
958.502960	2541.419574
958.803022	2541.222969
959.103045	2543.614996
959.403031	2541.732125
959.702979	2542.170706
960.002889	2541.515356
960.302762	2538.278935
960.602596	2539.234233
960.902393	2541.873278
961.202153	2540.507125
961.501875	2537.774819
961.801559	2540.134079
962.101205	2539.186343
962.400814	2537.890766
962.700385	2537.651311
962.999918	2540.481919
963.299414	2537.134593
963.598873	2538.528472
963.898293	2537.908410
964.197677	2537.416898
964.497022	2537.525282
964.796331	2538.359593
965.095601	2537.031249
965.394835	2535.781043
965.694030	2537.603420
965.993189	2539.098122
966.292309	2537.812628
966.591393	2535.899510
966.890439	2533.704088
967.189447	2536.776671
967.488419	2538.997299
967.787353	2538.205838
968.086249	2537.583256
968.385108	2535.594520
968.683930	2537.248019
968.982714	2533.699047
969.281462	2537.915972
969.580172	2537.207690
969.878844	2536.345652
970.177480	2537.560570
970.476078	2538.651980
970.774639	2537.757175
971.073162	2537.258101
971.371649	2536.015457
971.670098	2535.289531
971.968510	2536.259953
972.266885	2533.951104
972.565223	2538.442772
972.863524	2535.760878
973.161788	2536.159130
973.460014	2538.543595
973.758204	2541.485109
974.056356	2536.433873
974.354471	2540.403781
974.652550	2538.740200
974.950591	2536.123842
975.248595	2535.770961
975.546563	2536.564942
975.844493	2538.732639
976.142386	2536.900179
976.440243	2537.898328
976.738062	2536.348173
977.035845	2533.988913
977.333590	2537.978986
977.631299	2536.552340
977.928971	2537.041332
978.226606	2537.840354
978.524204	2537.197607
978.821765	2536.353214
979.119290	2538.964532
979.416777	2534.046886
979.714228	2538.205838
980.011642	2536.557381
980.309020	2537.805066
980.606360	2536.272556
980.903664	2537.863040
981.200931	2537.628626
981.498162	2538.949408
981.795356	2541.472506
982.092513	2544.363607
982.389633	2546.390151
982.686717	2548.217570
982.983764	2550.992725
983.280775	2550.516336
983.577749	2552.399207
983.874686	2549.326623
984.171587	2547.448794
984.468451	2546.778320
984.765279	2546.732950
985.062070	2540.756662
985.358824	2541.550644
985.655543	2539.486291
985.952224	2538.024357
986.248869	2537.421939
986.545478	2530.399611
986.842050	2534.901362
987.138586	2532.930271
987.435086	2533.502442
987.731549	2531.143182
988.027975	2534.182997
988.324366	2532.660569
988.620719	2532.947915
988.917037	2534.510672
989.213318	2533.371372
989.509563	2535.392874
989.805772	2533.378933
990.101944	2536.403626
990.398080	2533.918337
990.694180	2532.622760
990.990244	2536.113759
991.286271	2535.037473
991.582262	2536.534696
991.878217	2531.032276
992.174136	2532.930271
992.470019	2531.480939
992.765865	2533.482277
993.061676	2531.513706
993.357450	2536.544778
993.653188	2531.717873
993.948890	2537.578214
994.244556	2535.914634
994.540186	2536.242309
994.835780	2537.520241
995.131337	2537.167360
995.426859	2536.350693
995.722345	2536.330529
996.017795	2535.886907
996.313208	2537.502597
996.608586	2537.915972
996.903928	2540.900335
997.199234	2538.659542
997.494504	2537.477391
997.789738	2538.624254
998.084936	2534.898841
998.380099	2536.895138
998.675225	2536.854809
998.970316	2536.801877
999.265371	2534.883718
999.560390	2534.011598
999.855373	2535.158461
1000.150320	2531.914478
1000.445232	2534.228368
1000.740108	2532.247194
1001.034948	2534.871115
1001.329752	2531.090249
1001.624521	2530.530681
1001.919254	2530.455064
1002.213951	2529.686288
1002.508613	2527.947090
1002.803239	2530.949097
1003.097829	2526.790145
1003.392384	2533.469674
1003.686903	2533.721732
1003.981386	2533.598223
1004.275834	2533.898172
1004.570246	2533.482277
1004.864623	2533.444468
1005.158964	2533.078985
1005.453270	2531.856505
1005.747540	2532.776515
1006.041775	2530.129910
1006.335974	2532.645445
1006.630138	2529.126720
1006.924266	2533.789787
1007.218359	2532.108563
1007.512416	2532.743748
1007.806438	2531.554036
1008.100425	2530.581093
1008.394376	2530.180321
1008.688292	2531.750641
1008.982172	2531.528830
1009.276017	2531.012112
1009.569827	2531.175949
1009.863602	2533.898172
1010.157341	2532.156453
1010.451045	2531.402801
1010.744714	2530.785260
1011.038347	2530.298788
1011.331945	2530.273582
1011.625508	2530.122348
1011.919036	2531.856505
1012.212528	2528.292409
1012.505986	2529.948428
1012.799408	2532.133768
1013.092795	2529.136802
1013.386147	2530.538243
1013.679464	2529.487162
1013.972745	2531.196114
1014.265992	2531.125538
1014.559204	2532.398429
1014.852380	2529.265352
1015.145521	2533.038655
1015.438628	2531.632173
1015.731699	2530.946577
1016.024736	2531.395239
1016.317737	2532.746268
1016.610703	2530.583613
1016.903635	2527.432892
1017.196531	2527.203520
1017.489393	2529.240146
1017.782219	2525.855011
1018.075011	2530.560928
1018.367768	2530.618902
1018.660490	2533.235260
1018.953177	2533.235260
1019.245829	2533.235260
