Dividing Wavelength (nm)	Counts (n)	Blue Motor Position (mm): 27.900000	Red Motor Position (mm): 0.000000	
326.493990	2133.759106
326.888308	2133.759106
327.282561	2133.759106
327.676750	2101.452872
328.070874	2097.132603
328.464933	2101.412543
328.858929	2107.908069
329.252859	2118.771756
329.646726	2129.504372
330.040528	2141.850158
330.434265	2159.668116
330.827938	2174.811743
331.221547	2196.929805
331.615091	2213.618545
332.008571	2232.679148
332.401986	2251.838053
332.795338	2272.549633
333.188625	2290.284413
333.581847	2310.559933
333.975006	2327.621718
334.368100	2348.393793
334.761129	2363.159333
335.154095	2381.662888
335.546996	2401.951011
335.939833	2424.502613
336.332606	2437.183636
336.725315	2454.726851
337.117960	2460.370423
337.510540	2471.513893
337.903056	2481.636530
338.295508	2487.716162
338.687896	2497.160763
339.080220	2507.648884
339.472480	2513.451252
339.864676	2516.196160
340.256807	2519.735050
340.648875	2525.048427
341.040879	2526.898530
341.432818	2526.333921
341.824694	2529.262831
342.216506	2529.502286
342.608253	2527.460619
342.999937	2528.920033
343.391557	2529.777029
343.783113	2527.614374
344.174605	2526.701925
344.566033	2525.645803
344.957397	2522.651358
345.348697	2522.820237
345.739934	2521.363343
346.131106	2517.960564
346.522215	2517.627848
346.913260	2517.650533
347.304241	2514.943434
347.695159	2510.242558
348.086012	2511.664163
348.476802	2507.641322
348.867528	2507.038904
349.258191	2505.032525
349.648789	2505.982783
350.039324	2499.020949
350.429796	2503.608399
350.820203	2501.438182
351.210548	2497.869046
351.600828	2497.342245
351.991045	2499.265445
352.381198	2496.850732
352.771288	2498.456340
353.161314	2495.313181
353.551276	2497.148161
353.941175	2495.103973
354.331010	2495.887872
354.720782	2497.647235
355.110490	2497.579179
355.500135	2496.306288
355.889717	2497.017091
356.279235	2497.604385
356.668689	2499.194869
357.058080	2497.279231
357.447408	2494.592296
357.836672	2492.716986
358.225873	2494.519199
358.615010	2492.742192
359.004084	2499.401556
359.393095	2501.624705
359.782043	2500.082112
360.170927	2500.271155
360.559748	2501.102946
360.948505	2501.692761
361.337199	2500.351814
361.725830	2501.985148
362.114398	2503.915910
362.502903	2504.722494
362.891344	2505.544202
363.279722	2505.418173
363.668037	2504.742659
364.056289	2505.297186
364.444478	2506.310458
364.832603	2506.396157
365.220665	2508.568895
365.608665	2507.369100
365.996601	2509.055366
366.384474	2508.089985
366.772284	2509.635099
367.160031	2510.050994
367.547715	2509.284738
367.935336	2509.463699
368.322893	2509.471261
368.710388	2510.527383
369.097820	2511.732219
369.485189	2509.070489
369.872495	2510.993690
370.259738	2509.556961
370.646918	2511.643998
371.034035	2512.425377
371.421090	2510.439163
371.808081	2510.509739
372.195010	2512.889163
372.581875	2511.568381
372.968678	2513.831859
373.355418	2513.589884
373.742096	2513.352950
374.128710	2514.537621
374.515262	2514.247754
374.901751	2512.848834
375.288177	2513.657939
375.674540	2513.017713
376.060841	2513.922600
376.447079	2514.779596
376.833254	2514.341016
377.219367	2512.528721
377.605417	2512.516118
377.991404	2511.384379
378.377329	2512.281704
378.763191	2511.681807
379.148991	2514.711541
379.534727	2517.431243
379.920402	2515.379493
380.306013	2519.830832
380.691563	2517.738753
381.077049	2517.290091
381.462474	2519.467869
381.847835	2517.627848
382.233134	2516.886798
382.618371	2521.086080
383.003545	2519.984587
383.388657	2518.051305
383.773706	2518.941069
384.158693	2517.980729
384.543618	2519.482993
384.928480	2520.544156
385.313280	2518.885616
385.698017	2522.111954
386.082692	2519.044412
386.467305	2520.891995
386.851856	2521.691018
387.236344	2519.561131
387.620770	2524.302336
388.005133	2521.940555
388.389435	2523.936852
388.773674	2518.416789
389.157851	2521.428878
389.541965	2521.691018
389.926018	2524.786287
390.310008	2522.245545
390.693936	2522.174969
391.077802	2524.045237
391.461606	2523.921729
391.845348	2523.021883
392.229027	2524.572038
392.612645	2523.266379
392.996200	2524.992974
393.379694	2524.403159
393.763125	2523.049609
394.146494	2527.742923
394.529801	2527.027079
394.913047	2523.541122
395.296230	2526.966586
395.679351	2522.590864
396.062410	2528.015146
396.445408	2526.185207
396.828343	2528.299971
397.211217	2524.577079
397.594028	2520.992818
397.976778	2522.122037
398.359466	2526.432223
398.742092	2522.265710
399.124656	2526.449867
399.507158	2525.456760
399.889598	2527.954652
400.271977	2527.105217
400.654294	2530.686957
401.036549	2531.238963
401.418742	2531.954807
401.800874	2529.819879
402.182944	2529.025897
402.564952	2532.164015
402.946898	2530.404652
403.328783	2529.013294
403.710606	2530.165198
404.092367	2531.566638
404.474067	2532.612678
404.855705	2532.131248
405.237282	2530.465146
405.618797	2532.559746
406.000250	2533.799870
406.381642	2530.303829
406.762972	2533.850281
407.144240	2532.219468
407.525447	2536.121321
407.906593	2531.397760
408.287677	2535.864222
408.668700	2534.011598
409.049661	2533.026052
409.430560	2533.736855
409.811399	2533.905734
410.192176	2534.046886
410.572891	2535.387833
410.953545	2531.851464
411.334138	2537.328677
411.714669	2532.960518
412.095139	2536.968235
412.475547	2534.624098
412.855894	2538.634336
413.236180	2533.512524
413.616405	2537.048893
413.996568	2535.465971
414.376670	2536.784233
414.756711	2536.123842
415.136691	2535.574356
415.516609	2540.199614
415.896466	2537.469830
416.276262	2536.529654
416.655997	2535.458409
417.035670	2536.328008
417.415283	2536.093595
417.794834	2532.837009
418.174324	2539.335057
418.553753	2538.697351
418.933121	2539.120808
419.312428	2538.914120
419.691674	2540.282793
420.070859	2538.319264
420.449983	2539.859337
420.829045	2540.824718
421.208047	2542.140459
421.586988	2541.893442
421.965867	2542.183308
422.344686	2543.078113
422.723444	2541.306148
423.102141	2542.221117
423.480777	2543.088196
423.859352	2542.800850
424.237866	2541.966539
424.616319	2543.017619
424.994712	2539.458565
425.373044	2544.388813
425.751314	2543.839327
426.129524	2544.789585
426.507673	2546.173382
426.885762	2547.766386
427.263789	2546.284287
427.641756	2542.256405
428.019662	2548.572971
428.397508	2548.988866
428.775292	2547.443753
429.153016	2547.247148
429.530679	2549.230842
429.908282	2548.063814
430.285824	2550.498692
430.663305	2549.074566
431.040726	2552.126984
431.418086	2549.676984
431.795385	2553.409958
432.172624	2552.126984
432.549802	2553.704866
432.926920	2557.624363
433.303977	2557.185782
433.680974	2558.337686
434.057910	2563.673747
434.434786	2563.625856
434.811601	2567.822617
435.188355	2569.012329
435.565050	2572.775551
435.941683	2575.132290
436.318257	2581.514391
436.694770	2583.997159
437.071222	2592.413365
437.447614	2592.811617
437.823946	2597.651124
438.200218	2610.521190
438.576429	2615.910183
438.952580	2626.683129
439.328670	2635.253091
439.704700	2643.177785
440.080670	2649.060811
440.456580	2671.766168
440.832429	2678.163392
441.208218	2682.196315
441.583947	2701.304809
441.959616	2711.475337
442.335224	2722.086966
442.710773	2743.544637
443.086261	2758.158942
443.461689	2761.317225
443.837057	2788.751184
444.212365	2814.234217
444.587612	2825.430620
444.962800	2854.901205
445.337927	2875.766541
445.712995	2861.918491
446.088002	2936.928340
446.462949	2943.217179
446.837837	2959.358954
447.212664	2999.133658
447.587431	3048.446225
447.962139	3151.250475
448.336786	3308.973055
448.711374	3307.511121
449.085901	3206.909855
449.460369	3227.054305
449.834776	3254.183275
450.209124	3359.445088
450.583412	3436.579783
450.957640	3491.387207
451.331808	3489.469048
451.705917	3443.203859
452.079965	3467.908033
452.453954	3556.687794
452.827883	3570.906368
453.201752	3637.394146
453.575562	3629.993732
453.949311	3733.962489
454.323001	3744.732914
454.696632	3809.635250
455.070202	3906.364910
455.443713	4001.297398
455.817164	4087.291921
456.190556	4166.533818
456.563888	4254.441459
456.937160	4320.556192
457.310373	4251.820059
457.683526	4315.257939
458.056619	4329.562213
458.429653	4383.792426
458.802628	4408.574738
459.175542	4503.290457
459.548398	4719.127459
459.921194	4848.914485
460.293930	4911.870935
460.666607	5231.185182
461.039224	5443.473211
461.411782	5576.410959
461.784280	5658.062527
462.156719	5674.161452
462.529099	5684.221075
462.901419	5537.309249
463.273680	5537.647006
463.645882	5603.318117
464.018024	5602.637562
464.390106	5757.360655
464.762130	6053.898969
465.134094	6397.536782
465.505999	7088.991526
465.877845	7936.278418
466.249631	8448.376469
466.621358	8315.675656
466.993026	8008.573605
467.364634	7932.734487
467.736184	7763.520596
468.107674	7598.238805
468.479105	7705.827111
468.850477	7586.540808
469.221790	7492.238463
469.593043	7314.260527
469.964238	7277.986904
470.335373	7341.674322
470.706449	7440.259126
471.077467	7479.411248
471.448425	8579.615348
471.819324	9491.860028
472.190164	9578.333460
472.560945	8627.012277
472.931667	8034.134776
473.302330	7968.163716
473.672934	7704.677728
474.043479	8050.775624
474.413965	8049.469966
474.784393	7984.300449
475.154761	8166.659148
475.525070	8282.235162
475.895321	8162.800145
476.265513	8363.117955
476.635645	8549.116367
477.005719	8581.132735
477.375734	8723.136998
477.745691	8961.124830
478.115588	9119.104509
478.485427	9375.916010
478.855207	9903.906299
479.224928	10684.624754
479.594591	11294.543875
479.964194	11156.711168
480.333739	11139.420010
480.703226	11098.816036
481.072653	11206.721934
481.442022	11463.331788
481.811333	11658.036273
482.180584	11506.000115
482.549777	11251.560477
482.918912	11104.305853
483.287988	11143.659620
483.657005	11165.510502
484.025964	10880.435772
484.394864	11026.178050
484.763706	11007.417396
485.132489	10788.127204
485.501213	10766.120047
485.869879	10854.340239
486.238487	10704.733917
486.607036	10827.138173
486.975527	10615.712181
487.343959	10819.762965
487.712333	10871.641479
488.080648	10809.385750
488.448905	10861.954902
488.817104	10810.764505
489.185244	11073.885010
489.553326	11233.855945
489.921350	11778.933225
490.289315	12820.899396
490.657222	13164.179288
491.025070	13079.848345
491.392861	12945.867079
491.760593	12578.230853
492.128267	12237.075807
492.495883	11920.577045
492.863440	11585.667989
493.230939	11255.328740
493.598380	11191.981600
493.965763	11067.039123
494.333088	10969.477672
494.700354	10885.363500
495.067563	10953.040990
495.434713	10785.256267
495.801805	10913.735114
496.168839	10840.545122
496.535815	10772.766808
496.902733	10776.751840
497.269593	10709.825482
497.636395	10815.583848
498.003139	10806.373660
498.369825	10674.791983
498.736453	10827.254120
499.103023	10757.600497
499.469535	10791.650971
499.835989	10773.056675
500.202385	10744.163301
500.568723	10590.939951
500.935003	10816.960083
501.301226	10625.308017
501.667390	10881.685978
502.033497	10975.363220
502.399546	10836.587816
502.765537	10745.567263
503.131470	10823.632051
503.497345	10986.471402
503.863163	10606.628022
504.228923	10915.154199
504.594625	10982.463685
504.960269	10731.663760
505.325856	10946.434558
505.691385	10745.922664
506.056856	10897.452187
506.422270	10920.054200
506.787625	10811.692078
507.152924	10928.208267
507.518164	10906.818651
507.883347	10828.584984
508.248472	10751.936761
508.613540	10988.991979
508.978550	10865.133350
509.343503	10846.193735
509.708398	10970.254010
510.073236	11078.938767
510.438016	11083.556463
510.802738	11031.236848
511.167403	11083.301885
511.532010	10983.121555
511.896561	11208.405680
512.261053	11278.543253
512.625488	11147.992492
512.989866	11139.886317
513.354186	11119.721701
513.718449	11026.223421
514.082655	11213.860208
514.446803	11113.687440
514.810894	11231.370656
515.174927	11101.926428
515.538904	11125.067845
515.902822	11279.193562
516.266684	11161.651498
516.630488	11103.763929
516.994235	11164.623258
517.357925	11225.124666
517.721558	11313.579272
518.085133	11326.519914
518.448651	11335.367139
518.812112	11220.983358
519.175516	11236.321069
519.538863	11358.097702
519.902152	11273.882706
520.265385	11434.866913
520.628560	11347.294509
520.991678	11325.315078
521.354739	11390.441745
521.717743	11314.895013
522.080690	11300.799947
522.443580	11437.092583
522.806413	11390.454348
523.169189	11422.004409
523.531908	11479.082874
523.894569	11303.222222
524.257174	11312.568521
524.619722	11421.076837
524.982213	11374.854497
525.344647	11420.739080
525.707025	11369.034485
526.069345	11462.258023
526.431608	11386.159285
526.793815	11485.487660
527.155964	11272.047726
527.518057	11340.967861
527.880093	11287.297217
528.242072	11343.891730
528.603995	11251.119376
528.965860	11181.201093
529.327669	11231.461397
529.689421	11179.414004
530.051117	11145.708849
530.412755	11252.268759
530.774337	11142.923612
531.135862	11119.298244
531.497331	11151.019705
531.858743	11000.427837
532.220098	11163.985553
532.581396	11038.884279
532.942638	11021.527586
533.303824	10979.867491
533.664953	10995.253092
534.026025	10917.541185
534.387040	11010.910916
534.747999	11019.611947
535.108902	11068.319576
535.469748	10830.387197
535.830537	10930.680953
536.191270	10916.066648
536.551947	10929.705489
536.912567	10933.224215
537.273131	10863.810047
537.633638	10838.127888
537.994089	10827.009624
538.354483	10775.917529
538.714821	10922.660477
539.075103	10935.432240
539.435328	10896.441436
539.795497	10720.863088
540.155609	10876.014680
540.515665	10965.376694
540.875665	10711.229443
541.235609	10766.825808
541.595496	10766.140212
541.955328	10918.143603
542.315102	10801.967692
542.674821	10755.987328
543.034483	10758.949006
543.394090	10763.291960
543.753640	10682.900679
544.113134	10908.583055
544.472571	10764.595098
544.831953	10910.062633
545.191278	10709.764988
545.550548	10743.702036
545.909761	10878.439475
546.268918	10850.055258
546.628019	10935.938876
546.987064	10800.599019
547.346053	10723.577750
547.704986	10822.555764
548.063863	10816.947481
548.422684	10799.696652
548.781449	10717.362007
549.140158	10822.643984
549.498811	10697.721672
549.857408	10554.215145
550.215949	10777.255956
550.574434	10634.213215
550.932864	10730.499254
551.291237	10792.858327
551.649555	10741.337735
552.007817	10749.159085
552.366022	10711.652900
552.724173	10708.855060
553.082267	10694.949037
553.440305	10825.930817
553.798288	10634.435026
554.156215	10778.228898
554.514086	10756.801474
554.871902	10610.439134
555.229661	10650.869188
555.587365	10617.126224
555.945014	10523.348160
556.302606	10647.065637
556.660143	10539.056395
557.017625	10689.590290
557.375050	10590.040105
557.732421	10728.881043
558.089735	10639.755964
558.446994	10631.904367
558.804197	10675.379278
559.161345	10673.110758
559.518437	10525.077276
559.875474	10617.418611
560.232455	10637.386622
560.589381	10592.485064
560.946251	10588.366442
561.303065	10694.192864
561.659825	10627.813471
562.016528	10558.782430
562.373177	10443.622312
562.729770	10553.600124
563.086307	10470.642897
563.442789	10559.311752
563.799216	10439.049985
564.155587	10491.011679
564.511904	10440.151477
564.868164	10430.913563
565.224370	10448.139186
565.580520	10372.829388
565.936615	10381.175019
566.292654	10255.040308
566.648638	10384.615606
567.004567	10333.838584
567.360441	10317.613630
567.716260	10226.189785
568.072023	10330.168624
568.427732	10280.866139
568.783385	10184.244864
569.138982	10251.229196
569.494525	10276.513103
569.850013	10146.625254
570.205445	10232.932328
570.560823	10125.694383
570.916145	10044.957783
571.271412	10112.443710
571.626625	10061.275998
571.981782	10038.749603
572.336884	10013.075006
572.691931	10016.112301
573.046923	9969.055651
573.401860	9914.434749
573.756743	9858.518270
574.111570	9900.995032
574.466342	9883.020798
574.821059	9909.890148
575.175722	9799.960227
575.530330	9810.299634
575.884882	9807.055651
576.239380	9730.150329
576.593823	9716.508966
576.948211	9729.386594
577.302544	9605.240619
577.656823	9623.716447
578.011047	9618.650088
578.365216	9592.652857
578.719330	9518.068986
579.073389	9529.953507
579.427394	9474.699940
579.781344	9454.147156
580.135239	9400.353003
580.489080	9408.224765
580.842866	9309.836565
581.196597	9316.944592
581.550273	9357.926652
581.903895	9330.202827
582.257463	9389.680880
582.610975	9276.985886
582.964434	9299.829875
583.317837	9217.036484
583.671186	9204.002581
584.024481	9200.478815
584.377721	9116.604097
584.730906	9097.034338
585.084037	9125.496692
585.437113	9061.584944
585.790135	9074.906193
586.143103	8981.183581
586.496016	8951.390362
586.848874	9015.783541
587.201679	9001.242332
587.554428	8886.551041
587.907124	8934.056354
588.259765	8903.859843
588.612352	8909.384947
588.964884	8783.552706
589.317362	8797.985530
589.669786	8803.185480
590.022155	8847.635854
590.374470	8860.836115
590.726731	8798.981158
591.078937	8657.793562
591.431090	8762.571424
591.783188	8638.566601
592.135232	8631.566959
592.487222	8627.506310
592.839157	8683.115278
593.191038	8618.341492
593.542866	8564.146568
593.894639	8466.532185
594.246358	8516.505143
594.598022	8527.671299
594.949633	8424.569620
595.301190	8407.011282
595.652692	8436.219727
596.004141	8540.276704
596.355535	8320.210174
596.706876	8302.850961
597.058162	8237.608348
597.409395	8310.238772
597.760573	8371.289665
598.111698	8280.430429
598.462768	8267.567925
598.813785	8234.152637
599.164748	8200.598717
599.515657	8188.159670
599.866511	8102.477698
600.217312	8231.813541
600.568060	8091.717355
600.918753	8191.252418
601.269392	8159.145309
601.619978	8073.836383
601.970510	8137.460785
602.320988	8132.654045
602.671412	8190.992798
603.021783	8122.170966
603.372100	8097.363448
603.722363	8105.290662
604.072572	8073.450734
604.422728	8094.283303
604.772830	8015.386724
605.122878	8026.510030
605.472872	8023.036675
605.822813	8048.749081
606.172701	7991.859659
606.522534	8068.454951
606.872314	8069.143068
607.222041	8041.441928
607.571714	8093.542253
607.921333	8049.457363
608.270899	8061.268786
608.620411	8146.368504
608.969870	8054.397693
609.319276	8050.284112
609.668627	8062.007315
610.017926	8099.611802
610.367171	8140.490519
610.716362	8122.821275
611.065500	8113.694266
611.414585	8138.148903
611.763616	8120.898074
612.112594	8112.496992
612.461518	8126.960062
612.810389	8181.467538
613.159207	8123.950493
613.507971	8069.067451
613.856682	8191.605298
614.205340	8144.853637
614.553945	8228.995536
614.902496	8127.224722
615.250994	8176.945623
615.599439	8156.954927
615.947830	8174.004110
616.296169	8148.884040
616.644454	8155.024165
616.992686	8159.147829
617.340864	8215.207981
617.688990	8115.889688
618.037063	8204.286321
618.385082	8158.792428
618.733048	8242.551199
619.080961	8178.674739
619.428821	8197.523613
619.776628	8201.929581
620.124382	8152.052405
620.472083	8136.129921
620.819731	8165.882811
621.167326	8058.344917
621.514868	8071.406547
621.862357	7954.081252
622.209793	7974.644119
622.557176	7905.250116
622.904506	7878.723564
623.251783	7810.589849
623.599007	7770.023684
623.946179	7766.782223
624.293297	7727.932570
624.640363	7648.141187
624.987376	7628.896582
625.334336	7577.776762
625.681243	7526.225923
626.028097	7514.535487
626.374899	7491.918350
626.721647	7485.178327
627.068343	7417.221053
627.414987	7385.481948
627.761577	7343.433684
628.108115	7381.476752
628.454600	7279.065711
628.801032	7329.870460
629.147412	7284.432020
629.493739	7275.738550
629.840014	7210.853859
630.186236	7269.152282
630.532405	7155.617936
630.878521	7201.121911
631.224585	7158.869480
631.570597	7089.694767
631.916556	7119.886237
632.262462	7116.307018
632.608316	7075.264464
632.954117	7051.641617
633.299866	7043.600977
633.645562	7027.764192
633.991206	6949.414579
634.336797	6897.117649
634.682336	6855.908737
635.027823	6818.974723
635.373257	6813.409289
635.718639	6743.483444
636.063968	6755.632625
636.409245	6655.666544
636.754470	6643.330841
637.099642	6606.890860
637.444762	6553.086625
637.789829	6558.551236
638.134845	6505.422516
638.479808	6488.809393
638.824719	6493.885835
639.169577	6418.936480
639.514383	6443.292815
639.859137	6371.146342
640.203839	6380.248145
640.548489	6367.282297
640.893086	6342.520150
641.237632	6314.203989
641.582125	6333.370456
641.926566	6309.036806
642.270955	6314.652651
642.615292	6313.132743
642.959576	6330.378531
643.303809	6318.504093
643.647990	6324.450134
643.992118	6315.033258
644.336195	6264.193222
644.680219	6288.786491
645.024192	6277.085973
645.368112	6369.898656
645.711981	6397.214148
646.055797	6468.629654
646.399562	6433.644047
646.743274	6557.578293
647.086935	6608.982939
647.430544	6599.109839
647.774101	6622.596575
648.117606	6627.166381
648.461059	6625.223016
648.804460	6580.641572
649.147810	6495.405743
649.491108	6463.086906
649.834354	6431.055414
650.177548	6350.596078
650.520690	6270.154386
650.863781	6245.137660
651.206820	6269.209170
651.549807	6190.471388
651.892742	6128.699609
652.235626	6133.655064
652.578458	6124.021419
652.921238	6031.904414
653.263967	6072.989818
653.606644	6006.156721
653.949269	6011.132340
654.291843	5956.642508
654.634365	6004.127657
654.976836	5956.566891
655.319255	5958.303568
655.661622	5934.229538
656.003938	5928.533034
656.346203	5892.188836
656.688416	5928.200318
657.030577	5873.279468
657.372687	5845.056568
657.714746	5835.218756
658.056753	5877.403131
658.398708	5820.238967
658.740612	5804.593746
659.082465	5855.065779
659.424266	5846.873904
659.766016	5849.248287
660.107715	5820.624616
660.449362	5838.432492
660.790958	5829.313044
661.132503	5813.889634
661.473996	5858.594586
661.815438	5838.384601
662.156829	5839.226473
662.498168	5837.499878
662.839456	5804.684487
663.180693	5843.829047
663.521879	5847.214182
663.863013	5832.791440
664.204097	5852.164595
664.545129	5894.059104
664.886110	5890.631119
665.227040	5922.818886
665.567918	5888.496190
665.908746	5917.563483
666.249522	5920.835192
666.590248	5908.222225
666.930922	5937.735661
667.271545	5949.937773
667.612118	5950.976251
667.952639	5920.585655
668.293109	5942.186999
668.633528	5905.217698
668.973896	5902.956740
669.314213	5894.245626
669.654480	5877.884562
669.994695	5872.735023
670.334859	5864.369228
670.674973	5857.568712
671.015035	5859.917889
671.355047	5852.998906
671.695008	5844.343244
672.034918	5820.150747
672.374777	5831.069886
672.714585	5816.833668
673.054342	5817.700746
673.394049	5809.619777
673.733705	5846.808369
674.073310	5827.069731
674.412864	5790.765861
674.752368	5783.998112
675.091820	5786.075068
675.431223	5723.312702
675.770574	5719.826744
676.109875	5676.177914
676.449125	5681.733265
676.788324	5644.085928
677.127473	5589.303710
677.466571	5583.375313
677.805619	5571.420216
678.144616	5556.092588
678.483562	5540.573396
678.822458	5510.961658
679.161303	5498.993959
679.500098	5491.487681
679.838842	5471.960772
680.177535	5482.481660
680.516179	5490.628164
680.854771	5504.844218
681.193314	5584.081074
681.531805	5692.584349
681.870247	5849.079408
682.208638	5944.299243
682.546978	5956.884483
682.885268	5932.472696
683.223508	5851.526889
683.561697	5794.403054
683.899836	5767.271564
684.237925	5723.587445
684.575963	5689.763823
684.913951	5644.947966
685.251889	5709.079004
685.589776	5675.149518
685.927614	5652.028266
686.265401	5717.878338
686.603137	5707.359971
686.940824	5779.380415
687.278460	5804.931504
687.616046	5815.165046
687.953582	5882.419079
688.291068	5859.403692
688.628504	5924.424494
688.965889	5882.000664
689.303224	5832.025185
689.640510	5785.830572
689.977745	5708.247214
690.314930	5605.558910
690.652065	5553.143513
690.989150	5462.821160
691.326185	5387.871805
691.663170	5332.865255
692.000105	5259.324902
692.336990	5180.400598
692.673825	5153.541330
693.010610	5089.115384
693.347345	5020.795146
693.684030	5005.102034
694.020665	4965.685253
694.357251	4870.634297
694.693786	4886.045104
695.030272	4850.673848
695.366707	4814.884176
695.703093	4782.983755
696.039429	4807.135923
696.375716	4784.861585
696.711952	4762.408285
697.048139	4747.665431
697.384276	4727.765476
697.720363	4743.597220
698.056400	4750.916975
698.392388	4699.542576
698.728326	4678.836037
699.064214	4659.437677
699.400053	4653.080782
699.735842	4618.621975
700.071581	4591.593828
700.407270	4566.912339
700.742910	4547.793763
701.078501	4492.860310
701.414042	4495.406092
701.749533	4463.553562
702.084974	4397.398500
702.420366	4458.358653
702.755709	4402.661465
703.091002	4341.935725
703.426246	4391.240731
703.761440	4343.616950
704.096584	4310.869615
704.431679	4330.179755
704.766725	4314.214420
705.101721	4305.536074
705.436668	4333.108665
705.771565	4283.959936
706.106413	4307.698729
706.441212	4341.998740
706.775961	4346.364379
707.110661	4328.185978
707.445311	4353.792519
707.779913	4378.574832
708.114465	4393.274836
708.448967	4419.324999
708.783421	4479.813804
709.117825	4517.743445
709.452180	4519.129763
709.786485	4567.219850
710.120742	4652.561543
710.454949	4636.676867
710.789107	4701.889233
711.123216	4779.964104
711.457275	4769.286940
711.791286	4847.631512
712.125247	4861.247668
712.459159	4758.758490
712.793023	4837.869317
713.126837	4797.199809
713.460602	4789.398623
713.794318	4708.823341
714.127985	4721.297676
714.461602	4635.673678
714.795171	4602.046661
715.128691	4535.548801
715.462162	4480.176767
715.795584	4433.556176
716.128957	4416.759051
716.462281	4363.015310
716.795556	4338.895910
717.128782	4297.177841
717.461960	4230.866503
717.795088	4238.241711
718.128167	4199.891133
718.461198	4140.201351
718.794180	4140.302174
719.127113	4117.223772
719.459997	4095.327520
719.792833	4053.856468
720.125619	4039.912637
720.458357	4009.466588
720.791046	4013.902803
721.123686	3983.996158
721.456278	3942.598203
721.788821	3961.525215
722.121315	3931.565638
722.453761	3909.750044
722.786158	3921.818567
723.118506	3945.438893
723.450805	3895.748240
723.783056	3919.043412
724.115259	3936.095114
724.447412	3939.883542
724.779518	3932.004218
725.111574	3935.616205
725.443582	3963.947489
725.775542	3954.911221
726.107453	4003.160105
726.439315	4002.850074
726.771129	4015.715098
727.102895	4056.177920
727.434612	4104.063840
727.766281	4111.736476
728.097901	4112.656487
728.429473	4116.717136
728.760996	4128.702479
729.092471	4119.767034
729.423897	4103.416052
729.755276	4110.602217
730.086606	4109.011733
730.417887	4148.849451
730.749120	4212.884708
731.080305	4274.805200
731.411442	4304.195127
731.742530	4273.093728
732.073570	4279.339718
732.404562	4334.394159
732.735506	4321.975277
733.066401	4283.735604
733.397249	4218.495512
733.728048	4144.665293
734.058798	4060.147828
734.389501	3986.156293
734.720156	3927.832663
735.050762	3883.959501
735.381320	3877.587483
735.711831	3826.966737
736.042293	3796.500523
736.372707	3820.899708
736.703073	3794.680667
737.033391	3785.939306
737.363661	3801.123261
737.693883	3825.033454
738.024056	3834.193231
738.354182	3827.153259
738.684260	3892.342940
739.014290	3914.458482
739.344272	3910.717946
739.674207	3953.028350
740.004093	3954.505408
740.333931	3949.129018
740.663722	3948.682876
740.993464	3951.193370
741.323159	3924.021551
741.652806	3897.147160
741.982405	3869.284703
742.311956	3836.444106
742.641460	3826.777693
742.970915	3803.744661
743.300323	3761.835029
743.629683	3728.588619
743.958996	3717.137638
744.288260	3696.305070
744.617477	3661.843742
744.946647	3647.088285
745.275768	3622.038792
745.604842	3620.387814
745.933869	3571.561718
746.262847	3562.911098
746.591778	3603.086574
746.920662	3573.709250
747.249498	3539.076523
747.578286	3588.628544
747.907027	3603.416769
748.235720	3600.694546
748.564365	3625.711272
748.892963	3626.802682
749.221514	3609.229220
749.550017	3585.558482
749.878473	3580.781988
750.206881	3555.450190
750.535242	3551.518090
750.863555	3551.747463
751.191821	3547.979200
751.520039	3529.483207
751.848210	3506.666945
752.176334	3540.057027
752.504411	3546.078685
752.832440	3508.423787
753.160421	3486.335971
753.488356	3500.914988
753.816243	3510.805732
754.144082	3465.793269
754.471875	3453.003862
754.799620	3473.299547
755.127318	3464.018783
755.454969	3463.529791
755.782572	3469.876604
756.110129	3445.275773
756.437638	3433.711366
756.765100	3450.463120
757.092515	3461.135243
757.419882	3464.628763
757.747203	3442.304013
758.074477	3441.920885
758.401703	3458.518884
758.728882	3476.455310
759.056014	3484.014520
759.383099	3490.648678
759.710138	3485.075683
760.037129	3505.061337
760.364073	3536.185421
760.690970	3519.214377
761.017820	3493.154132
761.344623	3514.899149
761.671379	3560.899678
761.998088	3610.807101
762.324751	3736.639342
762.651366	3986.201663
762.977935	4457.983087
763.304456	4904.125202
763.630931	4996.096013
763.957359	4635.477073
764.283740	4288.353301
764.610074	4095.498920
764.936362	3903.262079
765.262602	3746.300713
765.588796	3630.512971
765.914943	3544.478119
766.241044	3456.789768
766.567097	3426.681477
766.893104	3379.231617
767.219064	3346.161647
767.544978	3324.368739
767.870845	3267.640635
768.196665	3248.932913
768.522438	3258.427926
768.848165	3252.552462
769.173846	3217.670197
769.499479	3198.980120
769.825066	3184.249868
770.150607	3166.419307
770.476101	3178.976821
770.801548	3178.704599
771.126949	3127.758698
771.452303	3114.807974
771.777611	3119.460959
772.102872	3124.827267
772.428087	3102.323556
772.753256	3090.958275
773.078378	3084.979467
773.403453	3048.025288
773.728482	3039.062117
774.053465	3060.890313
774.378401	3044.423384
774.703291	3016.775176
775.028135	3017.649816
775.352932	3011.706295
775.677683	2999.836899
776.002388	2997.379336
776.327046	2994.674757
776.651658	2988.847183
776.976224	2975.283959
777.300743	2976.904690
777.625216	2965.105869
777.949643	2961.859366
778.274024	2964.062350
778.598359	2952.744960
778.922647	2957.609673
779.246889	2957.345013
779.571086	2941.046963
779.895236	2938.513783
780.219339	2950.282356
780.543397	2961.824078
780.867409	2964.180818
781.191374	2958.146556
781.515294	2948.296142
781.839167	2952.588684
782.162995	2943.728856
782.486776	2953.163376
782.810511	2950.173972
783.134201	2938.513783
783.457844	2945.548713
783.781441	2935.055551
784.104993	2913.408837
784.428498	2914.633837
784.751958	2929.991712
785.075372	2921.676329
785.398739	2910.154772
785.722061	2925.023655
786.045337	2937.742486
786.368568	2923.544076
786.691752	2911.440266
787.014891	2959.535394
787.337983	2989.232832
787.661030	3016.104702
787.984031	3084.155238
788.306987	3131.020325
788.629897	3120.839714
788.952760	3108.272118
789.275579	3089.526587
789.598351	3032.291847
789.921078	2986.757625
790.243759	2980.478868
790.566395	2962.723924
790.888984	2936.391457
791.211529	2923.067687
791.534027	2911.959505
791.856480	2902.174625
792.178888	2885.243910
792.501249	2880.558158
792.823566	2873.792929
793.145836	2871.592465
793.468062	2867.488966
793.790241	2867.657845
794.112375	2875.237220
794.434464	2884.107130
794.756507	2888.681977
795.078505	2895.792524
795.400457	2908.705440
795.722364	2948.384362
796.044226	2969.511838
796.366042	2972.445789
796.687812	2963.648976
797.009538	2980.620020
797.331218	2971.777836
797.652852	2953.465845
797.974442	2936.305757
798.295986	2933.384409
798.617484	2929.722010
798.938938	2913.925555
799.260346	2899.157495
799.581709	2889.977553
799.903026	2887.824981
800.224299	2879.960781
800.545526	2871.302599
800.866708	2856.458922
801.187845	2843.820749
801.508936	2846.338805
801.829983	2853.441791
802.150984	2841.343022
802.471940	2828.926660
802.792851	2826.882472
803.113717	2828.291474
803.434538	2834.822289
803.755314	2827.689057
804.076045	2820.512974
804.396731	2817.941986
804.717372	2819.713951
805.037967	2813.838486
805.358518	2819.461893
805.679024	2832.382371
805.999485	2825.775939
806.319901	2833.141064
806.640272	2823.938438
806.960598	2830.454129
807.280879	2840.201200
807.601115	2844.448372
807.921306	2833.909840
808.241453	2829.614777
808.561554	2836.440500
808.881611	2838.015860
809.201623	2831.598471
809.521590	2829.846670
809.841513	2830.091166
810.161390	2832.226095
810.481223	2827.283244
810.801011	2817.621872
811.120755	2813.770431
811.440453	2812.321099
811.760107	2813.634320
812.079716	2812.525266
812.399281	2800.267700
812.718801	2797.230405
813.038276	2792.078346
813.357707	2798.261321
813.677093	2802.352217
813.996434	2796.791825
814.315731	2795.408028
814.634983	2789.948458
814.954191	2791.475928
815.273354	2805.054276
815.592473	2814.105667
815.911547	2814.846717
816.230577	2821.349806
816.549562	2831.343893
816.868502	2827.830209
817.187399	2841.595079
817.506250	2857.262986
817.825058	2848.894670
818.143821	2861.777339
818.462539	2878.720657
818.781213	2906.331057
819.099843	2945.067283
819.418429	2999.940242
819.736970	3061.679253
820.055466	3135.053248
820.373919	3241.749269
820.692327	3380.486864
821.010691	3546.250085
821.329011	3992.351871
821.647286	4893.213625
821.965517	6281.320542
822.283704	7020.136926
822.601847	6995.251270
822.919945	6357.136975
823.237999	5859.335636
823.556010	5271.148929
823.873976	4713.355338
824.191897	4308.013801
824.509775	4013.194521
824.827609	3745.181577
825.145398	3623.241107
825.463144	3611.449848
825.780845	3699.735575
826.098502	3807.674241
826.416116	4087.564143
826.733685	4407.052310
827.051210	4469.053461
827.368692	4355.829145
827.686129	4087.407868
828.003522	3761.366202
828.320872	3505.104187
828.638177	3305.562715
828.955439	3169.880059
829.272656	3086.333016
829.589830	3019.567975
829.906960	2968.934626
830.224046	2925.593305
830.541088	2893.811351
830.858086	2877.341901
831.175041	2858.200640
831.491952	2857.603263
831.808819	2872.303268
832.125642	2897.929974
832.442421	2941.432611
832.759157	3021.153418
833.075849	3200.066488
833.392497	3483.480158
833.709101	3689.491951
834.025662	3636.864825
834.342179	3475.290803
834.658653	3295.639203
834.975083	3150.181750
835.291469	3052.287584
835.607811	2969.216930
835.924110	2911.863723
836.240366	2859.057636
836.556578	2817.788230
836.872746	2793.363840
837.188871	2770.731580
837.504952	2752.722058
837.820990	2748.230390
838.136984	2733.139696
838.452935	2724.559652
838.768842	2722.971688
839.084706	2742.629668
839.400526	2820.817964
839.716303	2955.739405
840.032037	3028.573996
840.347727	3016.865916
840.663373	2958.121351
840.978977	2882.070504
841.294537	2810.072744
841.610054	2763.719335
841.925527	2739.670510
842.240957	2718.593446
842.556344	2698.254911
842.871687	2679.395954
843.186987	2673.008812
843.502244	2668.774243
843.817458	2662.770229
844.132629	2650.825215
844.447756	2640.737866
844.762840	2635.681589
845.077881	2636.442803
845.392879	2636.546147
845.707833	2633.909623
846.022745	2624.926287
846.337613	2628.162708
846.652438	2627.356123
846.967221	2627.313273
847.281960	2627.623304
847.596656	2621.946965
847.911309	2620.479989
848.225919	2618.617283
848.540485	2614.876747
848.855009	2615.383383
849.169490	2615.171654
849.483928	2616.686521
849.798323	2615.776593
850.112675	2614.566716
850.426984	2615.179216
850.741251	2613.268619
851.055474	2614.375152
851.369654	2618.463528
851.683792	2619.002931
851.997887	2613.687035
852.311938	2612.893053
852.625947	2614.506222
852.939914	2618.176182
853.253837	2616.943620
853.567718	2611.211828
853.881555	2611.627723
854.195350	2616.011007
854.509103	2615.159052
854.822812	2612.540172
855.136479	2609.949019
855.450103	2614.385234
855.763685	2616.873044
856.077224	2616.074021
856.390720	2610.657301
856.704173	2615.542179
857.017584	2618.924793
857.330953	2620.013683
857.644278	2620.495113
857.957561	2620.684156
858.270802	2616.225256
858.584000	2616.134515
858.897155	2619.249948
859.210268	2621.556276
859.523339	2615.940430
859.836367	2609.747373
860.149352	2611.305089
860.462295	2615.685852
860.775195	2611.978083
861.088054	2608.343412
861.400869	2610.208638
861.713642	2605.722012
862.026373	2606.334512
862.339062	2610.473299
862.651708	2617.919083
862.964312	2616.343723
863.276873	2616.124432
863.589392	2618.168620
863.901869	2622.935031
864.214303	2630.595065
864.526696	2631.333594
864.839045	2631.845271
865.151353	2637.181332
865.463619	2632.984572
865.775842	2631.056330
866.088023	2632.775364
866.400162	2634.817031
866.712258	2634.627988
867.024313	2633.007257
867.336325	2626.660444
867.648296	2628.218161
867.960224	2639.545633
868.272110	2634.272586
868.583954	2626.506689
868.895755	2628.248408
869.207515	2636.097484
869.519233	2642.046046
869.830909	2637.443472
870.142542	2634.794346
870.454134	2635.043883
870.765684	2642.076292
871.077191	2642.298103
871.388657	2648.392858
871.700081	2643.810449
872.011463	2645.095944
872.322803	2644.455717
872.634101	2648.775986
872.945357	2654.338899
873.256571	2659.861483
873.567744	2657.295536
873.878874	2656.335196
874.189963	2656.592295
874.501010	2662.089673
874.812015	2668.277690
875.122979	2668.055879
875.433900	2658.757471
875.744780	2655.780669
876.055618	2664.234684
876.366415	2669.590910
876.677169	2667.914727
876.987882	2659.559014
877.298554	2662.374498
877.609183	2670.672238
877.919771	2674.858916
878.230317	2686.153621
878.540822	2696.049406
878.851285	2711.535831
879.161707	2733.001064
879.472087	2772.014553
879.782425	2823.048674
880.092722	2934.052362
880.402977	3121.759725
880.713191	3386.258985
881.023363	3678.900486
881.333494	3870.487018
881.643583	4042.889438
881.953631	4040.933470
882.263637	3860.697097
882.573602	3639.541678
882.883526	3512.459230
883.193408	3397.147877
883.503248	3294.721713
883.813048	3179.599404
884.122806	3062.720252
884.432522	2978.888384
884.742197	2914.719537
885.051831	2876.653784
885.361424	2844.531552
885.670975	2805.621406
885.980485	2773.274842
886.289954	2751.890267
886.599382	2743.302662
886.908768	2730.072153
887.218113	2713.743856
887.527417	2700.699871
887.836680	2691.262831
888.145901	2686.269568
888.455082	2679.922755
888.764221	2664.660662
889.073319	2657.792090
889.382376	2656.380567
889.691392	2658.316370
890.000366	2661.295692
890.309300	2655.584064
890.618193	2662.568583
890.927044	2660.380722
891.235855	2660.670588
891.544625	2661.167142
891.853353	2660.562204
892.162041	2668.126455
892.470687	2687.915504
892.779293	2701.267000
893.087858	2711.621530
893.396381	2732.829665
893.704864	2775.155192
894.013306	2845.459124
894.321707	2939.814400
894.630068	2989.300887
894.938387	3008.379134
895.246665	3003.375789
895.554903	2957.287040
895.863100	2911.765420
896.171256	2854.971781
896.479371	2793.714200
896.787446	2756.825557
897.095480	2735.582135
897.403473	2732.449057
897.711425	2713.902652
898.019336	2698.726259
898.327207	2683.733867
898.635038	2679.973167
898.942827	2679.837055
899.250576	2670.606703
899.558284	2658.883499
899.865952	2654.601039
900.173579	2652.577016
900.481165	2649.806902
900.788711	2643.722229
901.096216	2637.440952
901.403681	2630.411062
901.711105	2635.474902
902.018489	2632.029273
902.325832	2635.744603
902.633135	2635.742083
902.940397	2651.165493
903.247619	2690.057995
903.554800	2757.571648
903.861941	2885.259033
904.169041	3012.648991
904.476101	3071.380954
904.783121	3064.961045
905.090100	3009.611696
905.397039	2931.030190
905.703938	2861.827750
906.010796	2798.863739
906.317614	2746.589494
906.624391	2710.668752
906.931129	2682.602128
907.237826	2659.634631
907.544483	2640.848772
907.851099	2628.404683
908.157675	2618.135853
908.464211	2612.507405
908.770707	2600.466609
909.077163	2599.148347
909.383578	2592.247007
909.689954	2595.448140
909.996289	2590.709455
910.302584	2591.672316
910.608839	2589.335741
910.915054	2587.168045
911.221229	2590.898499
911.527363	2591.657192
911.833458	2587.878847
912.139513	2593.507296
912.445527	2595.720362
912.751502	2598.873604
913.057436	2606.382403
913.363331	2610.768207
913.669186	2620.979064
913.975000	2633.791156
914.280775	2653.033240
914.586510	2670.974707
914.892205	2704.483257
915.197859	2772.427928
915.503475	2859.478573
915.809050	2926.467946
916.114585	2939.814400
916.420081	2953.967440
916.725536	2962.630663
917.030952	2935.373144
917.336328	2889.833881
917.641665	2839.966787
917.946961	2790.245886
918.252218	2756.505444
918.557435	2730.611557
918.862612	2707.399564
919.167750	2690.201668
919.472848	2672.018226
919.777906	2655.553817
920.082925	2642.285500
920.387904	2632.939201
920.692843	2632.611526
920.997743	2625.296812
921.302603	2619.189454
921.607423	2608.953391
921.912204	2608.066148
922.216946	2604.456682
922.521647	2603.037597
922.826310	2597.202462
923.130932	2593.106524
923.435516	2588.564444
923.740059	2587.377253
924.044564	2585.562437
924.349028	2582.726788
924.653454	2571.913513
924.957840	2571.734552
925.262186	2571.167422
925.566493	2571.719429
925.870761	2567.411763
926.174989	2567.076526
926.479178	2565.914540
926.783328	2564.863460
927.087438	2561.783315
927.391509	2566.406053
927.695541	2562.695763
927.999533	2558.483879
928.303486	2561.183417
928.607400	2559.439178
928.911275	2558.378015
929.215110	2558.604867
929.518906	2554.463559
929.822663	2557.213509
930.126381	2555.552448
930.430060	2558.587223
930.733699	2557.631924
931.037299	2557.936914
931.340861	2559.739127
931.644383	2558.667882
931.947866	2556.863148
932.251309	2558.176369
932.554714	2560.056719
932.858080	2559.098900
933.161407	2554.642520
933.464694	2558.176369
933.767943	2558.567058
934.071153	2553.276368
934.374323	2553.651933
934.677455	2554.849207
934.980548	2555.234856
935.283602	2552.462221
935.586617	2556.621173
935.889593	2552.953734
936.192530	2553.722510
936.495428	2554.040102
936.798287	2553.951882
937.101108	2558.052861
937.403890	2558.824157
937.706632	2562.337842
938.009336	2566.035528
938.312002	2571.485015
938.614628	2570.796898
938.917216	2575.923751
939.219765	2576.233782
939.522275	2578.961046
939.824747	2578.126735
940.127179	2570.197000
940.429573	2569.488718
940.731929	2568.205745
941.034246	2566.423697
941.336524	2566.998388
941.638763	2567.205076
941.940964	2567.600806
942.243126	2566.373285
942.545250	2562.123593
942.847335	2561.425393
943.149381	2563.250290
943.451389	2560.996895
943.753359	2562.242060
944.055290	2557.236194
944.357182	2559.058571
944.659036	2559.063612
944.960851	2558.861966
945.262628	2557.069836
945.564367	2556.326266
945.866067	2558.919939
946.167729	2559.744168
946.469352	2557.710062
946.770937	2556.190154
947.072484	2561.082594
947.373992	2557.654610
947.675462	2556.028837
947.976893	2557.442881
948.278286	2557.450443
948.579641	2553.326779
948.880958	2558.768705
949.182236	2556.958930
949.483476	2554.382901
949.784678	2554.299722
950.085841	2552.978939
950.386967	2555.128992
950.688054	2553.132695
950.989103	2557.672254
951.290114	2556.064126
951.591087	2559.139229
951.892021	2557.712583
952.192917	2561.188458
952.493776	2562.174004
952.794596	2563.837585
953.095378	2561.886658
953.396122	2565.445713
953.696828	2560.162584
953.997496	2558.259548
954.298126	2557.931873
954.598718	2556.268292
954.899272	2556.956410
955.199788	2556.888354
955.500266	2551.922818
955.800706	2547.912580
956.101108	2544.091385
956.401472	2546.259081
956.701798	2545.397044
957.002087	2545.817980
957.302337	2546.092723
957.602550	2548.590615
957.902724	2546.324616
958.202861	2544.343443
958.502960	2544.966025
958.803022	2545.044163
959.103045	2543.151210
959.403031	2546.261602
959.702979	2544.918134
960.002889	2542.460572
960.302762	2543.418391
960.602596	2540.749100
960.902393	2542.130376
961.202153	2540.129038
961.501875	2539.856816
961.801559	2543.423432
962.101205	2540.101312
962.400814	2541.684234
962.700385	2541.061652
962.999918	2542.785726
963.299414	2538.488143
963.598873	2538.772968
963.898293	2538.674665
964.197677	2541.646426
964.497022	2539.680376
964.796331	2541.870757
965.095601	2538.316743
965.394835	2539.672814
965.694030	2542.422763
965.993189	2538.543595
966.292309	2534.409849
966.591393	2539.632485
966.890439	2539.456044
967.189447	2539.491332
967.488419	2536.277597
967.787353	2538.984696
968.086249	2536.708615
968.385108	2540.537372
968.683930	2536.176774
968.982714	2539.398071
969.281462	2538.621733
969.580172	2539.065355
969.878844	2539.834131
970.177480	2537.318595
970.476078	2541.328833
970.774639	2541.701878
971.073162	2539.556867
971.371649	2536.295241
971.670098	2535.839016
971.968510	2537.195087
972.266885	2534.745086
972.565223	2542.566436
972.863524	2541.412012
973.161788	2542.775644
973.460014	2539.254398
973.758204	2539.183822
974.056356	2540.592824
974.354471	2542.170706
974.652550	2538.982176
974.950591	2542.571477
975.248595	2541.467465
975.546563	2542.200952
975.844493	2540.489481
976.142386	2538.694830
976.440243	2536.353214
976.738062	2541.757331
977.035845	2539.188863
977.333590	2537.517721
977.631299	2537.797505
977.928971	2537.850437
978.226606	2537.616023
978.524204	2538.944367
978.821765	2538.092412
979.119290	2536.776671
979.416777	2540.466796
979.714228	2538.190715
980.011642	2538.392361
980.309020	2540.242464
980.606360	2539.103163
980.903664	2543.395706
981.200931	2541.326312
981.498162	2539.277083
981.795356	2541.222969
982.092513	2545.144986
982.389633	2547.199257
982.686717	2552.008517
982.983764	2551.272509
983.280775	2554.365257
983.577749	2554.972716
983.874686	2556.394321
984.171587	2550.629762
984.468451	2548.825029
984.765279	2547.257230
985.062070	2544.877805
985.358824	2543.741025
985.655543	2540.431507
985.952224	2540.902855
986.248869	2537.956301
986.545478	2536.796836
986.842050	2535.738193
987.138586	2532.534540
987.435086	2534.780374
987.731549	2532.332894
988.027975	2537.961342
988.324366	2535.619726
988.620719	2535.249201
988.917037	2539.282124
989.213318	2536.443955
989.509563	2537.981507
989.805772	2537.084181
990.101944	2533.573018
990.398080	2537.948739
990.694180	2534.994623
990.990244	2536.287679
991.286271	2534.845909
991.582262	2534.535878
991.878217	2537.794984
992.174136	2534.878677
992.470019	2536.201979
992.765865	2534.689633
993.061676	2538.291538
993.357450	2536.408667
993.653188	2535.980169
993.948890	2536.925385
994.244556	2535.062679
994.540186	2534.568646
994.835780	2539.277083
995.131337	2537.048893
995.426859	2538.352032
995.722345	2536.207021
996.017795	2539.753472
996.313208	2538.357073
996.608586	2537.915972
996.903928	2539.277083
997.199234	2538.551157
997.494504	2536.726259
997.789738	2538.808256
998.084936	2538.835982
998.380099	2535.155940
998.675225	2535.632329
998.970316	2537.386651
999.265371	2537.101825
999.560390	2534.213244
999.855373	2535.599562
1000.150320	2537.500077
1000.445232	2536.567463
1000.740108	2537.414377
1001.034948	2532.786598
1001.329752	2535.395395
1001.624521	2534.979500
1001.919254	2531.911957
1002.213951	2533.149561
1002.508613	2533.232740
1002.803239	2532.221988
1003.097829	2529.857687
1003.392384	2534.251053
1003.686903	2533.036135
1003.981386	2536.935467
1004.275834	2533.028573
1004.570246	2534.498069
1004.864623	2535.032432
1005.158964	2534.253573
1005.453270	2533.096629
1005.747540	2534.561084
1006.041775	2535.692823
1006.335974	2533.625950
1006.630138	2534.752648
1006.924266	2534.384643
1007.218359	2533.527647
1007.512416	2531.798532
1007.806438	2532.970600
1008.100425	2534.581248
1008.394376	2532.698378
1008.688292	2533.015970
1008.982172	2533.056299
1009.276017	2531.317101
1009.569827	2535.216434
1009.863602	2536.058307
1010.157341	2532.400949
1010.451045	2532.983203
1010.744714	2531.110414
1011.038347	2530.739889
1011.331945	2532.874818
1011.625508	2534.551002
1011.919036	2532.322812
1012.212528	2533.469674
1012.505986	2533.459592
1012.799408	2533.482277
1013.092795	2532.786598
1013.386147	2533.283151
1013.679464	2533.540250
1013.972745	2534.949253
1014.265992	2533.414221
1014.559204	2535.251722
1014.852380	2536.338091
1015.145521	2530.296268
1015.438628	2531.876669
1015.731699	2531.581762
1016.024736	2532.930271
1016.317737	2534.104859
1016.610703	2533.416742
1016.903635	2530.578572
1017.196531	2531.337266
1017.489393	2532.315250
1017.782219	2529.885414
1018.075011	2532.108563
1018.367768	2530.780218
1018.660490	2535.508821
1018.953177	2535.508821
1019.245829	2535.508821
