Dividing Wavelength (nm)	Counts (n)	Blue Motor Position (mm): 13.900000	Red Motor Position (mm): 0.000000	
326.493990	2136.287245
326.888308	2136.287245
327.282561	2136.287245
327.676750	2103.068562
328.070874	2100.946236
328.464933	2104.308685
328.858929	2111.580550
329.252859	2120.997425
329.646726	2133.486884
330.040528	2146.984573
330.434265	2163.161636
330.827938	2182.131498
331.221547	2199.246215
331.615091	2214.399924
332.008571	2236.800291
332.401986	2256.518764
332.795338	2276.814449
333.188625	2293.097376
333.581847	2311.515232
333.975006	2331.117759
334.368100	2348.822291
334.761129	2368.399612
335.154095	2383.689432
335.546996	2404.491753
335.939833	2421.800555
336.332606	2437.914603
336.725315	2446.981118
337.117960	2459.326904
337.510540	2467.743110
337.903056	2477.119656
338.295508	2486.987715
338.687896	2494.660351
339.080220	2503.195025
339.472480	2509.740963
339.864676	2512.551406
340.256807	2520.092972
340.648875	2519.737571
341.040879	2524.171266
341.432818	2521.524660
341.824694	2527.405166
342.216506	2524.274609
342.608253	2525.426513
342.999937	2526.918695
343.391557	2523.999867
343.783113	2525.055988
344.174605	2523.284023
344.566033	2520.163548
344.957397	2518.593229
345.348697	2519.213291
345.739934	2518.686490
346.131106	2515.545852
346.522215	2515.170286
346.913260	2512.052332
347.304241	2511.404544
347.695159	2507.129645
348.086012	2510.401354
348.476802	2503.588235
348.867528	2504.924140
349.258191	2502.136382
349.648789	2501.919613
350.039324	2498.738645
350.429796	2502.282576
350.820203	2497.793428
351.210548	2495.451812
351.600828	2495.237563
351.991045	2494.657831
352.381198	2492.424599
352.771288	2493.425268
353.161314	2494.579693
353.551276	2493.566421
353.941175	2491.930566
354.331010	2493.949548
354.720782	2493.357213
355.110490	2492.462408
355.500135	2493.566421
355.889717	2492.086842
356.279235	2491.968375
356.668689	2495.902996
357.058080	2491.814620
357.447408	2489.717500
357.836672	2492.076760
358.225873	2492.467449
358.615010	2490.773622
359.004084	2496.974241
359.393095	2496.613798
359.782043	2499.499859
360.170927	2497.606906
360.559748	2499.373830
360.948505	2500.112359
361.337199	2497.430465
361.725830	2501.256701
362.114398	2499.325939
362.502903	2499.789725
362.891344	2502.816938
363.279722	2502.295179
363.668037	2505.783657
364.056289	2501.788543
364.444478	2503.799963
364.832603	2503.557988
365.220665	2503.565549
365.608665	2503.134531
365.996601	2503.328615
366.384474	2503.522700
366.772284	2505.884480
367.160031	2505.037566
367.547715	2505.823986
367.935336	2504.316681
368.322893	2501.884325
368.710388	2505.748369
369.097820	2508.394975
369.485189	2506.111332
369.872495	2509.022598
370.259738	2509.045284
370.646918	2506.164264
371.034035	2507.207783
371.421090	2510.698782
371.808081	2505.176198
372.195010	2510.464368
372.581875	2508.513442
372.968678	2510.915552
373.355418	2509.746004
373.742096	2508.591580
374.128710	2507.510252
374.515262	2506.867505
374.901751	2510.547548
375.288177	2510.406395
375.674540	2510.751714
376.060841	2509.635099
376.447079	2510.126611
376.833254	2510.754235
377.219367	2507.338853
377.605417	2507.535458
377.991404	2508.561333
378.377329	2506.595283
378.763191	2509.168792
379.148991	2511.212980
379.534727	2512.193484
379.920402	2512.556447
380.306013	2514.552744
380.691563	2515.349247
381.077049	2516.082734
381.462474	2514.091479
381.847835	2516.057529
382.233134	2513.436129
382.618371	2512.811026
383.003545	2514.789678
383.388657	2511.664163
383.773706	2513.925121
384.158693	2516.914525
384.543618	2517.133815
384.928480	2515.255985
385.313280	2517.721109
385.698017	2515.402179
386.082692	2515.147600
386.467305	2514.890502
386.851856	2518.109278
387.236344	2516.377642
387.620770	2517.809330
388.005133	2517.630369
388.389435	2515.329082
388.773674	2518.598270
389.157851	2515.208094
389.541965	2519.394773
389.926018	2518.053826
390.310008	2517.383352
390.693936	2518.822602
391.077802	2514.880419
391.461606	2521.542304
391.845348	2520.569361
392.229027	2518.938548
392.612645	2520.377798
392.996200	2521.388549
393.379694	2522.729496
393.763125	2519.523322
394.146494	2520.730678
394.529801	2521.491892
394.913047	2521.728827
395.296230	2523.525998
395.679351	2521.761594
396.062410	2521.927952
396.445408	2519.094824
396.828343	2520.501306
397.211217	2517.272447
397.594028	2518.613394
397.976778	2517.958044
398.359466	2520.753363
398.742092	2518.462159
399.124656	2522.147243
399.507158	2522.459794
399.889598	2523.480628
400.271977	2521.254958
400.654294	2524.367871
401.036549	2522.684125
401.418742	2526.351565
401.800874	2524.715710
402.182944	2527.279137
402.564952	2523.382325
402.946898	2525.499610
403.328783	2525.010618
403.710606	2525.595392
404.092367	2523.851152
404.474067	2525.176976
404.855705	2523.213447
405.237282	2525.189579
405.618797	2528.216792
406.000250	2522.671522
406.381642	2525.373581
406.762972	2527.072450
407.144240	2528.335259
407.525447	2526.969106
407.906593	2523.452901
408.287677	2527.042203
408.668700	2526.333921
409.049661	2527.006915
409.430560	2526.717048
409.811399	2527.412728
410.192176	2527.533715
410.572891	2526.291071
410.953545	2528.673016
411.334138	2526.240659
411.714669	2527.458098
412.095139	2533.043697
412.475547	2529.444313
412.855894	2528.874662
413.236180	2530.026566
413.616405	2529.920702
413.996568	2527.952131
414.376670	2528.398273
414.756711	2531.377595
415.136691	2529.141843
415.516609	2530.011443
415.896466	2532.658048
416.276262	2531.606968
416.655997	2523.815864
417.035670	2528.657893
417.415283	2527.866432
417.794834	2523.972140
418.174324	2531.964890
418.553753	2531.085208
418.933121	2531.266690
419.312428	2528.708304
419.691674	2530.545805
420.070859	2534.064530
420.449983	2532.272400
420.829045	2530.762574
421.208047	2531.012112
421.586988	2532.537061
421.965867	2531.952287
422.344686	2533.562935
422.723444	2531.455733
423.102141	2533.396577
423.480777	2531.208717
423.859352	2531.173428
424.237866	2532.262318
424.616319	2534.520755
424.994712	2529.797193
425.373044	2531.065044
425.751314	2533.830117
426.129524	2533.179808
426.507673	2534.026722
426.885762	2531.140661
427.263789	2534.964376
427.641756	2533.966228
428.019662	2535.347504
428.397508	2533.734335
428.775292	2533.643594
429.153016	2534.984541
429.530679	2537.563091
429.908282	2533.857843
430.285824	2532.489170
430.663305	2534.671989
431.040726	2537.865560
431.418086	2535.491177
431.795385	2537.041332
432.172624	2534.999664
432.549802	2537.227854
432.926920	2534.475384
433.303977	2534.712318
433.680974	2535.118131
434.057910	2534.606454
434.434786	2533.426824
434.811601	2535.430683
435.188355	2536.312885
435.565050	2537.157278
435.941683	2536.880015
436.318257	2534.246012
436.694770	2530.422297
437.071222	2533.139478
437.447614	2528.481452
437.823946	2534.195600
438.200218	2537.734490
438.576429	2536.012936
438.952580	2535.022349
439.328670	2536.849768
439.704700	2538.021836
440.080670	2539.980324
440.456580	2537.477391
440.832429	2539.735828
441.208218	2538.649460
441.583947	2541.694317
441.959616	2538.289017
442.335224	2537.434542
442.710773	2536.965714
443.086261	2535.982689
443.461689	2538.208359
443.837057	2538.306661
444.212365	2535.909592
444.587612	2540.136600
444.962800	2538.614172
445.337927	2540.923020
445.712995	2535.924716
446.088002	2539.559388
446.462949	2536.736342
446.837837	2540.136600
447.212664	2539.924872
447.587431	2541.429656
447.962139	2539.226672
448.336786	2539.191384
448.711374	2539.912269
449.085901	2541.023843
449.460369	2539.879501
449.834776	2540.068544
450.209124	2539.970242
450.583412	2540.923020
450.957640	2537.681558
451.331808	2539.579553
451.705917	2540.955788
452.079965	2538.982176
452.453954	2539.876981
452.827883	2540.688606
453.201752	2540.640715
453.575562	2538.021836
453.949311	2542.085006
454.323001	2540.557536
454.696632	2541.217927
455.070202	2541.076775
455.443713	2542.180788
455.817164	2541.835469
456.190556	2534.155271
456.563888	2541.958977
456.937160	2537.222813
457.310373	2542.589121
457.683526	2542.841179
458.056619	2544.386293
458.429653	2541.275901
458.802628	2543.695655
459.175542	2542.221117
459.548398	2542.453010
459.921194	2540.824717
460.293930	2541.149872
460.666607	2542.712630
461.039224	2544.209852
461.411782	2541.890922
461.784280	2542.662218
462.156719	2540.237423
462.529099	2541.580891
462.901419	2542.042156
463.273680	2541.467465
463.645882	2543.126004
464.018024	2543.678011
464.390106	2543.529297
464.762130	2543.292362
465.134094	2542.994934
465.505999	2542.445448
465.877845	2544.845038
466.249631	2545.031560
466.621358	2541.767413
466.993026	2546.974925
467.364634	2548.114226
467.736184	2543.814122
468.107674	2541.530479
468.479105	2544.585418
468.850477	2541.238092
469.221790	2541.812784
469.593043	2542.016950
469.964238	2544.976108
470.335373	2544.971067
470.706449	2541.953936
471.077467	2544.839997
471.448425	2544.860161
471.819324	2546.022147
472.190164	2546.722867
472.560945	2544.023330
472.931667	2544.204811
473.302330	2545.593649
473.672934	2545.444935
474.043479	2546.080120
474.413965	2546.619524
474.784393	2541.328833
475.154761	2544.867723
475.525070	2540.779347
475.895321	2543.282280
476.265513	2540.378575
476.635645	2547.214380
477.005719	2546.261602
477.375734	2542.934440
477.745691	2546.853937
478.115588	2547.322765
478.485427	2545.442414
478.855207	2547.751263
479.224928	2548.777138
479.594591	2547.421067
479.964194	2547.189174
480.333739	2547.559699
480.703226	2548.933413
481.072653	2547.983156
481.442022	2544.839997
481.811333	2549.003990
482.180584	2548.010882
482.549777	2546.380069
482.918912	2546.430481
483.287988	2548.119267
483.657005	2548.683876
484.025964	2549.626572
484.394864	2547.973074
484.763706	2550.740667
485.132489	2547.849565
485.501213	2547.557178
485.869879	2548.935934
486.238487	2549.404761
486.607036	2548.633465
486.975527	2547.305121
487.343959	2548.336037
487.712333	2547.378218
488.080648	2548.048691
488.448905	2547.151366
488.817104	2548.973743
489.185244	2551.411141
489.553326	2552.787376
489.921350	2551.055739
490.289315	2551.224618
490.657222	2551.970709
491.025070	2547.912580
491.392861	2548.068856
491.760593	2549.245965
492.128267	2548.711603
492.495883	2551.343085
492.863440	2550.949875
493.230939	2549.228321
493.598380	2550.589433
493.965763	2544.345963
494.333088	2546.521221
494.700354	2546.803526
495.067563	2550.443239
495.434713	2546.312013
495.801805	2550.561706
496.168839	2552.389124
496.535815	2550.304607
496.902733	2550.559186
497.269593	2551.932900
497.636395	2548.610780
498.003139	2553.480534
498.369825	2549.573640
498.736453	2551.438867
499.103023	2551.643034
499.469535	2550.072714
499.835989	2551.048177
500.202385	2551.128836
500.568723	2551.607746
500.935003	2550.370142
501.301226	2550.826367
501.667390	2552.928528
502.033497	2549.992056
502.399546	2551.711089
502.765537	2548.172199
503.131470	2553.306614
503.497345	2550.271840
503.863163	2551.184289
504.228923	2552.119423
504.594625	2552.618497
504.960269	2550.503733
505.325856	2552.530277
505.691385	2553.233518
506.056856	2551.491799
506.422270	2551.398538
506.787625	2555.617983
507.152924	2552.222766
507.518164	2553.258723
507.883347	2554.879454
508.248472	2554.196378
508.613540	2553.472972
508.978550	2550.680173
509.343503	2554.322407
509.708398	2556.404403
510.073236	2555.668395
510.438016	2556.225442
510.802738	2555.716286
511.167403	2555.514640
511.532010	2557.032027
511.896561	2555.000442
512.261053	2555.519681
512.625488	2552.232849
512.989866	2552.492468
513.354186	2553.946841
513.718449	2551.186809
514.082655	2554.841646
514.446803	2555.912891
514.810894	2556.328786
515.174927	2558.859445
515.538904	2557.382387
515.902822	2557.672254
516.266684	2557.284085
516.630488	2560.792728
516.994235	2559.388767
517.357925	2560.533108
517.721558	2557.440361
518.085133	2557.692418
518.448651	2559.229970
518.812112	2559.703839
519.175516	2560.500341
519.538863	2560.497820
519.902152	2560.245763
520.265385	2561.233829
520.628560	2558.178890
520.991678	2560.621329
521.354739	2561.143088
521.717743	2562.113510
522.080690	2563.391443
522.443580	2561.400187
522.806413	2562.741134
523.169189	2561.869014
523.531908	2562.612584
523.894569	2563.358675
524.257174	2565.062585
524.619722	2563.837585
524.982213	2563.988819
525.344647	2566.630384
525.707025	2565.604509
526.069345	2566.847154
526.431608	2566.131310
526.793815	2568.356979
527.155964	2566.390929
527.518057	2565.667524
527.880093	2568.959397
528.242072	2567.063923
528.603995	2567.646177
528.965860	2565.818758
529.327669	2569.934860
529.689421	2567.557956
530.051117	2569.690364
530.412755	2572.152968
530.774337	2572.140365
531.135862	2571.331260
531.497331	2567.820096
531.858743	2565.934705
532.220098	2568.586352
532.581396	2566.002760
532.942638	2567.494942
533.303824	2570.136507
533.664953	2574.282856
534.026025	2571.709347
534.387040	2569.203893
534.747999	2572.026939
535.108902	2573.153637
535.469748	2573.690520
535.830537	2574.383679
536.191270	2572.246229
536.551947	2575.225551
536.912567	2576.432908
537.273131	2574.877712
537.633638	2573.199007
537.994089	2572.500808
538.354483	2574.769327
538.714821	2576.206056
539.075103	2576.480799
539.435328	2578.981211
539.795497	2577.118505
540.155609	2577.665470
540.515665	2578.154462
540.875665	2579.843248
541.235609	2580.080182
541.595496	2578.482137
541.955328	2579.775193
542.315102	2582.275605
542.674821	2581.688311
543.034483	2580.276788
543.394090	2581.826942
543.753640	2579.994483
544.113134	2581.736202
544.472571	2579.727302
544.831953	2584.864237
545.191278	2583.586305
545.550548	2582.013465
545.909761	2582.537745
546.268918	2583.876171
546.628019	2584.672674
546.987064	2584.052612
547.346053	2584.687797
547.704986	2585.572520
548.063863	2585.396079
548.422684	2589.514702
548.781449	2585.307859
549.140158	2588.077973
549.498811	2588.970257
549.857408	2587.359609
550.215949	2588.277099
550.574434	2587.896492
550.932864	2591.266503
551.291237	2589.529825
551.649555	2597.958635
552.007817	2595.828747
552.366022	2597.784715
552.724173	2596.582400
553.082267	2595.367482
553.440305	2600.501897
553.798288	2597.618357
554.156215	2601.837802
554.514086	2603.627412
554.871902	2602.795622
555.229661	2605.303596
555.587365	2604.529779
555.945014	2607.856940
556.302606	2609.616303
556.660143	2612.257867
557.017625	2614.690224
557.375050	2616.066459
557.732421	2618.133332
558.089735	2620.318672
558.446994	2620.371605
558.804197	2624.137347
559.161345	2623.928139
559.518437	2624.409569
559.875474	2629.496093
560.232455	2631.883079
560.589381	2633.912144
560.946251	2639.318781
561.303065	2637.940026
561.659825	2640.614358
562.016528	2640.241312
562.373177	2642.073772
562.729770	2647.916469
563.086307	2648.801192
563.442789	2652.292191
563.799216	2657.051040
564.155587	2660.723521
564.511904	2662.596309
564.868164	2666.364572
565.224370	2667.781136
565.580520	2672.403874
565.936615	2674.390089
566.292654	2680.517611
566.648638	2683.012982
567.004567	2684.600946
567.360441	2688.528005
567.716260	2692.833150
568.072023	2695.772143
568.427732	2700.838502
568.783385	2701.173739
569.138982	2706.446786
569.494525	2712.148331
569.850013	2713.249823
570.205445	2728.922770
570.560823	2729.358830
570.916145	2734.528533
571.271412	2741.419791
571.626625	2747.917838
571.981782	2747.877509
572.336884	2758.559714
572.691931	2759.540218
573.046923	2770.134203
573.401860	2774.053700
573.756743	2778.941099
574.111570	2787.624486
574.466342	2790.361833
574.821059	2800.524799
575.175722	2799.796352
575.530330	2812.893270
575.884882	2821.599343
576.239380	2824.281237
576.593823	2828.573779
576.948211	2837.325222
577.302544	2837.748679
577.656823	2853.033457
578.011047	2859.269365
578.365216	2870.332177
578.719330	2872.378885
579.073389	2884.553272
579.427394	2884.081924
579.781344	2896.848646
580.135239	2905.050603
580.489080	2913.033271
580.842866	2923.213881
581.196597	2932.592948
581.550273	2942.720626
581.903895	2956.387194
582.257463	2965.584779
582.610975	2979.586584
582.964434	2987.465907
583.317837	2997.558297
583.671186	3002.095336
584.024481	3018.436236
584.377721	3022.880013
584.730906	3034.343597
585.084037	3048.846996
585.437113	3053.386555
585.790135	3073.435224
586.143103	3076.472519
586.496016	3087.053901
586.848874	3102.817589
587.201679	3115.667491
587.554428	3122.031947
587.907124	3141.415184
588.259765	3148.795433
588.612352	3176.047911
588.964884	3172.950122
589.317362	3192.451825
589.669786	3205.042107
590.022155	3221.466186
590.374470	3239.107704
590.726731	3245.227665
591.078937	3249.550454
591.431090	3279.436935
591.783188	3275.285545
592.135232	3295.301446
592.487222	3304.481387
592.839157	3329.598936
593.191038	3335.613033
593.542866	3342.771471
593.894639	3351.152390
594.246358	3369.368599
594.598022	3390.526322
594.949633	3392.681415
595.301190	3408.124990
595.652692	3422.835077
596.004141	3463.350830
596.355535	3443.808797
596.706876	3458.193730
597.058162	3467.582879
597.409395	3489.257320
597.760573	3518.266640
598.111698	3519.496681
598.462768	3537.475956
598.813785	3543.961401
599.164748	3563.006880
599.515657	3573.666400
599.866511	3583.647884
600.217312	3613.352883
600.568060	3607.167388
600.918753	3646.627019
601.269392	3656.870644
601.619978	3661.982374
601.970510	3694.530584
602.320988	3708.983572
602.671412	3743.843151
603.021783	3742.436669
603.372100	3760.388218
603.722363	3785.475520
604.072572	3793.924494
604.422728	3817.675890
604.772830	3822.326354
605.122878	3843.342925
605.472872	3856.712065
605.822813	3887.470665
606.172701	3896.615318
606.522534	3936.349693
606.872314	3956.816777
607.222041	3968.280361
607.571714	4004.483407
607.921333	4015.999923
608.270899	4040.623439
608.620411	4080.672886
608.969870	4082.646498
609.319276	4097.321297
609.668627	4126.277684
610.017926	4154.901356
610.367171	4199.555897
610.716362	4206.081670
611.065500	4229.563365
611.414585	4263.921349
611.763616	4270.933594
612.112594	4290.742808
612.461518	4314.627795
612.810389	4357.971636
613.159207	4359.098334
613.507971	4363.756360
613.856682	4430.143315
614.205340	4433.576341
614.553945	4479.962518
614.902496	4473.192248
615.250994	4513.660111
615.599439	4533.121485
615.947830	4555.829363
616.296169	4569.415272
616.644454	4596.148511
616.992686	4622.359990
617.340864	4666.523019
617.688990	4656.241585
618.037063	4710.353331
618.385082	4719.495463
618.733048	4774.892703
619.080961	4772.263741
619.428821	4800.269871
619.776628	4828.008820
620.124382	4830.995704
620.472083	4847.460112
620.819731	4877.626377
621.167326	4858.349005
621.514868	4879.184094
621.862357	4856.330023
622.209793	4884.245412
622.557176	4876.865163
622.904506	4887.998551
623.251783	4872.900295
623.599007	4879.819279
623.946179	4901.503802
624.293297	4908.160646
624.640363	4887.532244
624.987376	4904.120161
625.334336	4895.396444
625.681243	4897.470879
626.028097	4906.393722
626.374899	4914.739352
626.721647	4944.237663
627.068343	4923.261422
627.414987	4929.242751
627.761577	4925.391310
628.108115	4958.811639
628.454600	4930.306435
628.801032	4977.347962
629.147412	4966.827074
629.493739	4987.105115
629.840014	4969.902178
630.186236	5020.101988
630.532405	4976.909382
630.878521	5025.256568
631.224585	5016.275752
631.570597	4993.358667
631.916556	5029.813771
632.262462	5041.234505
632.608316	5042.696439
632.954117	5041.547056
633.299866	5049.862439
633.645562	5072.711469
633.991206	5037.589750
634.336797	5022.557030
634.682336	5016.674003
635.027823	5015.514538
635.373257	5024.187843
635.718639	5002.468032
636.063968	5026.746228
636.409245	4979.089681
636.754470	4994.986959
637.099642	4984.329960
637.444762	4966.111230
637.789829	4992.315148
638.134845	4968.029389
638.479808	4974.018280
638.824719	4993.182226
639.169577	4962.627793
639.514383	4992.163913
639.859137	4960.858348
640.203839	4975.780163
640.548489	4983.480526
640.893086	4979.548426
641.237632	4979.687057
641.582125	5001.439636
641.926566	4997.666333
642.270955	5021.286659
642.615292	5032.110016
642.959576	5054.409560
643.303809	5056.660435
643.647990	5080.656328
643.992118	5082.511472
644.336195	5053.721443
644.680219	5087.718984
645.024192	5089.294345
645.368112	5169.400800
645.711981	5190.087175
646.055797	5253.862812
646.399562	5238.676336
646.743274	5337.369526
647.086935	5381.514910
647.430544	5385.504983
647.774101	5418.700981
648.117606	5425.493936
648.461059	5436.408034
648.804460	5423.439666
649.147810	5368.443198
649.491108	5365.668043
649.834354	5358.917938
650.177548	5313.678623
650.520690	5264.340850
650.863781	5261.724492
651.206820	5286.481598
651.549807	5237.000153
651.892742	5210.728179
652.235626	5227.232917
652.578458	5223.167226
652.921238	5165.282177
653.263967	5207.514444
653.606644	5168.397610
653.949269	5181.459240
654.291843	5144.588241
654.634365	5192.438873
654.976836	5170.681253
655.319255	5176.682747
655.661622	5174.426830
656.003938	5180.211554
656.346203	5152.417153
656.688416	5191.733112
657.030577	5162.295294
657.372687	5144.719311
657.714746	5143.280061
658.056753	5186.177760
658.398708	5146.569414
658.740612	5147.043283
659.082465	5196.232341
659.424266	5194.238565
659.766016	5202.006983
660.107715	5191.879305
660.449362	5209.452767
660.790958	5211.592737
661.132503	5212.414445
661.473996	5252.988172
661.815438	5243.523406
662.156829	5249.383747
662.498168	5249.217389
662.839456	5228.989759
663.180693	5274.120689
663.521879	5281.916833
663.863013	5277.591523
664.204097	5299.689421
664.545129	5339.423796
664.886110	5344.681719
665.227040	5382.271083
665.567918	5352.578687
665.908746	5383.291917
666.249522	5393.991766
666.590248	5389.303492
666.930922	5411.784518
667.271545	5430.174647
667.612118	5438.379125
667.952639	5421.428245
668.293109	5446.898675
668.633528	5420.427576
668.973896	5428.868988
669.314213	5424.568884
669.654480	5419.021094
669.994695	5418.766516
670.334859	5419.628553
670.674973	5421.695427
671.015035	5431.311427
671.355047	5433.395945
671.695008	5426.570222
672.034918	5409.100104
672.374777	5423.669038
672.714585	5417.544036
673.054342	5419.419346
673.394049	5420.641825
673.733705	5454.830931
674.073310	5446.986895
674.412864	5415.025980
674.752368	5414.821813
675.091820	5427.538124
675.431223	5368.536459
675.770574	5381.106576
676.109875	5338.350030
676.449125	5350.741186
676.788324	5324.559954
677.127473	5277.941883
677.466571	5271.852170
677.805619	5270.365029
678.144616	5265.462507
678.483562	5246.684209
678.822458	5225.382813
679.161303	5223.547833
679.500098	5225.236620
679.838842	5209.843457
680.177535	5216.754879
680.516179	5231.396910
680.854771	5247.757975
681.193314	5324.716229
681.531805	5422.675931
681.870247	5558.421601
682.208638	5651.957690
682.546978	5669.473179
682.885268	5652.393750
683.223508	5581.696608
683.561697	5536.976533
683.899836	5510.364282
684.237925	5473.311801
684.575963	5440.836688
684.913951	5407.323097
685.251889	5467.496830
685.589776	5431.487868
685.927614	5413.995064
686.265401	5481.599458
686.603137	5467.466583
686.940824	5541.314446
687.278460	5560.198608
687.616046	5574.601184
687.953582	5630.550430
688.291068	5618.360920
688.628504	5679.973903
688.965889	5647.062730
689.303224	5601.026913
689.640510	5554.146703
689.977745	5488.457947
690.314930	5404.621038
690.652065	5356.132700
690.989150	5268.484679
691.326185	5206.019742
691.663170	5163.290922
692.000105	5089.448100
692.336990	5020.858161
692.673825	5004.441643
693.010610	4937.369091
693.347345	4875.372981
693.684030	4864.610118
694.020665	4827.267771
694.357251	4744.653342
694.693786	4756.442080
695.030272	4728.909818
695.366707	4699.880334
695.703093	4665.887833
696.039429	4688.724260
696.375716	4673.399152
696.711952	4646.287827
697.048139	4638.108555
697.384276	4619.093323
697.720363	4633.760560
698.056400	4642.658196
698.392388	4597.645734
698.728326	4577.271910
699.064214	4561.939241
699.400053	4555.045463
699.735842	4524.612017
700.071581	4503.300539
700.407270	4476.637877
700.742910	4461.932831
701.078501	4413.641098
701.414042	4412.932816
701.749533	4383.900811
702.084974	4320.339422
702.420366	4382.774113
702.755709	4322.655832
703.091002	4275.145478
703.426246	4315.744411
703.761440	4274.152371
704.096584	4243.078698
704.431679	4266.446967
704.766725	4251.555399
705.101721	4239.645673
705.436668	4272.249335
705.771565	4220.043146
706.106413	4242.662803
706.441212	4280.499183
706.775961	4284.232158
707.110661	4269.827061
707.445311	4296.661123
707.779913	4318.411181
708.114465	4335.541022
708.448967	4353.280842
708.783421	4412.068258
709.117825	4451.742138
709.452180	4456.238848
709.786485	4505.246425
710.120742	4586.058642
710.454949	4571.469542
710.789107	4633.790807
711.123216	4703.837639
711.457275	4695.461762
711.791286	4768.966827
712.125247	4783.432417
712.459159	4690.980177
712.793023	4765.327113
713.126837	4722.840269
713.460602	4719.233323
713.794318	4640.626611
714.127985	4650.116583
714.461602	4567.494592
714.795171	4543.854102
715.128691	4477.184842
715.462162	4424.204836
715.795584	4377.145664
716.128957	4364.048747
716.462281	4313.112928
716.795556	4284.942961
717.128782	4251.741921
717.461960	4187.842776
717.795088	4195.848128
718.128167	4152.126201
718.461198	4096.807099
718.794180	4092.010441
719.127113	4075.931681
719.459997	4056.424936
719.792833	4017.935727
720.125619	4002.378726
720.458357	3969.563335
720.791046	3974.831341
721.123686	3947.629274
721.456278	3909.616454
721.788821	3923.056170
722.121315	3899.047675
722.453761	3874.025908
722.786158	3889.960995
723.118506	3910.203748
723.450805	3862.161552
723.783056	3883.876322
724.115259	3901.076739
724.447412	3904.625712
724.779518	3897.731934
725.111574	3903.504055
725.443582	3931.810134
725.775542	3916.454779
726.107453	3968.527378
726.439315	3972.744303
726.771129	3983.204697
727.102895	4019.347250
727.434612	4067.149991
727.766281	4075.946804
728.097901	4075.533430
728.429473	4082.858226
728.760996	4088.343002
729.092471	4083.901745
729.423897	4070.146957
729.755276	4075.399839
730.086606	4075.490580
730.417887	4110.234212
730.749120	4174.970189
731.080305	4238.718100
731.411442	4264.339765
731.742530	4235.469077
732.073570	4237.556114
732.404562	4295.862100
732.735506	4281.711581
733.066401	4246.622630
733.397249	4182.562167
733.728048	4106.211372
734.058798	4026.364536
734.389501	3956.232003
734.720156	3899.241759
735.050762	3853.029502
735.381320	3849.079758
735.711831	3797.657468
736.042293	3770.662089
736.372707	3794.552117
736.703073	3765.139505
737.033391	3755.768000
737.363661	3770.972120
737.693883	3802.043272
738.024056	3805.927481
738.354182	3805.682985
738.684260	3864.888816
739.014290	3881.849778
739.344272	3878.797360
739.674207	3923.232610
740.004093	3926.035492
740.333931	3919.262702
740.663722	3923.348557
740.993464	3920.275974
741.323159	3896.771594
741.652806	3867.268241
741.982405	3836.887727
742.311956	3812.155827
742.641460	3800.069660
742.970915	3780.356228
743.300323	3735.923498
743.629683	3704.791853
743.958996	3694.134853
744.288260	3670.567459
744.617477	3637.774753
744.946647	3621.118781
745.275768	3599.484669
745.604842	3597.027107
745.933869	3546.771844
746.262847	3543.026267
746.591778	3581.797781
746.920662	3550.088923
747.249498	3517.298738
747.578286	3568.652972
747.907027	3583.967998
748.235720	3580.971032
748.564365	3605.919702
748.892963	3603.802418
749.221514	3588.875561
749.550017	3566.374371
749.878473	3564.831778
750.206881	3534.151315
750.535242	3530.884648
750.863555	3532.926315
751.191821	3528.033875
751.520039	3509.391688
751.848210	3487.177844
752.176334	3519.587422
752.504411	3527.136550
752.832440	3487.616424
753.160421	3471.681337
753.488356	3481.342708
753.816243	3495.359637
754.144082	3449.046556
754.471875	3433.431582
754.799620	3454.317083
755.127318	3444.799384
755.454969	3444.567491
755.782572	3452.290539
756.110129	3427.230963
756.437638	3417.932555
756.765100	3431.379833
757.092515	3439.193621
757.419882	3448.202163
757.747203	3421.925148
758.074477	3422.666198
758.401703	3439.662448
758.728882	3460.129533
759.056014	3466.252014
759.383099	3472.051862
759.710138	3467.184628
760.037129	3487.631548
760.364073	3512.786905
760.690970	3498.797703
761.017820	3473.964980
761.344623	3494.623628
761.671379	3540.190618
761.998088	3588.406734
762.324751	3715.549675
762.651366	3963.183755
762.977935	4423.758693
763.304456	4859.556361
763.630931	4946.332263
763.957359	4585.267180
764.283740	4252.374586
764.610074	4067.034044
764.936362	3868.725134
765.262602	3713.013974
765.588796	3610.560084
765.914943	3522.851569
766.241044	3435.122889
766.567097	3408.722367
766.893104	3364.035058
767.219064	3333.563804
767.544978	3304.352838
767.870845	3252.648243
768.196665	3235.881366
768.522438	3241.270359
768.848165	3238.442272
769.173846	3202.108156
769.499479	3186.213397
769.825066	3169.146571
770.150607	3153.939931
770.476101	3170.409380
770.801548	3164.728000
771.126949	3118.321658
771.452303	3104.186263
771.777611	3111.480812
772.102872	3113.903087
772.428087	3089.917277
772.753256	3081.498550
773.078378	3074.539237
773.403453	3040.040101
773.728482	3028.397556
774.053465	3050.644168
774.378401	3037.143958
774.703291	3004.802435
775.028135	3007.025584
775.352932	3001.266066
775.677683	2991.156032
776.002388	2987.523880
776.327046	2986.094713
776.651658	2979.465596
776.976224	2965.972948
777.300743	2966.275417
777.625216	2959.611012
777.949643	2952.298818
778.274024	2952.954168
778.598359	2942.201387
778.922647	2949.153138
779.246889	2946.874536
779.571086	2932.386260
779.895236	2924.869900
780.219339	2939.070830
780.543397	2949.795885
780.867409	2951.053653
781.191374	2948.394444
781.515294	2941.218362
781.839167	2944.122066
782.162995	2937.079574
782.486776	2945.924279
782.810511	2942.304730
783.134201	2928.353337
783.457844	2933.586055
783.781441	2925.477359
784.104993	2906.552867
784.428498	2906.817528
784.751958	2921.038623
785.075372	2911.651994
785.398739	2898.671023
785.722061	2914.071748
786.045337	2927.791248
786.368568	2911.422622
786.691752	2903.593710
787.014891	2952.442491
787.337983	2978.631285
787.661030	3005.402333
787.984031	3073.823393
788.306987	3117.986421
788.629897	3109.628188
788.952760	3096.609408
789.275579	3079.285483
789.598351	3022.028058
789.921078	2979.647078
790.243759	2970.494863
790.566395	2952.167748
790.888984	2931.078081
791.211529	2911.732653
791.534027	2900.821075
791.856480	2894.537277
792.178888	2877.478013
792.501249	2870.932074
792.823566	2867.725900
793.145836	2863.387987
793.468062	2862.717514
793.790241	2858.215764
794.112375	2866.450488
794.434464	2878.261912
794.756507	2884.117212
795.078505	2887.073849
795.400457	2901.655386
795.722364	2936.658638
796.044226	2961.284675
796.366042	2962.192082
796.687812	2951.419137
797.009538	2972.609627
797.331218	2960.722586
797.652852	2944.638785
797.974442	2929.220416
798.295986	2923.770928
798.617484	2917.666091
798.938938	2905.441293
799.260346	2889.428068
799.581709	2883.454300
799.903026	2875.522045
800.224299	2873.674462
800.545526	2864.355889
800.866708	2848.254444
801.187845	2836.049810
801.508936	2838.766992
801.829983	2844.733198
802.150984	2830.975889
802.471940	2819.550114
802.792851	2820.255875
803.113717	2817.516008
803.434538	2825.680157
803.755314	2819.361070
804.076045	2813.122642
804.396731	2812.673980
804.717372	2814.319917
805.037967	2808.295738
805.358518	2813.518373
805.679024	2826.658141
805.999485	2820.601194
806.319901	2826.113696
806.640272	2818.234372
806.960598	2823.141936
807.280879	2831.464881
807.601115	2836.800942
807.921306	2825.566731
808.241453	2821.526246
808.561554	2827.467246
808.881611	2829.239211
809.201623	2823.744354
809.521590	2823.696463
809.841513	2817.619352
810.161390	2822.995742
810.481223	2816.774958
810.801011	2807.562250
811.120755	2803.599903
811.440453	2806.531334
811.760107	2806.123000
812.079716	2806.049904
812.399281	2797.419448
812.718801	2788.904939
813.038276	2782.197684
813.357707	2790.225722
813.677093	2798.026907
813.996434	2792.174128
814.315731	2789.898047
814.634983	2783.432767
814.954191	2785.368570
815.273354	2798.674696
815.592473	2808.000830
815.911547	2805.702064
816.230577	2815.096254
816.549562	2827.346258
816.868502	2821.942141
817.187399	2833.614933
817.506250	2847.344515
817.825058	2842.570543
818.143821	2855.634693
818.462539	2867.594830
818.781213	2893.665158
819.099843	2931.562032
819.418429	2987.843994
819.736970	3049.956050
820.055466	3119.660084
820.373919	3223.338975
820.692327	3355.283615
821.010691	3521.321579
821.329011	3954.341571
821.647286	4835.752033
821.965517	6180.994019
822.283704	6890.581793
822.601847	6860.942329
822.919945	6240.431743
823.237999	5753.259677
823.556010	5186.024005
823.873976	4648.021984
824.191897	4252.795523
824.509775	3968.865135
824.827609	3705.842933
825.145398	3585.434973
825.463144	3576.779312
825.780845	3666.000174
826.098502	3770.004219
826.416116	4050.095767
826.733685	4353.177498
827.051210	4407.831168
827.368692	4297.853356
827.686129	4040.212585
828.003522	3721.210891
828.320872	3468.616315
828.638177	3283.275774
828.955439	3152.833397
829.272656	3070.027404
829.589830	3000.572907
829.906960	2957.803758
830.224046	2912.357756
830.541088	2879.562530
830.858086	2865.472505
831.175041	2847.168075
831.491952	2852.675536
831.808819	2861.159797
832.125642	2886.138715
832.442421	2928.234870
832.759157	3009.581449
833.075849	3184.736339
833.392497	3458.501240
833.709101	3653.840911
834.025662	3600.916357
834.342179	3444.973304
834.658653	3271.895369
834.975083	3128.066208
835.291469	3032.801004
835.607811	2953.796041
835.924110	2895.248080
836.240366	2849.774352
836.556578	2808.225162
836.872746	2786.979219
837.188871	2760.155239
837.504952	2747.658219
837.820990	2740.247722
838.136984	2726.666854
838.452935	2720.849362
838.768842	2716.917262
839.084706	2736.698750
839.400526	2812.467292
839.716303	2941.629216
840.032037	3016.767614
840.347727	3002.055006
840.663373	2942.753393
840.978977	2869.578524
841.294537	2798.059675
841.610054	2755.214908
841.925527	2731.337483
842.240957	2712.838969
842.556344	2691.862728
842.871687	2674.430418
843.186987	2665.563028
843.502244	2663.365085
843.817458	2656.309990
844.132629	2645.277425
844.447756	2639.056641
844.762840	2631.729324
845.077881	2634.537247
845.392879	2633.907103
845.707833	2631.961217
846.022745	2621.425206
846.337613	2624.298663
846.652438	2622.067953
846.967221	2623.439147
847.281960	2620.084259
847.596656	2620.648868
847.911309	2618.629886
848.225919	2615.935389
848.540485	2611.859616
848.855009	2614.475975
849.169490	2614.523866
849.483928	2612.870368
849.798323	2615.060749
850.112675	2612.250306
850.426984	2612.507405
850.741251	2605.432145
851.055474	2609.089502
851.369654	2614.382714
851.683792	2611.872219
851.997887	2613.261057
852.311938	2610.327106
852.625947	2611.897425
852.939914	2615.295163
853.253837	2616.741974
853.567718	2609.076899
853.881555	2607.730911
854.195350	2613.046808
854.509103	2614.486057
854.822812	2611.020264
855.136479	2609.644029
855.450103	2611.133690
855.763685	2614.412961
856.077224	2611.121087
856.390720	2608.063628
856.704173	2610.843824
857.017584	2616.999073
857.330953	2617.553600
857.644278	2617.719958
857.957561	2618.985287
858.270802	2614.397837
858.584000	2614.254164
858.897155	2616.724330
859.210268	2616.961264
859.523339	2612.794750
859.836367	2605.674121
860.149352	2608.749224
860.462295	2611.179061
860.775195	2608.058586
861.088054	2604.129007
861.400869	2609.618823
861.713642	2603.602206
862.026373	2605.187649
862.339062	2607.128493
862.651708	2611.579832
862.964312	2613.026643
863.276873	2612.769545
863.589392	2614.196191
863.901869	2619.852366
864.214303	2625.294291
864.526696	2627.015845
864.839045	2626.975516
865.151353	2628.760085
865.463619	2629.695219
865.775842	2628.288737
866.088023	2628.757564
866.400162	2630.345527
866.712258	2628.502986
867.024313	2629.420476
867.336325	2626.473921
867.648296	2628.084570
867.960224	2631.797380
868.272110	2632.377112
868.583954	2623.169445
868.895755	2626.047944
869.207515	2629.959879
869.519233	2638.633184
869.830909	2630.095990
870.142542	2629.365023
870.454134	2632.379633
870.765684	2636.699902
871.077191	2637.594707
871.388657	2641.408340
871.700081	2640.984883
872.011463	2640.306847
872.322803	2639.444810
872.634101	2643.659215
872.945357	2649.965698
873.256571	2656.214208
873.567744	2652.662716
873.878874	2650.918476
874.189963	2653.532315
874.501010	2657.242604
874.812015	2660.718479
875.122979	2659.309477
875.433900	2653.678508
875.744780	2652.203971
876.055618	2658.666730
876.366415	2660.194199
876.677169	2661.502379
876.987882	2655.957110
877.298554	2657.794610
877.609183	2667.269459
877.919771	2674.899245
878.230317	2679.811850
878.540822	2688.104548
878.851285	2702.713812
879.161707	2725.073849
879.472087	2758.320259
879.782425	2805.946560
880.092722	2916.763724
880.402977	3098.842640
880.713191	3350.028212
881.023363	3627.357209
881.333494	3810.988799
881.643583	3977.183039
881.953631	3973.568532
882.263637	3797.430616
882.573602	3585.808019
882.883526	3458.778504
883.193408	3351.578367
883.503248	3257.404572
883.813048	3147.754435
884.122806	3038.484905
884.432522	2955.305866
884.742197	2893.070301
885.051831	2858.417410
885.361424	2825.239056
885.670975	2790.820578
885.980485	2761.249169
886.289954	2743.746283
886.599382	2732.149109
886.908768	2721.098900
887.218113	2704.314378
887.527417	2689.042202
887.836680	2679.254802
888.145901	2675.806653
888.455082	2672.174502
888.764221	2659.783345
889.073319	2655.183292
889.382376	2653.149187
889.691392	2652.929897
890.000366	2651.709937
890.309300	2649.517036
890.618193	2654.827891
890.927044	2656.599857
891.235855	2656.362922
891.544625	2656.178920
891.853353	2653.988539
892.162041	2662.651762
892.470687	2680.638599
892.779293	2692.712162
893.087858	2701.531661
893.396381	2722.049157
893.704864	2762.539705
894.013306	2830.295333
894.321707	2920.451328
894.630068	2964.478246
894.938387	2982.361739
895.246665	2980.607417
895.554903	2934.538833
895.863100	2895.311094
896.171256	2839.379492
896.479371	2779.593928
896.787446	2744.631006
897.095480	2723.924466
897.403473	2722.502861
897.711425	2704.810932
898.019336	2689.571523
898.327207	2673.339008
898.635038	2672.068637
898.942827	2671.108297
899.250576	2665.772236
899.558284	2652.718168
899.865952	2647.334216
900.173579	2648.745739
900.481165	2645.695841
900.788711	2635.507669
901.096216	2629.755712
901.403681	2625.503499
901.711105	2627.010804
902.018489	2625.881586
902.325832	2628.523150
902.633135	2632.767802
902.940397	2641.912455
903.247619	2680.280677
903.554800	2746.385327
903.861941	2866.594161
904.169041	2983.339723
904.476101	3042.835420
904.783121	3037.282589
905.090100	2981.134218
905.397039	2909.517066
905.703938	2842.568022
906.010796	2781.955709
906.317614	2732.665827
906.624391	2698.020497
906.931129	2672.928154
907.237826	2651.808240
907.544483	2634.507000
907.851099	2623.275309
908.157675	2612.318361
908.464211	2608.235027
908.770707	2596.549632
909.077163	2591.037130
909.383578	2588.924887
909.689954	2588.456060
909.996289	2586.752150
910.302584	2586.071594
910.608839	2582.585636
910.915054	2586.656368
911.221229	2584.897005
911.527363	2588.965216
911.833458	2587.520926
912.139513	2585.476738
912.445527	2590.890937
912.751502	2595.390167
913.057436	2601.016094
913.363331	2604.852412
913.669186	2617.646861
913.975000	2628.878552
914.280775	2644.019657
914.586510	2661.888027
914.892205	2695.446988
915.197859	2758.380753
915.503475	2838.328412
915.809050	2900.173287
916.114585	2914.530493
916.420081	2923.715476
916.725536	2932.434151
917.030952	2908.695358
917.336328	2866.185828
917.641665	2818.478868
917.946961	2773.199225
918.252218	2740.308216
918.557435	2714.865513
918.862612	2696.810620
919.167750	2681.646830
919.472848	2665.363903
919.777906	2646.925882
920.082925	2636.904069
920.387904	2626.209261
920.692843	2623.633231
920.997743	2618.463528
921.302603	2612.467075
921.607423	2607.793926
921.912204	2599.690271
922.216946	2599.460898
922.521647	2598.785384
922.826310	2591.959662
923.130932	2587.417582
923.435516	2584.254258
923.740059	2581.733681
924.044564	2580.173444
924.349028	2580.848958
924.653454	2573.211610
924.957840	2570.857392
925.262186	2566.267421
925.566493	2568.916547
925.870761	2566.645507
926.174989	2568.157854
926.479178	2562.068140
926.783328	2561.246432
927.087438	2560.084446
927.391509	2560.303736
927.695541	2559.237532
927.999533	2557.826009
928.303486	2555.648230
928.607400	2557.891544
928.911275	2555.305432
929.215110	2554.191337
929.518906	2555.060936
929.822663	2554.907181
930.126381	2553.049516
930.430060	2555.479352
930.733699	2556.903478
931.037299	2557.929352
931.340861	2554.884496
931.644383	2557.699980
931.947866	2556.709393
932.251309	2557.735268
932.554714	2556.583364
932.858080	2559.051009
933.161407	2556.220401
933.464694	2556.858107
933.767943	2554.496327
934.071153	2553.490617
934.374323	2553.115051
934.677455	2553.238559
934.980548	2555.338199
935.283602	2553.188147
935.586617	2551.630431
935.889593	2554.014897
936.192530	2551.940462
936.495428	2555.461708
936.798287	2553.719989
937.101108	2557.387428
937.403890	2556.409445
937.706632	2561.057388
938.009336	2563.139385
938.312002	2567.000909
938.614628	2569.082905
938.917216	2573.405695
939.219765	2574.454255
939.522275	2574.605489
939.824747	2572.730180
940.127179	2568.273800
940.429573	2567.225240
940.731929	2566.176680
941.034246	2565.082750
941.336524	2567.588203
941.638763	2565.067626
941.940964	2565.097873
942.243126	2562.423541
942.545250	2560.490259
942.847335	2562.562173
943.149381	2559.182079
943.451389	2557.934394
943.753359	2558.846842
944.055290	2556.994218
944.357182	2555.403734
944.659036	2556.958930
944.960851	2556.832902
945.262628	2555.557490
945.564367	2559.658468
945.866067	2554.556821
946.167729	2560.117213
946.469352	2553.359547
946.770937	2555.950700
947.072484	2553.127653
947.373992	2553.722510
947.675462	2551.857283
947.976893	2555.738971
948.278286	2554.060267
948.579641	2552.376522
948.880958	2554.113199
949.182236	2552.855431
949.483476	2552.598332
949.784678	2552.981460
950.085841	2551.796789
950.386967	2552.749567
950.688054	2554.972716
950.989103	2552.885678
951.290114	2555.181924
951.591087	2558.602347
951.892021	2555.781821
952.192917	2560.137378
952.493776	2557.319373
952.794596	2560.475135
953.095378	2562.471432
953.396122	2560.248283
953.696828	2563.751885
953.997496	2558.627552
954.298126	2553.278888
954.598718	2557.175700
954.899272	2556.041440
955.199788	2553.309135
955.500266	2552.076573
955.800706	2548.832590
956.101108	2544.749256
956.401472	2549.082127
956.701798	2547.163968
957.002087	2544.325799
957.302337	2545.913762
957.602550	2545.192877
957.902724	2545.240768
958.202861	2545.253371
958.502960	2543.919986
958.803022	2542.400078
959.103045	2543.335212
959.403031	2544.164482
959.702979	2543.892260
960.002889	2542.707588
960.302762	2543.660367
960.602596	2543.652805
960.902393	2540.759182
961.202153	2541.041487
961.501875	2541.659028
961.801559	2544.270346
962.101205	2540.784388
962.400814	2541.240613
962.700385	2541.462423
962.999918	2538.594007
963.299414	2539.521579
963.598873	2538.427649
963.898293	2540.557536
964.197677	2541.477547
964.497022	2539.887063
964.796331	2540.126518
965.095601	2541.540561
965.394835	2542.079965
965.694030	2538.364634
965.993189	2542.841179
966.292309	2538.160468
966.591393	2541.207845
966.890439	2537.898328
967.189447	2538.888914
967.488419	2539.952598
967.787353	2538.692309
968.086249	2539.287166
968.385108	2540.144162
968.683930	2540.076106
968.982714	2537.742052
969.281462	2542.637012
969.580172	2540.320602
969.878844	2540.086188
970.177480	2537.757175
970.476078	2539.478729
970.774639	2543.090716
971.073162	2542.508463
971.371649	2538.379758
971.670098	2535.445806
971.968510	2538.140303
972.266885	2536.317926
972.565223	2542.097609
972.863524	2537.502597
973.161788	2540.428987
973.460014	2538.772968
973.758204	2542.957126
974.056356	2542.213555
974.354471	2540.784388
974.652550	2541.275901
974.950591	2541.079296
975.248595	2543.446117
975.546563	2539.761034
975.844493	2537.563091
976.142386	2540.028215
976.440243	2539.506456
976.738062	2540.802032
977.035845	2539.612320
977.333590	2537.802546
977.631299	2539.897145
977.928971	2539.577032
978.226606	2538.969573
978.524204	2541.011240
978.821765	2538.926723
979.119290	2537.432021
979.416777	2539.902186
979.714228	2536.378420
980.011642	2540.098791
980.309020	2541.321271
980.606360	2540.998637
980.903664	2538.931764
981.200931	2540.456713
981.498162	2541.054090
981.795356	2546.377548
982.092513	2545.255892
982.389633	2547.741181
982.686717	2552.053888
982.983764	2553.906512
983.280775	2555.862479
983.577749	2552.731923
983.874686	2553.949362
984.171587	2550.024823
984.468451	2548.131870
984.765279	2546.158258
985.062070	2544.633309
985.358824	2542.289173
985.655543	2541.170037
985.952224	2542.248843
986.248869	2541.122146
986.545478	2535.841537
986.842050	2536.580066
987.138586	2535.980169
987.435086	2536.504449
987.731549	2533.434386
988.027975	2536.270035
988.324366	2539.486291
988.620719	2538.236085
988.917037	2537.991589
989.213318	2538.820859
989.509563	2537.449665
989.805772	2537.802546
990.101944	2536.937988
990.398080	2536.479243
990.694180	2536.607792
990.990244	2538.571322
991.286271	2538.223482
991.582262	2538.964532
991.878217	2536.174253
992.174136	2537.633667
992.470019	2536.718698
992.765865	2538.561239
993.061676	2537.994110
993.357450	2536.620395
993.653188	2534.424973
993.948890	2536.877494
994.244556	2538.286497
994.540186	2540.179450
994.835780	2537.069058
995.131337	2539.231713
995.426859	2540.865047
995.722345	2539.219110
996.017795	2540.983514
996.313208	2540.456713
996.608586	2543.002496
996.903928	2542.735315
997.199234	2540.655839
997.494504	2539.985365
997.789738	2537.242978
998.084936	2540.804553
998.380099	2539.882022
998.675225	2539.541744
998.970316	2538.929244
999.265371	2536.348173
999.560390	2537.265663
999.855373	2539.025026
1000.150320	2538.294058
1000.445232	2540.713812
1000.740108	2538.435211
1001.034948	2539.564429
1001.329752	2537.827752
1001.624521	2535.975128
1001.919254	2530.533202
1002.213951	2534.624098
1002.508613	2530.944056
1002.803239	2535.206352
1003.097829	2532.552184
1003.392384	2536.801877
1003.686903	2536.443955
1003.981386	2537.129552
1004.275834	2533.600744
1004.570246	2536.948070
1004.864623	2533.494880
1005.158964	2535.029911
1005.453270	2537.505118
1005.747540	2533.411701
1006.041775	2538.399922
1006.335974	2535.221475
1006.630138	2535.584438
1006.924266	2537.711805
1007.218359	2537.116949
1007.512416	2537.434542
1007.806438	2536.423790
1008.100425	2536.391023
1008.394376	2536.459078
1008.688292	2535.602082
1008.982172	2535.629808
1009.276017	2537.116949
1009.569827	2535.065199
1009.863602	2535.534027
1010.157341	2535.622247
1010.451045	2535.649973
1010.744714	2536.133924
1011.038347	2535.060158
1011.331945	2533.331042
1011.625508	2539.115766
1011.919036	2535.420601
1012.212528	2536.232226
1012.505986	2535.894469
1012.799408	2536.668286
1013.092795	2536.784233
1013.386147	2540.189532
1013.679464	2534.813142
1013.972745	2535.065199
1014.265992	2537.643749
1014.559204	2538.024357
1014.852380	2533.832637
1015.145521	2535.307175
1015.438628	2536.859850
1015.731699	2536.998482
1016.024736	2537.401774
1016.317737	2534.677030
1016.610703	2535.965045
1016.903635	2535.614685
1017.196531	2532.902544
1017.489393	2533.625950
1017.782219	2528.451205
1018.075011	2533.399098
1018.367768	2532.592513
1018.660490	2536.035621
1018.953177	2536.035621
1019.245829	2536.035621
