Dividing Wavelength (nm)	Counts (n)	Blue Motor Position (mm): 4.200000	Red Motor Position (mm): 0.000000	
326.493990	2142.220683
326.888308	2142.220683
327.282561	2142.220683
327.676750	2108.402102
328.070874	2108.124839
328.464933	2112.949223
328.858929	2118.393669
329.252859	2130.237860
329.646726	2139.974849
330.040528	2151.130922
330.434265	2171.144303
330.827938	2186.204750
331.221547	2205.887935
331.615091	2222.990050
332.008571	2241.823801
332.401986	2265.197110
332.795338	2284.287960
333.188625	2302.904941
333.581847	2320.659885
333.975006	2337.547750
334.368100	2358.360154
334.761129	2379.074255
335.154095	2394.233005
335.546996	2411.007444
335.939833	2424.036306
336.332606	2438.126331
336.725315	2451.087138
337.117960	2459.576441
337.510540	2468.587503
337.903056	2478.334574
338.295508	2486.352530
338.687896	2493.389980
339.080220	2505.924809
339.472480	2512.216169
339.864676	2512.415295
340.256807	2521.088600
340.648875	2521.529701
341.040879	2523.878879
341.432818	2525.570186
341.824694	2527.848788
342.216506	2526.928777
342.608253	2530.109745
342.999937	2527.228726
343.391557	2526.890968
343.783113	2528.236956
344.174605	2524.637572
344.566033	2525.063550
344.957397	2523.006759
345.348697	2520.171110
345.739934	2520.713034
346.131106	2518.683970
346.522215	2519.906450
346.913260	2514.197343
347.304241	2512.107785
347.695159	2509.199039
348.086012	2509.942609
348.476802	2505.549243
348.867528	2509.294821
349.258191	2503.530261
349.648789	2504.299037
350.039324	2502.529592
350.429796	2502.708553
350.820203	2498.854591
351.210548	2498.857112
351.600828	2497.009529
351.991045	2499.028511
352.381198	2495.661020
352.771288	2498.405928
353.161314	2496.180259
353.551276	2495.963489
353.941175	2495.280413
354.331010	2493.526092
354.720782	2496.104642
355.110490	2494.723366
355.500135	2492.979126
355.889717	2498.317708
356.279235	2491.928046
356.668689	2496.424755
357.058080	2493.042141
357.447408	2493.798314
357.836672	2493.364775
358.225873	2494.761174
358.615010	2491.912922
359.004084	2497.498521
359.393095	2497.639673
359.782043	2499.497338
360.170927	2500.056906
360.559748	2500.399705
360.948505	2498.617657
361.337199	2500.306443
361.725830	2499.787205
362.114398	2502.096053
362.502903	2504.299037
362.891344	2501.670076
363.279722	2502.222082
363.668037	2504.518327
364.056289	2503.237874
364.444478	2504.293996
364.832603	2503.908348
365.220665	2504.059583
365.608665	2503.273163
365.996601	2506.033194
366.384474	2505.866836
366.772284	2505.650067
367.160031	2505.710560
367.547715	2506.476816
367.935336	2506.693585
368.322893	2505.929851
368.710388	2508.440345
369.097820	2511.021416
369.485189	2509.115860
369.872495	2508.374810
370.259738	2510.471930
370.646918	2507.172495
371.034035	2511.109636
371.421090	2510.774399
371.808081	2513.015192
372.195010	2509.554440
372.581875	2511.341529
372.968678	2509.083092
373.355418	2511.210459
373.742096	2513.443690
374.128710	2512.790861
374.515262	2511.404544
374.901751	2510.431601
375.288177	2513.950326
375.674540	2513.418485
376.060841	2510.257681
376.447079	2512.117867
376.833254	2514.424195
377.219367	2508.999913
377.605417	2512.584174
377.991404	2510.262722
378.377329	2510.393792
378.763191	2510.303052
379.148991	2514.620800
379.534727	2513.990656
379.920402	2514.774555
380.306013	2513.231962
380.691563	2515.467714
381.077049	2515.603825
381.462474	2517.093486
381.847835	2515.729854
382.233134	2514.436798
382.618371	2516.556603
383.003545	2515.462672
383.388657	2515.896212
383.773706	2515.828156
384.158693	2516.289422
384.543618	2517.443846
384.928480	2518.371418
385.313280	2519.067097
385.698017	2518.653723
386.082692	2517.085924
386.467305	2518.517612
386.851856	2517.832015
387.236344	2518.265554
387.620770	2519.157838
388.005133	2520.397962
388.389435	2518.106758
388.773674	2518.290760
389.157851	2518.560462
389.541965	2520.755884
389.926018	2522.512726
390.310008	2521.202026
390.693936	2519.087262
391.077802	2515.618948
391.461606	2518.837725
391.845348	2520.115657
392.229027	2522.111954
392.612645	2523.349558
392.996200	2521.499454
393.379694	2521.885102
393.763125	2524.272089
394.146494	2518.731861
394.529801	2521.600277
394.913047	2522.245545
395.296230	2524.105731
395.679351	2525.366019
396.062410	2521.726306
396.445408	2522.895854
396.828343	2523.367202
397.211217	2518.348733
397.594028	2519.903929
397.976778	2517.837056
398.359466	2522.399300
398.742092	2520.531553
399.124656	2523.510875
399.507158	2524.516585
399.889598	2526.157480
400.271977	2522.588343
400.654294	2523.460463
401.036549	2524.191430
401.418742	2525.857532
401.800874	2524.942562
402.182944	2524.640093
402.564952	2524.473735
402.946898	2522.343848
403.328783	2526.686802
403.710606	2524.902233
404.092367	2525.925587
404.474067	2523.520957
404.855705	2527.422810
405.237282	2525.640762
405.618797	2527.337110
406.000250	2528.025228
406.381642	2527.211082
406.762972	2528.700743
407.144240	2528.322656
407.525447	2527.027079
407.906593	2528.173942
408.287677	2528.904909
408.668700	2529.424148
409.049661	2531.251566
409.430560	2528.562111
409.811399	2532.184180
410.192176	2524.972809
410.572891	2530.770136
410.953545	2528.594878
411.334138	2532.007739
411.714669	2529.262831
412.095139	2531.612009
412.475547	2528.756195
412.855894	2530.195445
413.236180	2531.395239
413.616405	2529.759385
413.996568	2528.859539
414.376670	2531.276772
414.756711	2532.017822
415.136691	2531.720394
415.516609	2533.149561
415.896466	2532.259797
416.276262	2533.494880
416.655997	2526.069260
417.035670	2528.499096
417.415283	2528.534384
417.794834	2526.243180
418.174324	2531.130579
418.553753	2530.843233
418.933121	2530.260980
419.312428	2534.561084
419.691674	2532.259797
420.070859	2533.865405
420.449983	2534.220806
420.829045	2532.847092
421.208047	2534.828265
421.586988	2532.806762
421.965867	2533.951104
422.344686	2531.738038
422.723444	2536.721218
423.102141	2533.048738
423.480777	2535.299613
423.859352	2533.121834
424.237866	2535.675179
424.616319	2534.535878
424.994712	2534.573687
425.373044	2535.725590
425.751314	2532.630322
426.129524	2534.311547
426.507673	2533.850281
426.885762	2536.325488
427.263789	2537.641229
427.641756	2537.104346
428.019662	2535.992772
428.397508	2534.253573
428.775292	2535.380271
429.153016	2536.343132
429.530679	2537.202648
429.908282	2536.338091
430.285824	2536.128883
430.663305	2535.130734
431.040726	2537.769778
431.418086	2534.823224
431.795385	2538.233564
432.172624	2536.209541
432.549802	2537.056455
432.926920	2534.069571
433.303977	2537.222813
433.680974	2540.781868
434.057910	2536.078471
434.434786	2536.491846
434.811601	2538.664583
435.188355	2537.651311
435.565050	2535.627288
435.941683	2537.563091
436.318257	2534.722401
436.694770	2531.480939
437.071222	2537.429500
437.447614	2532.501772
437.823946	2534.898841
438.200218	2536.844727
438.576429	2540.345808
438.952580	2536.259953
439.328670	2537.227854
439.704700	2540.318082
440.080670	2539.438400
440.456580	2538.490663
440.832429	2538.346990
441.208218	2540.620551
441.583947	2540.842362
441.959616	2539.360262
442.335224	2538.641898
442.710773	2541.008720
443.086261	2540.650798
443.461689	2539.632485
443.837057	2540.123997
444.212365	2539.110725
444.587612	2539.854295
444.962800	2541.596014
445.337927	2541.238092
445.712995	2538.682227
446.088002	2538.110056
446.462949	2536.567463
446.837837	2541.265818
447.212664	2539.708102
447.587431	2539.758513
447.962139	2540.562578
448.336786	2540.522248
448.711374	2539.750952
449.085901	2543.282280
449.460369	2539.564429
449.834776	2538.087371
450.209124	2539.743390
450.583412	2539.695499
450.957640	2541.628782
451.331808	2540.045859
451.705917	2542.211035
452.079965	2542.468134
452.453954	2542.442928
452.827883	2543.367980
453.201752	2541.936292
453.575562	2542.546272
453.949311	2543.269677
454.323001	2543.526776
454.696632	2541.127187
455.070202	2540.779347
455.443713	2543.110881
455.817164	2539.370345
456.190556	2539.876981
456.563888	2539.665252
456.937160	2538.047042
457.310373	2541.207845
457.683526	2543.625078
458.056619	2544.603062
458.429653	2544.623227
458.802628	2542.939482
459.175542	2544.449307
459.548398	2543.746066
459.921194	2541.991745
460.293930	2543.683052
460.666607	2544.066179
461.039224	2544.172044
461.411782	2545.034081
461.784280	2546.566592
462.156719	2544.020809
462.529099	2545.477703
462.901419	2541.742208
463.273680	2547.315203
463.645882	2546.793444
464.018024	2544.776982
464.390106	2541.316230
464.762130	2546.188505
465.134094	2543.829245
465.505999	2546.266643
465.877845	2544.383772
466.249631	2542.694986
466.621358	2544.298072
466.993026	2547.042981
467.364634	2547.171530
467.736184	2545.197918
468.107674	2542.747918
468.479105	2543.176416
468.850477	2544.882846
469.221790	2548.089020
469.593043	2544.608103
469.964238	2543.252033
470.335373	2543.796478
470.706449	2547.804195
471.077467	2543.791437
471.448425	2545.593649
471.819324	2546.332178
472.190164	2547.078269
472.560945	2546.448125
472.931667	2547.431150
473.302330	2544.799667
473.672934	2545.933927
474.043479	2546.347302
474.413965	2544.255223
474.784393	2542.936961
475.154761	2543.909904
475.525070	2542.526107
475.895321	2542.478216
476.265513	2542.072403
476.635645	2546.969884
477.005719	2545.023999
477.375734	2546.823691
477.745691	2546.377548
478.115588	2546.576674
478.485427	2543.965356
478.855207	2546.377548
479.224928	2544.673638
479.594591	2548.431819
479.964194	2546.004503
480.333739	2546.871582
480.703226	2545.351674
481.072653	2547.708413
481.442022	2546.997610
481.811333	2545.369318
482.180584	2550.596994
482.549777	2549.331665
482.918912	2545.301262
483.287988	2547.902498
483.657005	2547.466438
484.025964	2546.685059
484.394864	2545.639019
484.763706	2546.904349
485.132489	2548.373845
485.501213	2547.116077
485.869879	2547.710934
486.238487	2545.707075
486.607036	2546.866540
486.975527	2548.333516
487.343959	2548.104144
487.712333	2548.595656
488.080648	2547.607590
488.448905	2546.740512
488.817104	2548.237734
489.185244	2549.407282
489.553326	2550.385266
489.921350	2549.924000
490.289315	2549.301418
490.657222	2546.080120
491.025070	2547.816798
491.392861	2550.468445
491.760593	2545.989380
492.128267	2547.821839
492.495883	2548.973743
492.863440	2548.976263
493.230939	2548.454504
493.598380	2552.139587
493.965763	2544.088865
494.333088	2545.076931
494.700354	2544.015768
495.067563	2546.349822
495.434713	2543.647764
495.801805	2548.842673
496.168839	2549.987015
496.535815	2546.662374
496.902733	2547.284956
497.269593	2547.849565
497.636395	2547.824360
498.003139	2547.025337
498.369825	2547.274874
498.736453	2549.276212
499.103023	2548.167158
499.469535	2548.240255
499.835989	2548.792261
500.202385	2549.276212
500.568723	2549.213197
500.935003	2549.157745
501.301226	2547.458876
501.667390	2549.936603
502.033497	2548.114226
502.399546	2554.347613
502.765537	2548.557848
503.131470	2549.127498
503.497345	2550.886861
503.863163	2551.738816
504.228923	2549.001469
504.594625	2549.775286
504.960269	2547.289997
505.325856	2550.934752
505.691385	2549.939124
506.056856	2550.549103
506.422270	2548.751932
506.787625	2551.312838
507.152924	2550.140770
507.518164	2550.654967
507.883347	2551.837118
508.248472	2550.017262
508.613540	2551.479196
508.978550	2549.934083
509.343503	2549.455173
509.708398	2550.972560
510.073236	2551.746377
510.438016	2549.555996
510.802738	2548.199926
511.167403	2550.954916
511.532010	2551.653116
511.896561	2552.583209
512.261053	2550.012220
512.625488	2547.156407
512.989866	2544.313196
513.354186	2546.617003
513.718449	2544.585418
514.082655	2547.388300
514.446803	2550.723023
514.810894	2551.814433
515.174927	2551.393497
515.538904	2551.885009
515.902822	2551.469114
516.266684	2547.161448
516.630488	2549.974412
516.994235	2552.182437
517.357925	2552.101779
517.721558	2553.669577
518.085133	2550.322251
518.448651	2552.023641
518.812112	2553.667057
519.175516	2551.232180
519.538863	2550.274360
519.902152	2551.688404
520.265385	2550.476007
520.628560	2551.751418
520.991678	2551.179247
521.354739	2552.081614
521.717743	2548.444422
522.080690	2551.665719
522.443580	2548.119267
522.806413	2550.748229
523.169189	2550.070194
523.531908	2550.619679
523.894569	2551.138918
524.257174	2551.199412
524.619722	2551.448949
524.982213	2551.864844
525.344647	2551.116233
525.707025	2552.487427
526.069345	2550.975081
526.431608	2550.997766
526.793815	2552.071532
527.155964	2551.809392
527.518057	2552.048847
527.880093	2550.513815
528.242072	2550.385266
528.603995	2551.816953
528.965860	2551.252344
529.327669	2548.693959
529.689421	2553.036913
530.051117	2549.692107
530.412755	2552.774773
530.774337	2550.138249
531.135862	2551.416182
531.497331	2551.922818
531.858743	2544.227496
532.220098	2550.425595
532.581396	2548.714123
532.942638	2545.323947
533.303824	2551.340564
533.664953	2553.329300
534.026025	2549.510626
534.387040	2549.581202
534.747999	2551.779145
535.108902	2554.511450
535.469748	2552.177396
535.830537	2550.092879
536.191270	2551.491799
536.551947	2551.675801
536.912567	2552.832746
537.273131	2551.305276
537.633638	2549.830739
537.994089	2550.322251
538.354483	2551.421223
538.714821	2553.067160
539.075103	2552.477345
539.435328	2551.998435
539.795497	2551.950544
540.155609	2550.660009
540.515665	2552.268137
540.875665	2553.735112
541.235609	2552.071532
541.595496	2553.079762
541.955328	2552.091696
542.315102	2552.941131
542.674821	2552.303425
543.034483	2553.692263
543.394090	2550.486089
543.753640	2552.137067
544.113134	2553.198230
544.472571	2552.580688
544.831953	2552.731923
545.191278	2553.162942
545.550548	2552.074052
545.909761	2552.069011
546.268918	2550.637323
546.628019	2553.107489
546.987064	2553.402396
547.346053	2553.130174
547.704986	2550.816284
548.063863	2553.175544
548.422684	2553.856100
548.781449	2549.175389
549.140158	2552.245452
549.498811	2553.541028
549.857408	2554.513971
550.215949	2548.144473
550.574434	2549.276212
550.932864	2550.619679
551.291237	2548.762014
551.649555	2551.312838
552.007817	2551.635472
552.366022	2553.810730
552.724173	2550.642365
553.082267	2554.130843
553.440305	2554.178734
553.798288	2552.787376
554.156215	2552.926007
554.514086	2552.149670
554.871902	2553.336861
555.229661	2549.903836
555.587365	2554.012376
555.945014	2552.225287
556.302606	2550.465924
556.660143	2553.790565
557.017625	2551.668239
557.375050	2552.580688
557.732421	2551.353167
558.089735	2553.089845
558.446994	2550.178578
558.804197	2553.578837
559.161345	2552.671429
559.518437	2549.916438
559.875474	2554.455998
560.232455	2553.175544
560.589381	2552.739485
560.946251	2555.290308
561.303065	2551.721172
561.659825	2551.824515
562.016528	2552.230328
562.373177	2550.881819
562.729770	2550.586912
563.086307	2552.963816
563.442789	2551.769063
563.799216	2554.753426
564.155587	2551.940462
564.511904	2550.899463
564.868164	2554.244269
565.224370	2554.491286
565.580520	2550.428116
565.936615	2551.595143
566.292654	2554.798796
566.648638	2550.791079
567.004567	2554.448436
567.360441	2550.904505
567.716260	2554.448436
568.072023	2553.162942
568.427732	2550.012220
568.783385	2549.460214
569.138982	2549.384597
569.494525	2549.399720
569.850013	2547.955430
570.205445	2550.901984
570.560823	2551.300235
570.916145	2552.777293
571.271412	2552.079093
571.626625	2555.484393
571.981782	2551.438867
572.336884	2551.476676
572.691931	2552.336192
573.046923	2551.701007
573.401860	2553.906512
573.756743	2552.106820
574.111570	2553.682180
574.466342	2550.445760
574.821059	2553.173024
575.175722	2549.490461
575.530330	2554.012376
575.884882	2550.924669
576.239380	2551.988353
576.593823	2554.148487
576.948211	2551.219577
577.302544	2553.321738
577.656823	2553.296532
578.011047	2553.092365
578.365216	2553.651933
578.719330	2553.276367
579.073389	2550.876778
579.427394	2552.189999
579.781344	2552.333672
580.135239	2555.121430
580.489080	2555.398693
580.842866	2550.602035
581.196597	2554.120761
581.550273	2552.409289
581.903895	2551.262427
582.257463	2553.523384
582.610975	2553.457849
582.964434	2554.345092
583.317837	2552.152190
583.671186	2553.631769
584.024481	2553.704866
584.377721	2554.745864
584.730906	2553.110009
585.084037	2554.471121
585.437113	2552.220246
585.790135	2555.998591
586.143103	2551.809392
586.496016	2556.051523
586.848874	2548.169679
587.201679	2550.168496
587.554428	2550.642365
587.907124	2550.854093
588.259765	2548.295708
588.612352	2555.620504
588.964884	2552.535318
589.317362	2555.900288
589.669786	2550.385266
590.022155	2555.015566
590.374470	2555.018086
590.726731	2553.810730
591.078937	2552.396686
591.431090	2551.537169
591.783188	2552.371480
592.135232	2554.047664
592.487222	2551.451470
592.839157	2554.539177
593.191038	2552.472303
593.542866	2553.102448
593.894639	2551.786707
594.246358	2552.245452
594.598022	2549.467776
594.949633	2555.151677
595.301190	2553.989691
595.652692	2554.314845
596.004141	2552.066491
596.355535	2555.076059
596.706876	2551.869886
597.058162	2552.575647
597.409395	2552.126984
597.760573	2554.569423
598.111698	2553.979608
598.462768	2552.807540
598.813785	2552.898281
599.164748	2554.415668
599.515657	2551.834597
599.866511	2555.000442
600.217312	2552.638662
600.568060	2552.931048
600.918753	2555.433981
601.269392	2554.093034
601.619978	2553.909032
601.970510	2552.810061
602.320988	2550.476007
602.671412	2554.234187
603.021783	2550.586912
603.372100	2554.914743
603.722363	2552.678991
604.072572	2553.619166
604.422728	2553.737633
604.772830	2548.252858
605.122878	2549.634134
605.472872	2550.745708
605.822813	2549.455173
606.172701	2553.692263
606.522534	2554.481203
606.872314	2554.864331
607.222041	2555.033210
607.571714	2552.457180
607.921333	2554.395504
608.270899	2552.711758
608.620411	2552.568085
608.969870	2555.675957
609.319276	2552.522715
609.668627	2555.978426
610.017926	2558.246945
610.367171	2562.093346
610.716362	2558.435988
611.065500	2559.386246
611.414585	2556.613611
611.763616	2559.008159
612.112594	2552.847869
612.461518	2554.957592
612.810389	2556.437171
613.159207	2555.862479
613.507971	2555.958261
613.856682	2555.184444
614.205340	2555.008004
614.553945	2553.203271
614.902496	2553.440205
615.250994	2552.651264
615.599439	2551.101110
615.947830	2553.180586
616.296169	2551.091027
616.644454	2553.888868
616.992686	2554.037582
617.340864	2551.043136
617.688990	2553.969526
618.037063	2553.387273
618.385082	2552.943651
618.733048	2553.364588
619.080961	2551.791748
619.428821	2556.054043
619.776628	2552.704197
620.124382	2553.341903
620.472083	2554.357695
620.819731	2553.112530
621.167326	2553.084804
621.514868	2554.541697
621.862357	2552.666388
622.209793	2551.380894
622.557176	2552.951213
622.904506	2552.600853
623.251783	2550.269319
623.599007	2550.962478
623.946179	2550.569268
624.293297	2552.386604
624.640363	2554.115720
624.987376	2552.399207
625.334336	2553.077242
625.681243	2553.475493
626.028097	2551.635472
626.374899	2553.389793
626.721647	2553.125133
627.068343	2554.055226
627.414987	2553.188147
627.761577	2557.566389
628.108115	2551.733774
628.454600	2553.031872
628.801032	2552.608415
629.147412	2554.445915
629.493739	2550.735626
629.840014	2552.174875
630.186236	2553.851059
630.532405	2555.285267
630.878521	2555.307952
631.224585	2553.493137
631.570597	2554.786193
631.916556	2552.981460
632.262462	2552.973898
632.608316	2550.995245
632.954117	2553.026830
633.299866	2553.994732
633.645562	2551.259906
633.991206	2555.865000
634.336797	2554.531615
634.682336	2552.764690
635.027823	2552.880637
635.373257	2549.619010
635.718639	2550.665050
636.063968	2553.737633
636.409245	2549.878630
636.754470	2554.932387
637.099642	2551.259906
637.444762	2553.430123
637.789829	2550.309648
638.134845	2551.093548
638.479808	2550.312169
638.824719	2553.238559
639.169577	2552.210163
639.514383	2553.810730
639.859137	2552.048847
640.203839	2553.692263
640.548489	2555.713765
640.893086	2550.135729
641.237632	2550.312169
641.582125	2549.336706
641.926566	2548.487271
642.270955	2549.228321
642.615292	2553.062118
642.959576	2551.189330
643.303809	2553.407438
643.647990	2553.530946
643.992118	2552.288301
644.336195	2550.851572
644.680219	2548.754452
645.024192	2553.281409
645.368112	2550.949875
645.711981	2553.596481
646.055797	2550.488609
646.399562	2554.377860
646.743274	2552.242931
647.086935	2553.898950
647.430544	2551.287632
647.774101	2552.366439
648.117606	2551.194371
648.461059	2553.266285
648.804460	2555.464228
649.147810	2553.097407
649.491108	2552.946172
649.834354	2553.218394
650.177548	2551.937941
650.520690	2551.131357
650.863781	2554.720658
651.206820	2556.827860
651.549807	2550.808723
651.892742	2551.524567
652.235626	2551.607746
652.578458	2553.535987
652.921238	2549.445091
653.263967	2554.839125
653.606644	2555.885165
653.949269	2554.398024
654.291843	2554.919784
654.634365	2550.604556
654.976836	2551.151521
655.319255	2552.192519
655.661622	2552.767211
656.003938	2551.577499
656.346203	2550.226469
656.688416	2551.315359
657.030577	2549.954247
657.372687	2553.432643
657.714746	2552.552962
658.056753	2553.929197
658.398708	2549.407282
658.740612	2551.459032
659.082465	2549.976932
659.424266	2548.671273
659.766016	2547.589946
660.107715	2552.900802
660.449362	2549.354350
660.790958	2553.258723
661.132503	2554.841646
661.473996	2550.019782
661.815438	2551.272509
662.156829	2552.222766
662.498168	2551.701007
662.839456	2550.223949
663.180693	2552.310987
663.521879	2553.074721
663.863013	2551.690925
664.204097	2550.995245
664.545129	2550.738147
664.886110	2551.685883
665.227040	2552.510112
665.567918	2553.372149
665.908746	2551.068342
666.249522	2553.742674
666.590248	2553.077242
666.930922	2551.504402
667.271545	2552.681511
667.612118	2551.494320
667.952639	2554.450956
668.293109	2554.778631
668.633528	2552.910884
668.973896	2552.840308
669.314213	2551.811912
669.654480	2552.772252
669.994695	2551.617828
670.334859	2551.322920
670.674973	2550.791079
671.015035	2551.995914
671.355047	2550.798640
671.695008	2551.549772
672.034918	2552.605894
672.374777	2549.891233
672.714585	2552.777293
673.054342	2552.494989
673.394049	2551.048177
673.733705	2551.572457
674.073310	2554.955072
674.412864	2552.822664
674.752368	2548.925852
675.091820	2552.104299
675.431223	2548.900646
675.770574	2553.102448
676.109875	2549.674463
676.449125	2550.604556
676.788324	2549.535831
677.127473	2549.924000
677.466571	2548.976263
677.805619	2551.806871
678.144616	2551.050698
678.483562	2551.030533
678.822458	2553.258723
679.161303	2552.298384
679.500098	2551.857283
679.838842	2550.919628
680.177535	2550.927190
680.516179	2553.016748
680.854771	2550.231511
681.193314	2550.022303
681.531805	2551.005328
681.870247	2552.875596
682.208638	2551.821995
682.546978	2549.762683
682.885268	2549.855945
683.223508	2550.574309
683.561697	2552.043805
683.899836	2550.576830
684.237925	2552.237890
684.575963	2550.851572
684.913951	2552.331151
685.251889	2552.852911
685.589776	2550.095399
685.927614	2549.223280
686.265401	2551.882488
686.603137	2553.331820
686.940824	2548.590615
687.278460	2553.173024
687.616046	2553.213353
687.953582	2554.085473
688.291068	2554.692932
688.628504	2554.309804
688.965889	2550.733105
689.303224	2553.422561
689.640510	2554.014897
689.977745	2553.679660
690.314930	2549.049360
690.652065	2554.118240
690.989150	2552.353836
691.326185	2550.758311
691.663170	2550.995245
692.000105	2551.784186
692.336990	2551.161603
692.673825	2552.799978
693.010610	2552.966337
693.347345	2549.112374
693.684030	2544.030891
694.020665	2548.968702
694.357251	2545.931406
694.693786	2549.009031
695.030272	2552.464742
695.366707	2553.067160
695.703093	2552.772252
696.039429	2552.021120
696.375716	2552.794937
696.711952	2551.902653
697.048139	2549.293856
697.384276	2549.944165
697.720363	2549.525749
698.056400	2553.588919
698.392388	2551.776624
698.728326	2551.766542
699.064214	2552.691594
699.400053	2553.072201
699.735842	2549.432488
700.071581	2551.927859
700.407270	2547.872251
700.742910	2552.016079
701.078501	2546.657332
701.414042	2550.889381
701.749533	2548.182282
702.084974	2552.021120
702.420366	2550.347457
702.755709	2553.115051
703.091002	2549.606407
703.426246	2552.613456
703.761440	2551.721172
704.096584	2552.681511
704.431679	2549.261088
704.766725	2550.876778
705.101721	2549.414844
705.436668	2550.309648
705.771565	2550.569268
706.106413	2550.584391
706.441212	2551.751418
706.775961	2550.118085
707.110661	2549.760163
707.445311	2555.086142
707.779913	2550.191181
708.114465	2550.997766
708.448967	2553.170503
708.783421	2549.727395
709.117825	2551.809392
709.452180	2552.230328
709.786485	2549.712272
710.120742	2551.703528
710.454949	2551.806871
710.789107	2549.162786
711.123216	2548.018444
711.457275	2547.481561
711.791286	2548.953578
712.125247	2548.709082
712.459159	2548.474668
712.793023	2550.536500
713.126837	2547.486602
713.460602	2553.601522
713.794318	2548.938455
714.127985	2551.879968
714.461602	2550.508774
714.795171	2554.541697
715.128691	2552.691594
715.462162	2551.133877
715.795584	2548.036088
716.128957	2548.928372
716.462281	2551.721172
716.795556	2549.929041
717.128782	2552.885678
717.461960	2551.317879
717.795088	2550.445760
718.128167	2552.366439
718.461198	2548.686397
718.794180	2550.183620
719.127113	2552.222766
719.459997	2551.373332
719.792833	2549.941644
720.125619	2550.869217
720.458357	2551.632951
720.791046	2550.052550
721.123686	2549.513146
721.456278	2551.128836
721.788821	2550.362581
722.121315	2548.910728
722.453761	2549.946685
722.786158	2549.150183
723.118506	2548.946016
723.450805	2550.770914
723.783056	2552.197561
724.115259	2549.495502
724.447412	2550.561706
724.779518	2551.368291
725.111574	2551.804351
725.443582	2549.886192
725.775542	2551.096068
726.107453	2547.889895
726.439315	2548.956099
726.771129	2554.498847
727.102895	2551.131357
727.434612	2550.448280
727.766281	2550.206305
728.097901	2549.266130
728.429473	2547.899977
728.760996	2546.301931
729.092471	2545.381921
729.423897	2551.653116
729.755276	2551.053219
730.086606	2551.486758
730.417887	2549.855945
730.749120	2552.031202
731.080305	2550.357539
731.411442	2551.292673
731.742530	2550.770914
732.073570	2552.212684
732.404562	2550.375183
732.735506	2550.823846
733.066401	2552.144628
733.397249	2549.913918
733.728048	2550.594474
734.058798	2552.346275
734.389501	2549.306459
734.720156	2549.442570
735.050762	2548.709082
735.381320	2551.544731
735.711831	2549.863506
736.042293	2551.769062
736.372707	2549.177909
736.703073	2548.754453
737.033391	2549.460214
737.363661	2550.687735
737.693883	2551.204453
738.024056	2554.085473
738.354182	2548.590615
738.684260	2550.596994
739.014290	2548.898125
739.344272	2548.686397
739.674207	2549.205636
740.004093	2552.066491
740.333931	2550.085317
740.663722	2550.609597
740.993464	2549.097251
741.323159	2553.475493
741.652806	2552.742005
741.982405	2549.460214
742.311956	2550.206305
742.641460	2550.939793
742.970915	2550.433157
743.300323	2549.392158
743.629683	2549.455173
743.958996	2550.813764
744.288260	2549.518187
744.617477	2550.423074
744.946647	2545.646581
745.275768	2549.152704
745.604842	2545.379400
745.933869	2546.884184
746.262847	2546.226314
746.591778	2550.990204
746.920662	2552.784855
747.249498	2551.617828
747.578286	2549.228321
747.907027	2552.071532
748.235720	2548.580533
748.564365	2550.493651
748.892963	2549.276212
749.221514	2551.544731
749.550017	2548.421736
749.878473	2548.729247
750.206881	2549.482899
750.535242	2549.803013
750.863555	2548.210008
751.191821	2550.317210
751.520039	2549.805533
751.848210	2551.075904
752.176334	2548.444422
752.504411	2550.528939
752.832440	2547.640358
753.160421	2549.742519
753.488356	2549.918959
753.816243	2550.269319
754.144082	2548.930893
754.471875	2552.197561
754.799620	2550.075235
755.127318	2550.508774
755.454969	2546.490974
755.782572	2551.514484
756.110129	2548.562889
756.437638	2549.054401
756.765100	2549.094730
757.092515	2550.654967
757.419882	2549.119936
757.747203	2548.182282
758.074477	2547.234545
758.401703	2550.352498
758.728882	2548.099103
759.056014	2551.254865
759.383099	2549.525749
759.710138	2551.738816
760.037129	2547.166489
760.364073	2550.176058
760.690970	2551.010369
761.017820	2550.962478
761.344623	2547.748742
761.671379	2549.039278
761.998088	2547.151366
762.324751	2547.516849
762.651366	2545.243289
762.977935	2549.767724
763.304456	2544.769420
763.630931	2549.697148
763.957359	2549.316541
764.283740	2550.818805
764.610074	2548.998948
764.936362	2550.319731
765.262602	2551.209494
765.588796	2550.675132
765.914943	2549.969371
766.241044	2547.529452
766.567097	2549.377035
766.893104	2549.634134
767.219064	2548.051212
767.544978	2551.610266
767.870845	2548.880481
768.196665	2548.262940
768.522438	2548.986346
768.848165	2549.508105
769.173846	2549.598846
769.499479	2549.669422
769.825066	2549.684545
770.150607	2550.349978
770.476101	2549.034237
770.801548	2550.302087
771.126949	2551.900132
771.452303	2547.673125
771.777611	2547.327806
772.102872	2547.007693
772.428087	2549.061963
772.753256	2550.876778
773.078378	2549.460214
773.403453	2547.627755
773.728482	2551.703527
774.053465	2548.255378
774.378401	2550.216387
774.703291	2550.274360
775.028135	2548.371325
775.352932	2548.308310
775.677683	2551.340564
776.002388	2550.145811
776.327046	2547.784030
776.651658	2549.601366
776.976224	2548.812426
777.300743	2549.316541
777.625216	2547.844524
777.949643	2550.745708
778.274024	2549.611449
778.598359	2547.204298
778.922647	2546.337219
779.246889	2545.951571
779.571086	2543.531817
779.895236	2543.796478
780.219339	2549.480379
780.543397	2546.909390
780.867409	2547.017775
781.191374	2549.296377
781.515294	2546.632127
781.839167	2546.354863
782.162995	2549.205636
782.486776	2546.974925
782.810511	2549.702189
783.134201	2551.131357
783.457844	2548.877961
783.781441	2551.892571
784.104993	2549.797971
784.428498	2549.064483
784.751958	2550.297046
785.075372	2549.419885
785.398739	2547.811757
785.722061	2550.102961
786.045337	2550.090358
786.368568	2547.718495
786.691752	2547.635316
787.014891	2551.438867
787.337983	2546.745553
787.661030	2549.739998
787.984031	2548.192364
788.306987	2549.223280
788.629897	2546.266643
788.952760	2549.470296
789.275579	2545.928886
789.598351	2549.301418
789.921078	2551.363250
790.243759	2548.267981
790.566395	2548.900646
790.888984	2550.090358
791.211529	2549.308979
791.534027	2547.587425
791.856480	2547.121119
792.178888	2549.427447
792.501249	2547.726057
792.823566	2549.762683
793.145836	2548.963660
793.468062	2550.624721
793.790241	2547.020296
794.112375	2547.484082
794.434464	2549.321582
794.756507	2548.391489
795.078505	2548.671273
795.400457	2544.691282
795.722364	2544.769420
796.044226	2548.033568
796.366042	2543.733463
796.687812	2544.986190
797.009538	2546.995090
797.331218	2549.407282
797.652852	2547.615152
797.974442	2545.482744
798.295986	2546.969884
798.617484	2549.631613
798.938938	2547.960471
799.260346	2549.308979
799.581709	2547.221942
799.903026	2551.554813
800.224299	2547.300080
800.545526	2551.393497
800.866708	2544.542568
801.187845	2547.731098
801.508936	2548.920811
801.829983	2549.124977
802.150984	2551.199412
802.471940	2546.506098
802.792851	2550.483568
803.113717	2549.334185
803.434538	2546.750594
803.755314	2548.671273
804.076045	2549.175389
804.396731	2552.026161
804.717372	2549.440049
805.037967	2549.003990
805.358518	2551.451470
805.679024	2549.669422
805.999485	2547.070707
806.319901	2547.385779
806.640272	2550.909546
806.960598	2549.447611
807.280879	2547.983156
807.601115	2546.238917
807.921306	2547.269833
808.241453	2548.598177
808.561554	2548.436860
808.881611	2549.871068
809.201623	2548.525080
809.521590	2545.868392
809.841513	2550.019782
810.161390	2547.531973
810.481223	2546.526263
810.801011	2548.769576
811.120755	2547.206818
811.440453	2549.732436
811.760107	2547.166489
812.079716	2546.765717
812.399281	2542.137938
812.718801	2544.167002
813.038276	2544.998793
813.357707	2546.581715
813.677093	2548.923331
813.996434	2549.707231
814.315731	2546.743032
814.634983	2546.712785
814.954191	2547.915100
815.273354	2550.032385
815.592473	2548.676315
815.911547	2545.858310
816.230577	2547.665563
816.549562	2548.199926
816.868502	2547.993238
817.187399	2550.178578
817.506250	2548.204967
817.825058	2546.538865
818.143821	2550.619679
818.462539	2547.597508
818.781213	2547.965512
819.099843	2547.766386
819.418429	2549.692107
819.736970	2547.794113
820.055466	2548.688917
820.373919	2547.327806
820.692327	2547.448794
821.010691	2548.061294
821.329011	2548.646068
821.647286	2552.061449
821.965517	2547.927703
822.283704	2548.386448
822.601847	2548.643547
822.919945	2547.476520
823.237999	2547.040460
823.556010	2548.416695
823.873976	2546.238917
824.191897	2549.646737
824.509775	2546.574153
824.827609	2546.737991
825.145398	2545.805377
825.463144	2551.219577
825.780845	2548.237734
826.098502	2547.849565
826.416116	2548.724206
826.733685	2545.576005
827.051210	2548.434339
827.368692	2546.715306
827.686129	2548.275543
828.003522	2545.497867
828.320872	2544.368649
828.638177	2543.650284
828.955439	2544.378731
829.272656	2543.955274
829.589830	2543.589790
829.906960	2548.315872
830.224046	2547.078269
830.541088	2547.300080
830.858086	2547.771427
831.175041	2548.288146
831.491952	2544.620706
831.808819	2545.626417
832.125642	2546.690100
832.442421	2550.619679
832.759157	2548.512477
833.075849	2546.596839
833.392497	2548.696479
833.709101	2546.987528
834.025662	2546.821170
834.342179	2544.600542
834.658653	2546.995090
834.975083	2548.729247
835.291469	2551.113712
835.607811	2546.793444
835.924110	2546.831252
836.240366	2546.836293
836.556578	2545.540717
836.872746	2552.235369
837.188871	2546.813608
837.504952	2548.580533
837.820990	2546.765717
838.136984	2543.347815
838.452935	2548.361242
838.768842	2549.586243
839.084706	2545.449976
839.400526	2547.632796
839.716303	2547.368135
840.032037	2549.162786
840.347727	2548.477189
840.663373	2546.309493
840.978977	2544.913093
841.294537	2547.584905
841.610054	2546.410316
841.925527	2545.623896
842.240957	2547.259750
842.556344	2544.497198
842.871687	2549.308979
843.186987	2546.359904
843.502244	2545.598690
843.817458	2547.960471
844.132629	2548.668753
844.447756	2548.993907
844.762840	2544.285470
845.077881	2544.590459
845.392879	2543.214224
845.707833	2544.262784
846.022745	2542.984852
846.337613	2545.719678
846.652438	2546.664894
846.967221	2547.715975
847.281960	2545.064328
847.596656	2549.518187
847.911309	2544.713968
848.225919	2547.597508
848.540485	2546.100285
848.855009	2544.058618
849.169490	2545.291180
849.483928	2546.858979
849.798323	2547.279915
850.112675	2545.684390
850.426984	2544.892929
850.741251	2548.169679
851.055474	2545.228165
851.369654	2546.732950
851.683792	2545.394523
851.997887	2548.126829
852.311938	2546.526262
852.625947	2548.265461
852.939914	2543.713299
853.253837	2547.531973
853.567718	2544.262784
853.881555	2546.869061
854.195350	2546.715306
854.509103	2548.888043
854.822812	2541.590973
855.136479	2549.651778
855.450103	2544.824873
855.763685	2547.214380
856.077224	2547.645399
856.390720	2545.770089
856.704173	2546.997610
857.017584	2545.949050
857.330953	2545.737322
857.644278	2547.539534
857.957561	2547.368135
858.270802	2549.689587
858.584000	2546.737991
858.897155	2546.367466
859.210268	2545.944009
859.523339	2546.465769
859.836367	2544.529966
860.149352	2549.429967
860.462295	2548.736808
860.775195	2547.315203
861.088054	2541.573329
861.400869	2544.454348
861.713642	2543.378062
862.026373	2545.185316
862.339062	2545.540717
862.651708	2545.664225
862.964312	2547.259750
863.276873	2546.213711
863.589392	2548.066335
863.901869	2545.311344
864.214303	2543.315048
864.526696	2543.753628
864.839045	2547.201777
865.151353	2548.091541
865.463619	2541.361600
865.775842	2543.728422
866.088023	2545.495347
866.400162	2546.790923
866.712258	2545.412167
867.024313	2546.813608
867.336325	2548.547765
867.648296	2546.208670
867.960224	2547.796633
868.272110	2544.303114
868.583954	2546.856458
868.895755	2544.318237
869.207515	2544.630789
869.519233	2546.188505
869.830909	2543.375541
870.142542	2545.376879
870.454134	2547.594987
870.765684	2544.524924
871.077191	2545.081972
871.388657	2544.207332
871.700081	2543.443597
872.011463	2545.659184
872.322803	2545.044163
872.634101	2546.347302
872.945357	2547.017775
873.256571	2547.557178
873.567744	2544.794626
873.878874	2547.897456
874.189963	2544.529966
874.501010	2547.516849
874.812015	2545.127342
875.122979	2545.833104
875.433900	2545.870912
875.744780	2548.167158
876.055618	2546.090203
876.366415	2547.272353
876.677169	2546.861499
876.987882	2545.439894
877.298554	2542.107691
877.609183	2543.468803
877.919771	2541.086858
878.230317	2544.245140
878.540822	2547.952909
878.851285	2549.339226
879.161707	2545.959133
879.472087	2546.599359
879.782425	2545.210521
880.092722	2548.482230
880.402977	2543.332692
880.713191	2547.897456
881.023363	2545.649102
881.333494	2547.910059
881.643583	2548.159596
881.953631	2544.983669
882.263637	2543.864533
882.573602	2543.821683
882.883526	2545.152548
883.193408	2546.377548
883.503248	2546.201108
883.813048	2545.853268
884.122806	2544.424101
884.432522	2548.520039
884.742197	2543.753628
885.051831	2546.201108
885.361424	2546.853938
885.670975	2545.828063
885.980485	2544.981149
886.289954	2546.400234
886.599382	2545.429812
886.908768	2546.198588
887.218113	2546.624565
887.527417	2546.836293
887.836680	2545.596170
888.145901	2545.132383
888.455082	2544.945861
888.764221	2545.213042
889.073319	2545.815460
889.382376	2544.434184
889.691392	2546.279246
890.000366	2543.829245
890.309300	2548.283105
890.618193	2543.902342
890.927044	2544.227496
891.235855	2546.347302
891.544625	2547.468958
891.853353	2543.274718
892.162041	2542.831097
892.470687	2544.015768
892.779293	2544.693803
893.087858	2544.245140
893.396381	2538.861188
893.704864	2542.130376
894.013306	2540.239944
894.321707	2546.624565
894.630068	2546.112888
894.938387	2545.127342
895.246665	2543.856972
895.554903	2547.451314
895.863100	2544.933258
896.171256	2547.937786
896.479371	2546.611962
896.787446	2543.993083
897.095480	2546.611962
897.403473	2545.830583
897.711425	2543.735984
898.019336	2544.976108
898.327207	2545.175233
898.635038	2546.271684
898.942827	2545.709596
899.250576	2547.093392
899.558284	2546.001983
899.865952	2544.771941
900.173579	2544.978628
900.481165	2546.722868
900.788711	2546.067518
901.096216	2545.081972
901.403681	2545.107178
901.711105	2547.816798
902.018489	2546.594318
902.325832	2548.462066
902.633135	2545.603731
902.940397	2547.226983
903.247619	2543.753628
903.554800	2543.436035
903.861941	2546.296890
904.169041	2547.743701
904.476101	2544.804708
904.783121	2544.474513
905.090100	2546.911911
905.397039	2546.538865
905.703938	2546.480892
906.010796	2544.565254
906.317614	2547.100954
906.624391	2544.880326
906.931129	2546.672456
907.237826	2545.828063
907.544483	2545.273536
907.851099	2545.820501
908.157675	2545.180274
908.464211	2545.187836
908.770707	2540.549975
909.077163	2542.246323
909.383578	2539.486291
909.689954	2540.038297
909.996289	2540.716333
910.302584	2546.180943
910.608839	2544.671118
910.915054	2546.102806
911.221229	2545.669266
911.527363	2543.930068
911.833458	2543.473844
912.139513	2543.015099
912.445527	2546.700182
912.751502	2543.546941
913.057436	2546.571633
913.363331	2547.479041
913.669186	2545.213042
913.975000	2544.887887
914.280775	2547.108516
914.586510	2546.463248
914.892205	2544.287990
915.197859	2545.006355
915.503475	2545.099616
915.809050	2545.908721
916.114585	2543.786395
916.420081	2545.724719
916.725536	2544.686241
917.030952	2546.206149
917.336328	2543.867054
917.641665	2549.495502
917.946961	2545.941489
918.252218	2543.735984
918.557435	2548.008362
918.862612	2545.437373
919.167750	2544.287990
919.472848	2547.504246
919.777906	2544.010727
920.082925	2546.753114
920.387904	2543.199101
920.692843	2543.292362
920.997743	2544.141797
921.302603	2543.660367
921.607423	2544.371169
921.912204	2545.772610
922.216946	2548.441901
922.521647	2544.444266
922.826310	2545.429812
923.130932	2544.290511
923.435516	2544.610624
923.740059	2546.639688
924.044564	2545.331509
924.349028	2545.530635
924.653454	2541.333874
924.957840	2544.628268
925.262186	2540.247505
925.566493	2544.663556
925.870761	2539.448483
926.174989	2547.441232
926.479178	2544.819832
926.783328	2546.780841
927.087438	2543.514173
927.391509	2544.035933
927.695541	2543.085675
927.999533	2542.952084
928.303486	2543.922507
928.607400	2544.151879
928.911275	2545.029040
929.215110	2547.292518
929.518906	2543.211704
929.822663	2545.986859
930.126381	2543.010058
930.430060	2546.639688
930.733699	2547.136242
931.037299	2545.381921
931.340861	2544.252702
931.644383	2544.076262
931.947866	2544.507280
932.251309	2542.821014
932.554714	2546.344781
932.858080	2548.449463
933.161407	2543.937630
933.464694	2546.248999
933.767943	2546.075079
934.071153	2546.808567
934.374323	2545.268495
934.677455	2545.008875
934.980548	2546.490974
935.283602	2542.972249
935.586617	2544.235058
935.889593	2544.645912
936.192530	2543.279759
936.495428	2545.318906
936.798287	2540.204656
937.101108	2544.618186
937.403890	2544.381252
937.706632	2546.622044
938.009336	2544.771941
938.312002	2546.145655
938.614628	2544.963505
938.917216	2543.241951
939.219765	2542.717671
939.522275	2545.364277
939.824747	2543.768751
940.127179	2539.052752
940.429573	2540.963349
940.731929	2541.313709
941.034246	2538.767927
941.336524	2542.911755
941.638763	2541.739687
941.940964	2545.568443
942.243126	2544.928217
942.545250	2544.648433
942.847335	2544.713968
943.149381	2544.088865
943.451389	2540.000489
943.753359	2546.359904
944.055290	2543.927548
944.357182	2543.801519
944.659036	2542.836138
944.960851	2542.102650
945.262628	2543.988042
945.564367	2543.733463
945.866067	2543.246992
946.167729	2541.404450
946.469352	2544.701365
946.770937	2546.115408
947.072484	2544.592980
947.373992	2541.820345
947.675462	2544.161961
947.976893	2543.269677
948.278286	2542.140459
948.579641	2544.658515
948.880958	2544.925696
949.182236	2545.313865
949.483476	2544.267826
949.784678	2543.708258
950.085841	2542.400078
950.386967	2545.008875
950.688054	2542.208514
950.989103	2544.144317
951.290114	2541.865716
951.591087	2542.006868
951.892021	2540.933102
952.192917	2548.681356
952.493776	2542.959646
952.794596	2544.151879
953.095378	2544.361087
953.396122	2543.035263
953.696828	2545.649102
953.997496	2543.829245
954.298126	2542.886549
954.598718	2544.141797
954.899272	2544.822352
955.199788	2541.596014
955.500266	2544.903011
955.800706	2542.453010
956.101108	2540.875129
956.401472	2540.481919
956.701798	2542.626930
957.002087	2540.933102
957.302337	2545.235727
957.602550	2543.327650
957.902724	2543.884698
958.202861	2542.853782
958.502960	2542.062321
958.803022	2543.277239
959.103045	2544.124153
959.403031	2542.573998
959.702979	2542.677342
960.002889	2546.448125
960.302762	2544.315717
960.602596	2543.884698
960.902393	2541.333874
961.202153	2543.030222
961.501875	2542.853782
961.801559	2544.935778
962.101205	2545.681869
962.400814	2543.035263
962.700385	2541.447300
962.999918	2545.379400
963.299414	2542.493339
963.598873	2543.330171
963.898293	2543.085675
964.197677	2543.060469
964.497022	2543.642722
964.796331	2545.281097
965.095601	2543.786395
965.394835	2545.477702
965.694030	2542.395037
965.993189	2544.353525
966.292309	2542.082485
966.591393	2544.290511
966.890439	2542.599204
967.189447	2542.342105
967.488419	2541.903524
967.787353	2544.366128
968.086249	2543.869574
968.385108	2545.457538
968.683930	2547.239586
968.982714	2545.036602
969.281462	2543.206663
969.580172	2544.043494
969.878844	2540.960829
970.177480	2542.921837
970.476078	2541.291024
970.774639	2545.795295
971.073162	2541.991745
971.371649	2540.733977
971.670098	2539.420756
971.968510	2543.005017
972.266885	2538.016795
972.565223	2541.031405
972.863524	2541.298586
973.161788	2544.814791
973.460014	2541.800181
973.758204	2544.303114
974.056356	2541.389327
974.354471	2545.134904
974.652550	2541.356559
974.950591	2542.299255
975.248595	2543.599873
975.546563	2544.373690
975.844493	2543.733463
976.142386	2542.495860
976.440243	2542.715150
976.738062	2543.360418
977.035845	2545.938968
977.333590	2543.650284
977.631299	2543.274718
977.928971	2542.700027
978.226606	2542.589121
978.524204	2542.989893
978.821765	2544.149358
979.119290	2542.054759
979.416777	2545.195398
979.714228	2544.726571
980.011642	2542.871426
980.309020	2544.224976
980.606360	2544.131714
980.903664	2542.473175
981.200931	2541.953936
981.498162	2542.579039
981.795356	2543.173895
982.092513	2544.106509
982.389633	2542.573998
982.686717	2541.235572
982.983764	2544.875285
983.280775	2543.851930
983.577749	2542.828576
983.874686	2542.967208
984.171587	2541.780016
984.468451	2543.526776
984.765279	2543.042825
985.062070	2542.503422
985.358824	2541.984183
985.655543	2545.702034
985.952224	2544.494677
986.248869	2542.649615
986.545478	2537.298430
986.842050	2542.382434
987.138586	2538.639377
987.435086	2541.114584
987.731549	2536.448996
988.027975	2545.233207
988.324366	2541.492670
988.620719	2541.774975
988.917037	2542.541230
989.213318	2544.691283
989.509563	2542.740356
989.805772	2542.916796
990.101944	2544.577857
990.398080	2541.439738
990.694180	2544.890408
990.990244	2543.597352
991.286271	2542.702547
991.582262	2547.862168
991.878217	2542.248843
992.174136	2542.508463
992.470019	2542.581560
992.765865	2543.080634
993.061676	2544.008206
993.357450	2545.651622
993.653188	2541.843031
993.948890	2543.045346
994.244556	2540.423946
994.540186	2541.457382
994.835780	2541.906045
995.131337	2541.898483
995.426859	2544.900490
995.722345	2542.337064
996.017795	2537.946219
996.313208	2544.489636
996.608586	2542.100129
996.903928	2541.845551
997.199234	2543.027702
997.494504	2543.189019
997.789738	2542.921837
998.084936	2541.868236
998.380099	2542.130376
998.675225	2542.377393
998.970316	2540.713812
999.265371	2541.901004
999.560390	2543.234389
999.855373	2543.821683
1000.150320	2540.663401
1000.445232	2541.679193
1000.740108	2544.083823
1001.034948	2543.612476
1001.329752	2542.455531
1001.624521	2543.788916
1001.919254	2537.731970
1002.213951	2538.722556
1002.508613	2541.462423
1002.803239	2541.717002
1003.097829	2540.282793
1003.392384	2543.158772
1003.686903	2543.846889
1003.981386	2544.073741
1004.275834	2542.775644
1004.570246	2541.412012
1004.864623	2543.877136
1005.158964	2543.902342
1005.453270	2543.715819
1005.747540	2541.732125
1006.041775	2541.452341
1006.335974	2544.625747
1006.630138	2542.226158
1006.924266	2542.165664
1007.218359	2543.620037
1007.512416	2541.764893
1007.806438	2541.684234
1008.100425	2542.311858
1008.394376	2539.821528
1008.688292	2541.318751
1008.982172	2540.260108
1009.276017	2542.871426
1009.569827	2539.413194
1009.863602	2541.147351
1010.157341	2543.315047
1010.451045	2542.334543
1010.744714	2541.507794
1011.038347	2540.353370
1011.331945	2539.773637
1011.625508	2544.514842
1011.919036	2540.827238
1012.212528	2542.090047
1012.505986	2538.044521
1012.799408	2539.352701
1013.092795	2538.392361
1013.386147	2540.980993
1013.679464	2542.049718
1013.972745	2541.333874
1014.265992	2544.086344
1014.559204	2542.947043
1014.852380	2543.123484
1015.145521	2543.869574
1015.438628	2541.593493
1015.731699	2543.161292
1016.024736	2544.860161
1016.317737	2541.623740
1016.610703	2545.485264
1016.903635	2537.316074
1017.196531	2536.494366
1017.489393	2540.623071
1017.782219	2538.427649
1018.075011	2540.759182
1018.367768	2541.618699
1018.660490	2542.906714
1018.953177	2542.906714
1019.245829	2542.906714
