Dividing Wavelength (nm)	Counts (n)	Blue Motor Position (mm): 2.000000	Red Motor Position (mm): 0.000000	
326.493990	2143.276805
326.888308	2143.276805
327.282561	2143.276805
327.676750	2111.051229
328.070874	2109.541403
328.464933	2111.527618
328.858929	2117.188833
329.252859	2127.929012
329.646726	2138.679272
330.040528	2155.088228
330.434265	2168.628767
330.827938	2188.097703
331.221547	2205.267873
331.615091	2224.537684
332.008571	2241.753224
332.401986	2264.138468
332.795338	2282.407610
333.188625	2303.308233
333.581847	2319.331541
333.975006	2340.206959
334.368100	2358.541636
334.761129	2376.016795
335.154095	2391.157901
335.546996	2408.446538
335.939833	2422.443302
336.332606	2439.366455
336.725315	2452.294494
337.117960	2461.605505
337.510540	2470.193111
337.903056	2481.596201
338.295508	2486.508805
338.687896	2497.846360
339.080220	2504.951867
339.472480	2510.832373
339.864676	2513.670542
340.256807	2517.675739
340.648875	2524.304856
341.040879	2524.851822
341.432818	2527.591689
341.824694	2525.897861
342.216506	2531.155784
342.608253	2527.354754
342.999937	2529.719056
343.391557	2530.026566
343.783113	2527.624456
344.174605	2526.437264
344.566033	2524.451050
344.957397	2522.346368
345.348697	2521.045750
345.739934	2524.335103
346.131106	2514.527538
346.522215	2516.556603
346.913260	2513.463855
347.304241	2511.631396
347.695159	2509.672907
348.086012	2510.731550
348.476802	2507.923627
348.867528	2506.002947
349.258191	2504.588904
349.648789	2502.227123
350.039324	2501.365086
350.429796	2501.355003
350.820203	2502.753924
351.210548	2499.086484
351.600828	2497.170846
351.991045	2497.478356
352.381198	2498.015239
352.771288	2494.897285
353.161314	2495.179590
353.551276	2493.909219
353.941175	2495.197234
354.331010	2498.894920
354.720782	2496.349138
355.110490	2494.264621
355.500135	2495.887872
355.889717	2494.546925
356.279235	2494.501555
356.668689	2499.126813
357.058080	2494.481390
357.447408	2494.625063
357.836672	2491.648262
358.225873	2494.544405
358.615010	2492.457367
359.004084	2497.667399
359.393095	2497.990033
359.782043	2500.498007
360.170927	2497.952225
360.559748	2498.332832
360.948505	2502.975734
361.337199	2499.449447
361.725830	2502.453975
362.114398	2502.688389
362.502903	2502.970693
362.891344	2502.363234
363.279722	2502.000271
363.668037	2503.391630
364.056289	2504.876249
364.444478	2505.667711
364.832603	2504.324243
365.220665	2506.262567
365.608665	2505.786178
365.996601	2504.427587
366.384474	2504.966990
366.772284	2508.183246
367.160031	2504.919099
367.547715	2505.841630
367.935336	2505.813904
368.322893	2509.062928
368.710388	2507.648884
369.097820	2513.786489
369.485189	2508.077382
369.872495	2509.123422
370.259738	2510.603000
370.646918	2507.868174
371.034035	2512.160717
371.421090	2509.249450
371.808081	2511.313803
372.195010	2511.928824
372.581875	2510.008144
372.968678	2511.142404
373.355418	2512.430418
373.742096	2513.161386
374.128710	2509.882115
374.515262	2511.954029
374.901751	2512.329595
375.288177	2516.052487
375.674540	2512.543844
376.060841	2511.399503
376.447079	2512.828670
376.833254	2511.497805
377.219367	2511.631396
377.605417	2512.513597
377.991404	2510.285407
378.377329	2510.053514
378.763191	2508.641991
379.148991	2516.158352
379.534727	2513.400841
379.920402	2517.519463
380.306013	2513.496622
380.691563	2515.712210
381.077049	2514.736746
381.462474	2517.537107
381.847835	2517.645492
382.233134	2515.896212
382.618371	2515.152642
383.003545	2519.344361
383.388657	2514.250275
383.773706	2516.478465
384.158693	2517.663136
384.543618	2518.189937
384.928480	2516.304545
385.313280	2516.959895
385.698017	2516.725482
386.082692	2517.877385
386.467305	2514.983763
386.851856	2519.367046
387.236344	2519.553569
387.620770	2520.995339
388.005133	2518.111799
388.389435	2521.181862
388.773674	2520.138343
389.157851	2517.292611
389.541965	2518.494927
389.926018	2518.124402
390.310008	2518.678929
390.693936	2521.675895
391.077802	2520.970133
391.461606	2519.200688
391.845348	2522.565658
392.229027	2520.521470
392.612645	2521.794362
392.996200	2521.955679
393.379694	2522.747140
393.763125	2522.278313
394.146494	2524.204033
394.529801	2520.944927
394.913047	2522.769825
395.296230	2524.493900
395.679351	2524.330062
396.062410	2523.014321
396.445408	2524.060360
396.828343	2523.924249
397.211217	2522.432068
397.594028	2523.589013
397.976778	2519.321676
398.359466	2524.929959
398.742092	2522.532891
399.124656	2524.619928
399.507158	2524.561955
399.889598	2525.187058
400.271977	2527.732841
400.654294	2526.011287
401.036549	2526.049096
401.418742	2524.413241
401.800874	2525.363499
402.182944	2523.616739
402.564952	2526.142357
402.946898	2528.675537
403.328783	2524.935001
403.710606	2527.637059
404.092367	2527.253931
404.474067	2527.188396
404.855705	2525.557583
405.237282	2527.768129
405.618797	2524.602284
406.000250	2526.008766
406.381642	2529.242667
406.762972	2527.274096
407.144240	2526.840557
407.525447	2528.234436
407.906593	2528.788963
408.287677	2531.710311
408.668700	2529.799714
409.049661	2529.688809
409.430560	2528.728469
409.811399	2527.884076
410.192176	2528.816689
410.572891	2530.288706
410.953545	2530.790301
411.334138	2526.827954
411.714669	2530.147554
412.095139	2528.453726
412.475547	2529.918181
412.855894	2529.998840
413.236180	2530.601257
413.616405	2532.831968
413.996568	2532.887421
414.376670	2529.840043
414.756711	2532.133768
415.136691	2534.167874
415.516609	2529.545136
415.896466	2531.491021
416.276262	2534.538399
416.655997	2529.933305
417.035670	2529.098994
417.415283	2531.125537
417.794834	2527.385001
418.174324	2530.704601
418.553753	2530.840712
418.933121	2535.128214
419.312428	2532.637884
419.691674	2533.308357
420.070859	2534.460261
420.449983	2532.365661
420.829045	2533.527647
421.208047	2533.782226
421.586988	2531.364992
421.965867	2534.576207
422.344686	2531.652338
422.723444	2532.549663
423.102141	2533.262987
423.480777	2533.694005
423.859352	2537.079140
424.237866	2535.234078
424.616319	2533.913296
424.994712	2534.248532
425.373044	2531.745599
425.751314	2534.041845
426.129524	2536.222144
426.507673	2535.153419
426.885762	2537.351362
427.263789	2534.384643
427.641756	2535.642411
428.019662	2535.511341
428.397508	2536.726259
428.775292	2537.782381
429.153016	2537.356404
429.530679	2536.983358
429.908282	2534.876156
430.285824	2534.435055
430.663305	2532.985723
431.040726	2535.594520
431.418086	2538.183153
431.795385	2536.189377
432.172624	2535.299613
432.549802	2540.786909
432.926920	2536.328008
433.303977	2537.437062
433.680974	2537.363965
434.057910	2536.811959
434.434786	2536.070909
434.811601	2539.022505
435.188355	2538.939326
435.565050	2537.255581
435.941683	2539.163657
436.318257	2536.577545
436.694770	2534.775333
437.071222	2535.002185
437.447614	2536.577545
437.823946	2536.280117
438.200218	2538.737680
438.576429	2538.893956
438.952580	2538.059645
439.328670	2539.922351
439.704700	2537.724408
440.080670	2538.218441
440.456580	2539.655170
440.832429	2539.221631
441.208218	2539.503935
441.583947	2536.345652
441.959616	2540.418905
442.335224	2541.054090
442.710773	2538.382278
443.086261	2540.292876
443.461689	2540.307999
443.837057	2540.837320
444.212365	2540.958308
444.587612	2539.352701
444.962800	2540.439069
445.337927	2542.316899
445.712995	2538.962011
446.088002	2541.898483
446.462949	2541.820345
446.837837	2542.518545
447.212664	2541.094419
447.587431	2539.017464
447.962139	2540.464275
448.336786	2543.360418
448.711374	2542.107691
449.085901	2541.361600
449.460369	2544.003165
449.834776	2540.552495
450.209124	2541.273380
450.583412	2544.277908
450.957640	2544.900490
451.331808	2541.038967
451.705917	2542.566436
452.079965	2540.050900
452.453954	2544.779503
452.827883	2541.923689
453.201752	2546.070038
453.575562	2541.797660
453.949311	2541.948895
454.323001	2541.354039
454.696632	2542.659697
455.070202	2543.819163
455.443713	2542.528628
455.817164	2538.825900
456.190556	2541.258257
456.563888	2541.333874
456.937160	2535.322298
457.310373	2542.314378
457.683526	2542.281611
458.056619	2543.224307
458.429653	2541.459903
458.802628	2543.234389
459.175542	2545.452497
459.548398	2547.025337
459.921194	2543.798998
460.293930	2544.204811
460.666607	2545.152548
461.039224	2544.192208
461.411782	2542.984852
461.784280	2546.410316
462.156719	2544.638350
462.529099	2545.059287
462.901419	2545.374359
463.273680	2545.525593
463.645882	2544.522404
464.018024	2544.469472
464.390106	2544.073741
464.762130	2544.517363
465.134094	2542.858823
465.505999	2543.904862
465.877845	2542.415202
466.249631	2545.437373
466.621358	2545.029040
466.993026	2548.953578
467.364634	2549.029195
467.736184	2544.895449
468.107674	2547.652960
468.479105	2543.320089
468.850477	2546.732950
469.221790	2544.734132
469.593043	2545.480223
469.964238	2545.800336
470.335373	2547.428629
470.706449	2549.349309
471.077467	2545.356715
471.448425	2548.152035
471.819324	2544.897970
472.190164	2548.462066
472.560945	2545.218083
472.931667	2547.592467
473.302330	2547.090872
473.672934	2544.948381
474.043479	2544.814791
474.413965	2543.940151
474.784393	2543.499050
475.154761	2543.776313
475.525070	2541.464944
475.895321	2543.798998
476.265513	2540.136600
476.635645	2545.875954
477.005719	2547.559699
477.375734	2546.906870
477.745691	2548.482230
478.115588	2547.511808
478.485427	2543.400747
478.855207	2550.579350
479.224928	2544.487116
479.594591	2545.891077
479.964194	2549.377035
480.333739	2548.000800
480.703226	2543.367980
481.072653	2546.329658
481.442022	2546.448125
481.811333	2544.766900
482.180584	2545.722198
482.549777	2548.560368
482.918912	2548.537683
483.287988	2548.489792
483.657005	2547.511808
484.025964	2547.605069
484.394864	2547.658002
484.763706	2548.459545
485.132489	2547.169010
485.501213	2549.936603
485.869879	2545.349153
486.238487	2547.589946
486.607036	2546.364946
486.975527	2550.838970
487.343959	2547.920142
487.712333	2545.732281
488.080648	2546.763197
488.448905	2549.533311
488.817104	2544.908052
489.185244	2550.639844
489.553326	2547.053063
489.921350	2547.922662
490.289315	2549.621531
490.657222	2549.140101
491.025070	2551.721172
491.392861	2550.859134
491.760593	2548.378887
492.128267	2548.010882
492.495883	2548.595656
492.863440	2549.256047
493.230939	2546.102806
493.598380	2551.847200
493.965763	2543.307486
494.333088	2546.778320
494.700354	2543.098278
495.067563	2546.780841
495.434713	2543.743546
495.801805	2549.298897
496.168839	2549.253527
496.535815	2550.803682
496.902733	2549.399720
497.269593	2551.096068
497.636395	2548.691438
498.003139	2550.370142
498.369825	2550.702858
498.736453	2548.237734
499.103023	2548.699000
499.469535	2550.508774
499.835989	2551.852242
500.202385	2545.712116
500.568723	2550.753270
500.935003	2548.479710
501.301226	2550.135729
501.667390	2549.074566
502.033497	2548.782179
502.399546	2550.531459
502.765537	2549.475337
503.131470	2549.729916
503.497345	2551.877447
503.863163	2551.827036
504.228923	2549.540872
504.594625	2549.782848
504.960269	2549.170348
505.325856	2550.009700
505.691385	2549.215718
506.056856	2552.721841
506.422270	2549.190512
506.787625	2549.114895
507.152924	2549.374514
507.518164	2551.043136
507.883347	2547.516849
508.248472	2550.196223
508.613540	2550.690256
508.978550	2549.644216
509.343503	2550.029864
509.708398	2551.327962
510.073236	2552.563044
510.438016	2547.872251
510.802738	2549.500543
511.167403	2550.274360
511.532010	2550.385266
511.896561	2551.990873
512.261053	2550.796120
512.625488	2545.144986
512.989866	2546.347302
513.354186	2548.968702
513.718449	2547.232024
514.082655	2550.544062
514.446803	2549.440049
514.810894	2552.779814
515.174927	2551.968188
515.538904	2552.137067
515.902822	2548.015923
516.266684	2550.581871
516.630488	2551.816953
516.994235	2552.996583
517.357925	2552.341233
517.721558	2552.580688
518.085133	2553.198230
518.448651	2550.228990
518.812112	2551.012889
519.175516	2552.608415
519.538863	2552.116902
519.902152	2551.428785
520.265385	2550.075235
520.628560	2550.246634
520.991678	2550.649926
521.354739	2552.404248
521.717743	2549.271171
522.080690	2553.719989
522.443580	2551.885009
522.806413	2551.517005
523.169189	2549.223280
523.531908	2549.210677
523.894569	2553.198230
524.257174	2552.013558
524.619722	2551.849721
524.982213	2554.801317
525.344647	2550.486089
525.707025	2551.345606
526.069345	2549.855945
526.431608	2550.118085
526.793815	2551.494320
527.155964	2550.123126
527.518057	2553.029351
527.880093	2551.476676
528.242072	2551.940462
528.603995	2553.510781
528.965860	2553.357026
529.327669	2554.932387
529.689421	2554.259392
530.051117	2551.701007
530.412755	2551.927859
530.774337	2551.809392
531.135862	2549.291335
531.497331	2549.006510
531.858743	2547.413506
532.220098	2550.453321
532.581396	2548.396531
532.942638	2549.850903
533.303824	2552.558003
533.664953	2550.637323
534.026025	2551.862324
534.387040	2553.566234
534.747999	2551.632951
535.108902	2552.416851
535.469748	2551.310317
535.830537	2552.742005
536.191270	2549.172868
536.551947	2553.609084
536.912567	2551.645554
537.273131	2551.375852
537.633638	2550.100441
537.994089	2553.901471
538.354483	2552.013558
538.714821	2552.507592
539.075103	2551.771583
539.435328	2551.945503
539.795497	2552.255534
540.155609	2554.521533
540.515665	2553.299053
540.875665	2552.550441
541.235609	2553.614125
541.595496	2553.407438
541.955328	2552.154711
542.315102	2553.833415
542.674821	2552.570606
543.034483	2552.144628
543.394090	2551.078424
543.753640	2556.338868
544.113134	2552.384083
544.472571	2552.406768
544.831953	2554.032541
545.191278	2554.130843
545.550548	2550.889381
545.909761	2553.407437
546.268918	2552.162273
546.628019	2551.769063
546.987064	2551.149001
547.346053	2554.007335
547.704986	2554.382901
548.063863	2553.271326
548.422684	2553.230997
548.781449	2551.401058
549.140158	2551.796789
549.498811	2552.217725
549.857408	2554.576985
550.215949	2551.471634
550.574434	2546.851417
550.932864	2549.871068
551.291237	2547.418547
551.649555	2553.523384
552.007817	2553.019269
552.366022	2551.572457
552.724173	2553.654454
553.082267	2550.594474
553.440305	2554.403065
553.798288	2552.658826
554.156215	2556.109496
554.514086	2553.150339
554.871902	2553.258723
555.229661	2551.650595
555.587365	2555.318035
555.945014	2554.095555
556.302606	2551.796789
556.660143	2556.018755
557.017625	2551.885009
557.375050	2552.124464
557.732421	2551.549772
558.089735	2553.770401
558.446994	2555.444064
558.804197	2552.293343
559.161345	2553.087324
559.518437	2554.728220
559.875474	2552.525236
560.232455	2553.052036
560.589381	2551.640513
560.946251	2553.883827
561.303065	2550.871737
561.659825	2552.933569
562.016528	2552.316028
562.373177	2555.030689
562.729770	2552.331151
563.086307	2553.261244
563.442789	2552.038764
563.799216	2555.310473
564.155587	2554.710576
564.511904	2553.183106
564.868164	2553.135215
565.224370	2549.795451
565.580520	2552.873075
565.936615	2555.265103
566.292654	2553.084804
566.648638	2551.653116
567.004567	2554.254351
567.360441	2554.297201
567.716260	2554.236707
568.072023	2551.564896
568.427732	2548.744370
568.783385	2552.318548
569.138982	2547.332847
569.494525	2550.493651
569.850013	2550.082797
570.205445	2555.083621
570.560823	2553.029351
570.916145	2553.725030
571.271412	2551.390976
571.626625	2554.085473
571.981782	2551.033054
572.336884	2553.500699
572.691931	2553.049516
573.046923	2552.870555
573.401860	2555.015566
573.756743	2554.929866
574.111570	2552.379042
574.466342	2554.801317
574.821059	2553.281409
575.175722	2554.662685
575.530330	2554.012376
575.884882	2552.903322
576.239380	2552.757129
576.593823	2552.091696
576.948211	2552.293342
577.302544	2552.356357
577.656823	2553.462890
578.011047	2553.467931
578.365216	2552.522715
578.719330	2556.134702
579.073389	2554.314845
579.427394	2549.727395
579.781344	2553.455328
580.135239	2551.597663
580.489080	2552.807540
580.842866	2556.991698
581.196597	2559.658468
581.550273	2553.520863
581.903895	2551.658157
582.257463	2551.582540
582.610975	2553.006666
582.964434	2554.498847
583.317837	2553.427602
583.671186	2554.937428
584.024481	2553.344423
584.377721	2554.241748
584.730906	2554.962633
585.084037	2555.126471
585.437113	2554.115720
585.790135	2554.110678
586.143103	2554.982798
586.496016	2553.979608
586.848874	2548.595656
587.201679	2550.896943
587.554428	2552.938610
587.907124	2550.385266
588.259765	2549.356870
588.612352	2555.383570
588.964884	2553.712427
589.317362	2555.565051
589.669786	2553.475493
590.022155	2554.433312
590.374470	2554.130843
590.726731	2551.723692
591.078937	2552.633620
591.431090	2554.539177
591.783188	2550.571788
592.135232	2554.289639
592.487222	2554.836605
592.839157	2552.520194
593.191038	2552.588250
593.542866	2552.759649
593.894639	2552.545400
594.246358	2555.673436
594.598022	2555.139074
594.949633	2553.084804
595.301190	2551.703528
595.652692	2554.327448
596.004141	2552.878116
596.355535	2552.623538
596.706876	2554.256872
597.058162	2553.180586
597.409395	2553.669577
597.760573	2553.364588
598.111698	2550.937272
598.462768	2552.132026
598.813785	2553.520863
599.164748	2552.794937
599.515657	2552.353836
599.866511	2551.779145
600.217312	2550.319731
600.568060	2552.983981
600.918753	2554.788714
601.269392	2554.019938
601.619978	2553.036913
601.970510	2555.875082
602.320988	2556.137222
602.671412	2554.690411
603.021783	2552.681511
603.372100	2555.224773
603.722363	2553.687222
604.072572	2555.433981
604.422728	2556.137222
604.772830	2549.124977
605.122878	2551.380894
605.472872	2553.440205
605.822813	2547.713454
606.172701	2550.808723
606.522534	2553.455328
606.872314	2550.720503
607.222041	2555.582695
607.571714	2552.948693
607.921333	2554.181255
608.270899	2551.398538
608.620411	2552.094217
608.969870	2555.486913
609.319276	2555.050854
609.668627	2558.332645
610.017926	2559.842470
610.367171	2563.174673
610.716362	2559.315670
611.065500	2557.664692
611.414585	2555.295350
611.763616	2558.047820
612.112594	2558.168807
612.461518	2557.039589
612.810389	2554.458518
613.159207	2555.260062
613.507971	2556.278375
613.856682	2553.341902
614.205340	2554.433312
614.553945	2554.884496
614.902496	2553.828374
615.250994	2553.800647
615.599439	2555.897768
615.947830	2554.035061
616.296169	2555.111348
616.644454	2555.935576
616.992686	2554.874413
617.340864	2553.291491
617.688990	2550.334854
618.037063	2554.153528
618.385082	2554.544218
618.733048	2554.075390
619.080961	2553.374670
619.428821	2553.442726
619.776628	2554.786193
620.124382	2553.465411
620.472083	2552.305945
620.819731	2554.065308
621.167326	2552.240410
621.514868	2553.961964
621.862357	2553.813250
622.209793	2554.662685
622.557176	2555.897768
622.904506	2552.812581
623.251783	2547.380738
623.599007	2550.874258
623.946179	2550.430636
624.293297	2550.770914
624.640363	2552.046326
624.987376	2553.692263
625.334336	2553.167983
625.681243	2554.766028
626.028097	2553.387273
626.374899	2554.398024
626.721647	2554.370298
627.068343	2556.855587
627.414987	2551.746377
627.761577	2553.601522
628.108115	2554.138405
628.454600	2556.333827
628.801032	2553.914073
629.147412	2555.106306
629.493739	2551.469114
629.840014	2554.410627
630.186236	2552.063970
630.532405	2551.028013
630.878521	2556.381718
631.224585	2554.612273
631.570597	2555.242418
631.916556	2552.842828
632.262462	2554.012376
632.608316	2554.428271
632.954117	2553.906512
633.299866	2551.617828
633.645562	2551.597663
633.991206	2552.260575
634.336797	2553.785524
634.682336	2553.188147
635.027823	2555.144115
635.373257	2552.530277
635.718639	2551.232180
636.063968	2551.706048
636.409245	2553.329300
636.754470	2552.663867
637.099642	2550.556665
637.444762	2556.190154
637.789829	2550.488609
638.134845	2551.300235
638.479808	2550.849052
638.824719	2554.173693
639.169577	2550.551624
639.514383	2554.040102
639.859137	2553.561193
640.203839	2553.941800
640.548489	2553.107489
640.893086	2551.610266
641.237632	2549.248486
641.582125	2550.206305
641.926566	2546.735470
642.270955	2551.915256
642.615292	2551.025492
642.959576	2551.020451
643.303809	2549.956768
643.647990	2555.255020
643.992118	2555.801986
644.336195	2551.635472
644.680219	2553.223435
645.024192	2553.719989
645.368112	2552.555483
645.711981	2552.716799
646.055797	2553.599001
646.399562	2553.571275
646.743274	2551.527087
647.086935	2555.733930
647.430544	2550.322251
647.774101	2554.501368
648.117606	2554.917263
648.461059	2553.848538
648.804460	2558.325083
649.147810	2552.893240
649.491108	2552.139587
649.834354	2552.658826
650.177548	2555.096224
650.520690	2550.995245
650.863781	2553.165462
651.206820	2554.766028
651.549807	2553.266285
651.892742	2552.608415
652.235626	2550.823846
652.578458	2551.302756
652.921238	2552.005997
653.263967	2553.659495
653.606644	2551.746377
653.949269	2553.230997
654.291843	2551.418702
654.634365	2553.034392
654.976836	2552.379042
655.319255	2553.974567
655.661622	2551.816953
656.003938	2555.686039
656.346203	2550.705379
656.688416	2552.066491
657.030577	2552.673950
657.372687	2554.428271
657.714746	2550.995245
658.056753	2551.645554
658.398708	2547.105995
658.740612	2552.479865
659.082465	2549.026675
659.424266	2550.034906
659.766016	2544.920655
660.107715	2552.258054
660.449362	2551.607746
660.790958	2553.488096
661.132503	2552.290822
661.473996	2551.222097
661.815438	2554.274516
662.156829	2553.800647
662.498168	2553.188147
662.839456	2552.356357
663.180693	2553.830894
663.521879	2554.559341
663.863013	2553.518343
664.204097	2553.624207
664.545129	2548.845193
664.886110	2552.177396
665.227040	2549.646737
665.567918	2551.383414
665.908746	2552.928528
666.249522	2557.531101
666.590248	2552.026161
666.930922	2552.648744
667.271545	2551.511964
667.612118	2553.636810
667.952639	2551.746377
668.293109	2553.397355
668.633528	2553.664536
668.973896	2550.443239
669.314213	2552.321069
669.654480	2553.851059
669.994695	2552.961295
670.334859	2552.767211
670.674973	2552.285781
671.015035	2552.235369
671.355047	2552.686552
671.695008	2553.052036
672.034918	2553.084804
672.374777	2553.667057
672.714585	2552.033723
673.054342	2550.423074
673.394049	2552.411810
673.733705	2551.489278
674.073310	2553.170503
674.412864	2553.185627
674.752368	2551.605225
675.091820	2552.978939
675.431223	2551.998435
675.770574	2552.936090
676.109875	2548.129349
676.449125	2550.226469
676.788324	2550.438198
677.127473	2548.278063
677.466571	2546.869061
677.805619	2553.583878
678.144616	2550.448280
678.483562	2550.712941
678.822458	2550.092879
679.161303	2552.215205
679.500098	2556.043961
679.838842	2550.528939
680.177535	2551.948023
680.516179	2552.694114
680.854771	2551.781665
681.193314	2551.459032
681.531805	2550.818805
681.870247	2551.259906
682.208638	2552.870555
682.546978	2551.968188
682.885268	2554.012376
683.223508	2550.682694
683.561697	2555.365926
683.899836	2548.981304
684.237925	2549.404761
684.575963	2552.101779
684.913951	2550.178578
685.251889	2554.105637
685.589776	2553.301573
685.927614	2554.753426
686.265401	2549.298897
686.603137	2551.577499
686.940824	2551.829556
687.278460	2553.467931
687.616046	2552.220246
687.953582	2552.600853
688.291068	2552.353836
688.628504	2553.354505
688.965889	2551.176727
689.303224	2551.506923
689.640510	2552.109340
689.977745	2549.316541
690.314930	2548.404092
690.652065	2551.695966
690.989150	2553.692263
691.326185	2550.823846
691.663170	2549.243444
692.000105	2552.494989
692.336990	2551.310318
692.673825	2551.325441
693.010610	2550.269319
693.347345	2549.031716
693.684030	2544.237579
694.020665	2548.252858
694.357251	2547.249668
694.693786	2551.474155
695.030272	2551.824515
695.366707	2552.951213
695.703093	2550.440718
696.039429	2554.624876
696.375716	2551.441388
696.711952	2550.622200
697.048139	2553.233518
697.384276	2554.332489
697.720363	2552.409289
698.056400	2550.450801
698.392388	2551.695966
698.728326	2551.786707
699.064214	2551.310317
699.400053	2554.455998
699.735842	2548.880481
700.071581	2553.228477
700.407270	2552.711758
700.742910	2551.312838
701.078501	2551.015410
701.414042	2553.651933
701.749533	2551.184289
702.084974	2551.310317
702.420366	2550.987684
702.755709	2547.819318
703.091002	2553.046995
703.426246	2553.790565
703.761440	2548.572971
704.096584	2551.706048
704.431679	2551.650595
704.766725	2551.718651
705.101721	2550.851573
705.436668	2551.116233
705.771565	2551.080945
706.106413	2551.375852
706.441212	2549.893753
706.775961	2550.755791
707.110661	2547.131201
707.445311	2552.379042
707.779913	2551.660678
708.114465	2550.407951
708.448967	2548.509957
708.783421	2551.466593
709.117825	2549.944165
709.452180	2553.019269
709.786485	2550.246634
710.120742	2552.227807
710.454949	2552.933569
710.789107	2546.276725
711.123216	2546.299411
711.457275	2550.158414
711.791286	2547.277394
712.125247	2548.146993
712.459159	2551.159083
712.793023	2551.433826
713.126837	2548.472148
713.460602	2551.544731
713.794318	2551.451470
714.127985	2550.775955
714.461602	2552.502550
714.795171	2550.576830
715.128691	2549.818136
715.462162	2550.617159
715.795584	2551.244783
716.128957	2552.076573
716.462281	2551.852242
716.795556	2550.327292
717.128782	2550.697817
717.461960	2550.430636
717.795088	2551.716130
718.128167	2550.765873
718.461198	2550.405430
718.794180	2552.197561
719.127113	2550.594474
719.459997	2550.201264
719.792833	2552.152190
720.125619	2550.866696
720.458357	2553.210833
720.791046	2550.927190
721.123686	2547.579864
721.456278	2551.635472
721.788821	2549.926521
722.121315	2551.673281
722.453761	2548.313352
722.786158	2551.333003
723.118506	2552.379042
723.450805	2551.459032
723.783056	2550.213867
724.115259	2550.949875
724.447412	2550.024823
724.779518	2552.996583
725.111574	2549.949206
725.443582	2550.977601
725.775542	2550.344937
726.107453	2551.527087
726.439315	2552.169834
726.771129	2558.367933
727.102895	2550.244113
727.434612	2551.489278
727.766281	2550.259237
728.097901	2547.915100
728.429473	2546.498536
728.760996	2548.956099
729.092471	2544.988711
729.423897	2552.739485
729.755276	2552.003476
730.086606	2551.030533
730.417887	2551.771583
730.749120	2550.798640
731.080305	2551.186809
731.411442	2550.463404
731.742530	2548.356201
732.073570	2548.988866
732.404562	2549.596325
732.735506	2551.786707
733.066401	2551.670760
733.397249	2550.057591
733.728048	2550.176058
734.058798	2554.183775
734.389501	2550.150852
734.720156	2549.770245
735.050762	2552.701676
735.381320	2550.531459
735.711831	2548.484751
736.042293	2548.825029
736.372707	2549.203115
736.703073	2550.370142
737.033391	2550.786038
737.363661	2546.974925
737.693883	2551.040616
738.024056	2553.576316
738.354182	2550.228990
738.684260	2550.992725
739.014290	2550.725544
739.344272	2548.449463
739.674207	2549.825698
740.004093	2552.374001
740.333931	2549.508105
740.663722	2551.995914
740.993464	2550.730585
741.323159	2551.849721
741.652806	2550.841490
741.982405	2551.703528
742.311956	2549.644216
742.641460	2551.143959
742.970915	2549.094730
743.300323	2547.995759
743.629683	2548.361242
743.958996	2549.326623
744.288260	2547.920142
744.617477	2549.407282
744.946647	2545.636499
745.275768	2549.707231
745.604842	2546.173382
745.933869	2549.263609
746.262847	2544.227496
746.591778	2551.685883
746.920662	2547.625234
747.249498	2552.124464
747.578286	2548.625903
747.907027	2550.513815
748.235720	2551.539690
748.564365	2549.041798
748.892963	2550.798640
749.221514	2550.531459
749.550017	2550.700338
749.878473	2550.319731
750.206881	2552.565565
750.535242	2552.386604
750.863555	2548.005841
751.191821	2551.660678
751.520039	2552.184958
751.848210	2549.424926
752.176334	2550.808723
752.504411	2548.502395
752.832440	2552.313507
753.160421	2548.512477
753.488356	2550.208825
753.816243	2552.288301
754.144082	2549.669422
754.471875	2549.581202
754.799620	2552.512633
755.127318	2548.172199
755.454969	2551.166645
755.782572	2551.441387
756.110129	2551.829556
756.437638	2550.954916
756.765100	2550.188661
757.092515	2548.273022
757.419882	2552.409289
757.747203	2551.673281
758.074477	2548.273022
758.401703	2549.414844
758.728882	2554.261913
759.056014	2552.585729
759.383099	2550.657488
759.710138	2548.951057
760.037129	2548.973743
760.364073	2551.416182
760.690970	2552.394166
761.017820	2546.881664
761.344623	2548.855276
761.671379	2548.991387
761.998088	2546.022147
762.324751	2549.215718
762.651366	2544.484595
762.977935	2550.619679
763.304456	2544.333361
763.630931	2546.831252
763.957359	2549.878630
764.283740	2550.231511
764.610074	2549.046839
764.936362	2551.103630
765.262602	2547.763866
765.588796	2549.956768
765.914943	2549.737477
766.241044	2550.090358
766.567097	2550.473486
766.893104	2550.513815
767.219064	2551.784186
767.544978	2551.028013
767.870845	2550.455842
768.196665	2552.396686
768.522438	2547.617672
768.848165	2548.439380
769.173846	2549.792930
769.499479	2550.796120
769.825066	2548.661191
770.150607	2550.279402
770.476101	2548.850234
770.801548	2549.314021
771.126949	2549.009031
771.452303	2550.738147
771.777611	2549.742519
772.102872	2548.630944
772.428087	2548.754452
772.753256	2549.561037
773.078378	2547.481561
773.403453	2547.922662
773.728482	2548.804864
774.053465	2547.431150
774.378401	2549.755122
774.703291	2549.124977
775.028135	2548.850234
775.352932	2549.248486
775.677683	2549.555996
776.002388	2549.044319
776.327046	2550.856614
776.651658	2551.859803
776.976224	2550.536500
777.300743	2551.849721
777.625216	2550.027344
777.949643	2549.671943
778.274024	2550.894422
778.598359	2544.000644
778.922647	2545.208001
779.246889	2546.261602
779.571086	2545.704554
779.895236	2546.750594
780.219339	2549.306459
780.543397	2551.000287
780.867409	2548.605738
781.191374	2547.683207
781.515294	2549.676984
781.839167	2548.593136
782.162995	2548.230173
782.486776	2550.735626
782.810511	2548.522559
783.134201	2550.907025
783.457844	2549.387117
783.781441	2547.723537
784.104993	2547.163968
784.428498	2550.193702
784.751958	2549.293856
785.075372	2551.910215
785.398739	2549.535831
785.722061	2549.112374
786.045337	2550.352498
786.368568	2549.402241
786.691752	2552.905843
787.014891	2548.182282
787.337983	2548.777138
787.661030	2550.120605
787.984031	2549.432488
788.306987	2548.646068
788.629897	2548.643547
788.952760	2546.369987
789.275579	2545.916283
789.598351	2549.533311
789.921078	2549.931562
790.243759	2546.770758
790.566395	2546.485933
790.888984	2552.101779
791.211529	2547.448794
791.534027	2548.832590
791.856480	2549.525749
792.178888	2549.576161
792.501249	2547.458876
792.823566	2548.777138
793.145836	2546.528783
793.468062	2548.472148
793.790241	2549.394679
794.112375	2551.567416
794.434464	2547.506767
794.756507	2548.754453
795.078505	2548.031047
795.400457	2546.921993
795.722364	2546.044832
796.044226	2545.467620
796.366042	2545.023999
796.687812	2547.388300
797.009538	2548.754453
797.331218	2548.910728
797.652852	2548.386448
797.974442	2548.517518
798.295986	2548.028526
798.617484	2547.791592
798.938938	2547.400903
799.260346	2548.701520
799.581709	2549.500543
799.903026	2548.033567
800.224299	2549.349309
800.545526	2549.629093
800.866708	2550.171017
801.187845	2549.656819
801.508936	2547.433670
801.829983	2548.726726
802.150984	2549.863506
802.471940	2548.862837
802.792851	2549.051881
803.113717	2547.226983
803.434538	2549.213198
803.755314	2547.151366
804.076045	2544.910573
804.396731	2550.758311
804.717372	2550.314690
805.037967	2548.605738
805.358518	2548.444422
805.679024	2550.128167
805.999485	2547.489123
806.319901	2547.509287
806.640272	2548.081458
806.960598	2547.161448
807.280879	2547.272353
807.601115	2548.613300
807.921306	2546.866540
808.241453	2545.354194
808.561554	2549.026675
808.881611	2547.448794
809.201623	2549.815615
809.521590	2548.935934
809.841513	2549.641696
810.161390	2547.920142
810.481223	2549.122457
810.801011	2548.459545
811.120755	2549.818136
811.440453	2549.525749
811.760107	2548.885522
812.079716	2545.026519
812.399281	2542.521066
812.718801	2545.102137
813.038276	2543.607434
813.357707	2549.364432
813.677093	2549.840821
813.996434	2546.296890
814.315731	2548.157076
814.634983	2549.102292
814.954191	2548.285625
815.273354	2548.830070
815.592473	2546.916952
815.911547	2548.094061
816.230577	2548.499874
816.549562	2549.634134
816.868502	2548.131870
817.187399	2552.386604
817.506250	2546.518701
817.825058	2548.406613
818.143821	2545.754966
818.462539	2546.740512
818.781213	2548.583053
819.099843	2548.336037
819.418429	2547.519370
819.736970	2551.401058
820.055466	2549.646737
820.373919	2547.973074
820.692327	2547.446273
821.010691	2547.277394
821.329011	2547.312682
821.647286	2549.944165
821.965517	2545.921324
822.283704	2549.611449
822.601847	2549.636654
822.919945	2548.262940
823.237999	2547.196736
823.556010	2546.241437
823.873976	2549.344267
824.191897	2547.022816
824.509775	2548.318393
824.827609	2549.515667
825.145398	2546.501057
825.463144	2547.486602
825.780845	2548.157076
826.098502	2546.312013
826.416116	2548.855276
826.733685	2546.730429
827.051210	2547.063145
827.368692	2546.130532
827.686129	2546.037271
828.003522	2543.967877
828.320872	2543.327650
828.638177	2544.071221
828.955439	2544.199770
829.272656	2543.015099
829.589830	2543.438556
829.906960	2546.969884
830.224046	2550.380225
830.541088	2550.523897
830.858086	2548.693959
831.175041	2547.771428
831.491952	2547.128680
831.808819	2549.412323
832.125642	2548.446942
832.442421	2548.429298
832.759157	2546.470810
833.075849	2546.622044
833.392497	2549.475337
833.709101	2549.482899
834.025662	2546.881664
834.342179	2548.699000
834.658653	2546.465769
834.975083	2549.069525
835.291469	2549.382076
835.607811	2548.242775
835.924110	2545.969215
836.240366	2548.575492
836.556578	2549.152704
836.872746	2548.749411
837.188871	2544.860161
837.504952	2545.311344
837.820990	2546.498536
838.136984	2546.858979
838.452935	2545.593649
838.768842	2549.646737
839.084706	2545.419729
839.400526	2550.526418
839.716303	2545.825542
840.032037	2546.387631
840.347727	2549.676984
840.663373	2548.467107
840.978977	2546.642209
841.294537	2545.686910
841.610054	2547.463917
841.925527	2547.526932
842.240957	2546.818649
842.556344	2546.052394
842.871687	2547.274874
843.186987	2546.649771
843.502244	2548.220090
843.817458	2547.398382
844.132629	2548.373845
844.447756	2547.849565
844.762840	2544.474513
845.077881	2543.778834
845.392879	2545.379400
845.707833	2544.197249
846.022745	2543.461241
846.337613	2545.412167
846.652438	2548.716644
846.967221	2544.955943
847.281960	2548.562889
847.596656	2547.355532
847.911309	2547.443752
848.225919	2547.594987
848.540485	2547.718495
848.855009	2546.153217
849.169490	2548.154555
849.483928	2545.389482
849.798323	2545.828063
850.112675	2549.107333
850.426984	2544.255223
850.741251	2547.882333
851.055474	2545.802857
851.369654	2544.741694
851.683792	2546.916952
851.997887	2546.319575
852.311938	2545.802857
852.625947	2547.083310
852.939914	2545.001313
853.253837	2547.156407
853.567718	2547.887374
853.881555	2548.144473
854.195350	2546.211190
854.509103	2549.356870
854.822812	2545.608773
855.136479	2546.866540
855.450103	2547.768907
855.763685	2546.831252
856.077224	2549.190512
856.390720	2547.148845
856.704173	2545.220604
857.017584	2546.498536
857.330953	2547.658002
857.644278	2550.256716
857.957561	2550.513815
858.270802	2549.409802
858.584000	2545.901159
858.897155	2545.482744
859.210268	2548.204967
859.523339	2548.399051
859.836367	2547.721016
860.149352	2545.361756
860.462295	2547.988197
860.775195	2543.919986
861.088054	2543.360418
861.400869	2542.987373
861.713642	2541.684234
862.026373	2547.572302
862.339062	2547.063145
862.651708	2546.042312
862.964312	2546.770758
863.276873	2547.970553
863.589392	2546.198587
863.901869	2547.289997
864.214303	2546.090203
864.526696	2547.789072
864.839045	2544.827394
865.151353	2545.860830
865.463619	2547.582384
865.775842	2546.574153
866.088023	2550.390307
866.400162	2548.295708
866.712258	2547.300080
867.024313	2548.772097
867.336325	2544.338402
867.648296	2547.113557
867.960224	2546.180943
868.272110	2545.696993
868.583954	2548.290666
868.895755	2548.482230
869.207515	2549.016593
869.519233	2548.099103
869.830909	2550.203784
870.142542	2546.221273
870.454134	2546.317055
870.765684	2546.614483
871.077191	2546.664894
871.388657	2547.872251
871.700081	2547.836962
872.011463	2545.069369
872.322803	2544.356046
872.634101	2549.737478
872.945357	2546.188505
873.256571	2546.642209
873.567744	2548.424257
873.878874	2544.598021
874.189963	2545.893598
874.501010	2545.429812
874.812015	2549.240924
875.122979	2545.669266
875.433900	2547.221942
875.744780	2545.760007
876.055618	2545.306303
876.366415	2545.132383
876.677169	2544.812270
876.987882	2543.834286
877.298554	2542.705068
877.609183	2544.219935
877.919771	2540.287835
878.230317	2544.197249
878.540822	2546.934596
878.851285	2546.944678
879.161707	2545.180274
879.472087	2546.680018
879.782425	2547.083310
880.092722	2546.369987
880.402977	2546.163299
880.713191	2548.406613
881.023363	2545.875954
881.333494	2548.242775
881.643583	2547.169010
881.953631	2545.109698
882.263637	2548.169679
882.573602	2545.180274
882.883526	2544.330840
883.193408	2547.448794
883.503248	2544.063659
883.813048	2544.572815
884.122806	2549.379556
884.432522	2545.457538
884.742197	2545.689431
885.051831	2546.009544
885.361424	2546.667415
885.670975	2548.865358
885.980485	2546.932075
886.289954	2547.126160
886.599382	2548.467107
886.908768	2548.514998
887.218113	2546.218752
887.527417	2546.168341
887.836680	2544.880326
888.145901	2546.470810
888.455082	2544.403937
888.764221	2544.870243
889.073319	2544.852599
889.382376	2544.156920
889.691392	2546.622044
890.000366	2544.502239
890.309300	2546.773279
890.618193	2546.417878
890.927044	2546.654812
891.235855	2548.658671
891.544625	2545.805377
891.853353	2546.596839
892.162041	2545.202960
892.470687	2545.036602
892.779293	2546.967363
893.087858	2542.637012
893.396381	2542.455531
893.704864	2541.422094
894.013306	2542.732794
894.321707	2545.641540
894.630068	2547.632796
894.938387	2546.695141
895.246665	2545.727240
895.554903	2546.286808
895.863100	2543.937630
896.171256	2546.826211
896.479371	2544.061138
896.787446	2544.429143
897.095480	2546.367466
897.403473	2545.376879
897.711425	2544.487116
898.019336	2546.680018
898.327207	2546.858979
898.635038	2546.551468
898.942827	2546.319575
899.250576	2547.594987
899.558284	2546.496016
899.865952	2546.180943
900.173579	2544.068700
900.481165	2546.347302
900.788711	2544.562733
901.096216	2547.436191
901.403681	2546.700182
901.711105	2547.431150
902.018489	2544.260264
902.325832	2548.303269
902.633135	2544.824873
902.940397	2546.468289
903.247619	2545.986859
903.554800	2544.761859
903.861941	2545.500388
904.169041	2549.573640
904.476101	2546.183464
904.783121	2547.557178
905.090100	2544.033412
905.397039	2547.564740
905.703938	2546.415357
906.010796	2545.187836
906.317614	2546.634647
906.624391	2548.119267
906.931129	2547.312682
907.237826	2547.978115
907.544483	2545.722198
907.851099	2545.823022
908.157675	2545.394523
908.464211	2546.422919
908.770707	2541.230530
909.077163	2543.494008
909.383578	2540.620551
909.689954	2541.412012
909.996289	2540.118956
910.302584	2546.052394
910.608839	2542.994934
910.915054	2545.316386
911.221229	2546.150697
911.527363	2545.762528
911.833458	2541.749769
912.139513	2545.384441
912.445527	2546.425439
912.751502	2542.591642
913.057436	2546.687579
913.363331	2543.680531
913.669186	2545.618855
913.975000	2545.260933
914.280775	2548.078938
914.586510	2546.017106
914.892205	2545.502908
915.197859	2543.609955
915.503475	2548.313352
915.809050	2546.770758
916.114585	2543.357897
916.420081	2547.189174
916.725536	2544.081303
917.030952	2547.741181
917.336328	2543.574667
917.641665	2545.197918
917.946961	2543.143648
918.252218	2544.950902
918.557435	2544.908052
918.862612	2545.691952
919.167750	2543.632640
919.472848	2546.261602
919.777906	2543.158772
920.082925	2543.980480
920.387904	2543.143648
920.692843	2547.103475
920.997743	2543.602393
921.302603	2545.218083
921.607423	2543.115922
921.912204	2546.138094
922.216946	2544.711447
922.521647	2548.537683
922.826310	2544.240099
923.130932	2543.504091
923.435516	2542.836138
923.740059	2547.000131
924.044564	2545.495347
924.349028	2546.027188
924.653454	2541.462423
924.957840	2543.272198
925.262186	2541.429656
925.566493	2544.323278
925.870761	2540.744059
926.174989	2543.436035
926.479178	2547.640358
926.783328	2545.742363
927.087438	2546.808567
927.391509	2542.271529
927.695541	2546.317055
927.999533	2544.943340
928.303486	2546.538865
928.607400	2544.013247
928.911275	2544.514842
929.215110	2545.502908
929.518906	2544.726571
929.822663	2545.543237
930.126381	2545.893598
930.430060	2543.925027
930.733699	2544.940820
931.037299	2544.224976
931.340861	2542.679862
931.644383	2546.453166
931.947866	2544.623227
932.251309	2542.316899
932.554714	2545.417209
932.858080	2546.569112
933.161407	2545.974256
933.464694	2542.891591
933.767943	2545.918803
934.071153	2544.083823
934.374323	2543.912424
934.677455	2544.315717
934.980548	2543.829245
935.283602	2543.725902
935.586617	2544.023330
935.889593	2544.106509
936.192530	2543.385624
936.495428	2544.855120
936.798287	2544.792106
937.101108	2544.774462
937.403890	2545.250851
937.706632	2544.260264
938.009336	2544.058618
938.312002	2545.782692
938.614628	2545.288659
938.917216	2544.870243
939.219765	2545.245809
939.522275	2545.959133
939.824747	2544.897970
940.127179	2541.326312
940.429573	2543.312527
940.731929	2540.978473
941.034246	2537.643749
941.336524	2543.166333
941.638763	2545.850748
941.940964	2544.083823
942.243126	2542.395037
942.545250	2545.863351
942.847335	2543.809081
943.149381	2543.483926
943.451389	2542.949564
943.753359	2545.497867
944.055290	2544.595501
944.357182	2544.887888
944.659036	2544.497198
944.960851	2544.323278
945.262628	2544.598021
945.564367	2543.846889
945.866067	2545.916283
946.167729	2545.460058
946.469352	2544.459389
946.770937	2545.633978
947.072484	2545.394523
947.373992	2544.928217
947.675462	2543.894780
947.976893	2547.355532
948.278286	2544.923176
948.579641	2542.412681
948.880958	2545.576005
949.182236	2545.886036
949.483476	2546.586756
949.784678	2544.930737
950.085841	2543.428473
950.386967	2544.890408
950.688054	2543.244471
950.989103	2543.849410
951.290114	2544.903011
951.591087	2543.231868
951.892021	2540.537372
952.192917	2546.932075
952.493776	2543.756148
952.794596	2544.240099
953.095378	2541.480067
953.396122	2545.036602
953.696828	2541.558205
953.997496	2544.053577
954.298126	2541.296065
954.598718	2543.443597
954.899272	2544.623227
955.199788	2542.823535
955.500266	2543.388144
955.800706	2543.685572
956.101108	2539.657690
956.401472	2540.872608
956.701798	2541.011240
957.002087	2544.756817
957.302337	2543.410829
957.602550	2542.170706
957.902724	2541.999306
958.202861	2545.371838
958.502960	2542.354708
958.803022	2545.618855
959.103045	2544.048535
959.403031	2545.447456
959.702979	2543.894780
960.002889	2545.722198
960.302762	2544.683721
960.602596	2545.669266
960.902393	2541.487629
961.202153	2544.139276
961.501875	2545.757487
961.801559	2544.865202
962.101205	2542.954605
962.400814	2545.026519
962.700385	2545.323947
962.999918	2543.730943
963.299414	2543.466282
963.598873	2545.306303
963.898293	2546.425439
964.197677	2546.009544
964.497022	2542.329502
964.796331	2544.618186
965.095601	2544.005686
965.394835	2544.598021
965.694030	2543.854451
965.993189	2545.170192
966.292309	2544.189688
966.591393	2543.433515
966.890439	2543.703216
967.189447	2546.659853
967.488419	2540.993596
967.787353	2542.758000
968.086249	2543.143648
968.385108	2541.643905
968.683930	2542.758000
968.982714	2544.386293
969.281462	2542.873947
969.580172	2544.663556
969.878844	2544.998793
970.177480	2542.024512
970.476078	2541.631302
970.774639	2544.040974
971.073162	2541.701878
971.371649	2541.268339
971.670098	2539.201466
971.968510	2541.613658
972.266885	2539.529141
972.565223	2540.126518
972.863524	2542.097609
973.161788	2543.567105
973.460014	2544.945861
973.758204	2545.444935
974.056356	2541.159954
974.354471	2543.980480
974.652550	2544.101468
974.950591	2542.647095
975.248595	2544.441745
975.546563	2541.369162
975.844493	2541.694317
976.142386	2543.115922
976.440243	2544.187167
976.738062	2542.871426
977.035845	2544.056097
977.333590	2544.013247
977.631299	2546.347302
977.928971	2542.480737
978.226606	2545.081972
978.524204	2541.520397
978.821765	2542.773123
979.119290	2542.775644
979.416777	2542.253885
979.714228	2543.488967
980.011642	2544.940820
980.309020	2546.337219
980.606360	2542.936961
980.903664	2544.202291
981.200931	2541.943854
981.498162	2543.408309
981.795356	2543.662887
982.092513	2542.697506
982.389633	2542.349667
982.686717	2543.746066
982.983764	2541.215407
983.280775	2543.980480
983.577749	2541.414533
983.874686	2542.891591
984.171587	2541.394368
984.468451	2540.980993
984.765279	2542.611807
985.062070	2544.620706
985.358824	2543.730943
985.655543	2543.400747
985.952224	2544.499719
986.248869	2543.902342
986.545478	2539.670293
986.842050	2543.463762
987.138586	2539.498894
987.435086	2542.397557
987.731549	2536.005374
988.027975	2543.501570
988.324366	2541.820345
988.620719	2546.369987
988.917037	2540.761703
989.213318	2541.868236
989.509563	2543.332692
989.805772	2543.486447
990.101944	2544.192208
990.398080	2540.683565
990.694180	2540.686086
990.990244	2544.295552
991.286271	2543.824204
991.582262	2542.384955
991.878217	2544.242620
992.174136	2545.331509
992.470019	2544.224976
992.765865	2543.836807
993.061676	2540.509645
993.357450	2544.918134
993.653188	2542.584080
993.948890	2545.036602
994.244556	2541.837989
994.540186	2545.817980
994.835780	2540.980993
995.131337	2545.994421
995.426859	2541.394368
995.722345	2541.480067
996.017795	2541.379244
996.313208	2542.034594
996.608586	2542.949564
996.903928	2543.844369
997.199234	2542.170706
997.494504	2545.608772
997.789738	2542.470654
998.084936	2543.811601
998.380099	2541.404450
998.675225	2543.186498
998.970316	2545.187836
999.265371	2542.876467
999.560390	2544.056097
999.855373	2543.773793
1000.150320	2541.530479
1000.445232	2542.173226
1000.740108	2543.322609
1001.034948	2543.889739
1001.329752	2543.567105
1001.624521	2543.380582
1001.919254	2536.852288
1002.213951	2540.383617
1002.508613	2538.344470
1002.803239	2541.447300
1003.097829	2535.153419
1003.392384	2544.396375
1003.686903	2542.203473
1003.981386	2544.676159
1004.275834	2544.782023
1004.570246	2542.281611
1004.864623	2543.383103
1005.158964	2542.662218
1005.453270	2543.362938
1005.747540	2542.732794
1006.041775	2542.019471
1006.335974	2542.286652
1006.630138	2543.529297
1006.924266	2541.278421
1007.218359	2544.494677
1007.512416	2541.018802
1007.806438	2542.861344
1008.100425	2541.727084
1008.394376	2542.334543
1008.688292	2541.671631
1008.982172	2543.085675
1009.276017	2543.894780
1009.569827	2540.421425
1009.863602	2544.802188
1010.157341	2544.310675
1010.451045	2546.402754
1010.744714	2542.402599
1011.038347	2542.024512
1011.331945	2540.723894
1011.625508	2542.785726
1011.919036	2540.189532
1012.212528	2543.186498
1012.505986	2542.367311
1012.799408	2544.408978
1013.092795	2540.923020
1013.386147	2542.425284
1013.679464	2542.384955
1013.972745	2543.307486
1014.265992	2543.337733
1014.559204	2543.967877
1014.852380	2544.315717
1015.145521	2542.843700
1015.438628	2541.837989
1015.731699	2543.219266
1016.024736	2540.000489
1016.317737	2543.078113
1016.610703	2540.184491
1016.903635	2541.782537
1017.196531	2538.009233
1017.489393	2539.014943
1017.782219	2540.955788
1018.075011	2542.112732
1018.367768	2541.533000
1018.660490	2541.792619
1018.953177	2541.792619
1019.245829	2541.792619
