Dividing Wavelength (nm)	Counts (n)	Blue Motor Position (mm): 33.100000	Red Motor Position (mm): 0.000000	
326.493990	2130.263066
326.888308	2130.263066
327.282561	2130.263066
327.676750	2096.063878
328.070874	2096.915833
328.464933	2098.622264
328.858929	2104.202821
329.252859	2116.924173
329.646726	2126.704011
330.040528	2137.197173
330.434265	2157.240801
330.827938	2174.915086
331.221547	2191.445030
331.615091	2209.394058
332.008571	2229.236039
332.401986	2250.149266
332.795338	2267.644591
333.188625	2289.797941
333.581847	2305.009623
333.975006	2324.859166
334.368100	2341.676455
334.761129	2361.289064
335.154095	2375.089223
335.546996	2397.035886
335.939833	2427.242480
336.332606	2441.849223
336.725315	2451.883640
337.117960	2458.724486
337.510540	2469.124386
337.903056	2482.203660
338.295508	2485.180461
338.687896	2495.542553
339.080220	2504.382216
339.472480	2509.035201
339.864676	2513.282373
340.256807	2520.145904
340.648875	2520.604649
341.040879	2524.503982
341.432818	2525.386184
341.824694	2528.352903
342.216506	2528.524302
342.608253	2528.151257
342.999937	2528.350382
343.391557	2527.836185
343.783113	2526.616225
344.174605	2525.797038
344.566033	2521.630524
344.957397	2522.845442
345.348697	2518.686490
345.739934	2519.024248
346.131106	2515.881088
346.522215	2517.766480
346.913260	2512.616941
347.304241	2510.648371
347.695159	2512.357322
348.086012	2510.585356
348.476802	2506.411281
348.867528	2506.411281
349.258191	2504.183091
349.648789	2503.452123
350.039324	2501.085302
350.429796	2501.854078
350.820203	2501.418018
351.210548	2496.901144
351.600828	2495.272851
351.991045	2499.018429
352.381198	2493.977275
352.771288	2496.074395
353.161314	2493.581544
353.551276	2494.967862
353.941175	2495.207316
354.331010	2494.826709
354.720782	2496.623881
355.110490	2495.217399
355.500135	2494.367964
355.889717	2495.910557
356.279235	2495.013232
356.668689	2498.163953
357.058080	2497.208654
357.447408	2494.834271
357.836672	2493.042141
358.225873	2496.954076
358.615010	2491.567603
359.004084	2500.306443
359.393095	2496.245794
359.782043	2499.338542
360.170927	2500.092194
360.559748	2499.530106
360.948505	2499.278048
361.337199	2503.195025
361.725830	2500.984479
362.114398	2503.817607
362.502903	2501.959942
362.891344	2504.944305
363.279722	2502.446413
363.668037	2503.522700
364.056289	2503.053872
364.444478	2505.314830
364.832603	2506.701147
365.220665	2503.361383
365.608665	2504.316681
365.996601	2507.931189
366.384474	2508.720129
366.772284	2506.373472
367.160031	2506.910355
367.547715	2509.531755
367.935336	2505.753410
368.322893	2510.108967
368.710388	2509.065448
369.097820	2508.384893
369.485189	2508.841117
369.872495	2511.626354
370.259738	2511.132321
370.646918	2509.715757
371.034035	2512.042250
371.421090	2510.713906
371.808081	2509.688031
372.195010	2512.516118
372.581875	2511.759945
372.968678	2511.200377
373.355418	2513.894874
373.742096	2510.711385
374.128710	2511.926303
374.515262	2514.265398
374.901751	2511.800274
375.288177	2513.594925
375.674540	2512.942096
376.060841	2512.909328
376.447079	2514.194822
376.833254	2511.843124
377.219367	2507.341374
377.605417	2514.023423
377.991404	2507.366579
378.377329	2510.973525
378.763191	2506.789367
379.148991	2515.664319
379.534727	2517.453928
379.920402	2516.886798
380.306013	2517.655574
380.691563	2515.303876
381.077049	2515.482837
381.462474	2517.038033
381.847835	2516.889319
382.233134	2517.668177
382.618371	2517.300173
383.003545	2518.290760
383.388657	2518.963754
383.773706	2520.183713
384.158693	2515.316479
384.543618	2518.807478
384.928480	2521.156656
385.313280	2520.082890
385.698017	2518.058867
386.082692	2517.955523
386.467305	2521.691018
386.851856	2519.702283
387.236344	2519.664474
387.620770	2521.045750
388.005133	2520.070287
388.389435	2520.884433
388.773674	2522.573220
389.157851	2523.402490
389.541965	2520.917201
389.926018	2521.542304
390.310008	2522.202695
390.693936	2525.791997
391.077802	2523.157994
391.461606	2526.031452
391.845348	2522.981553
392.229027	2529.020856
392.612645	2527.710156
392.996200	2526.621267
393.379694	2529.091432
393.763125	2526.109589
394.146494	2527.228726
394.529801	2527.145547
394.913047	2529.101514
395.296230	2528.446164
395.679351	2526.011287
396.062410	2530.568490
396.445408	2528.002543
396.828343	2527.135464
397.211217	2525.310567
397.594028	2527.231246
397.976778	2526.981709
398.359466	2528.690660
398.742092	2526.323838
399.124656	2529.116638
399.507158	2533.116793
399.889598	2529.961031
400.271977	2530.939015
400.654294	2531.995137
401.036549	2534.792977
401.418742	2532.005219
401.800874	2531.823737
402.182944	2535.002185
402.564952	2532.451361
402.946898	2534.263656
403.328783	2534.477905
403.710606	2533.968748
404.092367	2535.917154
404.474067	2536.668286
404.855705	2536.451517
405.237282	2538.064686
405.618797	2534.813142
406.000250	2537.318595
406.381642	2539.140972
406.762972	2540.960829
407.144240	2539.370345
407.525447	2541.611137
407.906593	2541.477547
408.287677	2542.659697
408.668700	2543.410829
409.049661	2544.499719
409.430560	2544.686241
409.811399	2548.250337
410.192176	2550.586912
410.572891	2553.856100
410.953545	2555.575134
411.334138	2559.736606
411.714669	2565.463357
412.095139	2569.012329
412.475547	2578.096488
412.855894	2582.091603
413.236180	2588.831626
413.616405	2597.998964
413.996568	2610.894235
414.376670	2616.222735
414.756711	2623.943262
415.136691	2637.841723
415.516609	2652.907212
415.896466	2667.944973
416.276262	2681.911490
416.655997	2693.480938
417.035670	2718.921121
417.415283	2746.861716
417.794834	2754.007552
418.174324	2772.992537
418.553753	2781.282715
418.933121	2821.785865
419.312428	2852.945237
419.691674	2869.475181
420.070859	2905.874832
420.449983	2922.611463
420.829045	2963.467494
421.208047	2978.931234
421.586988	3022.360774
421.965867	3053.825136
422.344686	3113.610700
422.723444	3113.676235
423.102141	3110.586007
423.480777	3207.718960
423.859352	3194.700180
424.237866	3295.359419
424.616319	3331.007939
424.994712	3401.198444
425.373044	3410.012902
425.751314	3495.077332
426.129524	3477.395485
426.507673	3587.355653
426.885762	3651.746311
427.263789	3686.172351
427.641756	3677.597348
428.019662	3773.875825
428.397508	3824.423474
428.775292	3863.189948
429.153016	3950.101960
429.530679	3965.810196
429.908282	4053.304462
430.285824	4036.714025
430.663305	4226.352150
431.040726	4142.240498
431.418086	4183.519986
431.795385	4297.618942
432.172624	4349.343701
432.549802	4392.896750
432.926920	4450.565029
433.303977	4502.226774
433.680974	4571.134306
434.057910	4633.102689
434.434786	4688.081513
434.811601	4712.737797
435.188355	4918.502573
435.565050	4873.472466
435.941683	4904.820882
436.318257	5103.883444
436.694770	5139.050533
437.071222	5210.493766
437.447614	5198.697466
437.823946	5167.578423
438.200218	5332.635882
438.576429	5262.561323
438.952580	5380.589858
439.328670	5450.540909
439.704700	5406.206481
440.080670	5429.877219
440.456580	5696.410585
440.832429	5624.644719
441.208218	5520.670921
441.583947	5683.099418
441.959616	5715.279624
442.335224	5677.758316
442.710773	5823.755172
443.086261	5879.374223
443.461689	5704.978026
443.837057	5863.877716
444.212365	6032.884919
444.587612	5949.758813
444.962800	6118.075378
445.337927	6111.050530
445.712995	5757.148927
446.088002	6319.434186
446.462949	6172.292987
446.837837	6125.861440
447.212664	6297.114477
447.587431	6451.318332
447.962139	6987.762636
448.336786	7892.188486
448.711374	7653.179821
449.085901	6758.422904
449.460369	6695.456372
449.834776	6634.634851
450.209124	7030.861981
450.583412	7180.967378
450.957640	7330.041859
451.331808	7106.005420
451.705917	6669.484347
452.079965	6589.791267
452.453954	6810.878630
452.827883	6689.285999
453.201752	6786.202182
453.575562	6586.733807
453.949311	6787.270907
454.323001	6677.683784
454.696632	6760.159581
455.070202	6890.589355
455.443713	7052.975003
455.817164	7153.682133
456.190556	7234.811942
456.563888	7313.300187
456.937160	7357.911878
457.310373	7014.884044
457.683526	7042.670884
458.056619	6934.137362
458.429653	6925.048162
458.802628	6857.302616
459.175542	6965.261446
459.548398	7326.364337
459.921194	7483.766804
460.293930	7487.033472
460.666607	8010.118719
461.039224	8323.565062
461.411782	8443.920089
461.784280	8460.573541
462.156719	8353.600257
462.529099	8235.337308
462.901419	7827.192890
463.273680	7721.747075
463.645882	7732.154537
464.018024	7598.415246
464.390106	7763.177798
464.762130	8147.931262
465.134094	8618.333930
465.505999	9636.092480
465.877845	10855.015754
466.249631	11500.394352
466.621358	11118.090888
466.993026	10494.517801
467.364634	10241.930788
467.736184	9877.379747
468.107674	9547.839520
468.479105	9571.883304
468.850477	9340.217079
469.221790	9113.546637
469.593043	8789.770970
469.964238	8652.346595
470.335373	8660.672061
470.706449	8719.814878
471.077467	8703.143782
471.448425	10008.595941
471.819324	11081.681154
472.190164	11100.908115
472.560945	9847.836065
472.931667	9068.609792
473.302330	8935.336807
473.672934	8580.553003
474.043479	8936.418135
474.413965	8876.582159
474.784393	8759.483717
475.154761	8918.244775
475.525070	9001.842230
475.895321	8833.802928
476.265513	9005.144185
476.635645	9171.343466
477.005719	9170.879680
477.375734	9285.339078
477.745691	9521.955716
478.115588	9649.353235
478.485427	9899.618798
478.855207	10430.122102
479.224928	11248.767678
479.594591	11869.119467
479.964194	11677.006135
480.333739	11632.018878
480.703226	11542.818182
481.072653	11633.316976
481.442022	11865.179806
481.811333	12048.733258
482.180584	11853.338135
482.549777	11567.471945
482.918912	11395.548434
483.287988	11423.531879
483.657005	11434.458580
484.025964	11110.473704
484.394864	11242.867007
484.763706	11215.909437
485.132489	10971.315173
485.501213	10935.369226
485.869879	11009.320432
486.238487	10854.362924
486.607036	10957.492329
486.975527	10750.792419
487.343959	10942.935998
487.712333	10983.991154
488.080648	10916.411967
488.448905	10951.344642
488.817104	10895.166024
489.185244	11161.389358
489.553326	11313.672534
489.921350	11856.798887
490.289315	12906.513312
490.657222	13258.569852
491.025070	13159.833813
491.392861	13037.908466
491.760593	12658.082729
492.128267	12305.736323
492.495883	11983.563742
492.863440	11647.308698
493.230939	11318.068420
493.598380	11240.379198
493.965763	11110.876997
494.333088	11014.817810
494.700354	10935.157497
495.067563	10997.088072
495.434713	10825.162041
495.801805	10954.984355
496.168839	10880.319826
496.535815	10816.375310
496.902733	10814.202572
497.269593	10748.135731
497.636395	10844.671306
498.003139	10835.141005
498.369825	10711.385719
498.736453	10860.555982
499.103023	10786.070413
499.469535	10818.590897
499.835989	10809.715945
500.202385	10768.373443
500.568723	10619.898859
500.935003	10838.004380
501.301226	10649.377006
501.667390	10910.571790
502.033497	11003.485296
502.399546	10867.149811
502.765537	10774.659762
503.131470	10842.821203
503.497345	11019.556495
503.863163	10630.528132
504.228923	10940.523805
504.594625	11001.955306
504.960269	10753.106308
505.325856	10970.337189
505.691385	10765.378997
506.056856	10917.241236
506.422270	10937.998187
506.787625	10828.519449
507.152924	10948.140989
507.518164	10933.793865
507.883347	10856.870898
508.248472	10773.023907
508.613540	11007.127530
508.978550	10891.410364
509.343503	10865.002280
509.708398	10980.651390
510.073236	11093.391755
510.438016	11101.049267
510.802738	11046.723273
511.167403	11107.055802
511.532010	10999.437250
511.896561	11227.950233
512.261053	11301.566203
512.625488	11172.036275
512.989866	11148.892338
513.354186	11142.527881
513.718449	11041.639269
514.082655	11231.731098
514.446803	11132.309462
514.810894	11252.046948
515.174927	11117.158274
515.538904	11140.995370
515.902822	11297.810543
516.266684	11178.257059
516.630488	11122.776640
516.994235	11178.196565
517.357925	11240.550597
517.721558	11330.875471
518.085133	11344.131185
518.448651	11359.841941
518.812112	11238.040102
519.175516	11250.713563
519.538863	11372.003725
519.902152	11285.215220
520.265385	11446.537184
520.628560	11362.140707
520.991678	11337.542397
521.354739	11403.347099
521.717743	11334.603404
522.080690	11314.196814
522.443580	11447.245467
522.806413	11406.770042
523.169189	11431.736357
523.531908	11490.009575
523.894569	11317.319808
524.257174	11319.059007
524.619722	11431.582602
524.982213	11379.252904
525.344647	11433.609145
525.707025	11389.070551
526.069345	11474.941566
526.431608	11394.618341
526.793815	11512.082267
527.155964	11292.930706
527.518057	11343.480876
527.880093	11290.909203
528.242072	11366.602128
528.603995	11273.176945
528.965860	11191.306086
529.327669	11244.785166
529.689421	11197.589884
530.051117	11165.944041
530.412755	11271.425144
530.774337	11162.286684
531.135862	11135.903805
531.497331	11157.772330
531.858743	11015.742862
532.220098	11176.653972
532.581396	11045.823427
532.942638	11035.098372
533.303824	10995.104378
533.664953	11002.373722
534.026025	10924.429922
534.387040	11029.205263
534.747999	11029.361539
535.108902	11088.053173
535.469748	10840.391367
535.830537	10944.241656
536.191270	10926.569892
536.551947	10953.449324
536.912567	10952.990579
537.273131	10870.504699
537.633638	10850.559374
537.994089	10849.525937
538.354483	10782.294589
538.714821	10933.446025
539.075103	10947.883890
539.435328	10902.861345
539.795497	10737.604760
540.155609	10887.165712
540.515665	10974.158384
540.875665	10717.994672
541.235609	10783.050762
541.595496	10778.314598
541.955328	10931.313617
542.315102	10810.953549
542.674821	10768.194482
543.034483	10766.349419
543.394090	10772.010635
543.753640	10701.452125
544.113134	10932.498288
544.472571	10776.232602
544.831953	10920.361711
545.191278	10724.280991
545.550548	10755.720147
545.909761	10892.370704
546.268918	10868.833557
546.628019	10945.731317
546.987064	10814.736935
547.346053	10734.660726
547.704986	10838.594195
548.063863	10821.812194
548.422684	10815.104939
548.781449	10728.402134
549.140158	10838.274082
549.498811	10706.952024
549.857408	10568.484131
550.215949	10794.380755
550.574434	10654.566874
550.932864	10745.030380
551.291237	10812.614609
551.649555	10757.345919
552.007817	10768.159194
552.366022	10726.080683
552.724173	10724.830476
553.082267	10708.986130
553.440305	10846.914620
553.798288	10640.577672
554.156215	10799.333689
554.514086	10774.064905
554.871902	10618.973807
555.229661	10664.084573
555.587365	10631.821188
555.945014	10538.075891
556.302606	10660.258337
556.660143	10558.704292
557.017625	10701.227794
557.375050	10608.392425
557.732421	10739.338917
558.089735	10652.431945
558.446994	10646.748044
558.804197	10693.109016
559.161345	10685.108705
559.518437	10536.051868
559.875474	10626.797678
560.232455	10649.611420
560.589381	10607.227919
560.946251	10605.115675
561.303065	10712.283044
561.659825	10643.478856
562.016528	10573.043855
562.373177	10451.829310
562.729770	10574.977137
563.086307	10483.210493
563.442789	10573.757178
563.799216	10460.366504
564.155587	10510.306695
564.511904	10461.674684
564.868164	10449.409557
565.224370	10458.954981
565.580520	10393.886288
565.936615	10396.928624
566.292654	10268.757288
566.648638	10401.122864
567.004567	10351.495225
567.360441	10343.769657
567.716260	10249.820193
568.072023	10345.236633
568.427732	10295.755187
568.783385	10198.571823
569.138982	10276.936560
569.494525	10288.032140
569.850013	10169.010497
570.205445	10242.568494
570.560823	10143.353545
570.916145	10063.912522
571.271412	10134.546649
571.626625	10072.795035
571.981782	10053.094206
572.336884	10021.503815
572.691931	10034.751967
573.046923	9979.153082
573.401860	9931.637686
573.756743	9869.245846
574.111570	9908.594572
574.466342	9894.426409
574.821059	9924.396069
575.175722	9816.316251
575.530330	9827.948713
575.884882	9814.342639
576.239380	9748.444676
576.593823	9729.729392
576.948211	9742.571732
577.302544	9618.118246
577.656823	9635.832861
578.011047	9640.947111
578.365216	9613.608934
578.719330	9535.881903
579.073389	9546.206187
579.427394	9492.495213
579.781344	9475.171288
580.135239	9423.806971
580.489080	9435.827603
580.842866	9327.125202
581.196597	9342.062141
581.550273	9375.129590
581.903895	9346.548768
582.257463	9415.965456
582.610975	9295.136560
582.964434	9316.853851
583.317837	9239.532633
583.671186	9221.419768
584.024481	9210.785454
584.377721	9134.381726
584.730906	9109.566646
585.084037	9149.787492
585.437113	9072.418383
585.790135	9097.286395
586.143103	8999.873659
586.496016	8965.505593
586.848874	9026.304429
587.201679	9012.998303
587.554428	8903.696005
587.907124	8954.883882
588.259765	8923.497658
588.612352	8929.872197
588.964884	8797.476373
589.317362	8814.828025
589.669786	8812.219228
590.022155	8865.867187
590.374470	8879.700113
590.726731	8819.203746
591.078937	8667.812855
591.431090	8784.613869
591.783188	8654.998242
592.135232	8650.602356
592.487222	8646.057756
592.839157	8696.161784
593.191038	8633.260787
593.542866	8576.630985
593.894639	8478.661201
594.246358	8527.570476
594.598022	8543.256026
594.949633	8442.952188
595.301190	8421.141636
595.652692	8444.192312
596.004141	8558.886123
596.355535	8337.350097
596.706876	8315.647930
597.058162	8247.410871
597.409395	8327.721493
597.760573	8394.592399
598.111698	8295.468191
598.462768	8283.303887
598.813785	8249.054288
599.164748	8218.089000
599.515657	8210.255047
599.866511	8118.253989
600.217312	8241.812670
600.568060	8101.857636
600.918753	8204.407308
601.269392	8174.664501
601.619978	8091.162828
601.970510	8155.303949
602.320988	8149.073083
602.671412	8203.900673
603.021783	8139.326012
603.372100	8110.364583
603.722363	8117.167621
604.072572	8092.410514
604.422728	8105.948533
604.772830	8034.628809
605.122878	8040.227010
605.472872	8037.595528
605.822813	8067.338335
606.172701	8008.135025
606.522534	8078.948113
606.872314	8086.310718
607.222041	8047.418216
607.571714	8107.513811
607.921333	8067.237512
608.270899	8070.143737
608.620411	8165.570259
608.969870	8063.975886
609.319276	8060.363899
609.668627	8078.678411
610.017926	8111.541693
610.367171	8154.724217
610.716362	8134.942729
611.065500	8124.467211
611.414585	8156.859145
611.763616	8143.200139
612.112594	8129.233622
612.461518	8135.731670
612.810389	8203.441928
613.159207	8134.037842
613.507971	8085.695697
613.856682	8208.077268
614.205340	8157.721183
614.553945	8237.252946
614.902496	8140.487998
615.250994	8194.992954
615.599439	8177.762290
615.947830	8194.808952
616.296169	8160.476173
616.644454	8175.682814
616.992686	8171.206269
617.340864	8227.281544
617.688990	8136.646639
618.037063	8225.504537
618.385082	8175.340015
618.733048	8258.478725
619.080961	8194.750978
619.428821	8216.057415
619.776628	8214.643371
620.124382	8168.715939
620.472083	8154.555338
620.819731	8178.520983
621.167326	8072.528203
621.514868	8086.189730
621.862357	7970.840568
622.209793	7992.119279
622.557176	7926.813651
622.904506	7894.494814
623.251783	7826.900503
623.599007	7782.989532
623.946179	7783.647403
624.293297	7743.708861
624.640363	7663.622571
624.987376	7641.441494
625.334336	7590.911488
625.681243	7545.251237
626.028097	7530.987293
626.374899	7506.023499
626.721647	7498.678538
627.068343	7428.881242
627.414987	7403.768734
627.761577	7359.729214
628.108115	7395.624750
628.454600	7288.553163
628.801032	7341.812953
629.147412	7302.270142
629.493739	7293.707743
629.840014	7220.931125
630.186236	7285.546115
630.532405	7163.673700
630.878521	7214.899385
631.224585	7173.491347
631.570597	7097.150634
631.916556	7129.484594
632.262462	7129.051055
632.608316	7085.014056
632.954117	7060.932464
633.299866	7051.243366
633.645562	7044.843621
633.991206	6965.513504
634.336797	6910.617859
634.682336	6867.168154
635.027823	6830.400498
635.373257	6822.874056
635.718639	6756.850064
636.063968	6769.190808
636.409245	6662.651063
636.754470	6660.571587
637.099642	6620.141533
637.444762	6560.169447
637.789829	6568.328554
638.134845	6513.425347
638.479808	6497.822976
638.824719	6502.715416
639.169577	6432.088851
639.514383	6450.884793
639.859137	6387.401542
640.203839	6388.697119
640.548489	6377.162959
640.893086	6354.114804
641.237632	6322.032901
641.582125	6346.742116
641.926566	6317.440409
642.270955	6325.367624
642.615292	6320.583569
642.959576	6340.417989
643.303809	6329.836607
643.647990	6335.001269
643.992118	6323.154557
644.336195	6272.135560
644.680219	6297.653881
645.024192	6286.701974
645.368112	6380.336365
645.711981	6410.013638
646.055797	6480.693136
646.399562	6439.829542
646.743274	6564.744294
647.086935	6616.826975
647.430544	6609.812209
647.774101	6635.527135
648.117606	6637.415047
648.461059	6626.662266
648.804460	6594.580363
649.147810	6501.860941
649.491108	6469.907587
649.834354	6450.199196
650.177548	6363.952615
650.520690	6278.842815
650.863781	6258.660556
651.206820	6279.951869
651.549807	6199.648809
651.892742	6137.584643
652.235626	6143.777701
652.578458	6131.676411
652.921238	6039.834149
653.263967	6080.188586
653.606644	6018.121900
653.949269	6020.370254
654.291843	5962.775072
654.634365	6010.086301
654.976836	5967.344878
655.319255	5965.580474
655.661622	5946.116579
656.003938	5938.854797
656.346203	5897.895422
656.688416	5933.707779
657.030577	5887.366972
657.372687	5857.394792
657.714746	5839.387790
658.056753	5883.853288
658.398708	5821.035470
658.740612	5818.504810
659.082465	5863.061049
659.424266	5855.393454
659.766016	5855.423701
660.107715	5825.675852
660.449362	5845.991702
660.790958	5838.775290
661.132503	5822.636036
661.473996	5862.831676
661.815438	5845.298543
662.156829	5845.026321
662.498168	5837.325958
662.839456	5814.655889
663.180693	5853.563515
663.521879	5852.051169
663.863013	5837.290670
664.204097	5855.766499
664.545129	5902.921452
664.886110	5895.442900
665.227040	5931.724085
665.567918	5895.523559
665.908746	5922.788639
666.249522	5929.896666
666.590248	5914.742958
666.930922	5942.993584
667.271545	5956.488753
667.612118	5958.492612
667.952639	5931.164517
668.293109	5947.187824
668.633528	5911.025107
668.973896	5913.230612
669.314213	5905.177368
669.654480	5886.018463
669.994695	5878.391198
670.334859	5865.566502
670.674973	5862.440987
671.015035	5867.852665
671.355047	5862.292273
671.695008	5850.808524
672.034918	5823.021684
672.374777	5837.925856
672.714585	5817.186549
673.054342	5825.176778
673.394049	5816.153112
673.733705	5847.352813
674.073310	5836.463921
674.412864	5792.043794
674.752368	5787.526920
675.091820	5790.357528
675.431223	5726.334874
675.770574	5728.787395
676.109875	5676.011556
676.449125	5686.313154
676.788324	5650.132792
677.127473	5594.186067
677.466571	5588.618113
677.805619	5576.723510
678.144616	5557.801539
678.483562	5540.719589
678.822458	5510.326473
679.161303	5502.865565
679.500098	5491.792671
679.838842	5481.501155
680.177535	5486.829655
680.516179	5497.622765
680.854771	5510.444940
681.193314	5589.601138
681.531805	5696.488723
681.870247	5845.225446
682.208638	5949.068174
682.546978	5962.424712
682.885268	5941.647596
683.223508	5853.470253
683.561697	5799.194671
683.899836	5771.652327
684.237925	5722.443103
684.575963	5691.198032
684.913951	5651.897196
685.251889	5711.612184
685.589776	5683.258214
685.927614	5651.105735
686.265401	5724.845213
686.603137	5704.103386
686.940824	5785.628926
687.278460	5808.114992
687.616046	5814.038348
687.953582	5880.180807
688.291068	5865.833683
688.628504	5928.883394
688.965889	5886.366303
689.303224	5834.749929
689.640510	5782.941991
689.977745	5707.982553
690.314930	5614.665755
690.652065	5557.672990
690.989150	5469.982119
691.326185	5387.957504
691.663170	5334.929607
692.000105	5258.563688
692.336990	5185.227503
692.673825	5158.832021
693.010610	5085.057255
693.347345	5019.723901
693.684030	5003.647662
694.020665	4959.058656
694.357251	4874.962127
694.693786	4885.488057
695.030272	4850.257953
695.366707	4815.990710
695.703093	4782.978714
696.039429	4803.561745
696.375716	4783.737407
696.711952	4760.729581
697.048139	4749.467643
697.384276	4729.154314
697.720363	4740.784256
698.056400	4749.442438
698.392388	4698.599881
698.728326	4680.113969
699.064214	4658.288294
699.400053	4652.725381
699.735842	4617.454948
700.071581	4594.013582
700.407270	4565.319335
700.742910	4545.857960
701.078501	4494.639837
701.414042	4493.492975
701.749533	4466.573213
702.084974	4401.900250
702.420366	4456.972336
702.755709	4399.969488
703.091002	4342.013863
703.426246	4393.375659
703.761440	4345.353628
704.096584	4309.221158
704.431679	4333.549766
704.766725	4317.574349
705.101721	4302.788645
705.436668	4334.621011
705.771565	4281.018422
706.106413	4309.793328
706.441212	4342.354141
706.775961	4348.847147
707.110661	4329.542049
707.445311	4360.678735
707.779913	4377.291858
708.114465	4392.627048
708.448967	4414.893824
708.783421	4476.106035
709.117825	4517.879556
709.452180	4524.160834
709.786485	4564.913522
710.120742	4654.235206
710.454949	4635.827433
710.789107	4705.082804
711.123216	4771.971354
711.457275	4766.819295
711.791286	4844.899206
712.125247	4856.594683
712.459159	4760.643882
712.793023	4835.638607
713.126837	4795.889109
713.460602	4789.375938
713.794318	4706.416190
714.127985	4719.659301
714.461602	4633.246362
714.795171	4604.836940
715.128691	4537.827402
715.462162	4483.461078
715.795584	4431.600208
716.128957	4410.160181
716.462281	4361.888612
716.795556	4337.817103
717.128782	4298.695228
717.461960	4233.447574
717.795088	4235.350610
718.128167	4196.750495
718.461198	4140.864263
718.794180	4135.271103
719.127113	4113.808390
719.459997	4092.194443
719.792833	4052.336560
720.125619	4044.432031
720.458357	4007.203110
720.791046	4011.868698
721.123686	3984.061693
721.456278	3943.480405
721.788821	3957.542703
722.121315	3931.389197
722.453761	3907.663007
722.786158	3919.706323
723.118506	3945.421249
723.450805	3892.204308
723.783056	3917.137855
724.115259	3932.536060
724.447412	3938.623253
724.779518	3931.200154
725.111574	3933.829116
725.443582	3964.406234
725.775542	3951.591621
726.107453	4003.515506
726.439315	4002.872759
726.771129	4016.350284
727.102895	4049.369841
727.434612	4097.938838
727.766281	4110.982824
728.097901	4113.785705
728.429473	4116.744863
728.760996	4119.638485
729.092471	4116.785192
729.423897	4101.802883
729.755276	4107.900158
730.086606	4109.087350
730.417887	4142.646311
730.749120	4207.899006
731.080305	4271.296557
731.411442	4300.144560
731.742530	4268.692801
732.073570	4273.544912
732.404562	4326.966019
732.735506	4324.233714
733.066401	4284.088485
733.397249	4218.137590
733.728048	4144.224192
734.058798	4057.382755
734.389501	3989.488495
734.720156	3921.604318
735.050762	3881.446486
735.381320	3876.107904
735.711831	3824.121005
736.042293	3796.145122
736.372707	3818.684121
736.703073	3788.709420
737.033391	3778.392699
737.363661	3796.019093
737.693883	3824.068073
738.024056	3830.619052
738.354182	3823.493382
738.684260	3890.714648
739.014290	3909.926485
739.344272	3906.369951
739.674207	3948.052731
740.004093	3955.085141
740.333931	3947.291517
740.663722	3948.075417
740.993464	3950.217907
741.323159	3921.468207
741.652806	3893.280595
741.982405	3864.520812
742.311956	3834.336903
742.641460	3824.945234
742.970915	3799.207623
743.300323	3760.917539
743.629683	3725.881520
743.958996	3716.467165
744.288260	3689.340716
744.617477	3657.866272
744.946647	3644.103922
745.275768	3617.567288
745.604842	3616.100312
745.933869	3569.431831
746.262847	3558.167372
746.591778	3597.367385
746.920662	3567.594330
747.249498	3542.363355
747.578286	3582.674942
747.907027	3602.925257
748.235720	3601.221347
748.564365	3623.709934
748.892963	3627.274030
749.221514	3611.671659
749.550017	3583.786516
749.878473	3582.130497
750.206881	3553.474058
750.535242	3550.035991
750.863555	3548.810991
751.191821	3546.824776
751.520039	3527.922970
751.848210	3502.891120
752.176334	3539.119373
752.504411	3546.802091
752.832440	3505.401615
753.160421	3485.879747
753.488356	3495.152949
753.816243	3510.714991
754.144082	3464.066674
754.471875	3449.283490
754.799620	3469.758137
755.127318	3462.266982
755.454969	3459.222125
755.782572	3467.255204
756.110129	3443.002213
756.437638	3432.360337
756.765100	3445.842903
757.092515	3457.465283
757.419882	3464.298567
757.747203	3434.946449
758.074477	3438.563477
758.401703	3455.952937
758.728882	3479.296000
759.056014	3481.632575
759.383099	3487.089624
759.710138	3481.607369
760.037129	3502.195441
760.364073	3530.577137
760.690970	3518.818646
761.017820	3492.183710
761.344623	3512.328160
761.671379	3558.918504
761.998088	3607.986575
762.324751	3737.219075
762.651366	3983.779389
762.977935	4453.549392
763.304456	4894.287391
763.630931	4988.365404
763.957359	4632.570847
764.283740	4289.679125
764.610074	4098.258951
764.936362	3900.257552
765.262602	3740.493304
765.588796	3630.278557
765.914943	3542.673386
766.241044	3452.275415
766.567097	3426.293308
766.893104	3377.752038
767.219064	3346.237265
767.544978	3318.936896
767.870845	3266.337497
768.196665	3244.350504
768.522438	3254.090013
768.848165	3248.532141
769.173846	3212.845813
769.499479	3198.168494
769.825066	3179.377593
770.150607	3162.729182
770.476101	3177.351049
770.801548	3174.011285
771.126949	3125.686784
771.452303	3112.899897
771.777611	3119.314765
772.102872	3121.255610
772.428087	3100.291971
772.753256	3087.893253
773.078378	3080.860844
773.403453	3047.427912
773.728482	3037.295192
774.053465	3057.883265
774.378401	3045.131666
774.703291	3013.500946
775.028135	3014.685617
775.352932	3008.479957
775.677683	2998.218688
776.002388	2993.941269
776.327046	2997.739779
776.651658	2985.482213
776.976224	2973.060810
777.300743	2975.538537
777.625216	2962.854994
777.949643	2956.130095
778.274024	2959.646300
778.598359	2950.103395
778.922647	2954.716051
779.246889	2951.736729
779.571086	2940.283228
779.895236	2933.265942
780.219339	2942.859257
780.543397	2956.850980
780.867409	2958.895168
781.191374	2951.056173
781.515294	2947.539969
781.839167	2948.938889
782.162995	2941.593928
782.486776	2951.971143
782.810511	2949.228755
783.134201	2936.280552
783.457844	2942.448403
783.781441	2932.456836
784.104993	2912.829104
784.428498	2912.743404
784.751958	2925.147163
785.075372	2917.988725
785.398739	2906.474729
785.722061	2922.445105
786.045337	2932.058585
786.368568	2915.269022
786.691752	2908.327353
787.014891	2956.379632
787.337983	2986.061946
787.661030	3010.478774
787.984031	3081.571647
788.306987	3126.579068
788.629897	3121.159828
788.952760	3103.551077
789.275579	3089.370312
789.598351	3030.116589
789.921078	2984.163951
790.243759	2978.737149
790.566395	2961.103193
790.888984	2934.647218
791.211529	2921.388983
791.534027	2908.193763
791.856480	2899.444840
792.178888	2885.468241
792.501249	2875.582539
792.823566	2870.715305
793.145836	2873.462733
793.468062	2868.590458
793.790241	2865.137268
794.112375	2869.659183
794.434464	2883.776934
794.756507	2888.442522
795.078505	2894.570045
795.400457	2908.317271
795.722364	2943.219700
796.044226	2969.123669
796.366042	2969.073257
796.687812	2956.651854
797.009538	2978.401913
797.331218	2969.819348
797.652852	2952.145063
797.974442	2934.639656
798.295986	2932.408945
798.617484	2925.691608
798.938938	2911.513363
799.260346	2894.315466
799.581709	2891.918398
799.903026	2882.950185
800.224299	2877.679659
800.545526	2867.821682
800.866708	2851.168231
801.187845	2841.912672
801.508936	2844.760924
801.829983	2851.931965
802.150984	2838.751869
802.471940	2826.509427
802.792851	2824.533294
803.113717	2823.726710
803.434538	2830.108810
803.755314	2822.524394
804.076045	2818.486430
804.396731	2817.344609
804.717372	2816.558189
805.037967	2810.675162
805.358518	2816.472489
805.679024	2831.442196
805.999485	2827.111844
806.319901	2831.043944
806.640272	2823.356185
806.960598	2827.023624
807.280879	2836.914368
807.601115	2842.752024
807.921306	2834.184583
808.241453	2829.312308
808.561554	2835.389419
808.881611	2834.623164
809.201623	2830.774243
809.521590	2828.165446
809.841513	2826.252328
810.161390	2826.673264
810.481223	2822.960454
810.801011	2812.300934
811.120755	2808.459575
811.440453	2812.328661
811.760107	2811.484267
812.079716	2811.181798
812.399281	2797.744603
812.718801	2793.850311
813.038276	2788.461318
813.357707	2796.164201
813.677093	2802.483287
813.996434	2795.034982
814.315731	2789.862759
814.634983	2784.998045
814.954191	2789.106586
815.273354	2803.249543
815.592473	2812.149700
815.911547	2814.960143
816.230577	2821.276709
816.549562	2829.952535
816.868502	2829.052689
817.187399	2838.918227
817.506250	2854.318952
817.825058	2847.851151
818.143821	2859.685260
818.462539	2875.781664
818.781213	2903.150088
819.099843	2935.287444
819.418429	2995.191475
819.736970	3058.594067
820.055466	3127.073101
820.373919	3238.328846
820.692327	3375.085268
821.010691	3541.904610
821.329011	3986.972960
821.647286	4883.151482
821.965517	6259.711636
822.283704	7002.644122
822.601847	6987.588717
822.919945	6351.836202
823.237999	5846.140416
823.556010	5267.544504
823.873976	4715.039083
824.191897	4306.947597
824.509775	4012.181249
824.827609	3742.093870
825.145398	3616.143162
825.463144	3605.108076
825.780845	3695.319524
826.098502	3802.320535
826.416116	4081.827310
826.733685	4398.799941
827.051210	4462.207574
827.368692	4345.719111
827.686129	4083.221189
828.003522	3754.021240
828.320872	3500.342817
828.638177	3304.244453
828.955439	3167.815707
829.272656	3085.057604
829.589830	3015.237624
829.906960	2969.766416
830.224046	2924.224632
830.541088	2888.760115
830.858086	2872.671272
831.175041	2856.058150
831.491952	2856.529498
831.808819	2869.835623
832.125642	2894.842267
832.442421	2936.900613
832.759157	3018.826925
833.075849	3200.747044
833.392497	3477.052686
833.709101	3681.894932
834.025662	3633.492293
834.342179	3473.705360
834.658653	3295.682053
834.975083	3147.157058
835.291469	3049.953530
835.607811	2966.489666
835.924110	2908.851633
836.240366	2856.393387
836.556578	2813.339412
836.872746	2792.216977
837.188871	2768.843668
837.504952	2751.547469
837.820990	2742.677559
838.136984	2731.292113
838.452935	2725.300701
838.768842	2720.380535
839.084706	2735.776219
839.400526	2816.422078
839.716303	2949.931996
840.032037	3029.569624
840.347727	3014.572191
840.663373	2957.110599
840.978977	2880.880791
841.294537	2808.401602
841.610054	2758.836977
841.925527	2736.907958
842.240957	2715.813250
842.556344	2693.634693
842.871687	2677.452590
843.186987	2671.090653
843.502244	2666.321722
843.817458	2658.853252
844.132629	2650.653816
844.447756	2639.696868
844.762840	2634.869963
845.077881	2635.263173
845.392879	2636.057155
845.707833	2630.564818
846.022745	2623.182048
846.337613	2625.984929
846.652438	2623.217336
846.967221	2624.444857
847.281960	2620.732047
847.596656	2621.793210
847.911309	2619.575102
848.225919	2617.253651
848.540485	2616.283229
848.855009	2615.312807
849.169490	2613.276181
849.483928	2615.113681
849.798323	2611.297528
850.112675	2613.659308
850.426984	2613.072014
850.741251	2612.333485
851.055474	2611.025305
851.369654	2615.529576
851.683792	2612.756942
851.997887	2609.916252
852.311938	2609.654112
852.625947	2611.952878
852.939914	2613.891201
853.253837	2616.888167
853.567718	2607.579677
853.881555	2610.004472
854.195350	2615.658126
854.509103	2612.479678
854.822812	2609.003803
855.136479	2608.605552
855.450103	2612.517487
855.763685	2614.849021
856.077224	2611.105964
856.390720	2607.587238
856.704173	2615.010337
857.017584	2618.224073
857.330953	2615.088475
857.644278	2615.877416
857.957561	2620.600977
858.270802	2615.131325
858.584000	2615.169134
858.897155	2619.585185
859.210268	2617.727519
859.523339	2614.884309
859.836367	2609.979266
860.149352	2611.231993
860.462295	2610.790892
860.775195	2606.200921
861.088054	2606.967177
861.400869	2606.246292
861.713642	2602.518358
862.026373	2607.899790
862.339062	2607.685541
862.651708	2617.288939
862.964312	2616.525204
863.276873	2612.704010
863.589392	2615.315327
863.901869	2620.633745
864.214303	2624.187758
864.526696	2627.409055
864.839045	2628.283696
865.151353	2631.933491
865.463619	2632.583800
865.775842	2631.368882
866.088023	2631.068933
866.400162	2632.951804
866.712258	2630.063223
867.024313	2629.856536
867.336325	2624.555762
867.648296	2626.620115
867.960224	2636.205869
868.272110	2630.612709
868.583954	2628.097173
868.895755	2631.265538
869.207515	2633.254273
869.519233	2639.165026
869.830909	2637.148565
870.142542	2629.574231
870.454134	2631.147071
870.765684	2639.013792
871.077191	2638.504635
871.388657	2643.676859
871.700081	2642.787095
872.011463	2640.992444
872.322803	2642.449338
872.634101	2644.014616
872.945357	2651.422592
873.256571	2659.541370
873.567744	2657.393838
873.878874	2655.959630
874.189963	2655.248827
874.501010	2660.090856
874.812015	2666.525889
875.122979	2665.321053
875.433900	2658.180258
875.744780	2656.935093
876.055618	2661.401556
876.366415	2665.386588
876.677169	2663.922133
876.987882	2659.657317
877.298554	2659.024652
877.609183	2671.347752
877.919771	2678.332271
878.230317	2685.193281
878.540822	2695.951104
878.851285	2707.933926
879.161707	2731.657596
879.472087	2768.750406
879.782425	2815.902839
880.092722	2929.553132
880.402977	3122.152935
880.713191	3377.996534
881.023363	3671.857994
881.333494	3862.839587
881.643583	4032.151780
881.953631	4034.979868
882.263637	3857.324565
882.573602	3634.860966
882.883526	3506.366996
883.193408	3391.796693
883.503248	3290.784572
883.813048	3173.360976
884.122806	3063.851991
884.432522	2975.389823
884.742197	2910.915986
885.051831	2870.896786
885.361424	2836.337156
885.670975	2803.960345
885.980485	2771.157557
886.289954	2753.609301
886.599382	2739.995665
886.908768	2729.835219
887.218113	2709.174050
887.527417	2696.669468
887.836680	2687.005576
888.145901	2685.962057
888.455082	2676.898063
888.764221	2665.825168
889.073319	2654.722027
889.382376	2653.847387
889.691392	2656.050371
890.000366	2658.263437
890.309300	2654.074239
890.618193	2658.742347
890.927044	2661.454488
891.235855	2662.167811
891.544625	2658.767553
891.853353	2659.243942
892.162041	2667.211486
892.470687	2687.910463
892.779293	2695.585620
893.087858	2706.608103
893.396381	2730.014180
893.704864	2770.623195
894.013306	2844.261850
894.321707	2937.059410
894.630068	2983.793427
894.938387	3006.138341
895.246665	2997.938904
895.554903	2953.881740
895.863100	2909.975811
896.171256	2854.772656
896.479371	2794.019190
896.787446	2755.149373
897.095480	2732.370920
897.403473	2730.727503
897.711425	2711.697148
898.019336	2697.266845
898.327207	2683.093641
898.635038	2679.794206
898.942827	2678.705316
899.250576	2668.262566
899.558284	2657.197233
899.865952	2650.295894
900.173579	2648.450832
900.481165	2647.886222
900.788711	2639.205355
901.096216	2634.708646
901.403681	2628.664303
901.711105	2631.154633
902.018489	2627.698922
902.325832	2632.674541
902.633135	2633.869294
902.940397	2647.818167
903.247619	2683.156655
903.554800	2753.561410
903.861941	2882.554454
904.169041	3009.100019
904.476101	3068.971282
904.783121	3064.141857
905.090100	3006.897035
905.397039	2930.883996
905.703938	2859.503778
906.010796	2794.583799
906.317614	2744.073958
906.624391	2708.402754
906.931129	2682.881912
907.237826	2657.827378
907.544483	2639.175108
907.851099	2629.042389
908.157675	2618.718106
908.464211	2610.506067
908.770707	2598.399736
909.077163	2593.827409
909.383578	2593.333376
909.689954	2590.371698
909.996289	2589.358426
910.302584	2588.869434
910.608839	2583.561099
910.915054	2584.692838
911.221229	2585.965730
911.527363	2592.080649
911.833458	2588.279619
912.139513	2591.087542
912.445527	2590.989239
912.751502	2598.326639
913.057436	2602.399891
913.363331	2606.934409
913.669186	2620.381687
913.975000	2633.400467
914.280775	2646.220121
914.586510	2669.432114
914.892205	2703.091898
915.197859	2768.536157
915.503475	2856.521936
915.809050	2924.345620
916.114585	2935.617640
916.420081	2948.039043
916.725536	2959.870631
917.030952	2931.292330
917.336328	2885.929507
917.641665	2836.538802
917.946961	2787.944600
918.252218	2754.834301
918.557435	2728.431258
918.862612	2704.952084
919.167750	2689.866431
919.472848	2670.097546
919.777906	2655.019455
920.082925	2642.456900
920.387904	2632.172946
920.692843	2626.357975
920.997743	2623.487038
921.302603	2613.671911
921.607423	2608.794595
921.912204	2604.459202
922.216946	2600.632967
922.521647	2600.012905
922.826310	2595.717842
923.130932	2592.584765
923.435516	2585.461614
923.740059	2582.220152
924.044564	2581.950451
924.349028	2581.469020
924.653454	2573.229254
924.957840	2568.447720
925.262186	2567.963769
925.566493	2571.099367
925.870761	2562.562173
926.174989	2566.751372
926.479178	2565.241546
926.783328	2563.877914
927.087438	2561.354817
927.391509	2561.503531
927.695541	2559.106462
927.999533	2557.508416
928.303486	2557.417675
928.607400	2554.425751
928.911275	2555.817109
929.215110	2554.241748
929.518906	2553.974567
929.822663	2554.486244
930.126381	2555.716286
930.430060	2553.906512
930.733699	2554.259393
931.037299	2557.795762
931.340861	2556.951369
931.644383	2556.512788
931.947866	2554.665205
932.251309	2553.185627
932.554714	2555.413817
932.858080	2557.652089
933.161407	2554.604712
933.464694	2554.549259
933.767943	2553.447767
934.071153	2552.923487
934.374323	2553.725030
934.677455	2554.650082
934.980548	2549.203115
935.283602	2552.172355
935.586617	2549.838301
935.889593	2552.764690
936.192530	2550.145811
936.495428	2552.326110
936.798287	2554.566903
937.101108	2554.889537
937.403890	2561.460681
937.706632	2560.016390
938.009336	2563.482183
938.312002	2567.026115
938.614628	2571.396795
938.917216	2573.458627
939.219765	2573.004923
939.522275	2574.988617
939.824747	2573.002402
940.127179	2567.447051
940.429573	2567.429407
940.731929	2566.882442
941.034246	2565.319684
941.336524	2566.766495
941.638763	2566.562328
941.940964	2564.833213
942.243126	2563.706515
942.545250	2560.848181
942.847335	2558.904816
943.149381	2559.834909
943.451389	2559.159394
943.753359	2558.304918
944.055290	2559.262738
944.357182	2556.958930
944.659036	2553.846018
944.960851	2554.095555
945.262628	2555.560010
945.564367	2556.923642
945.866067	2554.519012
946.167729	2554.647561
946.469352	2556.628735
946.770937	2556.749722
947.072484	2552.999104
947.373992	2554.428271
947.675462	2555.824671
947.976893	2555.464228
948.278286	2554.229146
948.579641	2553.588919
948.880958	2549.906356
949.182236	2552.807540
949.483476	2553.465411
949.784678	2551.640513
950.085841	2550.299566
950.386967	2552.371480
950.688054	2551.406099
950.989103	2552.237890
951.290114	2556.911039
951.591087	2555.945658
951.892021	2557.158056
952.192917	2559.265258
952.493776	2558.763663
952.794596	2558.768705
953.095378	2561.649724
953.396122	2557.899106
953.696828	2558.012532
953.997496	2558.630073
954.298126	2555.489434
954.598718	2555.164280
954.899272	2552.268137
955.199788	2555.786862
955.500266	2550.982642
955.800706	2549.523228
956.101108	2545.583567
956.401472	2543.746066
956.701798	2538.621733
957.002087	2542.087527
957.302337	2540.537372
957.602550	2544.610624
957.902724	2543.955274
958.202861	2545.271015
958.502960	2542.011909
958.803022	2541.638864
959.103045	2540.282793
959.403031	2541.233051
959.702979	2539.602238
960.002889	2542.755479
960.302762	2539.088040
960.602596	2542.269008
960.902393	2535.846578
961.202153	2538.790612
961.501875	2535.942360
961.801559	2538.241126
962.101205	2539.196425
962.400814	2537.603420
962.700385	2536.673327
962.999918	2538.601569
963.299414	2538.979655
963.598873	2539.786240
963.898293	2534.724921
964.197677	2539.193904
964.497022	2536.343132
964.796331	2537.056455
965.095601	2534.987061
965.394835	2539.443441
965.694030	2536.227185
965.993189	2537.527803
966.292309	2533.668800
966.591393	2536.771630
966.890439	2537.981507
967.189447	2538.846065
967.488419	2535.864222
967.787353	2536.441434
968.086249	2533.300795
968.385108	2538.155427
968.683930	2536.887576
968.982714	2533.666279
969.281462	2533.956145
969.580172	2535.488656
969.878844	2539.143493
970.177480	2536.479243
970.476078	2538.886394
970.774639	2538.299099
971.073162	2538.069727
971.371649	2534.321629
971.670098	2532.098480
971.968510	2534.036804
972.266885	2534.735004
972.565223	2538.281455
972.863524	2536.902700
973.161788	2538.906558
973.460014	2536.885056
973.758204	2538.130221
974.056356	2537.212731
974.354471	2536.685930
974.652550	2536.083512
974.950591	2538.052083
975.248595	2536.282638
975.546563	2537.174922
975.844493	2536.718698
976.142386	2540.522248
976.440243	2539.322454
976.738062	2538.384799
977.035845	2536.108718
977.333590	2537.119469
977.631299	2536.655683
977.928971	2538.001671
978.226606	2533.320960
978.524204	2536.874973
978.821765	2536.975797
979.119290	2536.237267
979.416777	2536.005374
979.714228	2536.479243
980.011642	2536.023018
980.309020	2538.299099
980.606360	2536.829603
980.903664	2536.353214
981.200931	2539.269522
981.498162	2538.001671
981.795356	2538.669624
982.092513	2542.805891
982.389633	2544.000644
982.686717	2547.537014
982.983764	2548.242775
983.280775	2551.970709
983.577749	2552.595812
983.874686	2551.479196
984.171587	2546.397713
984.468451	2546.783361
984.765279	2544.343443
985.062070	2540.280273
985.358824	2538.727598
985.655543	2538.702392
985.952224	2538.440252
986.248869	2536.806918
986.545478	2532.295085
986.842050	2534.576207
987.138586	2531.236443
987.435086	2530.606299
987.731549	2528.816689
988.027975	2534.382123
988.324366	2533.862884
988.620719	2530.082019
988.917037	2534.586290
989.213318	2531.254087
989.509563	2530.918850
989.805772	2533.235260
990.101944	2530.989426
990.398080	2533.623429
990.694180	2531.775846
990.990244	2529.020856
991.286271	2532.784077
991.582262	2534.886238
991.878217	2533.205013
992.174136	2530.608819
992.470019	2533.078985
992.765865	2532.912627
993.061676	2532.201824
993.357450	2533.136958
993.653188	2533.396577
993.948890	2533.482277
994.244556	2534.291382
994.540186	2532.862215
994.835780	2536.819521
995.131337	2536.254912
995.426859	2536.454037
995.722345	2536.852288
996.017795	2534.848430
996.313208	2538.296579
996.608586	2536.827082
996.903928	2537.164840
997.199234	2540.975952
997.494504	2537.487474
997.789738	2534.926567
998.084936	2533.603265
998.380099	2536.995961
998.675225	2536.065868
998.970316	2533.368851
999.265371	2534.556043
999.560390	2532.494211
999.855373	2535.491177
1000.150320	2535.715508
1000.445232	2532.342976
1000.740108	2531.128058
1001.034948	2531.465815
1001.329752	2530.618902
1001.624521	2533.121834
1001.919254	2525.963396
1002.213951	2529.184693
1002.508613	2528.426000
1002.803239	2528.978006
1003.097829	2528.153777
1003.392384	2531.493542
1003.686903	2531.054961
1003.981386	2531.985054
1004.275834	2531.138140
1004.570246	2533.252904
1004.864623	2530.656710
1005.158964	2532.746268
1005.453270	2530.777698
1005.747540	2530.881042
1006.041775	2531.281813
1006.335974	2531.400280
1006.630138	2529.020856
1006.924266	2532.211906
1007.218359	2530.661751
1007.512416	2534.102339
1007.806438	2530.805424
1008.100425	2531.448171
1008.394376	2530.127389
1008.688292	2530.737369
1008.982172	2529.285516
1009.276017	2531.501103
1009.569827	2530.364323
1009.863602	2530.596216
1010.157341	2528.476411
1010.451045	2530.583613
1010.744714	2531.105373
1011.038347	2529.993798
1011.331945	2529.567821
1011.625508	2531.521268
1011.919036	2532.388347
1012.212528	2528.877183
1012.505986	2530.097142
1012.799408	2532.849612
1013.092795	2528.748633
1013.386147	2530.444982
1013.679464	2531.629653
1013.972745	2529.509848
1014.265992	2530.306350
1014.559204	2527.518592
1014.852380	2532.511855
1015.145521	2530.601257
1015.438628	2531.304498
1015.731699	2531.276772
1016.024736	2532.348017
1016.317737	2530.770136
1016.610703	2531.178470
1016.903635	2528.786442
1017.196531	2528.804086
1017.489393	2527.589168
1017.782219	2526.966586
1018.075011	2528.171421
1018.367768	2530.830630
1018.660490	2532.978162
1018.953177	2532.978162
1019.245829	2532.978162
