Dividing Wavelength (nm)	Counts (n)	Blue Motor Position (mm): 36.800000	Red Motor Position (mm): 0.000000	
326.493990	2130.436986
326.888308	2130.436986
327.282561	2130.436986
327.676750	2096.467171
328.070874	2097.800556
328.464933	2099.567480
328.858929	2106.907400
329.252859	2113.544079
329.646726	2126.358692
330.040528	2140.025260
330.434265	2155.504123
330.827938	2171.345949
331.221547	2191.810513
331.615091	2210.314068
332.008571	2231.280227
332.401986	2249.677918
332.795338	2269.537544
333.188625	2287.436161
333.581847	2306.292597
333.975006	2324.929742
334.368100	2342.120077
334.761129	2360.966431
335.154095	2377.478730
335.546996	2399.289282
335.939833	2424.278282
336.332606	2440.505756
336.725315	2452.851542
337.117960	2459.024435
337.510540	2468.905096
337.903056	2481.245841
338.295508	2487.610298
338.687896	2495.988695
339.080220	2505.461023
339.472480	2509.693072
339.864676	2514.761952
340.256807	2521.184382
340.648875	2523.964578
341.040879	2523.067253
341.432818	2524.977850
341.824694	2528.040351
342.216506	2528.115969
342.608253	2530.810465
342.999937	2526.543129
343.391557	2527.334590
343.783113	2527.377440
344.174605	2524.617408
344.566033	2527.442975
344.957397	2523.246214
345.348697	2519.583816
345.739934	2516.843949
346.131106	2518.447036
346.522215	2513.789009
346.913260	2515.765142
347.304241	2513.768845
347.695159	2511.364214
348.086012	2507.537979
348.476802	2507.989162
348.867528	2506.799450
349.258191	2504.833400
349.648789	2503.303409
350.039324	2501.160919
350.429796	2503.147134
350.820203	2498.458861
351.210548	2500.311485
351.600828	2496.278562
351.991045	2496.071874
352.381198	2493.142964
352.771288	2497.735455
353.161314	2494.330156
353.551276	2496.240753
353.941175	2495.040958
354.331010	2498.181597
354.720782	2493.450474
355.110490	2494.602378
355.500135	2494.065495
355.889717	2494.423417
356.279235	2496.112203
356.668689	2496.470125
357.058080	2494.189003
357.447408	2494.930053
357.836672	2493.694970
358.225873	2494.219250
358.615010	2493.770587
359.004084	2498.670589
359.393095	2496.742348
359.782043	2499.613285
360.170927	2497.823675
360.559748	2501.423059
360.948505	2501.193687
361.337199	2501.294510
361.725830	2501.569253
362.114398	2502.794253
362.502903	2501.433141
362.891344	2505.665190
363.279722	2505.052690
363.668037	2504.188132
364.056289	2504.412463
364.444478	2505.327433
364.832603	2502.491784
365.220665	2505.035046
365.608665	2508.253822
365.996601	2506.978411
366.384474	2509.423370
366.772284	2507.389265
367.160031	2508.392454
367.547715	2507.424553
367.935336	2508.863802
368.322893	2507.288442
368.710388	2507.590911
369.097820	2510.885305
369.485189	2511.409585
369.872495	2508.556292
370.259738	2508.911693
370.646918	2509.594769
371.034035	2511.429749
371.421090	2511.636437
371.808081	2513.610048
372.195010	2510.517301
372.581875	2510.603000
372.968678	2512.115346
373.355418	2511.621313
373.742096	2512.977384
374.128710	2513.763804
374.515262	2515.187930
374.901751	2514.887981
375.288177	2514.696417
375.674540	2513.370594
376.060841	2515.518125
376.447079	2515.412261
376.833254	2516.629700
377.219367	2507.686693
377.605417	2512.783299
377.991404	2511.167609
378.377329	2513.683145
378.763191	2509.932527
379.148991	2520.561800
379.534727	2517.375790
379.920402	2519.525843
380.306013	2518.089114
380.691563	2520.526512
381.077049	2522.462315
381.462474	2520.327386
381.847835	2517.895029
382.233134	2517.839577
382.618371	2519.296470
383.003545	2520.080369
383.388657	2521.812006
383.773706	2522.114475
384.158693	2523.256296
384.543618	2522.361492
384.928480	2520.743281
385.313280	2520.816378
385.698017	2522.651358
386.082692	2521.093641
386.467305	2523.664630
386.851856	2525.444157
387.236344	2525.166894
387.620770	2527.349713
388.005133	2524.798889
388.389435	2524.095648
388.773674	2526.654034
389.157851	2525.502130
389.541965	2528.942718
389.926018	2525.113962
390.310008	2526.772501
390.693936	2529.933305
391.077802	2527.485824
391.461606	2527.188396
391.845348	2531.233922
392.229027	2529.146885
392.612645	2529.222502
392.996200	2530.568490
393.379694	2530.860877
393.763125	2532.947915
394.146494	2533.177287
394.529801	2533.424304
394.913047	2532.847092
395.296230	2537.066537
395.679351	2535.135775
396.062410	2538.261291
396.445408	2538.548637
396.828343	2540.890253
397.211217	2538.594007
397.594028	2546.188505
397.976778	2546.445604
398.359466	2550.307128
398.742092	2552.527756
399.124656	2565.012174
399.507158	2572.972156
399.889598	2578.855182
400.271977	2593.219950
400.654294	2600.451485
401.036549	2609.283587
401.418742	2623.013169
401.800874	2640.208545
402.182944	2655.947027
402.564952	2677.576098
402.946898	2693.485979
403.328783	2713.320399
403.710606	2723.591750
404.092367	2762.963162
404.474067	2780.181223
404.855705	2802.760551
405.237282	2817.170689
405.618797	2857.326000
406.000250	2893.080384
406.381642	2934.001950
406.762972	2960.218471
407.144240	2989.245434
407.525447	3018.501771
407.906593	3066.231415
408.287677	3109.381172
408.668700	3127.015128
409.049661	3174.102025
409.430560	3224.846280
409.811399	3240.488980
410.192176	3331.454081
410.572891	3348.084848
410.953545	3428.496293
411.334138	3422.477155
411.714669	3489.375787
412.095139	3484.642143
412.475547	3587.910180
412.855894	3625.885192
413.236180	3669.644928
413.616405	3691.329451
413.996568	3776.303140
414.376670	3788.318731
414.756711	3803.613591
415.136691	3863.144577
415.516609	3947.117597
415.896466	4013.065972
416.276262	4073.864808
416.655997	4103.186679
417.035670	4263.739868
417.415283	4365.709807
417.794834	4366.266854
418.174324	4374.292371
418.553753	4345.860264
418.933121	4521.594887
419.312428	4616.020739
419.691674	4610.845995
420.070859	4744.474381
420.449983	4706.837126
420.829045	4834.070808
421.208047	4788.990290
421.586988	4883.625350
421.965867	4924.294859
422.344686	5071.728444
422.723444	4965.133246
423.102141	4831.535107
423.480777	5120.211741
423.859352	4941.638949
424.237866	5195.047670
424.616319	5207.249783
424.994712	5331.988094
425.373044	5237.902519
425.751314	5387.004726
426.129524	5220.752514
426.507673	5421.629892
426.885762	5512.675651
427.263789	5461.752435
427.641756	5361.337692
428.019662	5491.633874
428.397508	5512.758830
428.775292	5471.396162
429.153016	5575.831226
429.530679	5509.903016
429.908282	5599.365853
430.285824	5481.319674
430.663305	5757.506849
431.040726	5501.191902
431.418086	5509.696329
431.795385	5615.595847
432.172624	5632.801306
432.549802	5624.475840
432.926920	5645.131968
433.303977	5650.369727
433.680974	5693.670718
434.057910	5713.605961
434.434786	5721.132403
434.811601	5690.356159
435.188355	5927.272746
435.565050	5802.763808
435.941683	5783.836795
436.318257	5998.524414
436.694770	5981.313915
437.071222	6012.856415
437.447614	5954.031190
437.823946	5865.238827
438.200218	6021.113825
438.576429	5885.552157
438.952580	5985.520758
439.328670	6033.663777
439.704700	5941.236742
440.080670	5926.715698
440.456580	6195.628488
440.832429	6078.746816
441.208218	5928.119660
441.583947	6084.622281
441.959616	6080.528864
442.335224	6011.727196
442.710773	6148.705428
443.086261	6177.109810
443.461689	5970.719930
443.837057	6123.907993
444.212365	6276.410458
444.587612	6169.238048
444.962800	6319.431665
445.337927	6301.845600
445.712995	5913.197844
446.088002	6487.539022
446.462949	6318.778836
446.837837	6250.551860
447.212664	6425.923520
447.587431	6570.859213
447.962139	7113.158818
448.336786	8033.093777
448.711374	7772.050228
449.085901	6851.444795
449.460369	6769.939420
449.834776	6702.193874
450.209124	7096.313802
450.583412	7251.230980
450.957640	7393.028556
451.331808	7155.733882
451.705917	6711.346089
452.079965	6634.037474
452.453954	6844.470359
452.827883	6721.377985
453.201752	6816.030689
453.575562	6616.552232
453.949311	6818.221071
454.323001	6709.942127
454.696632	6778.753877
455.070202	6919.860815
455.443713	7079.330155
455.817164	7175.742222
456.190556	7257.008143
456.563888	7336.411357
456.937160	7378.681432
457.310373	7035.522528
457.683526	7052.934673
458.056619	6948.335772
458.429653	6937.409071
458.802628	6871.473299
459.175542	6978.812068
459.548398	7333.346335
459.921194	7494.569997
460.293930	7499.855647
460.666607	8022.076336
461.039224	8330.975558
461.411782	8451.774207
461.784280	8479.752611
462.156719	8369.426959
462.529099	8247.552024
462.901419	7837.791916
463.273680	7732.046152
463.645882	7741.364725
464.018024	7613.964685
464.390106	7774.225486
464.762130	8158.212695
465.134094	8627.660065
465.505999	9644.244026
465.877845	10868.578978
466.249631	11513.261897
466.621358	11127.114553
466.993026	10502.109779
467.364634	10253.966543
467.736184	9893.415658
468.107674	9559.408968
468.479105	9589.691180
468.850477	9352.446918
469.221790	9127.873596
469.593043	8801.156416
469.964238	8659.739447
470.335373	8674.361314
470.706449	8728.163028
471.077467	8713.624341
471.448425	10022.975832
471.819324	11082.865825
472.190164	11105.989598
472.560945	9860.350730
472.931667	9072.186490
473.302330	8941.368548
473.672934	8592.538346
474.043479	8946.818035
474.413965	8885.749498
474.784393	8766.727855
475.154761	8924.095034
475.525070	9007.261470
475.895321	8844.374227
476.265513	9015.629785
476.635645	9182.917955
477.005719	9185.362915
477.375734	9300.286099
477.745691	9531.503661
478.115588	9666.349486
478.485427	9917.028422
478.855207	10445.152302
479.224928	11267.729978
479.594591	11881.440047
479.964194	11699.943385
480.333739	11637.049950
480.703226	11558.067672
481.072653	11646.718883
481.442022	11888.018753
481.811333	12067.597256
482.180584	11878.879141
482.549777	11589.582445
482.918912	11420.665983
483.287988	11429.810636
483.657005	11441.639703
484.025964	11126.686055
484.394864	11263.613876
484.763706	11233.346788
485.132489	10994.247382
485.501213	10953.255239
485.869879	11033.144925
486.238487	10875.175328
486.607036	10987.409057
486.975527	10763.433112
487.343959	10950.099477
487.712333	11006.255410
488.080648	10930.489389
488.448905	10966.556324
488.817104	10914.297202
489.185244	11184.319047
489.553326	11341.315701
489.921350	11870.657019
490.289315	12928.200355
490.657222	13273.680711
491.025070	13181.634283
491.392861	13057.644583
491.760593	12675.618383
492.128267	12327.783809
492.495883	11996.766524
492.863440	11670.823160
493.230939	11333.302787
493.598380	11256.735222
493.965763	11128.969698
494.333088	11028.154183
494.700354	10946.921030
495.067563	11012.249342
495.434713	10840.449340
495.801805	10970.622014
496.168839	10889.363656
496.535815	10825.552730
496.902733	10835.146046
497.269593	10761.131825
497.636395	10860.510612
498.003139	10849.115083
498.369825	10713.692047
498.736453	10878.416790
499.103023	10802.955758
499.469535	10824.746146
499.835989	10819.158027
500.202385	10785.352049
500.568723	10635.682712
500.935003	10860.084634
501.301226	10662.420992
501.667390	10918.514128
502.033497	11017.482060
502.399546	10876.765812
502.765537	10777.361820
503.131470	10861.768379
503.497345	11027.834069
503.863163	10644.328291
504.228923	10957.817484
504.594625	11017.814776
504.960269	10767.420665
505.325856	10978.645011
505.691385	10775.020204
506.056856	10928.092320
506.422270	10952.534354
506.787625	10847.247336
507.152924	10963.836621
507.518164	10939.155132
507.883347	10866.403720
508.248472	10785.599065
508.613540	11020.219407
508.978550	10905.071891
509.343503	10878.076512
509.708398	10997.173772
510.073236	11107.045720
510.438016	11113.591658
510.802738	11066.870244
511.167403	11122.557350
511.532010	11018.848213
511.896561	11249.009653
512.261053	11313.791001
512.625488	11180.197903
512.989866	11169.727427
513.354186	11159.544296
513.718449	11063.117105
514.082655	11248.170301
514.446803	11147.339662
514.810894	11267.717375
515.174927	11138.089145
515.538904	11163.514205
515.902822	11300.668877
516.266684	11192.286590
516.630488	11132.997580
516.994235	11191.772392
517.357925	11260.528690
517.721558	11344.993223
518.085133	11361.782785
518.448651	11375.124199
518.812112	11249.140723
519.175516	11272.327510
519.538863	11386.126517
519.902152	11306.554424
520.265385	11467.135339
520.628560	11375.068746
520.991678	11360.083917
521.354739	11416.461661
521.717743	11351.639984
522.080690	11333.620379
522.443580	11469.214815
522.806413	11423.577249
523.169189	11455.520521
523.531908	11515.979079
523.894569	11335.142808
524.257174	11334.414361
524.619722	11457.995727
524.982213	11405.129147
525.344647	11452.473143
525.707025	11398.563044
526.069345	11499.549958
526.431608	11409.169632
526.793815	11522.439317
527.155964	11309.017028
527.518057	11362.228927
527.880093	11316.447689
528.242072	11379.424303
528.603995	11285.603389
528.965860	11214.013963
529.327669	11262.502302
529.689421	11208.357789
530.051117	11182.718480
530.412755	11283.798656
530.774337	11170.718013
531.135862	11148.310085
531.497331	11173.089876
531.858743	11030.284070
532.220098	11198.209946
532.581396	11072.551625
532.942638	11051.015815
533.303824	11005.882365
533.664953	11025.106805
534.026025	10942.938518
534.387040	11041.775380
534.747999	11041.977027
535.108902	11098.248906
535.469748	10861.349964
535.830537	10968.512292
536.191270	10947.251225
536.551947	10965.069183
536.912567	10959.748246
537.273131	10894.591332
537.633638	10870.809689
537.994089	10865.334996
538.354483	10804.616818
538.714821	10953.824890
539.075103	10961.497526
539.435328	10920.727194
539.795497	10751.740156
540.155609	10908.424258
540.515665	10994.587660
540.875665	10731.197454
541.235609	10801.708073
541.595496	10799.525253
541.955328	10948.544281
542.315102	10835.884575
542.674821	10788.999324
543.034483	10785.465475
543.394090	10792.840683
543.753640	10721.888963
544.113134	10940.231418
544.472571	10791.408995
544.831953	10939.024062
545.191278	10748.733107
545.550548	10775.804103
545.909761	10909.019114
546.268918	10885.262677
546.628019	10968.923146
546.987064	10831.576909
547.346053	10751.735114
547.704986	10855.716474
548.063863	10842.700215
548.422684	10832.741416
548.781449	10750.305947
549.140158	10856.059273
549.498811	10729.294418
549.857408	10581.177756
550.215949	10811.377006
550.574434	10666.839563
550.932864	10755.238716
551.291237	10822.830507
551.649555	10774.087591
552.007817	10781.351893
552.366022	10741.156253
552.724173	10746.083981
553.082267	10724.424663
553.440305	10860.624038
553.798288	10662.922587
554.156215	10818.653911
554.514086	10799.681529
554.871902	10640.423917
555.229661	10674.635708
555.587365	10654.506380
555.945014	10543.031345
556.302606	10674.996150
556.660143	10568.259800
557.017625	10722.624972
557.375050	10623.331885
557.732421	10750.762172
558.089735	10661.523666
558.446994	10671.895840
558.804197	10705.611077
559.161345	10707.052847
559.518437	10555.856041
559.875474	10645.429783
560.232455	10669.307208
560.589381	10619.982038
560.946251	10621.633016
561.303065	10720.908459
561.659825	10658.761114
562.016528	10593.631927
562.373177	10469.816147
562.729770	10590.985321
563.086307	10504.602629
563.442789	10595.986146
563.799216	10473.806221
564.155587	10525.422595
564.511904	10481.710750
564.868164	10467.645931
565.224370	10483.102108
565.580520	10401.858873
565.936615	10412.354555
566.292654	10277.039904
566.648638	10417.405791
567.004567	10369.827381
567.360441	10358.883036
567.716260	10260.628427
568.072023	10356.785916
568.427732	10309.313371
568.783385	10220.155524
569.138982	10287.901070
569.494525	10299.992277
569.850013	10180.527013
570.205445	10258.685063
570.560823	10160.559003
570.916145	10078.458771
571.271412	10147.066355
571.626625	10091.893446
571.981782	10068.086597
572.336884	10040.261949
572.691931	10045.562722
573.046923	9995.393159
573.401860	9949.185943
573.756743	9882.930058
574.111570	9931.879662
574.466342	9916.524307
574.821059	9940.621022
575.175722	9834.444240
575.530330	9843.782978
575.884882	9834.933232
576.239380	9754.698227
576.593823	9735.872038
576.948211	9751.303010
577.302544	9642.522472
577.656823	9660.267333
578.011047	9646.653697
578.365216	9626.163928
578.719330	9551.741373
579.073389	9563.882992
579.427394	9509.582204
579.781344	9490.146035
580.135239	9439.815155
580.489080	9444.412688
580.842866	9350.770734
581.196597	9351.665539
581.550273	9393.388649
581.903895	9359.920428
582.257463	9423.176827
582.610975	9303.444382
582.964434	9334.094597
583.317837	9251.023944
583.671186	9236.210513
584.024481	9223.269871
584.377721	9146.901432
584.730906	9123.361764
585.084037	9158.662443
585.437113	9087.599818
585.790135	9113.448335
586.143103	9009.479578
586.496016	8985.902101
586.848874	9041.379999
587.201679	9029.462712
587.554428	8914.118591
587.907124	8965.142630
588.259765	8936.309750
588.612352	8936.395450
588.964884	8817.507398
589.317362	8825.666506
589.669786	8827.635076
590.022155	8872.539154
590.374470	8887.796206
590.726731	8826.026948
591.078937	8682.991769
591.431090	8795.396897
591.783188	8661.085435
592.135232	8659.656268
592.487222	8656.858428
592.839157	8709.500677
593.191038	8645.954412
593.542866	8595.038758
593.894639	8494.893717
594.246358	8542.020943
594.598022	8557.640958
594.949633	8457.886606
595.301190	8427.228829
595.652692	8456.384342
596.004141	8573.225686
596.355535	8346.749328
596.706876	8329.533788
597.058162	8258.922346
597.409395	8338.328081
597.760573	8398.146413
598.111698	8308.267681
598.462768	8296.110938
598.813785	8258.982840
599.164748	8231.695074
599.515657	8217.418527
599.866511	8131.229919
600.217312	8253.601408
600.568060	8115.788865
600.918753	8221.950524
601.269392	8187.509361
601.619978	8098.875794
601.970510	8165.439189
602.320988	8156.574320
602.671412	8216.586736
603.021783	8148.768093
603.372100	8122.912015
603.722363	8126.675237
604.072572	8102.558357
604.422728	8115.446067
604.772830	8044.257412
605.122878	8047.140952
605.472872	8043.143317
605.822813	8074.423677
606.172701	8019.162549
606.522534	8097.567614
606.872314	8092.692819
607.222041	8066.809014
607.571714	8116.822302
607.921333	8072.629026
608.270899	8080.495747
608.620411	8169.683841
608.969870	8078.693534
609.319276	8072.243378
609.668627	8089.786593
610.017926	8120.993856
610.367171	8170.238368
610.716362	8146.600397
611.065500	8132.381823
611.414585	8163.586565
611.763616	8148.357239
612.112594	8136.129921
612.461518	8149.110892
612.810389	8206.055766
613.159207	8144.788102
613.507971	8098.568283
613.856682	8218.552786
614.205340	8167.490939
614.553945	8249.223166
614.902496	8148.226169
615.250994	8202.458903
615.599439	8186.677570
615.947830	8201.342287
616.296169	8169.361207
616.644454	8182.644647
616.992686	8180.401334
617.340864	8242.165551
617.688990	8138.327864
618.037063	8229.567707
618.385082	8182.952158
618.733048	8263.348479
619.080961	8208.286476
619.428821	8225.476811
619.776628	8230.795228
620.124382	8182.843773
620.472083	8165.108994
620.819731	8189.886265
621.167326	8079.598422
621.514868	8091.964372
621.862357	7972.310065
622.209793	8003.124118
622.557176	7930.609640
622.904506	7900.705516
623.251783	7837.013057
623.599007	7790.475646
623.946179	7800.673900
624.293297	7754.948114
624.640363	7667.287490
624.987376	7652.602608
625.334336	7595.209072
625.681243	7547.348357
626.028097	7533.167592
626.374899	7515.962133
626.721647	7505.383272
627.068343	7436.374917
627.414987	7403.526759
627.761577	7366.572580
628.108115	7403.357880
628.454600	7295.336035
628.801032	7343.627769
629.147412	7302.103784
629.493739	7292.790253
629.840014	7232.240954
630.186236	7290.453678
630.532405	7173.587129
630.878521	7224.427165
631.224585	7179.858324
631.570597	7100.339163
631.916556	7137.396685
632.262462	7134.883670
632.608316	7095.764316
632.954117	7064.405819
633.299866	7051.646658
633.645562	7051.197996
633.991206	6967.116591
634.336797	6910.491830
634.682336	6870.656633
635.027823	6839.789648
635.373257	6833.100036
635.718639	6759.882318
636.063968	6776.170286
636.409245	6666.878071
636.754470	6670.079203
637.099642	6628.850127
637.444762	6568.928451
637.789829	6575.202167
638.134845	6520.288878
638.479808	6503.663153
638.824719	6509.664647
639.169577	6437.165293
639.514383	6452.041738
639.859137	6391.258025
640.203839	6394.333129
640.548489	6380.860645
640.893086	6364.963367
641.237632	6328.939281
641.582125	6353.391398
641.926566	6320.565925
642.270955	6331.449776
642.615292	6327.910886
642.959576	6346.021231
643.303809	6338.056208
643.647990	6342.971333
643.992118	6328.755279
644.336195	6276.876765
644.680219	6303.315096
645.024192	6290.427387
645.368112	6385.122941
645.711981	6410.003556
646.055797	6484.408466
646.399562	6438.503719
646.743274	6569.576240
647.086935	6621.681606
647.430544	6618.102387
647.774101	6637.019316
648.117606	6643.146839
648.461059	6635.726260
648.804460	6601.814418
649.147810	6506.929821
649.491108	6476.138453
649.834354	6455.424352
650.177548	6369.177771
650.520690	6289.083919
650.863781	6260.878663
651.206820	6287.223733
651.549807	6202.943203
651.892742	6148.947404
652.235626	6153.618033
652.578458	6136.112626
652.921238	6045.666764
653.263967	6083.727476
653.606644	6028.027767
653.949269	6029.179671
654.291843	5967.057532
654.634365	6016.801118
654.976836	5972.665816
655.319255	5967.286904
655.661622	5948.692608
656.003938	5944.090035
656.346203	5904.433798
656.688416	5939.346309
657.030577	5886.373865
657.372687	5864.933837
657.714746	5847.272155
658.056753	5892.546758
658.398708	5830.822870
658.740612	5821.998330
659.082465	5871.631010
659.424266	5861.644484
659.766016	5858.158527
660.107715	5837.167162
660.449362	5849.787691
660.790958	5844.481876
661.132503	5831.568961
661.473996	5865.581626
661.815438	5852.036045
662.156829	5849.205437
662.498168	5844.081104
662.839456	5823.397250
663.180693	5857.682138
663.521879	5853.997054
663.863013	5846.231157
664.204097	5865.619434
664.545129	5908.126443
664.886110	5905.119395
665.227040	5933.153252
665.567918	5905.124436
665.908746	5929.649650
666.249522	5933.571668
666.590248	5921.273773
666.930922	5946.454336
667.271545	5958.835410
667.612118	5961.539989
667.952639	5936.850938
668.293109	5955.528413
668.633528	5917.399646
668.973896	5917.341673
669.314213	5908.275158
669.654480	5895.546244
669.994695	5884.367485
670.334859	5878.736517
670.674973	5867.371235
671.015035	5873.418099
671.355047	5873.345003
671.695008	5856.280697
672.034918	5829.169371
672.374777	5839.599519
672.714585	5826.386654
673.054342	5826.699206
673.394049	5817.889790
673.733705	5855.784143
674.073310	5840.149004
674.412864	5796.694258
674.752368	5795.600328
675.091820	5793.145286
675.431223	5733.193364
675.770574	5735.350978
676.109875	5683.527916
676.449125	5690.071334
676.788324	5656.298124
677.127473	5597.969453
677.466571	5592.590542
677.805619	5581.689047
678.144616	5568.458538
678.483562	5543.464498
678.822458	5516.280076
679.161303	5508.131050
679.500098	5501.927911
679.838842	5483.237833
680.177535	5491.046580
680.516179	5501.567468
680.854771	5516.280076
681.193314	5593.369400
681.531805	5705.663623
681.870247	5854.052507
682.208638	5955.485563
682.546978	5967.985104
682.885268	5940.911588
683.223508	5858.438311
683.561697	5804.739940
683.899836	5781.164984
684.237925	5727.539710
684.575963	5694.023598
684.913951	5652.131610
685.251889	5712.524633
685.589776	5685.433472
685.927614	5656.330891
686.265401	5724.023505
686.603137	5708.421134
686.940824	5785.860819
687.278460	5810.189427
687.616046	5818.716539
687.953582	5886.114245
688.291068	5865.848807
688.628504	5930.002531
688.965889	5899.974898
689.303224	5839.975085
689.640510	5790.571777
689.977745	5716.144182
690.314930	5618.829748
690.652065	5562.983845
690.989150	5467.612776
691.326185	5393.049070
691.663170	5339.015462
692.000105	5267.564668
692.336990	5189.545251
692.673825	5160.097351
693.010610	5092.467751
693.347345	5022.708264
693.684030	5011.779043
694.020665	4968.415037
694.357251	4880.081419
694.693786	4888.555599
695.030272	4857.156772
695.366707	4816.252850
695.703093	4788.087923
696.039429	4808.270182
696.375716	4792.526659
696.711952	4764.835601
697.048139	4753.377058
697.384276	4735.231425
697.720363	4746.977313
698.056400	4755.859827
698.392388	4708.107497
698.728326	4681.374258
699.064214	4661.413809
699.400053	4657.688397
699.735842	4623.093478
700.071581	4597.247482
700.407270	4571.330911
700.742910	4551.617478
701.078501	4502.357844
701.414042	4500.081763
701.749533	4467.810816
702.084974	4401.625507
702.420366	4458.028457
702.755709	4401.670878
703.091002	4346.298844
703.426246	4391.628899
703.761440	4351.965101
704.096584	4315.693999
704.431679	4334.273172
704.766725	4319.081654
705.101721	4304.200168
705.436668	4337.018080
705.771565	4283.642343
706.106413	4314.010254
706.441212	4341.915561
706.775961	4353.578270
707.110661	4336.087987
707.445311	4359.632696
707.779913	4386.290318
708.114465	4399.392276
708.448967	4419.554371
708.783421	4478.039318
709.117825	4520.566491
709.452180	4527.651833
709.786485	4570.763781
710.120742	4657.839631
710.454949	4642.625429
710.789107	4705.657496
711.123216	4781.216830
711.457275	4770.005304
711.791286	4847.666800
712.125247	4865.015931
712.459159	4762.957771
712.793023	4842.353424
713.126837	4795.397596
713.460602	4797.550169
713.794318	4711.676634
714.127985	4722.794898
714.461602	4638.030417
714.795171	4609.250470
715.128691	4540.829409
715.462162	4483.095595
715.795584	4434.665230
716.128957	4418.702416
716.462281	4364.091597
716.795556	4338.870704
717.128782	4301.316628
717.461960	4233.210640
717.795088	4245.039707
718.128167	4201.290054
718.461198	4144.302330
718.794180	4138.202534
719.127113	4122.595122
719.459997	4097.908591
719.792833	4054.831932
720.125619	4048.747259
720.458357	4011.054552
720.791046	4013.650746
721.123686	3990.259792
721.456278	3949.814615
721.788821	3962.515802
722.121315	3938.713994
722.453761	3913.261208
722.786158	3923.832508
723.118506	3944.682720
723.450805	3898.687232
723.783056	3921.536262
724.115259	3937.012604
724.447412	3944.745734
724.779518	3932.652006
725.111574	3938.381278
725.443582	3967.609888
725.775542	3953.618165
726.107453	4002.338397
726.439315	4003.565917
726.771129	4015.531096
727.102895	4053.339750
727.434612	4103.549642
727.766281	4111.252525
728.097901	4117.322075
728.429473	4124.656953
728.760996	4128.069815
729.092471	4120.505563
729.423897	4105.918985
729.755276	4110.582052
730.086606	4110.453502
730.417887	4149.777023
730.749120	4215.402764
731.080305	4281.565388
731.411442	4305.909119
731.742530	4278.933905
732.073570	4280.423566
732.404562	4332.435671
732.735506	4322.701203
733.066401	4287.576963
733.397249	4224.285277
733.728048	4145.726456
734.058798	4067.059250
734.389501	3989.755677
734.720156	3927.439453
735.050762	3884.914800
735.381320	3877.947925
735.711831	3830.480421
736.042293	3798.953045
736.372707	3821.726457
736.703073	3792.661685
737.033391	3784.071558
737.363661	3804.730207
737.693883	3826.835667
738.024056	3832.587623
738.354182	3832.804393
738.684260	3895.276892
739.014290	3916.162392
739.344272	3908.772061
739.674207	3953.837455
740.004093	3956.826860
740.333931	3954.013896
740.663722	3950.553144
740.993464	3952.672949
741.323159	3925.886778
741.652806	3896.302767
741.982405	3868.465515
742.311956	3837.520392
742.641460	3825.822395
742.970915	3805.201555
743.300323	3765.167232
743.629683	3729.518712
743.958996	3721.208370
744.288260	3695.679967
744.617477	3663.000687
744.946647	3646.891680
745.275768	3624.337558
745.604842	3619.034264
745.933869	3573.570618
746.262847	3561.255079
746.591778	3600.939042
746.920662	3569.613312
747.249498	3542.088612
747.578286	3586.581836
747.907027	3602.285030
748.235720	3602.620267
748.564365	3627.309318
748.892963	3626.885861
749.221514	3610.020681
749.550017	3586.206270
749.878473	3583.952874
750.206881	3556.012279
750.535242	3551.444994
750.863555	3554.021023
751.191821	3545.980383
751.520039	3530.345244
751.848210	3505.663755
752.176334	3542.126421
752.504411	3547.001217
752.832440	3504.113600
753.160421	3488.667505
753.488356	3502.525637
753.816243	3511.387985
754.144082	3466.599854
754.471875	3453.724747
754.799620	3475.280721
755.127318	3466.055409
755.454969	3462.579534
755.782572	3469.604382
756.110129	3446.379786
756.437638	3434.492745
756.765100	3452.250209
757.092515	3459.882516
757.419882	3466.204123
757.747203	3438.855864
758.074477	3439.576749
758.401703	3456.512505
758.728882	3476.785505
759.056014	3483.767503
759.383099	3489.015344
759.710138	3486.351095
760.037129	3504.653004
760.364073	3530.655275
760.690970	3519.337885
761.017820	3493.494410
761.344623	3516.862678
761.671379	3556.440777
761.998088	3610.628140
762.324751	3737.576997
762.651366	3983.260150
762.977935	4456.339671
763.304456	4900.132608
763.630931	4997.505016
763.957359	4637.652331
764.283740	4292.550062
764.610074	4104.000826
764.936362	3903.269641
765.262602	3743.192842
765.588796	3634.351810
765.914943	3548.135476
766.241044	3459.138946
766.567097	3429.348248
766.893104	3381.119529
767.219064	3349.725743
767.544978	3322.906805
767.870845	3265.782970
768.196665	3245.336050
768.522438	3255.693100
768.848165	3253.469952
769.173846	3216.319168
769.499479	3197.939121
769.825066	3181.991431
770.150607	3165.045592
770.476101	3179.758200
770.801548	3177.010771
771.126949	3130.463277
771.452303	3115.823766
771.777611	3118.009107
772.102872	3128.300622
772.428087	3101.068309
772.753256	3087.429467
773.078378	3081.228848
773.403453	3049.651060
773.728482	3036.907023
774.053465	3058.168090
774.378401	3047.826163
774.703291	3016.180319
775.028135	3014.584794
775.352932	3008.361490
775.677683	2995.751043
776.002388	2997.270951
776.327046	2995.166270
776.651658	2983.619507
776.976224	2974.109370
777.300743	2976.624906
777.625216	2963.283492
777.949643	2958.990950
778.274024	2964.319449
778.598359	2952.192954
778.922647	2956.193109
779.246889	2953.178499
779.571086	2944.094340
779.895236	2935.131168
780.219339	2946.713219
780.543397	2959.200158
780.867409	2961.319963
781.191374	2954.864765
781.515294	2950.547017
781.839167	2949.657253
782.162995	2940.905810
782.486776	2951.860238
782.810511	2949.732871
783.134201	2935.733586
783.457844	2941.097374
783.781441	2933.530602
784.104993	2913.053435
784.428498	2915.213570
784.751958	2927.140940
785.075372	2923.445774
785.398739	2903.951632
785.722061	2920.511822
786.045337	2935.272321
786.368568	2918.979312
786.691752	2911.147879
787.014891	2961.032617
787.337983	2986.906339
787.661030	3016.427336
787.984031	3081.334712
788.306987	3128.923205
788.629897	3124.166876
788.952760	3104.511417
789.275579	3093.131012
789.598351	3030.043493
789.921078	2984.121102
790.243759	2977.633137
790.566395	2960.145374
790.888984	2937.127465
791.211529	2919.261616
791.534027	2910.467323
791.856480	2900.173287
792.178888	2884.828015
792.501249	2876.754607
792.823566	2875.338043
793.145836	2872.212527
793.468062	2868.335880
793.790241	2866.765561
794.112375	2871.476519
794.434464	2882.125956
794.756507	2886.368087
795.078505	2893.294633
795.400457	2907.624113
795.722364	2947.129115
796.044226	2968.798514
796.366042	2970.877990
796.687812	2960.926753
797.009538	2983.145638
797.331218	2965.857001
797.652852	2953.327213
797.974442	2933.855757
798.295986	2930.689912
798.617484	2926.956938
798.938938	2911.576377
799.260346	2894.789335
799.581709	2890.680794
799.903026	2884.273488
800.224299	2879.161758
800.545526	2869.540716
800.866708	2854.858355
801.187845	2841.955522
801.508936	2845.411233
801.829983	2851.011955
802.150984	2840.846468
802.471940	2824.891216
802.792851	2828.228460
803.113717	2825.881803
803.434538	2830.701146
803.755314	2824.397183
804.076045	2815.973415
804.396731	2817.253868
804.717372	2818.466266
805.037967	2812.346305
805.358518	2818.932572
805.679024	2830.290292
805.999485	2827.585713
806.319901	2830.655776
806.640272	2823.449446
806.960598	2830.723831
807.280879	2835.452433
807.601115	2845.809484
807.921306	2829.907164
808.241453	2827.288285
808.561554	2832.485714
808.881611	2837.136179
809.201623	2830.068481
809.521590	2829.118224
809.841513	2822.927687
810.161390	2831.588389
810.481223	2825.851556
810.801011	2812.701706
811.120755	2809.729946
811.440453	2812.270687
811.760107	2811.564926
812.079716	2811.201963
812.399281	2801.843061
812.718801	2794.606484
813.038276	2790.046761
813.357707	2794.888789
813.677093	2803.249543
813.996434	2798.185704
814.315731	2792.831998
814.634983	2785.965947
814.954191	2789.784621
815.273354	2800.590334
815.592473	2811.935451
815.911547	2814.148517
816.230577	2817.452994
816.549562	2831.011177
816.868502	2829.813903
817.187399	2840.879236
817.506250	2855.738037
817.825058	2848.960205
818.143821	2861.444623
818.462539	2877.848537
818.781213	2903.001374
819.099843	2939.728701
819.418429	2998.788339
819.736970	3060.761763
820.055466	3133.921509
820.373919	3239.669793
820.692327	3378.815721
821.010691	3547.785116
821.329011	3991.686438
821.647286	4894.852000
821.965517	6280.629904
822.283704	7035.651077
822.601847	7010.266347
822.919945	6378.425768
823.237999	5868.044229
823.556010	5281.148057
823.873976	4729.275302
824.191897	4314.965552
824.509775	4017.512270
824.827609	3745.637802
825.145398	3621.350674
825.463144	3611.301134
825.780845	3701.663817
826.098502	3805.511586
826.416116	4090.893826
826.733685	4408.552053
827.051210	4473.351044
827.368692	4360.673694
827.686129	4090.440122
828.003522	3765.661265
828.320872	3507.360103
828.638177	3308.902479
828.955439	3171.838547
829.272656	3085.685228
829.589830	3019.883047
829.906960	2969.519399
830.224046	2925.920980
830.541088	2891.774725
830.858086	2878.173692
831.175041	2856.675691
831.491952	2858.379601
831.808819	2871.327805
832.125642	2892.984602
832.442421	2939.395985
832.759157	3022.338089
833.075849	3201.261242
833.392497	3483.550734
833.709101	3688.498843
834.025662	3637.492449
834.342179	3479.260712
834.658653	3301.562559
834.975083	3151.101761
835.291469	3054.659447
835.607811	2967.860860
835.924110	2908.206366
836.240366	2857.807430
836.556578	2814.677838
836.872746	2788.214301
837.188871	2771.207969
837.504952	2751.595360
837.820990	2743.733680
838.136984	2730.596433
838.452935	2724.141236
838.768842	2719.016903
839.084706	2741.266036
839.400526	2818.010041
839.716303	2952.697069
840.032037	3031.507948
840.347727	3020.510671
840.663373	2956.442646
840.978977	2882.057901
841.294537	2809.959318
841.610054	2760.992071
841.925527	2736.429048
842.240957	2715.508260
842.556344	2695.008408
842.871687	2678.922086
843.186987	2669.537978
843.502244	2667.266938
843.817458	2660.451298
844.132629	2648.755821
844.447756	2640.669811
844.762840	2633.365179
845.077881	2635.616054
845.392879	2633.317288
845.707833	2630.559777
846.022745	2621.079887
846.337613	2626.922584
846.652438	2621.936883
846.967221	2625.027110
847.281960	2624.230608
847.596656	2620.175000
847.911309	2620.502675
848.225919	2617.480503
848.540485	2613.223248
848.855009	2614.503702
849.169490	2612.492281
849.483928	2612.724174
849.798323	2612.605707
850.112675	2611.710902
850.426984	2612.698968
850.741251	2611.922631
851.055474	2612.031016
851.369654	2614.186109
851.683792	2613.283742
851.997887	2613.986983
852.311938	2612.353649
852.625947	2612.988835
852.939914	2613.104781
853.253837	2616.285749
853.567718	2611.017744
853.881555	2611.363063
854.195350	2616.696603
854.509103	2617.097375
854.822812	2610.125459
855.136479	2609.830552
855.450103	2612.880450
855.763685	2612.008330
856.077224	2611.552106
856.390720	2609.825511
856.704173	2609.913731
857.017584	2617.987139
857.330953	2615.033023
857.644278	2619.587705
857.957561	2618.750874
858.270802	2613.656788
858.584000	2616.081583
858.897155	2618.113168
859.210268	2619.391100
859.523339	2613.618979
859.836367	2609.301231
860.149352	2611.191663
860.462295	2611.978083
860.775195	2609.056735
861.088054	2607.988010
861.400869	2610.017075
861.713642	2606.510952
862.026373	2606.871395
862.339062	2607.307454
862.651708	2615.075872
862.964312	2614.541510
863.276873	2610.596807
863.589392	2615.650564
863.901869	2619.854886
864.214303	2625.105248
864.526696	2627.101545
864.839045	2628.742441
865.151353	2630.141361
865.463619	2631.701598
865.775842	2632.099849
866.088023	2632.639252
866.400162	2634.317957
866.712258	2633.791156
867.024313	2630.935342
867.336325	2625.909312
867.648296	2630.274951
867.960224	2634.232257
868.272110	2634.184366
868.583954	2626.415948
868.895755	2626.186576
869.207515	2632.336783
869.519233	2639.764923
869.830909	2636.278966
870.142542	2631.136989
870.454134	2633.312247
870.765684	2639.401960
871.077191	2639.759882
871.388657	2644.485964
871.700081	2640.571508
872.011463	2641.378093
872.322803	2642.852630
872.634101	2649.262457
872.945357	2653.484424
873.256571	2659.218736
873.567744	2656.922491
873.878874	2653.275216
874.189963	2656.143632
874.501010	2660.355516
874.812015	2664.516989
875.122979	2663.375167
875.433900	2656.977943
875.744780	2654.752274
876.055618	2662.654282
876.366415	2666.503203
876.677169	2665.162257
876.987882	2661.547749
877.298554	2661.885507
877.609183	2673.175171
877.919771	2678.286901
878.230317	2682.738239
878.540822	2696.921526
878.851285	2709.216900
879.161707	2733.646332
879.472087	2771.908689
879.782425	2820.644044
880.092722	2934.125458
880.402977	3124.146711
880.713191	3388.283008
881.023363	3681.201773
881.333494	3877.877349
881.643583	4051.091395
881.953631	4046.819017
882.263637	3868.722614
882.573602	3648.106598
882.883526	3515.110877
883.193408	3403.381264
883.503248	3296.874286
883.813048	3184.000331
884.122806	3067.501786
884.432522	2982.031543
884.742197	2914.404464
885.051831	2878.294679
885.361424	2840.687672
885.670975	2804.865232
885.980485	2773.635284
886.289954	2757.047368
886.599382	2742.571694
886.908768	2728.436299
887.218113	2709.733618
887.527417	2699.179963
887.836680	2686.705627
888.145901	2685.677232
888.455082	2673.200376
888.764221	2664.020435
889.073319	2658.886020
889.382376	2654.711945
889.691392	2657.310659
890.000366	2657.693787
890.309300	2653.819660
890.618193	2656.322593
890.927044	2661.847698
891.235855	2661.202430
891.544625	2660.383243
891.853353	2659.559014
892.162041	2667.647545
892.470687	2687.923066
892.779293	2700.873790
893.087858	2708.080120
893.396381	2732.597772
893.704864	2773.496653
894.013306	2845.920389
894.321707	2939.111159
894.630068	2991.118223
894.938387	3012.890967
895.246665	3001.712208
895.554903	2960.558748
895.863100	2914.127201
896.171256	2858.064529
896.479371	2796.454067
896.787446	2756.359250
897.095480	2737.008781
897.403473	2730.495610
897.711425	2713.990873
898.019336	2696.818182
898.327207	2684.643796
898.635038	2680.013496
898.942827	2675.201714
899.250576	2669.124603
899.558284	2658.449960
899.865952	2651.841008
900.173579	2651.107520
900.481165	2646.877992
900.788711	2639.628812
901.096216	2633.849129
901.403681	2633.503810
901.711105	2632.593882
902.018489	2626.647841
902.325832	2631.744448
902.633135	2634.438944
902.940397	2647.009062
903.247619	2686.224197
903.554800	2754.158787
903.861941	2886.592419
904.169041	3014.630165
904.476101	3077.732808
904.783121	3071.648135
905.090100	3012.928775
905.397039	2941.583845
905.703938	2863.435878
906.010796	2797.605971
906.317614	2749.084865
906.624391	2706.519883
906.931129	2680.517611
907.237826	2659.216216
907.544483	2642.645943
907.851099	2627.804786
908.157675	2618.113168
908.464211	2612.101592
908.770707	2597.593151
909.077163	2596.491659
909.383578	2590.018817
909.689954	2590.018817
909.996289	2589.509661
910.302584	2588.337592
910.608839	2583.125039
910.915054	2588.289702
911.221229	2590.626276
911.527363	2591.087542
911.833458	2588.362798
912.139513	2590.394383
912.445527	2592.551997
912.751502	2599.274376
913.057436	2603.037597
913.363331	2611.635285
913.669186	2620.152314
913.975000	2635.444655
914.280775	2650.994094
914.586510	2668.300375
914.892205	2709.400902
915.197859	2773.466406
915.503475	2859.448326
915.809050	2926.253697
916.114585	2945.457972
916.420081	2954.733695
916.725536	2963.235601
917.030952	2938.475974
917.336328	2892.414951
917.641665	2841.738752
917.946961	2789.214970
918.252218	2754.509147
918.557435	2730.891341
918.862612	2707.659183
919.167750	2686.130936
919.472848	2673.013854
919.777906	2656.667912
920.082925	2644.884215
920.387904	2633.173615
920.692843	2629.816206
920.997743	2624.583489
921.302603	2616.983949
921.607423	2612.010851
921.912204	2604.302927
922.216946	2602.094901
922.521647	2597.925867
922.826310	2594.507965
923.130932	2591.846236
923.435516	2584.493713
923.740059	2584.554207
924.044564	2581.705955
924.349028	2580.586818
924.653454	2569.836558
924.957840	2567.237843
925.262186	2567.194993
925.566493	2570.186918
925.870761	2561.153170
926.174989	2566.446382
926.479178	2565.055023
926.783328	2561.006977
927.087438	2559.938252
927.391509	2560.767522
927.695541	2558.183931
927.999533	2556.341389
928.303486	2555.466749
928.607400	2556.384239
928.911275	2555.741492
929.215110	2555.093703
929.518906	2553.273847
929.822663	2555.093703
930.126381	2555.933056
930.430060	2554.052705
930.733699	2556.744681
931.037299	2558.178890
931.340861	2553.634289
931.644383	2556.308622
931.947866	2556.240566
932.251309	2556.270813
932.554714	2554.650082
932.858080	2555.605381
933.161407	2554.428271
933.464694	2555.996070
933.767943	2552.946172
934.071153	2552.948692
934.374323	2550.082797
934.677455	2554.980278
934.980548	2552.157231
935.283602	2551.882488
935.586617	2550.430636
935.889593	2551.998435
936.192530	2549.135060
936.495428	2551.174206
936.798287	2552.600853
937.101108	2555.171841
937.403890	2560.580999
937.706632	2560.525547
938.009336	2560.911195
938.312002	2566.832030
938.614628	2570.224727
938.917216	2572.455437
939.219765	2575.333936
939.522275	2575.525500
939.824747	2573.894687
940.127179	2570.696075
940.429573	2568.299006
940.731929	2568.399829
941.034246	2563.013356
941.336524	2565.183573
941.638763	2565.765826
941.940964	2564.440003
942.243126	2562.910012
942.545250	2561.226267
942.847335	2559.691236
943.149381	2561.387584
943.451389	2559.436657
943.753359	2558.564538
944.055290	2557.589075
944.357182	2556.192675
944.659036	2554.405586
944.960851	2553.193188
945.262628	2554.287119
945.564367	2557.503375
945.866067	2557.626883
946.167729	2555.560010
946.469352	2554.723179
946.770937	2555.527243
947.072484	2554.934907
947.373992	2554.236707
947.675462	2556.056564
947.976893	2554.156049
948.278286	2553.891388
948.579641	2550.753270
948.880958	2552.981460
949.182236	2553.498178
949.483476	2551.973229
949.784678	2553.082283
950.085841	2551.469114
950.386967	2552.938610
950.688054	2550.922149
950.989103	2553.588919
951.290114	2551.766542
951.591087	2555.930535
951.892021	2556.091852
952.192917	2557.808365
952.493776	2559.366081
952.794596	2559.028324
953.095378	2560.238201
953.396122	2561.634601
953.696828	2557.962120
953.997496	2556.941286
954.298126	2553.505740
954.598718	2553.341902
954.899272	2553.750236
955.199788	2550.254196
955.500266	2551.065822
955.800706	2547.446273
956.101108	2544.839997
956.401472	2542.763041
956.701798	2542.926879
957.002087	2541.757331
957.302337	2541.641384
957.602550	2542.624409
957.902724	2539.554347
958.202861	2541.782537
958.502960	2540.108874
958.803022	2541.757331
959.103045	2540.476878
959.403031	2539.796322
959.702979	2541.190201
960.002889	2537.747093
960.302762	2538.989737
960.602596	2539.002340
960.902393	2538.248688
961.202153	2539.030067
961.501875	2537.237937
961.801559	2539.077958
962.101205	2536.534696
962.400814	2536.922864
962.700385	2539.335057
962.999918	2537.444624
963.299414	2536.040663
963.598873	2536.766589
963.898293	2534.740045
964.197677	2538.770447
964.497022	2537.177443
964.796331	2538.941847
965.095601	2535.453368
965.394835	2538.422608
965.694030	2535.755837
965.993189	2537.495035
966.292309	2535.213913
966.591393	2536.887576
966.890439	2535.050076
967.189447	2537.207690
967.488419	2536.196938
967.787353	2537.106867
968.086249	2535.655014
968.385108	2536.126362
968.683930	2536.824562
968.982714	2535.390354
969.281462	2535.957483
969.580172	2536.297761
969.878844	2537.248019
970.177480	2538.752803
970.476078	2537.966383
970.774639	2537.235416
971.073162	2535.460930
971.371649	2538.228523
971.670098	2532.373223
971.968510	2535.392874
972.266885	2528.975485
972.565223	2538.851106
972.863524	2537.784902
973.161788	2537.033770
973.460014	2535.896990
973.758204	2537.673996
974.056356	2536.522093
974.354471	2535.912113
974.652550	2537.278266
974.950591	2536.940508
975.248595	2537.711805
975.546563	2539.766075
975.844493	2534.770292
976.142386	2539.080478
976.440243	2535.597041
976.738062	2540.345808
977.035845	2534.707277
977.333590	2535.778523
977.631299	2533.467153
977.928971	2535.312216
978.226606	2536.358255
978.524204	2534.805580
978.821765	2536.403626
979.119290	2533.714170
979.416777	2534.866074
979.714228	2534.392205
980.011642	2535.750796
980.309020	2537.011085
980.606360	2537.245498
980.903664	2538.967052
981.200931	2534.745086
981.498162	2536.980838
981.795356	2539.561908
982.092513	2543.068031
982.389633	2543.919986
982.686717	2548.351160
982.983764	2549.891233
983.280775	2553.273847
983.577749	2550.065153
983.874686	2548.908208
984.171587	2547.705893
984.468451	2546.352343
984.765279	2541.901004
985.062070	2541.243133
985.358824	2539.841692
985.655543	2537.794984
985.952224	2537.530323
986.248869	2536.698533
986.545478	2534.092257
986.842050	2532.743748
987.138586	2530.422297
987.435086	2532.847092
987.731549	2529.219981
988.027975	2533.792308
988.324366	2533.673841
988.620719	2532.327853
988.917037	2531.574200
989.213318	2533.409180
989.509563	2531.362472
989.805772	2531.619571
990.101944	2534.651825
990.398080	2532.524458
990.694180	2530.540764
990.990244	2531.367513
991.286271	2531.037317
991.582262	2531.642256
991.878217	2530.939015
992.174136	2535.546629
992.470019	2532.784077
992.765865	2533.268028
993.061676	2534.064530
993.357450	2534.845909
993.653188	2531.884231
993.948890	2532.282482
994.244556	2534.258615
994.540186	2535.329860
994.835780	2533.336083
995.131337	2535.536547
995.426859	2533.527647
995.722345	2531.886752
996.017795	2535.400436
996.313208	2539.662732
996.608586	2537.028729
996.903928	2537.058976
997.199234	2535.851619
997.494504	2536.025539
997.789738	2535.488656
998.084936	2534.326670
998.380099	2533.139478
998.675225	2534.845909
998.970316	2532.980682
999.265371	2534.354397
999.560390	2531.788449
999.855373	2532.690816
1000.150320	2532.718542
1000.445232	2532.148892
1000.740108	2532.647966
1001.034948	2531.412883
1001.329752	2531.758202
1001.624521	2531.785929
1001.919254	2524.219157
1002.213951	2531.352389
1002.508613	2528.904909
1002.803239	2527.942049
1003.097829	2529.378778
1003.392384	2531.042358
1003.686903	2528.511699
1003.981386	2533.189890
1004.275834	2529.028417
1004.570246	2531.307019
1004.864623	2530.893644
1005.158964	2529.789632
1005.453270	2530.976823
1005.747540	2530.523120
1006.041775	2529.981196
1006.335974	2531.619571
1006.630138	2530.359282
1006.924266	2530.762574
1007.218359	2530.893644
1007.512416	2530.518078
1007.806438	2529.225022
1008.100425	2528.602440
1008.394376	2533.154602
1008.688292	2530.621422
1008.982172	2530.797862
1009.276017	2530.969262
1009.569827	2527.586647
1009.863602	2530.447502
1010.157341	2529.232584
1010.451045	2532.620240
1010.744714	2528.620084
1011.038347	2531.382636
1011.331945	2531.402801
1011.625508	2532.358100
1011.919036	2529.623274
1012.212528	2530.994468
1012.505986	2530.840712
1012.799408	2530.964221
1013.092795	2530.399611
1013.386147	2532.433717
1013.679464	2528.436082
1013.972745	2530.444982
1014.265992	2530.084539
1014.559204	2529.598068
1014.852380	2530.659231
1015.145521	2526.293592
1015.438628	2529.744261
1015.731699	2532.360620
1016.024736	2528.950280
1016.317737	2530.298788
1016.610703	2530.949097
1016.903635	2528.010104
1017.196531	2528.423479
1017.489393	2526.699404
1017.782219	2524.128416
1018.075011	2532.002698
1018.367768	2529.030938
1018.660490	2530.578572
1018.953177	2530.578572
1019.245829	2530.578572
