Dividing Wavelength (nm)	Counts (n)	Blue Motor Position (mm): 8.500000	Red Motor Position (mm): 0.000000	
326.493990	2137.660959
326.888308	2137.660959
327.282561	2137.660959
327.676750	2107.575353
328.070874	2107.136773
328.464933	2109.881681
328.858929	2113.660026
329.252859	2125.668054
329.646726	2135.261370
330.040528	2150.203350
330.434265	2164.827737
330.827938	2183.500171
331.221547	2201.688654
331.615091	2221.757488
332.008571	2240.182905
332.401986	2260.198806
332.795338	2278.104985
333.188625	2299.580300
333.581847	2316.954637
333.975006	2333.676144
334.368100	2353.316480
334.761129	2372.664428
335.154095	2388.213867
335.546996	2409.477454
335.939833	2419.060688
336.332606	2437.730601
336.725315	2451.505554
337.117960	2458.353961
337.510540	2464.872173
337.903056	2479.375573
338.295508	2482.649802
338.687896	2495.073726
339.080220	2502.539675
339.472480	2509.229286
339.864676	2513.811695
340.256807	2517.708507
340.648875	2520.380318
341.040879	2523.069774
341.432818	2523.856194
341.824694	2526.714528
342.216506	2525.192099
342.608253	2524.556914
342.999937	2526.432223
343.391557	2526.399456
343.783113	2526.104548
344.174605	2523.241173
344.566033	2522.908457
344.957397	2519.389731
345.348697	2516.307066
345.739934	2516.874196
346.131106	2514.305728
346.522215	2515.155162
346.913260	2507.744666
347.304241	2511.891015
347.695159	2510.555109
348.086012	2508.168123
348.476802	2502.680827
348.867528	2502.332987
349.258191	2502.963132
349.648789	2501.896928
350.039324	2496.946514
350.429796	2499.179746
350.820203	2497.553973
351.210548	2498.128665
351.600828	2493.808396
351.991045	2493.967192
352.381198	2494.141112
352.771288	2493.747902
353.161314	2494.254538
353.551276	2492.432161
353.941175	2491.834784
354.331010	2491.988540
354.720782	2492.283447
355.110490	2494.007522
355.500135	2493.818478
355.889717	2490.088025
356.279235	2494.229333
356.668689	2495.759323
357.058080	2496.732265
357.447408	2493.556338
357.836672	2490.508961
358.225873	2493.735299
358.615010	2489.273878
359.004084	2494.940135
359.393095	2495.287975
359.782043	2496.996926
360.170927	2495.519868
360.559748	2499.557832
360.948505	2497.821155
361.337199	2499.474653
361.725830	2499.187307
362.114398	2500.185456
362.502903	2500.152688
362.891344	2497.853922
363.279722	2501.730569
363.668037	2500.714777
364.056289	2502.670745
364.444478	2502.451454
364.832603	2503.532782
365.220665	2504.888852
365.608665	2503.099243
365.996601	2504.659480
366.384474	2504.659480
366.772284	2504.740138
367.160031	2500.949191
367.547715	2505.135869
367.935336	2504.586383
368.322893	2504.394819
368.710388	2506.759120
369.097820	2510.217352
369.485189	2505.748369
369.872495	2508.480674
370.259738	2506.277690
370.646918	2507.137207
371.034035	2506.872546
371.421090	2508.510921
371.808081	2505.879439
372.195010	2508.163082
372.581875	2505.823986
372.968678	2508.921775
373.355418	2511.603669
373.742096	2511.326406
374.128710	2509.680469
374.515262	2509.463699
374.901751	2508.667197
375.288177	2507.341374
375.674540	2510.550068
376.060841	2510.855058
376.447079	2511.767507
376.833254	2511.792713
377.219367	2507.480005
377.605417	2508.473113
377.991404	2506.539830
378.377329	2508.863802
378.763191	2505.702999
379.148991	2515.860924
379.534727	2512.828670
379.920402	2510.005623
380.306013	2514.494771
380.691563	2511.250788
381.077049	2512.637106
381.462474	2513.693227
381.847835	2514.000738
382.233134	2515.603825
382.618371	2514.504853
383.003545	2517.005266
383.388657	2514.131808
383.773706	2515.555934
384.158693	2517.912673
384.543618	2516.654905
384.928480	2514.895543
385.313280	2515.392096
385.698017	2513.365553
386.082692	2516.309586
386.467305	2514.749349
386.851856	2518.240348
387.236344	2517.494257
387.620770	2515.989473
388.005133	2516.475944
388.389435	2516.279339
388.773674	2517.915194
389.157851	2516.735564
389.541965	2518.782272
389.926018	2518.817560
390.310008	2519.031809
390.693936	2515.896212
391.077802	2518.731861
391.461606	2517.995852
391.845348	2517.763959
392.229027	2519.843435
392.612645	2520.662623
392.996200	2520.781090
393.379694	2519.966943
393.763125	2521.146573
394.146494	2517.600122
394.529801	2520.720596
394.913047	2521.940555
395.296230	2518.676408
395.679351	2521.630524
396.062410	2521.202026
396.445408	2521.060874
396.828343	2523.394928
397.211217	2517.627848
397.594028	2519.026768
397.976778	2518.124402
398.359466	2522.023734
398.742092	2515.724813
399.124656	2520.922242
399.507158	2524.186389
399.889598	2523.619259
400.271977	2524.188910
400.654294	2523.881399
401.036549	2523.682274
401.418742	2524.435926
401.800874	2520.947448
402.182944	2523.848632
402.564952	2524.766122
402.946898	2525.408869
403.328783	2524.940042
403.710606	2526.603622
404.092367	2523.100021
404.474067	2526.447347
404.855705	2525.784435
405.237282	2525.431554
405.618797	2527.100176
406.000250	2524.778725
406.381642	2523.281502
406.762972	2525.829805
407.144240	2524.317459
407.525447	2527.231246
407.906593	2525.734023
408.287677	2525.058509
408.668700	2527.548839
409.049661	2526.885927
409.430560	2526.573376
409.811399	2528.698222
410.192176	2527.291740
410.572891	2525.834847
410.953545	2526.427182
411.334138	2528.310053
411.714669	2525.217305
412.095139	2529.330887
412.475547	2526.701925
412.855894	2527.266534
413.236180	2527.894158
413.616405	2532.370703
413.996568	2526.013808
414.376670	2532.607637
414.756711	2530.384488
415.136691	2530.467667
415.516609	2527.390043
415.896466	2533.081505
416.276262	2532.494211
416.655997	2526.001205
417.035670	2526.913653
417.415283	2529.421628
417.794834	2525.348375
418.174324	2528.602440
418.553753	2528.040351
418.933121	2528.680578
419.312428	2527.516071
419.691674	2532.065713
420.070859	2530.258459
420.449983	2531.208717
420.829045	2530.008922
421.208047	2532.668131
421.586988	2530.029087
421.965867	2533.968748
422.344686	2531.296937
422.723444	2531.869108
423.102141	2533.981351
423.480777	2531.851464
423.859352	2531.087729
424.237866	2531.869108
424.616319	2531.400280
424.994712	2531.765764
425.373044	2530.732327
425.751314	2535.017308
426.129524	2533.751979
426.507673	2531.173428
426.885762	2537.419418
427.263789	2533.159643
427.641756	2535.435724
428.019662	2533.313398
428.397508	2534.288862
428.775292	2535.970086
429.153016	2533.139478
429.530679	2534.445137
429.908282	2532.095960
430.285824	2533.681402
430.663305	2535.902031
431.040726	2534.490508
431.418086	2537.391692
431.795385	2535.362627
432.172624	2533.446989
432.549802	2533.809952
432.926920	2534.387164
433.303977	2535.586959
433.680974	2534.064530
434.057910	2536.368338
434.434786	2534.888759
434.811601	2537.129552
435.188355	2535.652494
435.565050	2535.728111
435.941683	2538.551157
436.318257	2532.461443
436.694770	2533.431865
437.071222	2532.257277
437.447614	2531.619571
437.823946	2534.888759
438.200218	2535.929757
438.576429	2532.990764
438.952580	2538.074768
439.328670	2536.854809
439.704700	2536.910262
440.080670	2536.970755
440.456580	2538.004192
440.832429	2535.143337
441.208218	2537.573173
441.583947	2538.062165
441.959616	2536.706095
442.335224	2537.106867
442.710773	2537.401774
443.086261	2537.696682
443.461689	2538.266332
443.837057	2538.031918
444.212365	2538.009233
444.587612	2537.686599
444.962800	2536.267514
445.337927	2535.919675
445.712995	2537.605941
446.088002	2539.183822
446.462949	2538.868750
446.837837	2537.369007
447.212664	2538.180632
447.587431	2541.238092
447.962139	2539.317413
448.336786	2538.523431
448.711374	2537.903369
449.085901	2537.996630
449.460369	2538.868750
449.834776	2542.886549
450.209124	2539.173740
450.583412	2539.715664
450.957640	2538.931764
451.331808	2539.362783
451.705917	2541.210366
452.079965	2537.893287
452.453954	2543.095757
452.827883	2540.318082
453.201752	2539.390509
453.575562	2540.733977
453.949311	2544.008206
454.323001	2538.979655
454.696632	2537.817669
455.070202	2541.104502
455.443713	2539.728267
455.817164	2539.188863
456.190556	2537.568132
456.563888	2536.340611
456.937160	2535.208872
457.310373	2540.751621
457.683526	2541.601055
458.056619	2540.179450
458.429653	2541.958977
458.802628	2541.175078
459.175542	2538.495704
459.548398	2540.844882
459.921194	2541.137269
460.293930	2540.771785
460.666607	2542.276570
461.039224	2540.005530
461.411782	2542.082485
461.784280	2544.005686
462.156719	2541.442259
462.529099	2541.878319
462.901419	2538.415046
463.273680	2543.544420
463.645882	2541.056611
464.018024	2539.859337
464.390106	2543.753628
464.762130	2542.107691
465.134094	2541.157434
465.505999	2542.453010
465.877845	2542.649615
466.249631	2543.932589
466.621358	2542.770603
466.993026	2542.901673
467.364634	2544.719009
467.736184	2543.927548
468.107674	2540.915458
468.479105	2541.434697
468.850477	2543.357897
469.221790	2542.826056
469.593043	2544.073741
469.964238	2542.027033
470.335373	2544.713968
470.706449	2542.095088
471.077467	2543.494008
471.448425	2544.991231
471.819324	2543.862013
472.190164	2543.531817
472.560945	2542.473175
472.931667	2541.056611
473.302330	2542.558874
473.672934	2543.614996
474.043479	2539.851775
474.413965	2543.073072
474.784393	2537.580735
475.154761	2541.895963
475.525070	2538.962011
475.895321	2540.214738
476.265513	2539.980324
476.635645	2544.313196
477.005719	2543.897301
477.375734	2545.555840
477.745691	2545.543238
478.115588	2545.298742
478.485427	2544.434184
478.855207	2544.726571
479.224928	2545.974256
479.594591	2542.737835
479.964194	2543.788916
480.333739	2547.801674
480.703226	2542.422763
481.072653	2544.469472
481.442022	2546.196067
481.811333	2546.415357
482.180584	2546.851417
482.549777	2544.945861
482.918912	2546.362425
483.287988	2544.529966
483.657005	2544.852599
484.025964	2548.043650
484.394864	2545.364277
484.763706	2545.830583
485.132489	2546.007024
485.501213	2544.270346
485.869879	2544.290511
486.238487	2545.434853
486.607036	2546.334699
486.975527	2547.557178
487.343959	2545.107178
487.712333	2546.682538
488.080648	2546.806047
488.448905	2545.593649
488.817104	2545.628937
489.185244	2543.463762
489.553326	2545.886036
489.921350	2548.404092
490.289315	2547.383259
490.657222	2544.663556
491.025070	2547.952909
491.392861	2548.396531
491.760593	2546.465769
492.128267	2546.909390
492.495883	2548.799823
492.863440	2544.950902
493.230939	2547.284956
493.598380	2546.070038
493.965763	2543.804039
494.333088	2543.985521
494.700354	2542.412681
495.067563	2544.890408
495.434713	2538.457896
495.801805	2545.651622
496.168839	2547.829401
496.535815	2548.310831
496.902733	2549.256047
497.269593	2547.562220
497.636395	2544.532486
498.003139	2545.502908
498.369825	2544.293031
498.736453	2548.714123
499.103023	2546.284287
499.469535	2548.157076
499.835989	2542.992414
500.202385	2549.049360
500.568723	2546.296890
500.935003	2548.053732
501.301226	2546.178423
501.667390	2547.161448
502.033497	2547.529452
502.399546	2546.052394
502.765537	2546.566592
503.131470	2547.216901
503.497345	2547.655481
503.863163	2548.104144
504.228923	2548.656150
504.594625	2546.647250
504.960269	2547.552137
505.325856	2547.547096
505.691385	2547.504246
506.056856	2547.791592
506.422270	2547.418547
506.787625	2549.419885
507.152924	2547.436191
507.518164	2548.588094
507.883347	2548.545245
508.248472	2547.494164
508.613540	2548.570450
508.978550	2550.803682
509.343503	2548.038609
509.708398	2547.927703
510.073236	2548.283105
510.438016	2549.124977
510.802738	2550.052550
511.167403	2547.784030
511.532010	2546.906870
511.896561	2547.663043
512.261053	2548.215049
512.625488	2547.602549
512.989866	2544.721529
513.354186	2544.426622
513.718449	2544.325799
514.082655	2549.485420
514.446803	2546.732950
514.810894	2553.495658
515.174927	2550.997766
515.538904	2548.741850
515.902822	2545.684390
516.266684	2547.126160
516.630488	2547.741181
516.994235	2548.076417
517.357925	2549.498023
517.721558	2546.410316
518.085133	2550.153373
518.448651	2548.260419
518.812112	2551.990873
519.175516	2548.429298
519.538863	2549.583722
519.902152	2547.869730
520.265385	2548.623383
520.628560	2549.225800
520.991678	2549.061963
521.354739	2551.476676
521.717743	2549.130018
522.080690	2550.642365
522.443580	2547.635316
522.806413	2549.225800
523.169189	2548.525080
523.531908	2549.495502
523.894569	2547.065666
524.257174	2548.746891
524.619722	2548.361243
524.982213	2549.974412
525.344647	2550.705379
525.707025	2548.600697
526.069345	2550.672612
526.431608	2547.842004
526.793815	2549.195553
527.155964	2551.746377
527.518057	2547.519370
527.880093	2551.123795
528.242072	2550.478527
528.603995	2549.316541
528.965860	2551.179247
529.327669	2548.464586
529.689421	2551.010369
530.051117	2550.463404
530.412755	2549.795451
530.774337	2550.566747
531.135862	2550.365101
531.497331	2550.667570
531.858743	2547.766386
532.220098	2548.671273
532.581396	2544.305634
532.942638	2546.730429
533.303824	2548.764535
533.664953	2553.740154
534.026025	2552.202602
534.387040	2550.274360
534.747999	2551.590102
535.108902	2550.652447
535.469748	2551.060780
535.830537	2553.316697
536.191270	2551.834598
536.551947	2549.676984
536.912567	2552.381563
537.273131	2552.318548
537.633638	2553.909032
537.994089	2553.460370
538.354483	2551.050698
538.714821	2552.547921
539.075103	2554.561862
539.435328	2552.769732
539.795497	2552.631100
540.155609	2553.717468
540.515665	2551.716130
540.875665	2554.955072
541.235609	2555.272664
541.595496	2554.803837
541.955328	2555.282747
542.315102	2557.062274
542.674821	2553.523384
543.034483	2555.565051
543.394090	2551.670760
543.753640	2557.319373
544.113134	2555.428940
544.472571	2555.938097
544.831953	2556.527912
545.191278	2554.226625
545.550548	2554.728220
545.909761	2555.799465
546.268918	2556.976574
546.628019	2556.958930
546.987064	2556.396842
547.346053	2555.623025
547.704986	2556.502706
548.063863	2554.264434
548.422684	2556.908519
548.781449	2555.431461
549.140158	2553.755277
549.498811	2559.875238
549.857408	2555.113868
550.215949	2555.915412
550.574434	2552.416851
550.932864	2554.030020
551.291237	2552.056408
551.649555	2556.540515
552.007817	2556.732078
552.366022	2557.153015
552.724173	2557.306770
553.082267	2555.872562
553.440305	2556.323745
553.798288	2557.677295
554.156215	2556.628735
554.514086	2557.833571
554.871902	2557.324414
555.229661	2558.564538
555.587365	2557.974723
555.945014	2557.841132
556.302606	2558.567058
556.660143	2558.393139
557.017625	2558.128478
557.375050	2558.589744
557.732421	2556.207798
558.089735	2561.760629
558.446994	2557.299208
558.804197	2557.170659
559.161345	2559.149312
559.518437	2555.179403
559.875474	2557.876420
560.232455	2558.143602
560.589381	2558.098231
560.946251	2562.748696
561.303065	2555.686039
561.659825	2558.317521
562.016528	2557.074877
562.373177	2559.088818
562.729770	2555.244938
563.086307	2557.861297
563.442789	2554.493806
563.799216	2557.218550
564.155587	2556.059084
564.511904	2559.645865
564.868164	2556.711914
565.224370	2558.403221
565.580520	2557.440361
565.936615	2554.813919
566.292654	2558.118396
566.648638	2560.301215
567.004567	2556.631255
567.360441	2556.008673
567.716260	2555.517160
568.072023	2555.595298
568.427732	2552.840308
568.783385	2552.489948
569.138982	2555.040771
569.494525	2555.539846
569.850013	2553.205791
570.205445	2558.128478
570.560823	2556.966492
570.916145	2560.074363
571.271412	2556.931204
571.626625	2558.307439
571.981782	2557.672254
572.336884	2554.781152
572.691931	2557.989846
573.046923	2555.723848
573.401860	2554.229146
573.756743	2559.350958
574.111570	2555.363405
574.466342	2555.741492
574.821059	2556.341389
575.175722	2558.519168
575.530330	2556.464897
575.884882	2558.499003
576.239380	2556.669064
576.593823	2557.314332
576.948211	2557.064795
577.302544	2555.847356
577.656823	2556.026317
578.011047	2556.326266
578.365216	2554.695452
578.719330	2555.706204
579.073389	2556.013714
579.427394	2553.576316
579.781344	2553.382232
580.135239	2555.262582
580.489080	2557.906667
580.842866	2555.625545
581.196597	2559.613098
581.550273	2558.269630
581.903895	2555.433981
582.257463	2555.880123
582.610975	2555.486913
582.964434	2554.065308
583.317837	2554.536656
583.671186	2554.362736
584.024481	2555.698642
584.377721	2557.263920
584.730906	2555.504557
585.084037	2555.239897
585.437113	2553.881306
585.790135	2554.390463
586.143103	2553.442726
586.496016	2555.192006
586.848874	2549.205636
587.201679	2549.876109
587.554428	2551.837118
587.907124	2550.859134
588.259765	2548.706562
588.612352	2554.332489
588.964884	2553.319217
589.317362	2554.917263
589.669786	2552.260575
590.022155	2553.835936
590.374470	2555.930535
590.726731	2554.113199
591.078937	2551.980791
591.431090	2555.738971
591.783188	2553.535987
592.135232	2554.977757
592.487222	2556.568241
592.839157	2553.924156
593.191038	2553.233518
593.542866	2554.443395
593.894639	2553.130174
594.246358	2556.666543
594.598022	2556.225442
594.949633	2555.474311
595.301190	2550.891902
595.652692	2552.129505
596.004141	2555.285267
596.355535	2552.729402
596.706876	2552.633620
597.058162	2554.816440
597.409395	2555.542366
597.760573	2554.758467
598.111698	2552.986501
598.462768	2554.758467
598.813785	2552.608415
599.164748	2553.223435
599.515657	2550.503733
599.866511	2557.546225
600.217312	2553.669577
600.568060	2551.741336
600.918753	2555.098745
601.269392	2554.113199
601.619978	2552.343754
601.970510	2555.381049
602.320988	2553.518343
602.671412	2551.847200
603.021783	2552.797458
603.372100	2554.960113
603.722363	2553.457849
604.072572	2554.229146
604.422728	2553.309135
604.772830	2549.482899
605.122878	2549.513146
605.472872	2552.797458
605.822813	2548.353681
606.172701	2553.548590
606.522534	2552.933569
606.872314	2553.631769
607.222041	2555.804506
607.571714	2555.207129
607.921333	2552.671429
608.270899	2552.742005
608.620411	2555.781821
608.969870	2555.320555
609.319276	2555.176882
609.668627	2556.832902
610.017926	2559.509754
610.367171	2560.964127
610.716362	2560.646534
611.065500	2559.595454
611.414585	2559.078736
611.763616	2560.351627
612.112594	2558.715772
612.461518	2558.312480
612.810389	2556.532953
613.159207	2555.938097
613.507971	2556.283416
613.856682	2555.610422
614.205340	2557.205947
614.553945	2557.629404
614.902496	2559.028324
615.250994	2555.925494
615.599439	2555.917932
615.947830	2554.521533
616.296169	2555.204609
616.644454	2557.279044
616.992686	2554.599670
617.340864	2558.655279
617.688990	2553.006666
618.037063	2554.287119
618.385082	2557.006821
618.733048	2555.149156
619.080961	2555.224773
619.428821	2555.030689
619.776628	2556.351471
620.124382	2555.733930
620.472083	2556.724517
620.819731	2556.787531
621.167326	2554.445915
621.514868	2555.905329
621.862357	2559.078736
622.209793	2558.814075
622.557176	2556.752243
622.904506	2555.945658
623.251783	2551.643034
623.599007	2552.971378
623.946179	2552.431974
624.293297	2554.307283
624.640363	2553.578837
624.987376	2555.353323
625.334336	2556.406924
625.681243	2560.366750
626.028097	2555.118909
626.374899	2557.775597
626.721647	2553.510781
627.068343	2556.187634
627.414987	2556.709393
627.761577	2556.767367
628.108115	2557.871379
628.454600	2554.793755
628.801032	2554.944989
629.147412	2556.502706
629.493739	2558.504044
629.840014	2556.709393
630.186236	2556.389280
630.532405	2559.255176
630.878521	2559.103941
631.224585	2558.083108
631.570597	2559.051009
631.916556	2558.912377
632.262462	2558.463715
632.608316	2559.018242
632.954117	2558.216698
633.299866	2558.917419
633.645562	2557.263920
633.991206	2558.650237
634.336797	2556.389280
634.682336	2557.039589
635.027823	2556.336348
635.373257	2557.347099
635.718639	2556.721996
636.063968	2558.995557
636.409245	2555.660833
636.754470	2558.519168
637.099642	2558.375495
637.444762	2560.059240
637.789829	2559.003118
638.134845	2558.940104
638.479808	2557.372305
638.824719	2558.188972
639.169577	2558.493962
639.514383	2559.514795
639.859137	2559.809703
640.203839	2561.165773
640.548489	2557.946997
640.893086	2555.244938
641.237632	2556.263251
641.582125	2555.965823
641.926566	2554.824002
642.270955	2559.703839
642.615292	2559.247614
642.959576	2560.775084
643.303809	2562.514282
643.647990	2562.526885
643.992118	2558.861966
644.336195	2561.604354
644.680219	2561.319528
645.024192	2562.814231
645.368112	2563.951011
645.711981	2564.389591
646.055797	2562.887327
646.399562	2563.207441
646.743274	2565.178532
647.086935	2563.830023
647.430544	2566.685837
647.774101	2568.311609
648.117606	2564.268603
648.461059	2565.400343
648.804460	2566.358162
649.147810	2566.748851
649.491108	2569.075344
649.834354	2567.598286
650.177548	2565.307081
650.520690	2565.929664
650.863781	2566.141392
651.206820	2567.966290
651.549807	2568.097360
651.892742	2569.145920
652.235626	2569.977710
652.578458	2570.449058
652.921238	2572.084912
653.263967	2567.721794
653.606644	2570.396126
653.949269	2571.505180
654.291843	2568.162895
654.634365	2570.585169
654.976836	2569.965107
655.319255	2572.457958
655.661622	2572.682289
656.003938	2572.823442
656.346203	2573.768658
656.688416	2575.772517
657.030577	2576.569019
657.372687	2576.503484
657.714746	2572.909141
658.056753	2575.041549
658.398708	2570.751527
658.740612	2574.711354
659.082465	2576.276632
659.424266	2576.926941
659.766016	2574.083730
660.107715	2582.646130
660.449362	2578.051118
660.790958	2581.169072
661.132503	2583.326686
661.473996	2583.737540
661.815438	2583.286356
662.156829	2584.496233
662.498168	2586.124526
662.839456	2581.519432
663.180693	2589.242480
663.521879	2589.076122
663.863013	2587.291553
664.204097	2588.713158
664.545129	2589.902871
664.886110	2590.318766
665.227040	2595.705239
665.567918	2593.517378
665.908746	2596.078284
666.249522	2598.918974
666.590248	2597.197420
666.930922	2602.087340
667.271545	2600.985847
667.612118	2606.455499
667.952639	2606.236209
668.293109	2606.253853
668.633528	2608.479523
668.973896	2606.654625
669.314213	2609.170161
669.654480	2611.625203
669.994695	2611.335336
670.334859	2610.412805
670.674973	2613.064452
671.015035	2614.460852
671.355047	2613.298866
671.695008	2618.198867
672.034918	2616.242900
672.374777	2617.409927
672.714585	2623.512243
673.054342	2621.475617
673.394049	2625.420320
673.733705	2632.291413
674.073310	2631.139509
674.412864	2628.623973
674.752368	2631.275620
675.091820	2633.234109
675.431223	2631.073974
675.770574	2636.457927
676.109875	2628.596247
676.449125	2630.867287
676.788324	2631.570528
677.127473	2633.987761
677.466571	2630.819396
677.805619	2636.233595
678.144616	2639.323822
678.483562	2640.949595
678.822458	2639.056641
679.161303	2642.005716
679.500098	2642.005716
679.838842	2645.922693
680.177535	2644.669966
680.516179	2647.261119
680.854771	2650.149700
681.193314	2654.769918
681.531805	2661.693943
681.870247	2674.571570
682.208638	2680.530214
682.546978	2678.080213
682.885268	2682.075328
683.223508	2681.324196
683.561697	2681.218332
683.899836	2681.273784
684.237925	2682.642457
684.575963	2683.872499
684.913951	2683.832170
685.251889	2692.772656
685.589776	2691.867769
685.927614	2691.262831
686.265401	2701.377906
686.603137	2700.581403
686.940824	2711.301417
687.278460	2714.222766
687.616046	2720.123436
687.953582	2724.206771
688.291068	2727.816237
688.628504	2738.246384
688.965889	2735.491394
689.303224	2735.463667
689.640510	2732.552401
689.977745	2731.924777
690.314930	2726.898747
690.652065	2722.830536
690.989150	2716.609752
691.326185	2717.232335
691.663170	2715.954402
692.000105	2711.871067
692.336990	2705.816642
692.673825	2711.508104
693.010610	2705.083154
693.347345	2694.436237
693.684030	2704.800849
694.020665	2704.117773
694.357251	2695.494879
694.693786	2699.482432
695.030272	2703.603575
695.366707	2702.925540
695.703093	2696.137626
696.039429	2701.211548
696.375716	2711.195553
696.711952	2703.394367
697.048139	2703.452341
697.384276	2705.413349
697.720363	2710.315872
698.056400	2716.816439
698.392388	2714.081613
698.728326	2710.661191
699.064214	2706.938298
699.400053	2709.998279
699.735842	2712.188660
700.071581	2711.495502
700.407270	2708.639688
700.742910	2711.205635
701.078501	2706.567774
701.414042	2710.232692
701.749533	2711.571119
702.084974	2700.415045
702.420366	2710.880481
702.755709	2707.225644
703.091002	2704.460571
703.426246	2714.739484
703.761440	2702.867567
704.096584	2703.371682
704.431679	2711.452652
704.766725	2712.685214
705.101721	2712.765872
705.436668	2718.139742
705.771565	2706.224975
706.106413	2711.659339
706.441212	2723.017059
706.775961	2728.297667
707.110661	2721.819785
707.445311	2723.569065
707.779913	2738.599265
708.114465	2740.456930
708.448967	2737.908627
708.783421	2751.134094
709.117825	2758.910074
709.452180	2760.356885
709.786485	2764.420055
710.120742	2781.280194
710.454949	2775.082096
710.789107	2784.332613
711.123216	2799.481280
711.457275	2798.490693
711.791286	2813.488126
712.125247	2823.724189
712.459159	2798.614202
712.793023	2808.237764
713.126837	2826.814416
713.460602	2826.632935
713.794318	2805.197949
714.127985	2813.772951
714.461602	2810.823876
714.795171	2798.715025
715.128691	2795.866773
715.462162	2792.723613
715.795584	2792.237142
716.128957	2792.826957
716.462281	2775.308947
716.795556	2775.800460
717.128782	2782.669032
717.461960	2773.358021
717.795088	2775.331633
718.128167	2770.477002
718.461198	2759.257914
718.794180	2759.978799
719.127113	2764.072216
719.459997	2765.839140
719.792833	2754.241966
720.125619	2753.611821
720.458357	2751.809609
720.791046	2758.942842
721.123686	2759.416710
721.456278	2751.023189
721.788821	2754.148704
722.121315	2754.662902
722.453761	2744.686458
722.786158	2759.630959
723.118506	2764.881321
723.450805	2746.975142
723.783056	2751.892788
724.115259	2769.304933
724.447412	2770.431631
724.779518	2763.520209
725.111574	2765.456012
725.443582	2772.284255
725.775542	2777.670728
726.107453	2788.758746
726.439315	2789.766977
726.771129	2786.959054
727.102895	2793.328552
727.434612	2811.461582
727.766281	2811.905204
728.097901	2805.142496
728.429473	2810.350008
728.760996	2815.766728
729.092471	2806.007054
729.423897	2814.536686
729.755276	2823.520022
730.086606	2818.420895
730.417887	2817.994918
730.749120	2834.625684
731.080305	2863.017463
731.411442	2861.467308
731.742530	2850.223014
732.073570	2854.066894
732.404562	2875.920296
732.735506	2874.735625
733.066401	2866.334542
733.397249	2851.964733
733.728048	2838.588031
734.058798	2836.921930
734.389501	2825.952379
734.720156	2805.243319
735.050762	2798.866259
735.381320	2809.240954
735.711831	2793.331072
736.042293	2791.680095
736.372707	2802.269038
736.703073	2794.132616
737.033391	2789.214970
737.363661	2795.347534
737.693883	2806.974955
738.024056	2807.206848
738.354182	2800.222330
738.684260	2815.068528
739.014290	2819.290494
739.344272	2816.354022
739.674207	2833.289778
740.004093	2832.460509
740.333931	2834.139213
740.663722	2840.236488
740.993464	2841.337981
741.323159	2834.688699
741.652806	2831.343893
741.982405	2828.926660
742.311956	2827.532781
742.641460	2823.928356
742.970915	2821.937100
743.300323	2813.425112
743.629683	2801.470015
743.958996	2805.664255
744.288260	2803.768782
744.617477	2797.820220
744.946647	2791.213788
745.275768	2788.181534
745.604842	2792.254786
745.933869	2778.303393
746.262847	2775.583690
746.591778	2801.656538
746.920662	2787.311935
747.249498	2775.283742
747.578286	2797.265693
747.907027	2800.965900
748.235720	2787.808488
748.564365	2804.595531
748.892963	2813.382262
749.221514	2807.579894
749.550017	2798.881383
749.878473	2799.105714
750.206881	2793.996505
750.535242	2796.824592
750.863555	2799.448513
751.191821	2800.668472
751.520039	2787.407717
751.848210	2778.487395
752.176334	2798.442802
752.504411	2804.681230
752.832440	2787.758077
753.160421	2781.239865
753.488356	2789.819909
753.816243	2802.246353
754.144082	2786.154990
754.471875	2778.031171
754.799620	2790.318983
755.127318	2785.214815
755.454969	2786.943931
755.782572	2792.305198
756.110129	2782.394289
756.437638	2778.416819
756.765100	2787.614404
757.092515	2796.716207
757.419882	2798.846095
757.747203	2788.040382
758.074477	2785.045936
758.401703	2792.716052
758.728882	2800.426497
759.056014	2806.223823
759.383099	2802.248874
759.710138	2799.778708
760.037129	2800.728966
760.364073	2819.071204
760.690970	2819.880309
761.017820	2805.588638
761.344623	2810.680203
761.671379	2828.719972
761.998088	2845.106243
762.324751	2881.732746
762.651366	2941.543516
762.977935	3053.915877
763.304456	3179.402799
763.630931	3235.742734
763.957359	3132.620891
764.283740	3039.669576
764.610074	3001.671879
764.936362	2954.320321
765.262602	2902.625808
765.588796	2874.254195
765.914943	2846.043898
766.241044	2816.785041
766.567097	2813.432673
766.893104	2799.158646
767.219064	2790.324024
767.544978	2786.714558
767.870845	2762.600199
768.196665	2759.275558
768.522438	2768.679830
768.848165	2773.806684
769.173846	2756.956627
769.499479	2751.439084
769.825066	2744.320975
770.150607	2739.937692
770.476101	2753.024527
770.801548	2752.422109
771.126949	2731.314798
771.452303	2726.823130
771.777611	2733.933677
772.102872	2740.724112
772.428087	2728.731207
772.753256	2729.081567
773.078378	2724.625187
773.403453	2712.750749
773.728482	2709.131200
774.053465	2721.928169
774.378401	2717.711244
774.703291	2701.362782
775.028135	2705.935109
775.352932	2702.769264
775.677683	2700.251208
776.002388	2700.752803
776.327046	2703.298585
776.651658	2699.230374
776.976224	2695.600743
777.300743	2695.706608
777.625216	2692.497913
777.949643	2691.295598
778.274024	2691.388859
778.598359	2690.108406
778.922647	2691.167049
779.246889	2694.534539
779.571086	2685.964578
779.895236	2682.032478
780.219339	2689.115299
780.543397	2697.879345
780.867409	2697.886907
781.191374	2692.268541
781.515294	2692.984385
781.839167	2694.279961
782.162995	2687.673529
782.486776	2695.091587
782.810511	2694.090918
783.134201	2692.964220
783.457844	2694.910105
783.781441	2693.138140
784.104993	2682.014834
784.428498	2682.574402
784.751958	2694.342976
785.075372	2691.456915
785.398739	2680.903259
785.722061	2689.526153
786.045337	2697.675178
786.368568	2686.773683
786.691752	2685.397448
787.014891	2706.151878
787.337983	2713.774103
787.661030	2718.530432
787.984031	2739.408370
788.306987	2765.539191
788.629897	2757.864035
788.952760	2755.945876
789.275579	2760.029210
789.598351	2732.290261
789.921078	2719.301728
790.243759	2719.846173
790.566395	2710.245295
790.888984	2704.488298
791.211529	2696.467822
791.534027	2694.385825
791.856480	2692.747450
792.178888	2681.198167
792.501249	2683.358301
792.823566	2679.340502
793.145836	2678.196160
793.468062	2680.308403
793.790241	2677.820594
794.112375	2681.321675
794.434464	2686.803930
794.756507	2686.675381
795.078505	2689.828622
795.400457	2689.276616
795.722364	2701.894624
796.044226	2713.791747
796.366042	2713.229658
796.687812	2709.705892
797.009538	2722.011348
797.331218	2718.512788
797.652852	2712.629761
797.974442	2706.093905
798.295986	2706.189687
798.617484	2708.269163
798.938938	2697.783563
799.260346	2694.537060
799.581709	2693.874148
799.903026	2687.386183
800.224299	2690.678057
800.545526	2689.425330
800.866708	2676.910666
801.187845	2673.722136
801.508936	2674.233813
801.829983	2681.150276
802.150984	2673.497804
802.471940	2666.702329
802.792851	2669.301044
803.113717	2668.320539
803.434538	2672.635767
803.755314	2668.527227
804.076045	2665.094201
804.396731	2665.641166
804.717372	2664.582524
805.037967	2664.635456
805.358518	2667.645025
805.679024	2671.851868
805.999485	2669.580828
806.319901	2671.113339
806.640272	2666.828358
806.960598	2668.844819
807.280879	2675.665501
807.601115	2679.950481
807.921306	2672.229954
808.241453	2668.875066
808.561554	2675.383196
808.881611	2677.639112
809.201623	2673.160047
809.521590	2675.310099
809.841513	2672.066117
810.161390	2677.276149
810.481223	2672.729028
810.801011	2667.468584
811.120755	2665.600837
811.440453	2670.432783
811.760107	2670.684841
812.079716	2670.692402
812.399281	2667.231650
812.718801	2665.968841
813.038276	2657.746719
813.357707	2665.832730
813.677093	2676.139369
813.996434	2667.400529
814.315731	2666.830878
814.634983	2665.404232
814.954191	2663.697801
815.273354	2673.046621
815.592473	2676.928310
815.911547	2678.622137
816.230577	2683.597756
816.549562	2687.103879
816.868502	2684.467355
817.187399	2690.995649
817.506250	2700.954449
817.825058	2702.386137
818.143821	2704.916796
818.462539	2714.447097
818.781213	2724.834395
819.099843	2742.165882
819.418429	2766.272679
819.736970	2792.332924
820.055466	2823.888027
820.373919	2884.248282
820.692327	2959.759726
821.010691	3030.449305
821.329011	3196.373843
821.647286	3491.112464
821.965517	3960.973209
822.283704	4228.066142
822.601847	4248.069441
822.919945	4084.708330
823.237999	3990.708455
823.556010	3794.690749
823.873976	3570.203127
824.191897	3398.188876
824.509775	3269.200872
824.827609	3139.688589
825.145398	3080.959146
825.463144	3075.822211
825.780845	3123.524129
826.098502	3161.766322
826.416116	3277.670011
826.733685	3399.323135
827.051210	3424.027310
827.368692	3399.544946
827.686129	3308.453817
828.003522	3157.461177
828.320872	3034.948535
828.638177	2938.901952
828.955439	2867.753627
829.272656	2831.298523
829.589830	2797.303502
829.906960	2773.441200
830.224046	2750.009917
830.541088	2731.864284
830.858086	2723.075032
831.175041	2716.776110
831.491952	2719.596636
831.808819	2726.976885
832.125642	2739.972980
832.442421	2760.671957
832.759157	2794.545991
833.075849	2882.907335
833.392497	3017.054960
833.709101	3127.277268
834.025662	3100.173504
834.342179	3029.078112
834.658653	2947.585339
834.975083	2869.843185
835.291469	2830.244922
835.607811	2782.086779
835.924110	2750.778693
836.240366	2723.052347
836.556578	2698.602751
836.872746	2686.282171
837.188871	2673.117197
837.504952	2665.525220
837.820990	2664.970693
838.136984	2652.082983
838.452935	2649.491830
838.768842	2646.192395
839.084706	2656.902326
839.400526	2699.915971
839.716303	2761.859149
840.032037	2800.423976
840.347727	2795.092956
840.663373	2774.348608
840.978977	2737.535582
841.294537	2699.532843
841.610054	2673.197856
841.925527	2660.201761
842.240957	2645.390851
842.556344	2635.472381
842.871687	2625.420320
843.186987	2619.663322
843.502244	2617.324227
843.817458	2614.745677
844.132629	2607.640171
844.447756	2602.593976
844.762840	2597.124324
845.077881	2600.451485
845.392879	2600.128851
845.707833	2598.704725
846.022745	2590.830443
846.337613	2594.588623
846.652438	2595.102821
846.967221	2593.769436
847.281960	2593.814806
847.596656	2592.607450
847.911309	2591.037130
848.225919	2590.351533
848.540485	2587.019331
848.855009	2592.385639
849.169490	2587.019331
849.483928	2588.423292
849.798323	2585.307859
850.112675	2588.307346
850.426984	2586.757191
850.741251	2585.963209
851.055474	2586.011100
851.369654	2591.692480
851.683792	2588.720720
851.997887	2586.605956
852.311938	2586.979002
852.625947	2588.735844
852.939914	2590.858169
853.253837	2592.599888
853.567718	2589.335741
853.881555	2588.602253
854.195350	2590.691811
854.509103	2589.928077
854.822812	2587.236100
855.136479	2587.483117
855.450103	2589.275247
855.763685	2587.616707
856.077224	2588.955134
856.390720	2586.220308
856.704173	2587.311718
857.017584	2589.003025
857.330953	2591.972264
857.644278	2591.158118
857.957561	2592.743561
858.270802	2589.973447
858.584000	2588.556883
858.897155	2592.020155
859.210268	2594.344127
859.523339	2591.294229
859.836367	2587.057139
860.149352	2586.656368
860.462295	2588.057808
860.775195	2585.186871
861.088054	2585.796851
861.400869	2584.092941
861.713642	2580.909452
862.026373	2583.724937
862.339062	2585.106213
862.651708	2591.654672
862.964312	2590.437233
863.276873	2588.345154
863.589392	2590.843046
863.901869	2593.857656
864.214303	2597.636001
864.526696	2597.152050
864.839045	2598.019128
865.151353	2600.350662
865.463619	2600.872422
865.775842	2600.698502
866.088023	2602.440220
866.400162	2601.467278
866.712258	2602.936774
867.024313	2600.156578
867.336325	2599.521392
867.648296	2603.377875
867.960224	2604.600355
868.272110	2605.190170
868.583954	2598.969386
868.895755	2602.167998
869.207515	2602.480550
869.519233	2610.811056
869.830909	2605.623709
870.142542	2601.656321
870.454134	2604.769233
870.765684	2608.749224
871.077191	2611.045470
871.388657	2611.365583
871.700081	2609.762496
872.011463	2607.156220
872.322803	2609.457507
872.634101	2610.432970
872.945357	2615.569906
873.256571	2620.270782
873.567744	2616.757097
873.878874	2616.878085
874.189963	2618.566872
874.501010	2621.185751
874.812015	2624.860752
875.122979	2626.317646
875.433900	2620.046450
875.744780	2616.895729
876.055618	2621.553755
876.366415	2628.029117
876.677169	2628.959210
876.987882	2622.849332
877.298554	2620.837911
877.609183	2630.897534
877.919771	2634.232257
878.230317	2640.538741
878.540822	2647.296407
878.851285	2658.399549
879.161707	2673.341529
879.472087	2700.072247
879.782425	2730.616598
880.092722	2807.166519
880.402977	2911.959505
880.713191	3036.254194
881.023363	3148.765186
881.333494	3219.832852
881.643583	3329.735048
881.953631	3360.788555
882.263637	3283.071607
882.573602	3174.399453
882.883526	3118.079683
883.193408	3062.150601
883.503248	3009.397447
883.813048	2944.784978
884.122806	2873.908876
884.432522	2823.008345
884.742197	2784.204063
885.051831	2761.796135
885.361424	2741.742425
885.670975	2720.751060
885.980485	2695.686443
886.289954	2687.429033
886.599382	2676.683814
886.908768	2669.636281
887.218113	2656.902326
887.527417	2648.851603
887.836680	2645.582415
888.145901	2641.090747
888.455082	2635.626136
888.764221	2627.431741
889.073319	2623.030813
889.382376	2621.336986
889.691392	2623.539970
890.000366	2624.835546
890.309300	2623.784466
890.618193	2622.120885
890.927044	2626.204220
891.235855	2627.729169
891.544625	2623.497120
891.853353	2625.506020
892.162041	2631.590692
892.470687	2643.172743
892.779293	2649.454021
893.087858	2655.866369
893.396381	2668.229799
893.704864	2695.920857
894.013306	2742.652353
894.321707	2797.321146
894.630068	2827.227791
894.938387	2839.815552
895.246665	2842.820080
895.554903	2818.763694
895.863100	2793.900723
896.171256	2756.843201
896.479371	2710.527600
896.787446	2686.713189
897.095480	2676.335974
897.403473	2674.667352
897.711425	2664.035559
898.019336	2651.699855
898.327207	2641.257105
898.635038	2640.442959
898.942827	2639.749800
899.250576	2632.772843
899.558284	2625.178345
899.865952	2619.224742
900.173579	2621.795731
900.481165	2619.068466
900.788711	2613.271139
901.096216	2609.157558
901.403681	2606.200921
901.711105	2605.676641
902.018489	2604.343256
902.325832	2606.775613
902.633135	2609.442383
902.940397	2618.486213
903.247619	2646.386479
903.554800	2687.789476
903.861941	2764.382247
904.169041	2840.259174
904.476101	2875.022971
904.783121	2877.747714
905.090100	2844.957529
905.397039	2802.120324
905.703938	2755.840011
906.010796	2715.130173
906.317614	2681.475430
906.624391	2659.256545
906.931129	2638.678555
907.237826	2622.509054
907.544483	2610.122939
907.851099	2602.112545
908.157675	2594.482759
908.464211	2589.663416
908.770707	2584.100503
909.077163	2579.003896
909.383578	2574.708833
909.689954	2577.610017
909.996289	2574.479461
910.302584	2578.361149
910.608839	2574.476940
910.915054	2575.752352
911.221229	2572.828483
911.527363	2580.102868
911.833458	2574.658422
912.139513	2577.035326
912.445527	2573.929975
912.751502	2581.703434
913.057436	2585.809454
913.363331	2591.430340
913.669186	2597.537698
913.975000	2606.846189
914.280775	2618.861779
914.586510	2628.102214
914.892205	2652.440905
915.197859	2700.654500
915.503475	2753.125350
915.809050	2791.939714
916.114585	2797.787452
916.420081	2806.538896
916.725536	2814.826552
917.030952	2803.615026
917.336328	2775.293824
917.641665	2741.205542
917.946961	2707.752445
918.252218	2685.563806
918.557435	2669.588390
918.862612	2656.085659
919.167750	2643.865902
919.472848	2632.674541
919.777906	2620.379166
920.082925	2612.741818
920.387904	2602.984665
920.692843	2603.549274
920.997743	2600.617843
921.302603	2596.411000
921.607423	2591.488314
921.912204	2586.666450
922.216946	2583.830801
922.521647	2584.644947
922.826310	2580.450707
923.130932	2578.179667
923.435516	2573.241857
923.740059	2574.829821
924.044564	2572.304203
924.349028	2568.160374
924.653454	2565.604509
924.957840	2561.377502
925.262186	2560.833057
925.566493	2561.415310
925.870761	2558.090669
926.174989	2562.229457
926.479178	2557.261400
926.783328	2558.556976
927.087438	2560.142419
927.391509	2556.386759
927.695541	2555.229815
927.999533	2555.401214
928.303486	2554.284598
928.607400	2553.992211
928.911275	2554.224104
929.215110	2551.925338
929.518906	2551.393497
929.822663	2554.508930
930.126381	2550.334854
930.430060	2554.675288
930.733699	2552.237890
931.037299	2553.561193
931.340861	2553.379711
931.644383	2555.227294
931.947866	2552.545400
932.251309	2553.414999
932.554714	2553.057077
932.858080	2552.724361
933.161407	2553.596481
933.464694	2552.868034
933.767943	2553.097407
934.071153	2553.472972
934.374323	2550.838970
934.677455	2552.787376
934.980548	2552.305945
935.283602	2552.696635
935.586617	2549.187992
935.889593	2553.011707
936.192530	2552.742005
936.495428	2549.671942
936.798287	2551.874927
937.101108	2552.694114
937.403890	2552.731923
937.706632	2558.904816
938.009336	2558.133519
938.312002	2563.724159
938.614628	2562.592420
938.917216	2565.281875
939.219765	2567.477298
939.522275	2569.181208
939.824747	2568.911506
940.127179	2562.894889
940.429573	2557.578992
940.731929	2561.437996
941.034246	2558.292316
941.336524	2560.384394
941.638763	2561.639642
941.940964	2563.943449
942.243126	2558.572100
942.545250	2560.296174
942.847335	2556.202757
943.149381	2556.958930
943.451389	2552.182437
943.753359	2556.371636
944.055290	2555.365926
944.357182	2555.116389
944.659036	2551.701007
944.960851	2554.803837
945.262628	2554.440874
945.564367	2553.601522
945.866067	2554.904660
946.167729	2553.268806
946.469352	2552.971378
946.770937	2554.589588
947.072484	2555.413817
947.373992	2552.192519
947.675462	2551.252344
947.976893	2553.926676
948.278286	2550.012220
948.579641	2550.047508
948.880958	2550.634803
949.182236	2551.456511
949.483476	2551.572458
949.784678	2554.342572
950.085841	2549.253527
950.386967	2553.906512
950.688054	2551.388455
950.989103	2553.475493
951.290114	2556.250648
951.591087	2556.195196
951.892021	2555.033210
952.192917	2558.052861
952.493776	2556.631255
952.794596	2556.361554
953.095378	2558.325083
953.396122	2556.301060
953.696828	2559.638304
953.997496	2554.516491
954.298126	2554.024979
954.598718	2549.492982
954.899272	2550.559186
955.199788	2548.540203
955.500266	2551.413661
955.800706	2546.617003
956.101108	2545.180274
956.401472	2546.521221
956.701798	2544.895449
957.002087	2544.643392
957.302337	2544.643392
957.602550	2544.434184
957.902724	2545.152548
958.202861	2544.040974
958.502960	2542.999975
958.803022	2547.388300
959.103045	2545.875954
959.403031	2543.183977
959.702979	2544.608103
960.002889	2543.824204
960.302762	2541.094419
960.602596	2542.694986
960.902393	2542.654656
961.202153	2544.222455
961.501875	2541.996786
961.801559	2543.932589
962.101205	2542.233720
962.400814	2543.710778
962.700385	2542.584080
962.999918	2542.392516
963.299414	2541.258257
963.598873	2541.202804
963.898293	2540.013092
964.197677	2545.457538
964.497022	2544.996272
964.796331	2542.453010
965.095601	2539.357742
965.394835	2543.289842
965.694030	2542.420243
965.993189	2542.296734
966.292309	2538.117618
966.591393	2540.802032
966.890439	2542.271529
967.189447	2542.689944
967.488419	2540.015612
967.787353	2539.453524
968.086249	2540.854964
968.385108	2541.258257
968.683930	2541.454862
968.982714	2542.269008
969.281462	2539.796322
969.580172	2541.893442
969.878844	2545.265974
970.177480	2541.931251
970.476078	2538.760365
970.774639	2543.735984
971.073162	2542.185829
971.371649	2540.086188
971.670098	2541.769934
971.968510	2538.349511
972.266885	2538.016795
972.565223	2541.875798
972.863524	2543.998124
973.161788	2541.805222
973.460014	2543.680531
973.758204	2541.739687
974.056356	2542.269008
974.354471	2542.601724
974.652550	2541.764893
974.950591	2541.500232
975.248595	2541.744728
975.546563	2542.730274
975.844493	2542.969728
976.142386	2542.379913
976.440243	2541.722043
976.738062	2542.382434
977.035845	2542.538710
977.333590	2540.824718
977.631299	2541.288504
977.928971	2540.267670
978.226606	2542.455531
978.524204	2541.835469
978.821765	2543.189019
979.119290	2542.011909
979.416777	2540.486960
979.714228	2541.792619
980.011642	2540.141641
980.309020	2543.630120
980.606360	2541.533000
980.903664	2542.939482
981.200931	2541.885880
981.498162	2543.768751
981.795356	2544.401416
982.092513	2546.430481
982.389633	2546.979966
982.686717	2551.811912
982.983764	2549.992056
983.280775	2553.205791
983.577749	2553.281409
983.874686	2552.537838
984.171587	2550.395348
984.468451	2546.248999
984.765279	2548.119267
985.062070	2543.385624
985.358824	2543.481406
985.655543	2541.109543
985.952224	2544.978628
986.248869	2542.253885
986.545478	2537.958822
986.842050	2539.292207
987.138586	2538.410005
987.435086	2538.664583
987.731549	2536.854809
988.027975	2540.174409
988.324366	2541.079296
988.620719	2542.165664
988.917037	2539.864378
989.213318	2541.285983
989.509563	2541.238092
989.805772	2538.523431
990.101944	2539.387989
990.398080	2540.318082
990.694180	2540.849923
990.990244	2540.403781
991.286271	2541.379244
991.582262	2540.053421
991.878217	2537.011085
992.174136	2539.584594
992.470019	2538.241126
992.765865	2538.410005
993.061676	2540.504604
993.357450	2539.763555
993.653188	2538.122659
993.948890	2540.060983
994.244556	2538.591486
994.540186	2541.336395
994.835780	2540.872608
995.131337	2540.920499
995.426859	2543.607434
995.722345	2544.023330
996.017795	2540.933102
996.313208	2543.967877
996.608586	2541.117104
996.903928	2542.241282
997.199234	2541.182639
997.494504	2539.040149
997.789738	2539.786240
998.084936	2540.575180
998.380099	2541.895963
998.675225	2543.287321
998.970316	2542.891591
999.265371	2541.676672
999.560390	2542.226158
999.855373	2539.042670
1000.150320	2538.982176
1000.445232	2539.360262
1000.740108	2541.429656
1001.034948	2540.068544
1001.329752	2540.776827
1001.624521	2539.088040
1001.919254	2533.953625
1002.213951	2539.012423
1002.508613	2533.147040
1002.803239	2538.309182
1003.097829	2533.978831
1003.392384	2536.590148
1003.686903	2538.576363
1003.981386	2538.553678
1004.275834	2536.617875
1004.570246	2540.103832
1004.864623	2537.215251
1005.158964	2538.904038
1005.453270	2541.036446
1005.747540	2541.197763
1006.041775	2539.584594
1006.335974	2537.673996
1006.630138	2535.481094
1006.924266	2536.383461
1007.218359	2539.473688
1007.512416	2541.485109
1007.806438	2536.466640
1008.100425	2539.947557
1008.394376	2540.958308
1008.688292	2537.298430
1008.982172	2538.878832
1009.276017	2537.752134
1009.569827	2539.584594
1009.863602	2541.487629
1010.157341	2538.901517
1010.451045	2539.680376
1010.744714	2539.851775
1011.038347	2538.659542
1011.331945	2538.062165
1011.625508	2540.824718
1011.919036	2538.226003
1012.212528	2536.607792
1012.505986	2537.328677
1012.799408	2540.484440
1013.092795	2537.071578
1013.386147	2536.738862
1013.679464	2541.084337
1013.972745	2539.531662
1014.265992	2537.457227
1014.559204	2537.500077
1014.852380	2538.470499
1015.145521	2538.649460
1015.438628	2537.883204
1015.731699	2540.555016
1016.024736	2536.277597
1016.317737	2537.653832
1016.610703	2538.599048
1016.903635	2536.335570
1017.196531	2536.837165
1017.489393	2534.848430
1017.782219	2533.275590
1018.075011	2537.666435
1018.367768	2537.520241
1018.660490	2537.442103
1018.953177	2537.442103
1019.245829	2537.442103
