Dividing Wavelength (nm)	Counts (n)	Blue Motor Position (mm): 17.000000	Red Motor Position (mm): 0.000000	
326.493990	2135.437810
326.888308	2135.437810
327.282561	2135.437810
327.676750	2102.148551
328.070874	2103.217276
328.464933	2107.860178
328.858929	2111.822525
329.252859	2119.941303
329.646726	2134.580814
330.040528	2146.213277
330.434265	2163.234733
330.827938	2180.170489
331.221547	2198.328725
331.615091	2216.827239
332.008571	2236.127297
332.401986	2256.448188
332.795338	2274.467792
333.188625	2295.388581
333.581847	2311.419450
333.975006	2328.808910
334.368100	2351.012672
334.761129	2367.968593
335.154095	2384.354864
335.546996	2403.949829
335.939833	2423.297777
336.332606	2437.980138
336.725315	2447.739812
337.117960	2460.796400
337.510540	2466.182873
337.903056	2481.288691
338.295508	2485.976964
338.687896	2493.722697
339.080220	2504.173008
339.472480	2512.125429
339.864676	2514.572909
340.256807	2519.578775
340.648875	2521.333096
341.040879	2526.011287
341.432818	2526.263345
341.824694	2525.635721
342.216506	2525.701256
342.608253	2529.204858
342.999937	2529.277955
343.391557	2528.403314
343.783113	2524.718231
344.174605	2525.587830
344.566033	2524.904754
344.957397	2523.286543
345.348697	2519.702283
345.739934	2519.414937
346.131106	2516.627179
346.522215	2515.450070
346.913260	2513.201715
347.304241	2511.855727
347.695159	2508.652074
348.086012	2509.410767
348.476802	2508.629388
348.867528	2505.876918
349.258191	2500.510610
349.648789	2503.699140
350.039324	2498.668068
350.429796	2499.809890
350.820203	2499.562873
351.210548	2497.909375
351.600828	2497.400218
351.991045	2497.992554
352.381198	2494.952738
352.771288	2493.576503
353.161314	2496.979282
353.551276	2493.914260
353.941175	2494.299909
354.331010	2495.356030
354.720782	2498.673110
355.110490	2494.113386
355.500135	2494.052892
355.889717	2494.985506
356.279235	2494.960300
356.668689	2494.695639
357.058080	2497.629591
357.447408	2491.073570
357.836672	2493.084991
358.225873	2492.472490
358.615010	2490.889568
359.004084	2499.031032
359.393095	2497.642194
359.782043	2496.235712
360.170927	2499.726711
360.559748	2499.830054
360.948505	2499.250322
361.337199	2501.609582
361.725830	2499.247801
362.114398	2503.406753
362.502903	2500.616474
362.891344	2502.756444
363.279722	2501.163440
363.668037	2502.751403
364.056289	2500.939108
364.444478	2503.323574
364.832603	2502.887514
365.220665	2505.672752
365.608665	2503.187463
365.996601	2504.374655
366.384474	2503.177381
366.772284	2507.590911
367.160031	2506.832217
367.547715	2507.240551
367.935336	2507.840448
368.322893	2507.664007
368.710388	2506.900273
369.097820	2511.170130
369.485189	2506.708709
369.872495	2509.418329
370.259738	2508.919255
370.646918	2509.388082
371.034035	2508.059738
371.421090	2508.745335
371.808081	2509.254492
372.195010	2511.212980
372.581875	2505.607217
372.968678	2510.386231
373.355418	2510.907990
373.742096	2510.645850
374.128710	2512.385048
374.515262	2509.809018
374.901751	2511.926303
375.288177	2512.029647
375.674540	2507.270798
376.060841	2512.652229
376.447079	2511.933865
376.833254	2514.835049
377.219367	2507.023781
377.605417	2512.241375
377.991404	2509.181395
378.377329	2511.379338
378.763191	2508.218534
379.148991	2514.157014
379.534727	2515.553413
379.920402	2513.113495
380.306013	2515.230779
380.691563	2515.694566
381.077049	2511.686848
381.462474	2515.709689
381.847835	2514.343536
382.233134	2514.525018
382.618371	2514.882940
383.003545	2518.636079
383.388657	2515.298835
383.773706	2516.722961
384.158693	2515.765142
384.543618	2515.702127
384.928480	2515.167765
385.313280	2516.768331
385.698017	2517.393434
386.082692	2517.330420
386.467305	2517.590039
386.851856	2516.614576
387.236344	2518.605832
387.620770	2518.666326
388.005133	2517.895029
388.389435	2519.977026
388.773674	2520.919722
389.157851	2517.189268
389.541965	2517.567354
389.926018	2521.292767
390.310008	2516.251613
390.693936	2518.399145
391.077802	2519.130112
391.461606	2520.927283
391.845348	2519.036851
392.229027	2519.558610
392.612645	2522.021214
392.996200	2521.806965
393.379694	2523.291584
393.763125	2520.294618
394.146494	2519.495596
394.529801	2523.470545
394.913047	2523.178158
395.296230	2523.352078
395.679351	2521.217150
396.062410	2524.375433
396.445408	2523.450381
396.828343	2524.448529
397.211217	2517.159021
397.594028	2523.173117
397.976778	2518.656243
398.359466	2521.479290
398.742092	2518.656243
399.124656	2522.437109
399.507158	2524.206554
399.889598	2523.725124
400.271977	2524.088087
400.654294	2526.021369
401.036549	2524.085566
401.418742	2527.546318
401.800874	2527.022038
402.182944	2526.517923
402.564952	2525.333252
402.946898	2526.301153
403.328783	2524.791328
403.710606	2526.742254
404.092367	2524.564476
404.474067	2525.993643
404.855705	2526.306194
405.237282	2524.902233
405.618797	2526.210413
406.000250	2527.957172
406.381642	2526.404497
406.762972	2525.597912
407.144240	2526.419620
407.525447	2531.818696
407.906593	2528.794004
408.287677	2526.245701
408.668700	2529.038500
409.049661	2529.766947
409.430560	2528.166380
409.811399	2530.593696
410.192176	2528.862059
410.572891	2530.107224
410.953545	2529.560259
411.334138	2528.123530
411.714669	2529.527492
412.095139	2529.517409
412.475547	2529.295599
412.855894	2529.149405
413.236180	2530.792821
413.616405	2529.565300
413.996568	2529.041020
414.376670	2529.633356
414.756711	2532.045548
415.136691	2531.186031
415.516609	2530.437420
415.896466	2532.867256
416.276262	2532.232071
416.655997	2531.039838
417.035670	2527.264014
417.415283	2527.402645
417.794834	2528.874662
418.174324	2531.034797
418.553753	2530.006401
418.933121	2532.317770
419.312428	2533.648635
419.691674	2533.630991
420.070859	2531.833820
420.449983	2531.906916
420.829045	2532.995806
421.208047	2531.465815
421.586988	2533.431865
421.965867	2531.155784
422.344686	2529.708973
422.723444	2536.643080
423.102141	2533.154602
423.480777	2535.082843
423.859352	2532.431196
424.237866	2534.223327
424.616319	2534.346835
424.994712	2534.982020
425.373044	2534.936650
425.751314	2536.335570
426.129524	2537.134593
426.507673	2537.550488
426.885762	2536.685930
427.263789	2536.995961
427.641756	2537.936136
428.019662	2535.564273
428.397508	2536.617875
428.775292	2535.067720
429.153016	2534.626619
429.530679	2537.036290
429.908282	2535.445806
430.285824	2535.957483
430.663305	2534.689633
431.040726	2536.517052
431.418086	2534.064530
431.795385	2540.691127
432.172624	2534.276259
432.549802	2538.588966
432.926920	2536.209541
433.303977	2538.508307
433.680974	2535.647453
434.057910	2536.161650
434.434786	2535.881866
434.811601	2537.633667
435.188355	2535.103008
435.565050	2537.164840
435.941683	2537.033770
436.318257	2535.672658
436.694770	2536.557381
437.071222	2532.504293
437.447614	2533.078985
437.823946	2533.618388
438.200218	2537.968904
438.576429	2536.648122
438.952580	2539.302289
439.328670	2539.085519
439.704700	2539.614841
440.080670	2537.593338
440.456580	2536.943029
440.832429	2541.147351
441.208218	2540.479398
441.583947	2539.508976
441.959616	2538.369676
442.335224	2539.302289
442.710773	2539.950077
443.086261	2541.467465
443.461689	2538.180632
443.837057	2538.732639
444.212365	2539.072917
444.587612	2538.286497
444.962800	2539.246836
445.337927	2541.888401
445.712995	2539.725746
446.088002	2544.235058
446.462949	2536.874973
446.837837	2543.821683
447.212664	2541.701878
447.587431	2540.411343
447.962139	2540.854964
448.336786	2544.759338
448.711374	2543.161292
449.085901	2541.401930
449.460369	2542.407640
449.834776	2544.582898
450.209124	2539.561908
450.583412	2541.994265
450.957640	2540.794471
451.331808	2542.619368
451.705917	2542.160623
452.079965	2542.397557
452.453954	2540.933102
452.827883	2543.604914
453.201752	2539.813966
453.575562	2542.347146
453.949311	2543.471323
454.323001	2543.824204
454.696632	2542.962167
455.070202	2545.790254
455.443713	2543.521735
455.817164	2541.974101
456.190556	2538.742721
456.563888	2539.050231
456.937160	2539.841692
457.310373	2543.138607
457.683526	2544.948381
458.056619	2540.862526
458.429653	2543.725902
458.802628	2544.169523
459.175542	2544.262784
459.548398	2541.711961
459.921194	2545.540717
460.293930	2544.290511
460.666607	2544.419060
461.039224	2546.087682
461.411782	2545.059287
461.784280	2544.383772
462.156719	2546.501057
462.529099	2546.586756
462.901419	2547.723537
463.273680	2547.320244
463.645882	2545.137425
464.018024	2545.641540
464.390106	2545.681869
464.762130	2548.212528
465.134094	2545.122301
465.505999	2547.955430
465.877845	2550.385266
466.249631	2549.893753
466.621358	2548.068856
466.993026	2549.621531
467.364634	2549.969371
467.736184	2550.009700
468.107674	2545.772610
468.479105	2545.966694
468.850477	2546.548948
469.221790	2549.424926
469.593043	2547.342929
469.964238	2548.721685
470.335373	2547.607590
470.706449	2544.734132
471.077467	2547.302600
471.448425	2547.660522
471.819324	2547.539534
472.190164	2548.182282
472.560945	2548.454504
472.931667	2548.842673
473.302330	2547.158927
473.672934	2548.288146
474.043479	2547.794113
474.413965	2550.362581
474.784393	2543.153731
475.154761	2548.129349
475.525070	2546.175902
475.895321	2544.255223
476.265513	2545.497867
476.635645	2550.143290
477.005719	2546.148176
477.375734	2548.179761
477.745691	2548.000800
478.115588	2551.065822
478.485427	2549.893753
478.855207	2548.512477
479.224928	2551.199412
479.594591	2551.809392
479.964194	2551.249824
480.333739	2551.143959
480.703226	2553.891388
481.072653	2553.412479
481.442022	2553.354505
481.811333	2551.620348
482.180584	2553.757798
482.549777	2550.760832
482.918912	2552.076573
483.287988	2553.755277
483.657005	2553.029351
484.025964	2551.945503
484.394864	2551.902653
484.763706	2551.287632
485.132489	2551.259906
485.501213	2553.520863
485.869879	2553.092365
486.238487	2550.977601
486.607036	2552.169834
486.975527	2552.363919
487.343959	2552.278219
487.712333	2554.317366
488.080648	2553.369629
488.448905	2552.467262
488.817104	2553.349464
489.185244	2553.530946
489.553326	2555.585216
489.921350	2555.640669
490.289315	2554.778631
490.657222	2555.928014
491.025070	2557.319373
491.392861	2557.793241
491.760593	2554.196378
492.128267	2554.473642
492.495883	2555.640669
492.863440	2554.546738
493.230939	2555.350802
493.598380	2553.510781
493.965763	2550.178578
494.333088	2553.218394
494.700354	2553.046995
495.067563	2554.430792
495.434713	2550.521377
495.801805	2557.397511
496.168839	2557.057233
496.535815	2558.660320
496.902733	2555.502037
497.269593	2557.846173
497.636395	2556.084290
498.003139	2556.633776
498.369825	2558.125958
498.736453	2556.631255
499.103023	2558.965310
499.469535	2559.761812
499.835989	2556.638817
500.202385	2556.205278
500.568723	2556.434650
500.935003	2558.977913
501.301226	2556.520350
501.667390	2560.097049
502.033497	2562.683161
502.399546	2562.100907
502.765537	2557.805844
503.131470	2562.007646
503.497345	2558.017573
503.863163	2560.699467
504.228923	2562.060578
504.594625	2560.722152
504.960269	2559.056050
505.325856	2561.009497
505.691385	2560.170145
506.056856	2563.797256
506.422270	2564.034190
506.787625	2564.301371
507.152924	2561.695094
507.518164	2562.536967
507.883347	2564.059396
508.248472	2564.180383
508.613540	2565.609550
508.978550	2563.391443
509.343503	2567.845302
509.708398	2569.050138
510.073236	2568.306568
510.438016	2569.067782
510.802738	2570.254974
511.167403	2570.423852
511.532010	2568.997206
511.896561	2570.817062
512.261053	2574.308061
512.625488	2568.016701
512.989866	2568.961918
513.354186	2574.958370
513.718449	2574.161868
514.082655	2575.074317
514.446803	2579.825604
514.810894	2580.352405
515.174927	2585.985894
515.538904	2583.646799
515.902822	2584.584453
516.266684	2585.209557
516.630488	2586.789958
516.994235	2590.752305
517.357925	2592.095773
517.721558	2595.586772
518.085133	2598.810590
518.448651	2599.337390
518.812112	2601.941146
519.175516	2605.727053
519.538863	2611.206787
519.902152	2611.995727
520.265385	2615.821963
520.628560	2618.352622
520.991678	2620.936214
521.354739	2623.204733
521.717743	2627.938377
522.080690	2631.575569
522.443580	2638.144192
522.806413	2639.971611
523.169189	2643.437404
523.531908	2651.636841
523.894569	2652.713127
524.257174	2658.462563
524.619722	2667.866836
524.982213	2668.829696
525.344647	2680.406706
525.707025	2683.839732
526.069345	2689.589167
526.431608	2695.411700
526.793815	2700.664582
527.155964	2708.299410
527.518057	2714.139587
527.880093	2719.599156
528.242072	2728.819427
528.603995	2739.436097
528.965860	2743.751324
529.327669	2751.519742
529.689421	2758.194230
530.051117	2769.083122
530.412755	2781.247427
530.774337	2787.259003
531.135862	2799.529171
531.497331	2804.290541
531.858743	2811.464103
532.220098	2827.983964
532.581396	2835.732217
532.942638	2845.907787
533.303824	2858.157790
533.664953	2876.615975
534.026025	2883.776934
534.387040	2900.808473
534.747999	2912.231727
535.108902	2930.596651
535.469748	2931.415838
535.830537	2950.788992
536.191270	2966.847588
536.551947	2983.410299
536.912567	2998.518637
537.273131	3010.763600
537.633638	3026.396218
537.994089	3045.663508
538.354483	3061.926270
538.714821	3083.888057
539.075103	3106.109463
539.435328	3122.767956
539.795497	3127.680560
540.155609	3160.700118
540.515665	3187.451001
540.875665	3187.272040
541.235609	3214.448900
541.595496	3234.535378
541.955328	3268.472425
542.315102	3278.864764
542.674821	3296.894451
543.034483	3316.244920
543.394090	3344.062007
543.753640	3359.891230
544.113134	3408.167840
544.472571	3417.982966
544.831953	3460.132053
545.191278	3465.407621
545.550548	3492.420644
545.909761	3534.181562
546.268918	3564.801531
546.628019	3599.663630
546.987064	3618.215076
547.346053	3631.248980
547.704986	3678.222451
548.063863	3707.284703
548.422684	3728.114751
548.781449	3753.411261
549.140158	3798.741316
549.498811	3813.179181
549.857408	3815.656908
550.215949	3892.910070
550.574434	3897.437026
550.932864	3955.639668
551.291237	3986.403309
551.649555	4028.741440
552.007817	4055.404102
552.366022	4081.456786
552.724173	4121.579329
553.082267	4147.904234
553.440305	4225.364084
553.798288	4210.275910
554.156215	4288.013023
554.514086	4319.434535
554.871902	4320.115091
555.229661	4370.236763
555.587365	4402.911002
555.945014	4410.064399
556.302606	4487.201615
556.660143	4492.756966
557.017625	4580.699895
557.375050	4590.268005
557.732421	4657.544724
558.089735	4687.335422
558.446994	4719.729877
558.804197	4774.749030
559.161345	4811.887210
559.518437	4800.416065
559.875474	4874.836098
560.232455	4927.216208
560.589381	4947.700936
560.946251	5008.986243
561.303065	5053.497111
561.659825	5091.134366
562.016528	5106.144402
562.373177	5097.002269
562.729770	5192.335529
563.086307	5199.524215
563.442789	5264.613073
563.799216	5288.281290
564.155587	5334.261654
564.511904	5367.752560
564.868164	5404.008538
565.224370	5446.623932
565.580520	5479.010825
565.936615	5492.705120
566.292654	5511.801010
566.648638	5589.417136
567.004567	5623.860819
567.360441	5649.361496
567.716260	5668.676677
568.072023	5746.227267
568.427732	5777.023676
568.783385	5760.783599
569.138982	5846.856260
569.494525	5891.402416
569.850013	5879.593513
570.205445	5963.140555
570.560823	5949.347958
570.916145	5971.995342
571.271412	6039.385487
571.626625	6059.308127
571.981782	6086.137148
572.336884	6121.183249
572.691931	6146.842722
573.046923	6180.454615
573.401860	6190.647828
573.756743	6207.296239
574.111570	6266.532317
574.466342	6293.875536
574.821059	6347.664647
575.175722	6333.214180
575.530330	6385.193517
575.884882	6409.663278
576.239380	6421.457057
576.593823	6439.897598
576.948211	6490.367110
577.302544	6457.168591
577.656823	6512.278485
578.011047	6545.998763
578.365216	6571.645633
578.719330	6563.615075
579.073389	6614.928980
579.427394	6606.832887
579.781344	6628.522452
580.135239	6640.217928
580.489080	6676.267220
580.842866	6657.214179
581.196597	6695.617689
581.550273	6747.654999
581.903895	6774.161386
582.257463	6839.323341
582.610975	6802.641385
582.964434	6851.338931
583.317837	6839.275450
583.671186	6846.973292
584.024481	6879.660133
584.377721	6860.050045
584.730906	6875.206274
585.084037	6930.830365
585.437113	6912.329331
585.790135	6959.007895
586.143103	6924.556649
586.496016	6936.005110
586.848874	6998.585994
587.201679	7018.430496
587.554428	6978.950699
587.907124	7038.335492
588.259765	7035.895573
588.612352	7075.997952
588.964884	7009.081676
589.317362	7050.976185
589.669786	7072.998466
590.022155	7127.342104
590.374470	7177.315062
590.726731	7144.965978
591.078937	7077.041471
591.431090	7189.567587
591.783188	7114.424147
592.135232	7138.546068
592.487222	7153.460322
592.839157	7222.932463
593.191038	7203.035029
593.542866	7174.683580
593.894639	7125.980992
594.246358	7190.603544
594.598022	7226.801549
594.949633	7173.619896
595.301190	7174.585277
595.652692	7215.131278
596.004141	7331.609658
596.355535	7172.709968
596.706876	7177.534352
597.058162	7148.701473
597.409395	7225.526137
597.760573	7301.405585
598.111698	7243.288642
598.462768	7254.885817
598.813785	7240.851245
599.164748	7243.696976
599.515657	7240.541214
599.866511	7192.977927
600.217312	7307.593601
600.568060	7212.693880
600.918753	7317.438974
601.269392	7305.836759
601.619978	7253.686022
601.970510	7324.378123
602.320988	7332.068403
602.671412	7403.725884
603.021783	7363.721808
603.372100	7352.225457
603.722363	7374.935855
604.072572	7364.808177
604.422728	7392.227012
604.772830	7345.722368
605.122878	7366.174329
605.472872	7370.227417
605.822813	7410.723006
606.172701	7370.872685
606.522534	7456.002650
606.872314	7461.522713
607.222041	7452.708256
607.571714	7519.417844
607.921333	7486.839388
608.270899	7509.539703
608.620411	7599.519258
608.969870	7520.461363
609.319276	7528.431428
609.668627	7555.401601
610.017926	7597.727128
610.367171	7654.246025
610.716362	7642.275805
611.065500	7645.849983
611.414585	7682.703338
611.763616	7677.352153
612.112594	7671.330495
612.461518	7691.888320
612.810389	7757.594720
613.159207	7718.964358
613.507971	7671.728746
613.856682	7791.733413
614.205340	7759.591017
614.553945	7839.679828
614.902496	7754.048268
615.250994	7813.049932
615.599439	7804.341339
615.947830	7821.070408
616.296169	7800.457130
616.644454	7821.912281
616.992686	7823.475039
617.340864	7886.156746
617.688990	7804.734549
618.037063	7899.107470
618.385082	7849.499995
618.733048	7938.007533
619.080961	7884.596508
619.428821	7907.080055
619.776628	7916.403669
620.124382	7880.336733
620.472083	7872.490177
620.819731	7908.138697
621.167326	7808.268398
621.514868	7822.060995
621.862357	7721.248000
622.209793	7742.682987
622.557176	7692.939401
622.904506	7665.767582
623.251783	7605.871112
623.599007	7572.654950
623.946179	7577.181906
624.293297	7543.050774
624.640363	7465.288455
624.987376	7454.853267
625.334336	7410.130670
625.681243	7366.733897
626.028097	7355.580344
626.374899	7343.005186
626.721647	7336.403795
627.068343	7271.400637
627.414987	7247.563541
627.761577	7210.382511
628.108115	7244.518684
628.454600	7153.193141
628.801032	7198.651746
629.147412	7163.099008
629.493739	7154.385374
629.840014	7094.819100
630.186236	7154.488717
630.532405	7042.716254
630.878521	7092.555622
631.224585	7054.240332
631.570597	6983.543191
631.916556	7012.555031
632.262462	7013.006214
632.608316	6979.558158
632.954117	6957.926567
633.299866	6944.733868
633.645562	6939.448218
633.991206	6865.544903
634.336797	6813.505071
634.682336	6771.971005
635.027823	6744.995791
635.373257	6733.577577
635.718639	6672.478793
636.063968	6682.372057
636.409245	6584.377067
636.754470	6581.841367
637.099642	6539.508277
637.444762	6490.651935
637.789829	6501.384552
638.134845	6448.752385
638.479808	6427.330002
638.824719	6438.208812
639.169577	6369.558378
639.514383	6389.604527
639.859137	6315.681047
640.203839	6328.903993
640.548489	6306.662422
640.893086	6290.800432
641.237632	6264.155413
641.582125	6283.770543
641.926566	6258.998313
642.270955	6272.848883
642.615292	6268.543738
642.959576	6281.751561
643.303809	6267.918635
643.647990	6280.604698
643.992118	6271.081959
644.336195	6219.556325
644.680219	6243.879893
645.024192	6233.336319
645.368112	6336.856413
645.711981	6348.355285
646.055797	6424.819507
646.399562	6385.609412
646.743274	6516.187900
647.086935	6561.195321
647.430544	6557.328756
647.774101	6584.666934
648.117606	6585.828920
648.461059	6580.719710
648.804460	6539.057094
649.147810	6449.012004
649.491108	6421.459578
649.834354	6397.766155
650.177548	6316.497714
650.520690	6227.496143
650.863781	6210.807403
651.206820	6230.949333
651.549807	6156.158774
651.892742	6095.947233
652.235626	6103.526608
652.578458	6084.841571
652.921238	5997.569116
653.263967	6033.441966
653.606644	5978.717721
653.949269	5979.766281
654.291843	5919.249749
654.634365	5969.757070
654.976836	5927.739053
655.319255	5928.064207
655.661622	5907.292132
656.003938	5897.590432
656.346203	5859.668352
656.688416	5897.681173
657.030577	5846.523543
657.372687	5818.840047
657.714746	5807.225229
658.056753	5847.642680
658.398708	5786.662362
658.740612	5777.550477
659.082465	5824.413043
659.424266	5818.950953
659.766016	5820.649821
660.107715	5797.205935
660.449362	5806.748840
660.790958	5807.028624
661.132503	5790.665038
661.473996	5828.549309
661.815438	5817.703267
662.156829	5810.789324
662.498168	5802.511750
662.839456	5783.380571
663.180693	5817.899872
663.521879	5815.049099
663.863013	5809.518954
664.204097	5822.363814
664.545129	5862.065421
664.886110	5864.102047
665.227040	5898.777624
665.567918	5864.510380
665.908746	5886.696498
666.249522	5894.406943
666.590248	5876.604108
666.930922	5910.717597
667.271545	5922.692858
667.612118	5924.152272
667.952639	5900.854579
668.293109	5919.398463
668.633528	5876.077308
668.973896	5882.978648
669.314213	5864.250761
669.654480	5852.315829
669.994695	5845.152350
670.334859	5837.512481
670.674973	5828.302293
671.015035	5836.380742
671.355047	5831.818498
671.695008	5823.281304
672.034918	5792.726870
672.374777	5799.396317
672.714585	5787.189163
673.054342	5793.354494
673.394049	5783.504079
673.733705	5816.891641
674.073310	5802.342871
674.412864	5765.330720
674.752368	5754.885449
675.091820	5758.046252
675.431223	5694.580646
675.770574	5699.989804
676.109875	5648.015508
676.449125	5650.039531
676.788324	5620.561384
677.127473	5563.853444
677.466571	5557.158792
677.805619	5548.969438
678.144616	5535.764135
678.483562	5511.034755
678.822458	5480.175332
679.161303	5472.359023
679.500098	5468.237879
679.838842	5452.459068
680.177535	5456.854954
680.516179	5471.368436
680.854771	5480.694571
681.193314	5562.515018
681.531805	5671.343447
681.870247	5822.840203
682.208638	5916.444347
682.546978	5931.598056
682.885268	5909.696763
683.223508	5825.408671
683.561697	5772.930259
683.899836	5742.456484
684.237925	5699.412592
684.575963	5660.010933
684.913951	5622.149347
685.251889	5682.749058
685.589776	5652.237474
685.927614	5626.903156
686.265401	5690.351118
686.603137	5675.696484
686.940824	5751.964100
687.278460	5774.535867
687.616046	5785.926354
687.953582	5851.801632
688.291068	5836.128684
688.628504	5899.690073
688.965889	5860.061562
689.303224	5807.441998
689.640510	5759.145224
689.977745	5680.674623
690.314930	5582.777936
690.652065	5532.174834
690.989150	5438.278302
691.326185	5362.991190
691.663170	5310.933715
692.000105	5232.861365
692.336990	5157.170961
692.673825	5130.732629
693.010610	5066.727620
693.347345	4998.026775
693.684030	4983.160412
694.020665	4941.785142
694.357251	4850.588148
694.693786	4859.568964
695.030272	4825.876412
695.366707	4798.137463
695.703093	4760.936268
696.039429	4785.431235
696.375716	4765.480869
696.711952	4744.227364
697.048139	4732.254624
697.384276	4706.373340
697.720363	4719.099733
698.056400	4731.347216
698.392388	4678.319319
698.728326	4658.915918
699.064214	4636.334069
699.400053	4629.064725
699.735842	4598.616156
700.071581	4576.641766
700.407270	4546.997261
700.742910	4532.027555
701.078501	4475.685099
701.414042	4475.276765
701.749533	4446.433803
702.084974	4376.712125
702.420366	4436.485086
702.755709	4379.338566
703.091002	4323.023837
703.426246	4374.194069
703.761440	4328.561544
704.096584	4292.166934
704.431679	4315.734328
704.766725	4298.526350
705.101721	4287.826501
705.436668	4314.330367
705.771565	4264.155763
706.106413	4293.391934
706.441212	4324.954599
706.775961	4334.326104
707.110661	4313.783402
707.445311	4339.430272
707.779913	4361.402141
708.114465	4373.558883
708.448967	4397.305239
708.783421	4456.425370
709.117825	4501.402545
709.452180	4502.869521
709.786485	4545.482394
710.120742	4633.508502
710.454949	4614.737766
710.789107	4681.873332
711.123216	4758.549282
711.457275	4751.993262
711.791286	4820.046318
712.125247	4839.089277
712.459159	4739.718052
712.793023	4813.719670
713.126837	4778.600472
713.460602	4769.410448
713.794318	4689.384651
714.127985	4695.791958
714.461602	4616.517293
714.795171	4585.521759
715.128691	4518.189587
715.462162	4460.042398
715.795584	4414.722425
716.128957	4393.458838
716.462281	4344.683154
716.795556	4318.063341
717.128782	4281.013381
717.461960	4213.333370
717.795088	4221.442066
718.128167	4178.675438
718.461198	4122.761480
718.794180	4117.256540
719.127113	4100.676185
719.459997	4075.926640
719.792833	4031.209085
720.125619	4026.828322
720.458357	3994.252386
720.791046	3992.372035
721.123686	3968.456802
721.456278	3930.837191
721.788821	3946.522741
722.121315	3918.352773
722.453761	3893.905698
722.786158	3907.219385
723.118506	3933.224177
723.450805	3881.232237
723.783056	3907.158891
724.115259	3919.950819
724.447412	3924.656736
724.779518	3916.913524
725.111574	3925.226387
725.443582	3951.919296
725.775542	3936.024538
726.107453	3986.322651
726.439315	3985.568998
726.771129	4002.265300
727.102895	4037.061864
727.434612	4082.951488
727.766281	4095.123354
728.097901	4096.008076
728.429473	4099.577213
728.760996	4108.668934
729.092471	4102.077625
729.423897	4090.482972
729.755276	4094.213425
730.086606	4093.041357
730.417887	4130.988643
730.749120	4194.376111
731.080305	4258.615535
731.411442	4285.525214
731.742530	4254.335595
732.073570	4257.214094
732.404562	4312.865912
732.735506	4301.969458
733.066401	4266.207512
733.397249	4203.351886
733.728048	4127.273312
734.058798	4038.191083
734.389501	3974.123058
734.720156	3912.336156
735.050762	3864.790514
735.381320	3860.500492
735.711831	3811.258501
736.042293	3782.614665
736.372707	3803.338848
736.703073	3776.202317
737.033391	3768.265021
737.363661	3789.674801
737.693883	3808.450578
738.024056	3819.525993
738.354182	3813.579953
738.684260	3874.116648
739.014290	3898.828385
739.344272	3889.169534
739.674207	3935.248201
740.004093	3939.182821
740.333931	3933.113272
740.663722	3933.985392
740.993464	3934.066050
741.323159	3908.310795
741.652806	3878.202504
741.982405	3855.789534
742.311956	3821.194615
742.641460	3812.266732
742.970915	3788.217908
743.300323	3744.795929
743.629683	3717.266188
743.958996	3705.298488
744.288260	3678.219931
744.617477	3646.138028
744.946647	3633.194865
745.275768	3607.714353
745.604842	3604.172942
745.933869	3559.069739
746.262847	3550.968605
746.591778	3590.171137
746.920662	3557.973288
747.249498	3527.431457
747.578286	3572.942994
747.907027	3590.720623
748.235720	3586.730550
748.564365	3614.023357
748.892963	3613.163840
749.221514	3596.941407
749.550017	3575.750917
749.878473	3570.626584
750.206881	3539.157181
750.535242	3537.861605
750.863555	3538.627860
751.191821	3533.649721
751.520039	3518.128008
751.848210	3494.106910
752.176334	3529.251314
752.504411	3534.715925
752.832440	3494.671519
753.160421	3477.619816
753.488356	3482.542503
753.816243	3500.483969
754.144082	3454.725416
754.471875	3443.793674
754.799620	3459.075932
755.127318	3448.406330
755.454969	3454.238945
755.782572	3458.004687
756.110129	3433.953342
756.437638	3425.355654
756.765100	3439.352417
757.092515	3447.367852
757.419882	3458.193730
757.747203	3428.549225
758.074477	3428.748350
758.401703	3447.163685
758.728882	3465.135399
759.056014	3475.268118
759.383099	3476.553612
759.710138	3470.605051
760.037129	3487.092144
760.364073	3522.954913
760.690970	3505.131913
761.017820	3479.469920
761.344623	3499.374916
761.671379	3548.364849
761.998088	3595.562652
762.324751	3723.494533
762.651366	3971.330259
762.977935	4433.566258
763.304456	4871.009863
763.630931	4957.558913
763.957359	4595.430147
764.283740	4269.615332
764.610074	4077.633070
764.936362	3879.601424
765.262602	3722.012434
765.588796	3615.923872
765.914943	3531.441695
766.241044	3441.867953
766.567097	3416.843665
766.893104	3367.868856
767.219064	3336.817869
767.544978	3314.223417
767.870845	3257.855755
768.196665	3237.928074
768.522438	3245.820001
768.848165	3240.277252
769.173846	3206.425904
769.499479	3189.916125
769.825066	3174.996830
770.150607	3159.248266
770.476101	3173.897859
770.801548	3169.496931
771.126949	3122.594036
771.452303	3106.540482
771.777611	3111.821090
772.102872	3118.190588
772.428087	3091.858121
772.753256	3084.157758
773.078378	3076.376738
773.403453	3042.651418
773.728482	3028.009387
774.053465	3052.516956
774.378401	3041.300389
774.703291	3007.696058
775.028135	3009.820904
775.352932	3007.181860
775.677683	2995.231805
776.002388	2989.661330
776.327046	2991.455980
776.651658	2979.470637
776.976224	2970.704071
777.300743	2971.278762
777.625216	2960.833491
777.949643	2954.539611
778.274024	2957.060188
778.598359	2946.476285
778.922647	2950.602470
779.246889	2951.351081
779.571086	2936.968669
779.895236	2930.319387
780.219339	2940.663835
780.543397	2953.783438
780.867409	2957.135805
781.191374	2949.654733
781.515294	2943.877570
781.839167	2947.550051
782.162995	2938.400357
782.486776	2946.781275
782.810511	2943.345729
783.134201	2931.985488
783.457844	2937.150151
783.781441	2928.050868
784.104993	2906.767116
784.428498	2908.758372
784.751958	2922.755136
785.075372	2917.449321
785.398739	2902.048596
785.722061	2917.981163
786.045337	2931.980447
786.368568	2914.071748
786.691752	2906.683937
787.014891	2955.041206
787.337983	2981.499702
787.661030	3008.805111
787.984031	3077.737849
788.306987	3123.546814
788.629897	3112.287397
788.952760	3096.138061
789.275579	3079.572829
789.598351	3021.526463
789.921078	2979.629433
790.243759	2972.463433
790.566395	2952.475258
790.888984	2930.896599
791.211529	2916.672984
791.534027	2903.896179
791.856480	2893.518964
792.178888	2881.064793
792.501249	2873.603886
792.823566	2869.500387
793.145836	2867.970396
793.468062	2865.432175
793.790241	2861.817668
794.112375	2865.696836
794.434464	2880.301059
794.756507	2884.419681
795.078505	2888.319014
795.400457	2901.347876
795.722364	2937.074533
796.044226	2964.238791
796.366042	2965.927577
796.687812	2953.818726
797.009538	2977.398723
797.331218	2961.919860
797.652852	2947.207253
797.974442	2929.590940
798.295986	2927.206475
798.617484	2918.770104
798.938938	2905.572363
799.260346	2890.287584
799.581709	2884.417161
799.903026	2880.769886
800.224299	2869.961652
800.545526	2863.249356
800.866708	2846.492560
801.187845	2839.566015
801.508936	2842.623475
801.829983	2849.116481
802.150984	2834.411435
802.471940	2821.690083
802.792851	2824.997080
803.113717	2822.138746
803.434538	2828.987154
803.755314	2821.889209
804.076045	2814.665236
804.396731	2813.054587
804.717372	2816.449804
805.037967	2810.450831
805.358518	2815.645740
805.679024	2827.114365
805.999485	2824.359374
806.319901	2827.328614
806.640272	2821.178406
806.960598	2821.372491
807.280879	2835.533092
807.601115	2840.448217
807.921306	2827.797441
808.241453	2826.133861
808.561554	2830.756599
808.881611	2832.732731
809.201623	2828.084787
809.521590	2823.567913
809.841513	2821.380052
810.161390	2827.051351
810.481223	2819.257727
810.801011	2810.959987
811.120755	2808.041159
811.440453	2810.465954
811.760107	2808.845223
812.079716	2809.581232
812.399281	2799.559418
812.718801	2789.701442
813.038276	2787.879065
813.357707	2791.722944
813.677093	2799.083029
813.996434	2791.163376
814.315731	2789.106586
814.634983	2785.718930
814.954191	2783.894032
815.273354	2799.572021
815.592473	2807.622744
815.911547	2810.765903
816.230577	2818.252017
816.549562	2825.864159
816.868502	2822.869713
817.187399	2834.918071
817.506250	2850.606142
817.825058	2845.191943
818.143821	2854.795341
818.462539	2871.093391
818.781213	2900.092629
819.099843	2936.015891
819.418429	2992.028151
819.736970	3051.382697
820.055466	3122.203347
820.373919	3223.331413
820.692327	3361.300232
821.010691	3525.029347
821.329011	3962.578816
821.647286	4843.102035
821.965517	6192.870977
822.283704	6909.884371
822.601847	6875.962447
822.919945	6261.009733
823.237999	5771.251555
823.556010	5200.839956
823.873976	4663.803316
824.191897	4260.747943
824.509775	3976.462154
824.827609	3714.312072
825.145398	3592.638782
825.463144	3580.781988
825.780845	3670.239784
826.098502	3778.352369
826.416116	4053.185995
826.733685	4362.337275
827.051210	4419.198970
827.368692	4308.442299
827.686129	4046.990417
828.003522	3729.059967
828.320872	3477.314826
828.638177	3287.951444
828.955439	3152.543531
829.272656	3075.960842
829.589830	3008.600945
829.906960	2959.553038
830.224046	2917.030906
830.541088	2881.989845
830.858086	2868.650952
831.175041	2851.228724
831.491952	2851.581605
831.808819	2865.467463
832.125642	2886.756256
832.442421	2931.491455
832.759157	3014.678056
833.075849	3182.165351
833.392497	3460.326138
833.709101	3658.962723
834.025662	3608.367182
834.342179	3451.141156
834.658653	3277.145731
834.975083	3133.772795
835.291469	3038.971376
835.607811	2955.479786
835.924110	2900.997516
836.240366	2852.277284
836.556578	2809.969401
836.872746	2788.085752
837.188871	2769.073040
837.504952	2745.969432
837.820990	2741.954153
838.136984	2726.921432
838.452935	2719.652088
838.768842	2721.121585
839.084706	2736.280334
839.400526	2811.484267
839.716303	2944.278342
840.032037	3021.665095
840.347727	3005.946777
840.663373	2946.927468
840.978977	2873.384596
841.294537	2801.480098
841.610054	2758.095928
841.925527	2733.883266
842.240957	2715.523383
842.556344	2693.836340
842.871687	2678.430573
843.186987	2670.263904
843.502244	2665.074036
843.817458	2657.303098
844.132629	2646.126860
844.447756	2641.839358
844.762840	2632.329222
845.077881	2634.499438
845.392879	2636.042031
845.707833	2632.145219
846.022745	2624.230608
846.337613	2627.714045
846.652438	2625.710187
846.967221	2625.664816
847.281960	2623.446708
847.596656	2623.832357
847.911309	2621.641975
848.225919	2619.592746
848.540485	2616.701645
848.855009	2618.221552
849.169490	2616.101747
849.483928	2618.163579
849.798323	2615.426233
850.112675	2614.927158
850.426984	2614.909514
850.741251	2611.141252
851.055474	2614.211315
851.369654	2615.325410
851.683792	2618.259361
851.997887	2613.699637
852.311938	2611.534462
852.625947	2614.082765
852.939914	2617.145266
853.253837	2614.685183
853.567718	2612.031016
853.881555	2613.074534
854.195350	2613.190481
854.509103	2614.410440
854.822812	2611.226952
855.136479	2611.068155
855.450103	2611.678135
855.763685	2615.816922
856.077224	2611.703341
856.390720	2612.542693
856.704173	2611.405912
857.017584	2614.765842
857.330953	2620.217849
857.644278	2619.020575
857.957561	2620.880761
858.270802	2614.123094
858.584000	2616.999073
858.897155	2617.974536
859.210268	2620.462345
859.523339	2617.490585
859.836367	2610.155706
860.149352	2609.608741
860.462295	2611.020264
860.775195	2609.641509
861.088054	2608.240068
861.400869	2608.655963
861.713642	2605.820314
862.026373	2607.320057
862.339062	2612.567898
862.651708	2614.244082
862.964312	2614.418002
863.276873	2613.855913
863.589392	2614.952364
863.901869	2620.127109
864.214303	2626.761267
864.526696	2627.824951
864.839045	2630.252266
865.151353	2632.399798
865.463619	2632.500621
865.775842	2631.061371
866.088023	2631.903244
866.400162	2632.553553
866.712258	2631.452061
867.024313	2632.873666
867.336325	2628.097173
867.648296	2632.278810
867.960224	2637.539254
868.272110	2631.189921
868.583954	2625.453088
868.895755	2624.638941
869.207515	2631.159674
869.519233	2639.734677
869.830909	2637.289717
870.142542	2628.480301
870.454134	2630.527009
870.765684	2637.917341
871.077191	2641.161323
871.388657	2644.133083
871.700081	2639.288534
872.011463	2640.377424
872.322803	2644.047384
872.634101	2646.814977
872.945357	2651.296563
873.256571	2660.103459
873.567744	2655.642037
873.878874	2655.712614
874.189963	2655.069867
874.501010	2660.136226
874.812015	2662.523212
875.122979	2662.876093
875.433900	2655.820998
875.744780	2653.290339
876.055618	2660.650424
876.366415	2665.132010
876.677169	2662.815599
876.987882	2660.476504
877.298554	2658.691936
877.609183	2668.340704
877.919771	2672.892866
878.230317	2681.480472
878.540822	2689.848787
878.851285	2705.040304
879.161707	2727.521330
879.472087	2764.936773
879.782425	2809.132569
880.092722	2920.179106
880.402977	3101.363217
880.713191	3353.133563
881.023363	3632.935246
881.333494	3815.616579
881.643583	3980.898369
881.953631	3980.432062
882.263637	3807.356648
882.573602	3590.211467
882.883526	3469.344762
883.193408	3361.159080
883.503248	3263.040582
883.813048	3152.230979
884.122806	3040.977755
884.432522	2960.271403
884.742197	2895.059037
885.051831	2864.098790
885.361424	2829.193841
885.670975	2794.936680
885.980485	2766.423914
886.289954	2749.893970
886.599382	2734.092474
886.908768	2723.080073
887.218113	2703.212886
887.527417	2694.496731
887.836680	2684.149763
888.145901	2679.527024
888.455082	2670.314316
888.764221	2662.077070
889.073319	2656.463746
889.382376	2652.818991
889.691392	2657.131698
890.000366	2657.782007
890.309300	2654.338899
890.618193	2653.522232
890.927044	2657.350989
891.235855	2656.993067
891.544625	2658.147491
891.853353	2658.210505
892.162041	2662.281237
892.470687	2684.908456
892.779293	2694.761391
893.087858	2703.865715
893.396381	2725.522512
893.704864	2764.467946
894.013306	2833.456137
894.321707	2923.307142
894.630068	2968.546457
894.938387	2988.610249
895.246665	2983.122953
895.554903	2939.771551
895.863100	2895.779922
896.171256	2843.515759
896.479371	2781.975873
896.787446	2746.231572
897.095480	2728.688357
897.403473	2724.592419
897.711425	2708.039791
898.019336	2689.901719
898.327207	2677.646674
898.635038	2676.260357
898.942827	2675.168947
899.250576	2663.995229
899.558284	2656.035247
899.865952	2650.628610
900.173579	2649.743887
900.481165	2647.813126
900.788711	2636.833492
901.096216	2633.846609
901.403681	2626.781432
901.711105	2630.955507
902.018489	2626.357975
902.325832	2631.885600
902.633135	2632.790487
902.940397	2645.831952
903.247619	2680.752025
903.554800	2748.565626
903.861941	2870.881663
904.169041	2987.544045
904.476101	3047.564023
904.783121	3038.903320
905.090100	2986.427429
905.397039	2913.948240
905.703938	2844.765965
906.010796	2785.424023
906.317614	2735.753534
906.624391	2701.428317
906.931129	2678.183557
907.237826	2654.469969
907.544483	2637.181332
907.851099	2623.605505
908.157675	2615.269957
908.464211	2609.457507
908.770707	2600.718666
909.077163	2595.652307
909.383578	2593.184662
909.689954	2590.875813
909.996289	2588.952613
910.302584	2589.968406
910.608839	2585.196954
910.915054	2588.055288
911.221229	2591.014445
911.527363	2590.815320
911.833458	2589.179465
912.139513	2589.776842
912.445527	2591.815989
912.751502	2596.922678
913.057436	2600.711105
913.363331	2610.201077
913.669186	2618.435802
913.975000	2632.056999
914.280775	2645.937816
914.586510	2662.684529
914.892205	2698.615353
915.197859	2762.942997
915.503475	2842.963753
915.809050	2904.150758
916.114585	2915.107705
916.420081	2926.851073
916.725536	2935.428597
917.030952	2916.136101
917.336328	2868.212372
917.641665	2826.650579
917.946961	2777.673249
918.252218	2741.966756
918.557435	2719.672253
918.862612	2698.184335
919.167750	2684.497602
919.472848	2665.459685
919.777906	2650.603404
920.082925	2639.366672
920.387904	2632.246042
920.692843	2627.887965
920.997743	2622.085597
921.302603	2615.277519
921.607423	2607.304934
921.912204	2606.548761
922.216946	2601.207658
922.521647	2597.900661
922.826310	2597.668768
923.130932	2591.468149
923.435516	2583.397262
923.740059	2583.974474
924.044564	2582.840214
924.349028	2583.757704
924.653454	2570.844789
924.957840	2572.783112
925.262186	2569.324881
925.566493	2568.407391
925.870761	2564.344221
926.174989	2565.609550
926.479178	2566.973182
926.783328	2562.829354
927.087438	2562.577296
927.391509	2563.346072
927.695541	2559.373643
927.999533	2560.548232
928.303486	2559.202244
928.607400	2557.856256
928.911275	2558.002449
929.215110	2558.725855
929.518906	2557.072356
929.822663	2557.775597
930.126381	2558.688046
930.430060	2557.974723
930.733699	2561.049827
931.037299	2558.372974
931.340861	2558.514126
931.644383	2557.498334
931.947866	2561.536298
932.251309	2557.642007
932.554714	2556.192675
932.858080	2558.899775
933.161407	2559.910526
933.464694	2558.388098
933.767943	2556.265772
934.071153	2558.362892
934.374323	2556.311142
934.677455	2555.499516
934.980548	2556.238045
935.283602	2557.407593
935.586617	2555.421378
935.889593	2555.872562
936.192530	2556.376677
936.495428	2558.264589
936.798287	2554.975236
937.101108	2560.084446
937.403890	2561.382543
937.706632	2562.572255
938.009336	2567.948646
938.312002	2569.781105
938.614628	2573.007444
938.917216	2574.784450
939.219765	2577.068093
939.522275	2576.281673
939.824747	2576.095150
940.127179	2568.934191
940.429573	2568.798080
940.731929	2570.454099
941.034246	2567.555436
941.336524	2568.402350
941.638763	2564.624005
941.940964	2566.963100
942.243126	2563.635939
942.545250	2563.338511
942.847335	2561.538819
943.149381	2561.556463
943.451389	2561.521175
943.753359	2560.273489
944.055290	2559.124106
944.357182	2559.892882
944.659036	2556.036399
944.960851	2558.667882
945.262628	2557.417675
945.564367	2560.603685
945.866067	2561.518654
946.167729	2559.930691
946.469352	2561.606874
946.770937	2559.305587
947.072484	2556.366595
947.373992	2559.257697
947.675462	2557.324414
947.976893	2557.072356
948.278286	2556.119578
948.579641	2557.994887
948.880958	2551.229659
949.182236	2554.680329
949.483476	2556.353992
949.784678	2554.234187
950.085841	2555.055895
950.386967	2554.337530
950.688054	2555.650751
950.989103	2553.399876
951.290114	2557.848694
951.591087	2557.173179
951.892021	2555.789383
952.192917	2560.860783
952.493776	2560.722152
952.794596	2561.266596
953.095378	2560.971689
953.396122	2563.865311
953.696828	2560.074363
953.997496	2558.748540
954.298126	2558.405742
954.598718	2559.721483
954.899272	2553.830894
955.199788	2554.100596
955.500266	2556.389280
955.800706	2548.285625
956.101108	2545.124822
956.401472	2547.239586
956.701798	2543.274718
957.002087	2547.189174
957.302337	2546.896787
957.602550	2547.589946
957.902724	2548.129349
958.202861	2545.853268
958.502960	2546.034750
958.803022	2545.956612
959.103045	2545.434853
959.403031	2544.676159
959.702979	2544.839997
960.002889	2545.250851
960.302762	2543.189019
960.602596	2545.041643
960.902393	2542.631971
961.202153	2543.604914
961.501875	2541.696837
961.801559	2544.547610
962.101205	2541.366642
962.400814	2543.322609
962.700385	2545.684390
962.999918	2544.895449
963.299414	2539.516538
963.598873	2541.727084
963.898293	2543.897301
964.197677	2543.423432
964.497022	2542.422763
964.796331	2541.442259
965.095601	2541.061652
965.394835	2541.351518
965.694030	2542.011909
965.993189	2543.501570
966.292309	2539.524100
966.591393	2541.540561
966.890439	2542.526107
967.189447	2543.614996
967.488419	2541.434697
967.787353	2540.965870
968.086249	2544.761859
968.385108	2540.176929
968.683930	2537.923533
968.982714	2541.343956
969.281462	2543.042825
969.580172	2542.193391
969.878844	2543.005017
970.177480	2541.921168
970.476078	2539.617361
970.774639	2543.206663
971.073162	2542.894111
971.371649	2538.735159
971.670098	2540.159285
971.968510	2538.788091
972.266885	2537.369007
972.565223	2539.834131
972.863524	2543.153731
973.161788	2541.792619
973.460014	2542.372352
973.758204	2542.851261
974.056356	2542.500901
974.354471	2542.372352
974.652550	2542.422763
974.950591	2545.659184
975.248595	2543.793957
975.546563	2539.672814
975.844493	2542.311858
976.142386	2543.735984
976.440243	2544.333361
976.738062	2538.238606
977.035845	2542.057280
977.333590	2540.555016
977.631299	2541.008720
977.928971	2542.647095
978.226606	2539.125849
978.524204	2540.335726
978.821765	2541.417053
979.119290	2540.169368
979.416777	2541.578370
979.714228	2541.454862
980.011642	2540.658359
980.309020	2545.576005
980.606360	2542.105171
980.903664	2541.296065
981.200931	2540.066024
981.498162	2541.611137
981.795356	2546.745553
982.092513	2546.627086
982.389633	2545.989380
982.686717	2552.268137
982.983764	2552.379042
983.280775	2552.341233
983.577749	2553.480534
983.874686	2553.094886
984.171587	2551.224618
984.468451	2549.598846
984.765279	2549.445091
985.062070	2548.033568
985.358824	2544.683721
985.655543	2544.245140
985.952224	2542.165664
986.248869	2540.950746
986.545478	2536.743903
986.842050	2539.138452
987.138586	2536.975797
987.435086	2538.157947
987.731549	2535.110570
988.027975	2541.331353
988.324366	2539.274563
988.620719	2538.173071
988.917037	2539.478729
989.213318	2540.890253
989.509563	2537.147196
989.805772	2539.395550
990.101944	2540.008051
990.398080	2537.555529
990.694180	2539.816487
990.990244	2538.115097
991.286271	2541.013761
991.582262	2536.471681
991.878217	2535.972607
992.174136	2539.423277
992.470019	2541.109543
992.765865	2537.497556
993.061676	2538.412525
993.357450	2540.744059
993.653188	2539.171219
993.948890	2541.419574
994.244556	2536.975797
994.540186	2541.210366
994.835780	2542.130376
995.131337	2541.469985
995.426859	2539.952598
995.722345	2539.030067
996.017795	2541.606096
996.313208	2543.027702
996.608586	2542.697506
996.903928	2540.862526
997.199234	2543.753628
997.494504	2540.986034
997.789738	2542.566436
998.084936	2539.287166
998.380099	2541.371683
998.675225	2540.224820
998.970316	2540.791950
999.265371	2541.313709
999.560390	2534.901362
999.855373	2538.460416
1000.150320	2539.521579
1000.445232	2539.433359
1000.740108	2538.218441
1001.034948	2537.729449
1001.329752	2536.915303
1001.624521	2537.079140
1001.919254	2535.042514
1002.213951	2533.028573
1002.508613	2533.255425
1002.803239	2536.335570
1003.097829	2531.428007
1003.392384	2539.715664
1003.686903	2536.648122
1003.981386	2538.541075
1004.275834	2534.747607
1004.570246	2541.417053
1004.864623	2537.275745
1005.158964	2537.603420
1005.453270	2536.207021
1005.747540	2534.961856
1006.041775	2538.967052
1006.335974	2535.733152
1006.630138	2537.507638
1006.924266	2536.033101
1007.218359	2538.689789
1007.512416	2539.317412
1007.806438	2536.953111
1008.100425	2537.656352
1008.394376	2537.369007
1008.688292	2533.487318
1008.982172	2537.079140
1009.276017	2535.617206
1009.569827	2537.064017
1009.863602	2540.391178
1010.157341	2538.291538
1010.451045	2536.088553
1010.744714	2537.679037
1011.038347	2535.629808
1011.331945	2536.527134
1011.625508	2537.492515
1011.919036	2534.901362
1012.212528	2536.496887
1012.505986	2534.089736
1012.799408	2536.980838
1013.092795	2537.797505
1013.386147	2536.416228
1013.679464	2534.961856
1013.972745	2536.638039
1014.265992	2536.595189
1014.559204	2537.263142
1014.852380	2535.854140
1015.145521	2537.240457
1015.438628	2536.640560
1015.731699	2535.854140
1016.024736	2536.186856
1016.317737	2536.804397
1016.610703	2535.854140
1016.903635	2535.506300
1017.196531	2531.974972
1017.489393	2530.699560
1017.782219	2533.265507
1018.075011	2535.115611
1018.367768	2538.848585
1018.660490	2536.083512
1018.953177	2536.083512
1019.245829	2536.083512
