Dividing Wavelength (nm)	Counts (n)	Blue Motor Position (mm): 19.200000	Red Motor Position (mm): 0.000000	
326.493990	2133.554939
326.888308	2133.554939
327.282561	2133.554939
327.676750	2103.842379
328.070874	2099.643098
328.464933	2102.642584
328.858929	2109.554006
329.252859	2120.127826
329.646726	2133.038221
330.040528	2142.934006
330.434265	2161.525782
330.827938	2179.283246
331.221547	2196.773529
331.615091	2215.786241
332.008571	2235.887842
332.401986	2253.121026
332.795338	2274.886208
333.188625	2293.140226
333.581847	2312.780562
333.975006	2328.519044
334.368100	2346.873885
334.761129	2367.330887
335.154095	2382.960985
335.546996	2403.435631
335.939833	2423.776687
336.332606	2440.241095
336.725315	2451.500512
337.117960	2461.512244
337.510540	2467.392750
337.903056	2480.330871
338.295508	2487.348158
338.687896	2497.440547
339.080220	2503.875580
339.472480	2510.416478
339.864676	2513.201715
340.256807	2521.275123
340.648875	2520.755884
341.040879	2521.945596
341.432818	2528.025228
341.824694	2528.965403
342.216506	2528.841895
342.608253	2529.777029
342.999937	2525.260155
343.391557	2528.925074
343.783113	2526.548170
344.174605	2524.009949
344.566033	2519.961902
344.957397	2519.460308
345.348697	2520.332427
345.739934	2518.870493
346.131106	2517.849659
346.522215	2514.971160
346.913260	2514.552744
347.304241	2512.453104
347.695159	2507.724501
348.086012	2509.153668
348.476802	2507.623678
348.867528	2505.123266
349.258191	2502.615292
349.648789	2499.971207
350.039324	2498.395846
350.429796	2503.434479
350.820203	2499.867863
351.210548	2498.821824
351.600828	2497.311998
351.991045	2495.101452
352.381198	2496.477687
352.771288	2494.413335
353.161314	2496.071874
353.551276	2495.169508
353.941175	2492.626246
354.331010	2492.117089
354.720782	2492.641369
355.110490	2494.234374
355.500135	2492.757316
355.889717	2493.725217
356.279235	2495.540033
356.668689	2495.703870
357.058080	2496.449961
357.447408	2496.107162
357.836672	2493.909219
358.225873	2492.653972
358.615010	2494.486431
359.004084	2499.749396
359.393095	2496.003819
359.782043	2499.865343
360.170927	2499.119252
360.559748	2500.863491
360.948505	2498.718480
361.337199	2500.472802
361.725830	2500.450116
362.114398	2500.888697
362.502903	2500.676968
362.891344	2502.713594
363.279722	2500.218223
363.668037	2503.830210
364.056289	2503.910868
364.444478	2505.463544
364.832603	2506.018071
365.220665	2504.558657
365.608665	2505.198883
365.996601	2504.891373
366.384474	2505.342556
366.772284	2507.555623
367.160031	2505.521517
367.547715	2506.832217
367.935336	2504.755262
368.322893	2505.564367
368.710388	2508.216014
369.097820	2510.091323
369.485189	2509.458658
369.872495	2507.240551
370.259738	2508.780623
370.646918	2510.350943
371.034035	2509.680469
371.421090	2511.376817
371.808081	2508.226096
372.195010	2508.616786
372.581875	2507.795078
372.968678	2511.470079
373.355418	2511.104595
373.742096	2510.018226
374.128710	2510.693741
374.515262	2509.861951
374.901751	2512.886643
375.288177	2510.971004
375.674540	2511.613752
376.060841	2513.108454
376.447079	2514.242713
376.833254	2513.078207
377.219367	2505.294665
377.605417	2509.156189
377.991404	2507.169974
378.377329	2511.212980
378.763191	2510.519821
379.148991	2512.380007
379.534727	2512.667353
379.920402	2514.693897
380.306013	2514.036026
380.691563	2514.956037
381.077049	2515.387055
381.462474	2514.167096
381.847835	2514.222549
382.233134	2517.380832
382.618371	2516.241531
383.003545	2516.304545
383.388657	2514.759432
383.773706	2517.900070
384.158693	2518.774711
384.543618	2518.041223
384.928480	2514.779596
385.313280	2517.363187
385.698017	2513.922600
386.082692	2518.046264
386.467305	2516.851510
386.851856	2519.094824
387.236344	2520.397962
387.620770	2520.387880
388.005133	2517.368229
388.389435	2519.765297
388.773674	2517.514422
389.157851	2518.409227
389.541965	2519.833353
389.926018	2518.983918
390.310008	2520.881913
390.693936	2517.680780
391.077802	2521.980884
391.461606	2521.126409
391.845348	2520.163548
392.229027	2520.551717
392.612645	2520.808816
392.996200	2520.652540
393.379694	2521.796882
393.763125	2521.539783
394.146494	2521.499454
394.529801	2523.218488
394.913047	2520.322345
395.296230	2523.016842
395.679351	2524.052799
396.062410	2525.534898
396.445408	2520.549197
396.828343	2523.442819
397.211217	2517.839577
397.594028	2521.648168
397.976778	2521.396111
398.359466	2521.149094
398.742092	2521.154135
399.124656	2524.745957
399.507158	2525.807120
399.889598	2524.365350
400.271977	2523.785617
400.654294	2526.573376
401.036549	2523.067253
401.418742	2526.273427
401.800874	2523.979702
402.182944	2523.788138
402.564952	2521.675895
402.946898	2526.520443
403.328783	2524.995494
403.710606	2527.891637
404.092367	2528.272244
404.474067	2526.883407
404.855705	2526.815351
405.237282	2526.807789
405.618797	2527.047244
406.000250	2525.975999
406.381642	2525.829805
406.762972	2528.196627
407.144240	2525.794517
407.525447	2530.470187
407.906593	2527.528674
408.287677	2527.498427
408.668700	2528.443644
409.049661	2531.506145
409.430560	2528.317615
409.811399	2530.298788
410.192176	2529.794673
410.572891	2529.575383
410.953545	2528.189065
411.334138	2531.803573
411.714669	2529.421627
412.095139	2527.992460
412.475547	2529.840043
412.855894	2527.737882
413.236180	2531.775846
413.616405	2532.113604
413.996568	2532.602596
414.376670	2528.998171
414.756711	2531.758202
415.136691	2532.731145
415.516609	2529.676206
415.896466	2532.567308
416.276262	2531.901875
416.655997	2527.659744
417.035670	2529.630835
417.415283	2527.977337
417.794834	2526.643952
418.174324	2532.101001
418.553753	2531.392719
418.933121	2532.461443
419.312428	2531.246525
419.691674	2534.941691
420.070859	2533.832637
420.449983	2533.663758
420.829045	2534.709798
421.208047	2533.366330
421.586988	2535.198790
421.965867	2534.278779
422.344686	2531.521268
422.723444	2535.559232
423.102141	2537.260622
423.480777	2533.847761
423.859352	2533.867925
424.237866	2536.817000
424.616319	2533.797349
424.994712	2534.878677
425.373044	2534.724921
425.751314	2535.173584
426.129524	2534.210724
426.507673	2535.433203
426.885762	2535.259284
427.263789	2535.292051
427.641756	2536.328008
428.019662	2537.515200
428.397508	2538.614172
428.775292	2535.924716
429.153016	2538.604089
429.530679	2538.717515
429.908282	2535.395395
430.285824	2536.161650
430.663305	2535.090405
431.040726	2537.426980
431.418086	2535.566794
431.795385	2538.359593
432.172624	2537.366486
432.549802	2536.496887
432.926920	2536.123842
433.303977	2539.982845
433.680974	2537.747093
434.057910	2539.451003
434.434786	2536.902700
434.811601	2537.830272
435.188355	2539.682896
435.565050	2538.021836
435.941683	2538.067206
436.318257	2533.817514
436.694770	2532.514375
437.071222	2535.604603
437.447614	2534.717360
437.823946	2536.136444
438.200218	2539.234233
438.576429	2538.914120
438.952580	2539.372865
439.328670	2539.526620
439.704700	2538.992258
440.080670	2540.426466
440.456580	2539.733308
440.832429	2539.211548
441.208218	2539.221631
441.583947	2539.627443
441.959616	2538.740200
442.335224	2544.008206
442.710773	2538.548637
443.086261	2539.836651
443.461689	2540.287835
443.837057	2540.202135
444.212365	2538.825900
444.587612	2540.113915
444.962800	2542.216076
445.337927	2540.965870
445.712995	2541.409491
446.088002	2542.447969
446.462949	2541.764893
446.837837	2540.335726
447.212664	2542.647095
447.587431	2541.759852
447.962139	2540.688606
448.336786	2545.777651
448.711374	2544.875285
449.085901	2542.987372
449.460369	2542.984852
449.834776	2543.206663
450.209124	2541.787578
450.583412	2545.512991
450.957640	2540.842362
451.331808	2544.802188
451.705917	2544.366128
452.079965	2544.114070
452.453954	2545.714637
452.827883	2544.751776
453.201752	2542.881508
453.575562	2544.187167
453.949311	2542.233720
454.323001	2542.989893
454.696632	2544.353525
455.070202	2545.137425
455.443713	2543.607434
455.817164	2544.845038
456.190556	2541.291024
456.563888	2542.949564
456.937160	2539.617361
457.310373	2545.208001
457.683526	2544.451828
458.056619	2544.522404
458.429653	2543.211704
458.802628	2544.948381
459.175542	2543.579708
459.548398	2543.262115
459.921194	2546.238917
460.293930	2545.576005
460.666607	2548.157076
461.039224	2548.719164
461.411782	2546.748073
461.784280	2547.557178
462.156719	2544.998793
462.529099	2548.290666
462.901419	2545.465100
463.273680	2545.500388
463.645882	2547.136242
464.018024	2547.776469
464.390106	2547.274874
464.762130	2547.005172
465.134094	2547.113557
465.505999	2550.440718
465.877845	2547.930224
466.249631	2550.571788
466.621358	2550.460883
466.993026	2549.455173
467.364634	2554.322407
467.736184	2551.716130
468.107674	2550.370142
468.479105	2548.141952
468.850477	2547.557178
469.221790	2551.131357
469.593043	2548.194884
469.964238	2551.080945
470.335373	2548.242775
470.706449	2551.302756
471.077467	2548.615821
471.448425	2549.379556
471.819324	2551.333003
472.190164	2550.276881
472.560945	2553.026830
472.931667	2548.978784
473.302330	2550.942313
473.672934	2550.072714
474.043479	2552.409289
474.413965	2551.569937
474.784393	2546.362425
475.154761	2549.959288
475.525070	2548.051212
475.895321	2547.400903
476.265513	2545.578526
476.635645	2554.226625
477.005719	2550.975081
477.375734	2551.655637
477.745691	2553.377191
478.115588	2552.280740
478.485427	2554.387942
478.855207	2554.849207
479.224928	2554.771070
479.594591	2557.304249
479.964194	2556.001111
480.333739	2556.573282
480.703226	2555.852397
481.072653	2556.273333
481.442022	2559.867676
481.811333	2556.444733
482.180584	2557.631924
482.549777	2558.226781
482.918912	2557.367264
483.287988	2558.884651
483.657005	2558.531770
484.025964	2555.391132
484.394864	2560.936401
484.763706	2560.255845
485.132489	2557.160577
485.501213	2559.512275
485.869879	2561.130485
486.238487	2559.993705
486.607036	2559.051009
486.975527	2560.119734
487.343959	2560.598643
487.712333	2560.001267
488.080648	2561.054868
488.448905	2560.313818
488.817104	2564.334138
489.185244	2565.024777
489.553326	2565.869170
489.921350	2566.010322
490.289315	2567.638615
490.657222	2571.268246
491.025070	2572.979717
491.392861	2572.336970
491.760593	2571.842937
492.128267	2575.349060
492.495883	2573.614903
492.863440	2575.122208
493.230939	2576.780747
493.598380	2577.710840
493.965763	2574.837382
494.333088	2575.984245
494.700354	2576.425346
495.067563	2581.466500
495.434713	2582.305852
495.801805	2589.754157
496.168839	2591.876482
496.535815	2595.375043
496.902733	2591.846236
497.269593	2602.241095
497.636395	2604.885180
498.003139	2606.062289
498.369825	2610.775768
498.736453	2620.628703
499.103023	2618.327417
499.469535	2626.471401
499.835989	2628.835702
500.202385	2634.098667
500.568723	2639.812814
500.935003	2647.334216
501.301226	2651.248672
501.667390	2661.610764
502.033497	2671.370437
502.399546	2674.553926
502.765537	2681.641788
503.131470	2687.953313
503.497345	2695.535208
503.863163	2703.041487
504.228923	2715.926676
504.594625	2724.151318
504.960269	2730.445199
505.325856	2742.206211
505.691385	2747.905235
506.056856	2763.868049
506.422270	2775.271139
506.787625	2784.446039
507.152924	2798.606640
507.518164	2810.244144
507.883347	2821.216215
508.248472	2831.311126
508.613540	2854.036647
508.978550	2865.711959
509.343503	2877.530945
509.708398	2901.642783
510.073236	2920.118612
510.438016	2935.554625
510.802738	2951.537604
511.167403	2972.523927
511.532010	2990.145280
511.896561	3013.763086
512.261053	3041.665873
512.625488	3055.622307
512.989866	3075.396233
513.354186	3093.998091
513.718449	3112.307562
514.082655	3147.348622
514.446803	3168.763443
514.810894	3204.079247
515.174927	3223.192782
515.538904	3247.428129
515.902822	3290.759367
516.266684	3304.927529
516.630488	3333.619257
516.994235	3360.511292
517.357925	3409.244126
517.721558	3439.995164
518.085133	3480.480671
518.448651	3509.500073
518.812112	3529.551262
519.175516	3567.032241
519.538863	3615.515538
519.902152	3637.295844
520.265385	3698.505534
520.628560	3717.823235
520.991678	3764.113630
521.354739	3802.431441
521.717743	3830.528312
522.080690	3866.055843
522.443580	3934.055968
522.806413	3968.837409
523.169189	4009.562370
523.531908	4062.678488
523.894569	4079.737752
524.257174	4124.412458
524.619722	4195.200340
524.982213	4217.920820
525.344647	4292.492088
525.707025	4317.206345
526.069345	4382.859812
526.431608	4423.690638
526.793815	4494.395341
527.155964	4497.999766
527.518057	4552.111512
527.880093	4594.941155
528.242072	4652.828724
528.603995	4692.792471
528.965860	4723.362028
529.327669	4789.607831
529.689421	4823.239889
530.051117	4870.233525
530.412755	4961.211228
530.774337	4966.640551
531.135862	5032.311662
531.497331	5078.526440
531.858743	5096.475468
532.220098	5199.398186
532.581396	5212.633735
532.942638	5255.191156
533.303824	5302.167148
533.664953	5371.273806
534.026025	5388.920365
534.387040	5484.546012
534.747999	5532.043764
535.108902	5616.248677
535.469748	5583.342545
535.830537	5674.221946
536.191270	5722.929575
536.551947	5787.947856
536.912567	5843.758471
537.273131	5869.276791
537.633638	5911.561990
537.994089	5970.573737
538.354483	6008.437843
538.714821	6114.430623
539.075103	6172.116547
539.435328	6219.027004
539.795497	6194.342994
540.155609	6324.296379
540.515665	6410.837867
540.875665	6355.634712
541.235609	6439.096055
541.595496	6489.346276
541.955328	6636.520242
542.315102	6621.177490
542.674821	6659.351628
543.034483	6711.693928
543.394090	6772.966633
543.753640	6787.512882
544.113134	6962.277083
544.472571	6933.048473
544.831953	7074.450318
545.191278	7022.874273
545.550548	7084.499858
545.909761	7216.240332
546.268918	7262.613906
546.628019	7359.920778
546.987064	7346.309663
547.346053	7338.216090
547.704986	7462.052034
548.063863	7503.825556
548.422684	7542.145887
548.781449	7554.421096
549.140158	7663.005029
549.498811	7646.969119
549.857408	7593.059020
550.215949	7803.307903
550.574434	7752.752691
550.932864	7875.653502
551.291237	7947.263092
551.649555	7979.561765
552.007817	8033.050927
552.366022	8045.711785
552.724173	8093.880010
553.082267	8123.101059
553.440305	8284.601984
553.798288	8171.138214
554.156215	8334.537133
554.514086	8368.680868
554.871902	8302.051938
555.229661	8374.697485
555.587365	8394.768839
555.945014	8355.732665
556.302606	8497.666351
556.660143	8453.037016
557.017625	8618.049105
557.375050	8581.775483
557.732421	8719.509888
558.089735	8698.886527
558.446994	8735.351714
558.804197	8803.989544
559.161345	8850.753808
559.518437	8763.342721
559.875474	8880.887305
560.232455	8935.803114
560.589381	8928.342207
560.946251	8980.487902
561.303065	9086.962112
561.659825	9077.709074
562.016528	9049.299652
562.373177	8981.271801
562.729770	9119.462431
563.086307	9083.536648
563.442789	9187.321403
563.799216	9131.795614
564.155587	9190.683853
564.511904	9192.859111
564.868164	9212.527172
565.224370	9250.388758
565.580520	9224.280623
565.936615	9238.572294
566.292654	9173.117952
566.648638	9304.301378
567.004567	9295.350809
567.360441	9312.294128
567.716260	9258.371425
568.072023	9367.174649
568.427732	9348.877781
568.783385	9287.552144
569.138982	9377.251915
569.494525	9413.238192
569.850013	9325.161673
570.205445	9420.532742
570.560823	9347.199077
570.916145	9299.550091
571.271412	9382.819870
571.626625	9346.765538
571.981782	9346.488274
572.336884	9346.402574
572.691931	9362.413279
573.046923	9339.642387
573.401860	9311.091812
573.756743	9273.174774
574.111570	9326.689142
574.466342	9331.556376
574.821059	9369.029793
575.175722	9289.747567
575.530330	9312.836052
575.884882	9318.580446
576.239380	9267.914330
576.593823	9258.056353
576.948211	9286.773286
577.302544	9182.653295
577.656823	9218.498419
578.011047	9224.250376
578.365216	9217.235610
578.719330	9149.283377
579.073389	9173.528806
579.427394	9138.023960
579.781344	9124.821178
580.135239	9087.516639
580.489080	9101.737734
580.842866	9013.144497
581.196597	9032.762147
581.550273	9082.228469
581.903895	9055.109582
582.257463	9130.167321
582.610975	9023.204119
582.964434	9050.998521
583.317837	8992.745467
583.671186	8976.790216
584.024481	8973.657138
584.377721	8903.133917
584.730906	8891.080518
585.084037	8926.451774
585.437113	8872.970173
585.790135	8894.085046
586.143103	8809.602869
586.496016	8785.047408
586.848874	8849.274229
587.201679	8844.049073
587.554428	8733.675530
587.907124	8781.226214
588.259765	8764.439172
588.612352	8765.129810
588.964884	8645.475502
589.317362	8667.875870
589.669786	8666.134151
590.022155	8723.273109
590.374470	8741.484278
590.726731	8683.440432
591.078937	8541.141262
591.431090	8651.794589
591.783188	8535.853092
592.135232	8529.138275
592.487222	8529.526443
592.839157	8586.330165
593.191038	8519.345833
593.542866	8474.421591
593.894639	8378.508598
594.246358	8429.605733
594.598022	8445.823125
594.949633	8345.131118
595.301190	8330.237029
595.652692	8354.318621
596.004141	8466.360786
596.355535	8245.207887
596.706876	8234.243377
597.058162	8168.473964
597.409395	8251.035461
597.760573	8305.948750
598.111698	8218.267961
598.462768	8212.533648
598.813785	8172.300200
599.164748	8146.134091
599.515657	8133.168243
599.866511	8047.834111
600.217312	8176.827156
600.568060	8035.271556
600.918753	8137.589335
601.269392	8111.377855
601.619978	8025.980709
601.970510	8089.874814
602.320988	8082.451715
602.671412	8136.860888
603.021783	8079.600942
603.372100	8053.054226
603.722363	8055.143784
604.072572	8028.692850
604.422728	8050.148001
604.772830	7978.548493
605.122878	7986.054771
605.472872	7973.134293
605.822813	8004.296186
606.172701	7951.807692
606.522534	8029.396091
606.872314	8023.167745
607.222041	7999.678489
607.571714	8052.981129
607.921333	8015.568206
608.270899	8020.674895
608.620411	8107.110519
608.969870	8013.387907
609.319276	8011.951178
609.668627	8028.597068
610.017926	8057.845843
610.367171	8105.338553
610.716362	8084.629493
611.065500	8075.270591
611.414585	8103.644725
611.763616	8092.229032
612.112594	8073.879232
612.461518	8087.215605
612.810389	8150.396386
613.159207	8087.639062
613.507971	8036.544447
613.856682	8151.674319
614.205340	8109.913400
614.553945	8185.379473
614.902496	8088.485976
615.250994	8143.679049
615.599439	8121.654247
615.947830	8141.760890
616.296169	8112.454142
616.644454	8125.500648
616.992686	8121.830688
617.340864	8180.610542
617.688990	8090.310873
618.037063	8174.306579
618.385082	8130.776215
618.733048	8212.828556
619.080961	8151.414699
619.428821	8166.238212
619.776628	8169.693923
620.124382	8121.177858
620.472083	8112.156714
620.819731	8138.355590
621.167326	8027.913992
621.514868	8039.135600
621.862357	7924.676202
622.209793	7944.223276
622.557176	7878.922690
622.904506	7848.779110
623.251783	7781.746888
623.599007	7739.582677
623.946179	7744.336485
624.293297	7704.002213
624.640363	7616.656661
624.987376	7604.973787
625.334336	7550.441105
625.681243	7504.496029
626.028097	7487.537588
626.374899	7465.648898
626.721647	7458.644214
627.068343	7391.861529
627.414987	7364.619133
627.761577	7319.669685
628.108115	7357.553956
628.454600	7250.946155
628.801032	7298.317878
629.147412	7259.130468
629.493739	7251.815754
629.840014	7190.023811
630.186236	7244.869044
630.532405	7129.575335
630.878521	7181.027872
631.224585	7135.549102
631.570597	7064.612506
631.916556	7093.836075
632.262462	7084.860301
632.608316	7053.753861
632.954117	7032.134873
633.299866	7018.208685
633.645562	7008.068404
633.991206	6930.079233
634.336797	6876.217025
634.682336	6831.292783
635.027823	6798.197608
635.373257	6788.115300
635.718639	6724.947122
636.063968	6733.726291
636.409245	6635.244830
636.754470	6626.798377
637.099642	6584.067036
637.444762	6527.210383
637.789829	6538.991559
638.134845	6486.661862
638.479808	6473.045705
638.824719	6476.342620
639.169577	6401.874695
639.514383	6421.804897
639.859137	6349.000553
640.203839	6360.449013
640.548489	6349.295461
640.893086	6320.833106
641.237632	6293.116842
641.582125	6315.318084
641.926566	6283.427744
642.270955	6300.703779
642.615292	6293.613396
642.959576	6308.971271
643.303809	6296.101205
643.647990	6306.695190
643.992118	6295.299662
644.336195	6244.736889
644.680219	6265.269508
645.024192	6256.739876
645.368112	6352.055492
645.711981	6373.258585
646.055797	6449.962262
646.399562	6405.282515
646.743274	6537.494337
647.086935	6585.438230
647.430544	6583.946049
647.774101	6601.242248
648.117606	6606.515294
648.461059	6600.944819
648.804460	6563.080713
649.147810	6469.095961
649.491108	6439.554800
649.834354	6417.570328
650.177548	6332.755435
650.520690	6248.515233
650.863781	6220.173867
651.206820	6246.110603
651.549807	6169.570764
651.892742	6106.475683
652.235626	6119.812055
652.578458	6099.539055
652.921238	6012.722824
653.263967	6053.929216
653.606644	5991.592828
653.949269	5996.994424
654.291843	5932.646616
654.634365	5982.175952
654.976836	5938.917811
655.319255	5935.648623
655.661622	5918.032311
656.003938	5913.727165
656.346203	5873.045054
656.688416	5903.032358
657.030577	5854.869174
657.372687	5830.535524
657.714746	5813.793852
658.056753	5864.147417
658.398708	5794.992869
658.740612	5791.108660
659.082465	5833.840000
659.424266	5826.752138
659.766016	5827.757848
660.107715	5804.329086
660.449362	5821.607641
660.790958	5815.832999
661.132503	5798.567047
661.473996	5838.190516
661.815438	5823.145193
662.156829	5818.025901
662.498168	5816.077495
662.839456	5786.984996
663.180693	5826.873126
663.521879	5825.532179
663.863013	5812.795704
664.204097	5832.919990
664.545129	5875.966403
664.886110	5872.160331
665.227040	5903.105454
665.567918	5869.014651
665.908746	5893.524741
666.249522	5899.238889
666.590248	5886.615840
666.930922	5913.424696
667.271545	5927.358445
667.612118	5932.339105
667.952639	5899.977418
668.293109	5924.542961
668.633528	5882.840016
668.973896	5884.586776
669.314213	5872.659406
669.654480	5856.434452
669.994695	5850.695098
670.334859	5842.979612
670.674973	5834.712120
671.015035	5838.722358
671.355047	5832.801523
671.695008	5822.822559
672.034918	5797.712571
672.374777	5807.999046
672.714585	5797.369773
673.054342	5794.221572
673.394049	5786.185973
673.733705	5822.638557
674.073310	5806.282533
674.412864	5771.135608
674.752368	5761.146562
675.091820	5761.791830
675.431223	5701.976019
675.770574	5698.739598
676.109875	5653.487680
676.449125	5659.355583
676.788324	5623.538185
677.127473	5567.994752
677.466571	5559.339091
677.805619	5548.387184
678.144616	5536.250607
678.483562	5519.534140
678.822458	5483.746989
679.161303	5476.888499
679.500098	5468.905832
679.838842	5451.397905
680.177535	5462.443073
680.516179	5474.468746
680.854771	5488.425180
681.193314	5563.561057
681.531805	5672.359240
681.870247	5825.257436
682.208638	5921.490542
682.546978	5932.684424
682.885268	5913.540643
683.223508	5830.122149
683.561697	5769.106544
683.899836	5744.412452
684.237925	5700.312438
684.575963	5667.668446
684.913951	5627.152693
685.251889	5685.556981
685.589776	5652.222351
685.927614	5629.239730
686.265401	5692.377662
686.603137	5681.060271
686.940824	5756.186067
687.278460	5779.017452
687.616046	5786.178411
687.953582	5856.250450
688.291068	5836.158931
688.628504	5898.182768
688.965889	5863.396285
689.303224	5810.174304
689.640510	5761.053301
689.977745	5687.777609
690.314930	5588.600469
690.652065	5529.941602
690.989150	5438.863076
691.326185	5367.389597
691.663170	5313.245084
692.000105	5236.659875
692.336990	5154.783974
692.673825	5137.812930
693.010610	5068.134102
693.347345	4999.609697
693.684030	4986.951360
694.020665	4940.650882
694.357251	4850.492367
694.693786	4863.425447
695.030272	4834.032999
695.366707	4797.603101
695.703093	4760.986680
696.039429	4784.927120
696.375716	4767.341054
696.711952	4742.422631
697.048139	4730.306218
697.384276	4709.244277
697.720363	4721.191812
698.056400	4733.406527
698.392388	4683.909958
698.728326	4664.055374
699.064214	4638.529491
699.400053	4633.029593
699.735842	4602.331486
700.071581	4574.332918
700.407270	4553.361718
700.742910	4536.607443
701.078501	4477.799863
701.414042	4477.273062
701.749533	4448.515800
702.084974	4379.998958
702.420366	4442.398360
702.755709	4378.451323
703.091002	4327.732274
703.426246	4376.654152
703.761440	4332.397862
704.096584	4295.539466
704.431679	4315.358762
704.766725	4297.424858
705.101721	4287.735760
705.436668	4316.084688
705.771565	4266.260444
706.106413	4292.960916
706.441212	4325.907377
706.775961	4338.099407
707.110661	4314.950429
707.445311	4338.963965
707.779913	4365.147718
708.114465	4373.521075
708.448967	4400.695415
708.783421	4458.948468
709.117825	4498.602184
709.452180	4507.136857
709.786485	4549.580852
710.120742	4637.324656
710.454949	4617.943940
710.789107	4683.088250
711.123216	4757.898973
711.457275	4751.423611
711.791286	4828.391948
712.125247	4838.411241
712.459159	4738.800562
712.793023	4818.939785
713.126837	4774.895223
713.460602	4766.731075
713.794318	4690.539076
714.127985	4700.248338
714.461602	4616.991162
714.795171	4583.830452
715.128691	4520.783261
715.462162	4462.487358
715.795584	4414.818207
716.128957	4397.186772
716.462281	4348.312785
716.795556	4318.980831
717.128782	4282.129997
717.461960	4212.267166
717.795088	4227.977922
718.128167	4187.552909
718.461198	4126.759115
718.794180	4125.518991
719.127113	4102.049899
719.459997	4085.225048
719.792833	4038.291906
720.125619	4029.212788
720.458357	3994.723734
720.791046	3998.454187
721.123686	3970.334631
721.456278	3931.800051
721.788821	3946.797484
722.121315	3920.049122
722.453761	3894.573651
722.786158	3904.345927
723.118506	3928.815688
723.450805	3881.065879
723.783056	3905.868356
724.115259	3921.170778
724.447412	3922.368052
724.779518	3916.139707
725.111574	3922.365532
725.443582	3951.216055
725.775542	3938.683747
726.107453	3986.002537
726.439315	3984.805263
726.771129	3999.253210
727.102895	4038.750651
727.434612	4087.460800
727.766281	4094.538580
728.097901	4099.015124
728.429473	4103.153912
728.760996	4106.861680
729.092471	4106.307153
729.423897	4088.668156
729.755276	4094.780555
730.086606	4094.853652
730.417887	4130.439157
730.749120	4196.616904
731.080305	4259.023868
731.411442	4285.235348
731.742530	4253.387858
732.073570	4256.364659
732.404562	4313.337260
732.735506	4303.086073
733.066401	4269.383439
733.397249	4205.322977
733.728048	4124.087303
734.058798	4045.677196
734.389501	3975.032987
734.720156	3913.677103
735.050762	3872.626988
735.381320	3864.535936
735.711831	3812.881753
736.042293	3786.090541
736.372707	3806.769354
736.703073	3779.043008
737.033391	3769.575721
737.363661	3783.133904
737.693883	3810.038542
738.024056	3820.070438
738.354182	3813.073317
738.684260	3875.898696
739.014290	3896.401069
739.344272	3893.804875
739.674207	3935.540587
740.004093	3948.768575
740.333931	3934.839867
740.663722	3934.194599
740.993464	3933.544291
741.323159	3909.072009
741.652806	3880.897000
741.982405	3851.318030
742.311956	3823.279133
742.641460	3812.412925
742.970915	3789.256385
743.300323	3749.358173
743.629683	3713.898697
743.958996	3709.308726
744.288260	3679.482740
744.617477	3648.492246
744.946647	3631.800986
745.275768	3610.759210
745.604842	3609.551853
745.933869	3556.410530
746.262847	3552.690159
746.591778	3587.428750
746.920662	3558.389183
747.249498	3527.955737
747.578286	3575.569435
747.907027	3590.365222
748.235720	3590.093000
748.564365	3612.972276
748.892963	3611.747276
749.221514	3594.831684
749.550017	3573.978951
749.878473	3572.267480
750.206881	3541.506359
750.535242	3540.218344
750.863555	3537.715411
751.191821	3536.026625
751.520039	3518.463245
751.848210	3496.627487
752.176334	3529.402548
752.504411	3534.884803
752.832440	3494.016169
753.160421	3479.384220
753.488356	3488.775890
753.816243	3499.450533
754.144082	3454.906898
754.471875	3441.603293
754.799620	3463.658341
755.127318	3454.112916
755.454969	3453.029068
755.782572	3458.516364
756.110129	3436.269752
756.437638	3423.432453
756.765100	3438.601285
757.092515	3451.262143
757.419882	3454.097792
757.747203	3430.308587
758.074477	3430.888320
758.401703	3445.321143
758.728882	3470.403404
759.056014	3472.137561
759.383099	3478.885146
759.710138	3473.675113
760.037129	3490.842763
760.364073	3519.526928
760.690970	3506.815659
761.017820	3483.331443
761.344623	3499.581603
761.671379	3550.366187
761.998088	3596.056685
762.324751	3722.889595
762.651366	3969.603664
762.977935	4437.112710
763.304456	4877.223085
763.630931	4961.301969
763.957359	4604.078246
764.283740	4268.254221
764.610074	4079.352104
764.936362	3884.244327
765.262602	3728.984350
765.588796	3619.987042
765.914943	3531.350954
766.241044	3442.767799
766.567097	3414.897780
766.893104	3369.129144
767.219064	3338.536902
767.544978	3311.503715
767.870845	3255.325096
768.196665	3239.390009
768.522438	3247.639857
768.848165	3242.823035
769.173846	3205.992365
769.499479	3188.837318
769.825066	3172.539268
770.150607	3154.552431
770.476101	3173.920544
770.801548	3169.542302
771.126949	3121.187554
771.452303	3104.929833
771.777611	3115.624641
772.102872	3117.578088
772.428087	3092.377360
772.753256	3084.046853
773.078378	3078.488981
773.403453	3044.206614
773.728482	3030.565252
774.053465	3051.740619
774.378401	3039.719987
774.703291	3005.626664
775.028135	3013.390041
775.352932	3002.796056
775.677683	2992.653254
776.002388	2990.528408
776.327046	2991.037565
776.651658	2983.236379
776.976224	2969.043010
777.300743	2966.305664
777.625216	2961.002370
777.949643	2954.345526
778.274024	2957.113120
778.598359	2947.867644
778.922647	2953.392748
779.246889	2950.052984
779.571086	2937.203083
779.895236	2930.165632
780.219339	2941.634257
780.543397	2954.365691
780.867409	2957.483645
781.191374	2950.047943
781.515294	2946.761110
781.839167	2944.205245
782.162995	2938.591921
782.486776	2944.243054
782.810511	2945.664659
783.134201	2931.587237
783.457844	2938.672579
783.781441	2928.270158
784.104993	2906.769637
784.428498	2910.595873
784.751958	2925.368974
785.075372	2918.628951
785.398739	2902.129255
785.722061	2915.352201
786.045337	2929.439706
786.368568	2913.310534
786.691752	2907.372055
787.014891	2951.890484
787.337983	2983.168323
787.661030	3008.825276
787.984031	3078.032757
788.306987	3120.131432
788.629897	3113.151955
788.952760	3097.794080
789.275579	3082.915114
789.598351	3023.641227
789.921078	2978.931234
790.243759	2973.905203
790.566395	2957.544138
790.888984	2931.231836
791.211529	2916.231883
791.534027	2904.352404
791.856480	2896.437792
792.178888	2878.803836
792.501249	2874.443238
792.823566	2870.291848
793.145836	2868.081302
793.468062	2863.501413
793.790241	2860.718697
794.112375	2869.407125
794.434464	2878.652601
794.756507	2880.202756
795.078505	2890.161556
795.400457	2904.501118
795.722364	2939.693413
796.044226	2963.230560
796.366042	2966.787094
796.687812	2953.213787
797.009538	2974.071561
797.331218	2962.988585
797.652852	2948.538117
797.974442	2930.372319
798.295986	2926.432658
798.617484	2921.371339
798.938938	2906.784760
799.260346	2891.270609
799.581709	2887.225083
799.903026	2883.139228
800.224299	2875.469113
800.545526	2864.335724
800.866708	2848.589680
801.187845	2840.780933
801.508936	2841.559791
801.829983	2848.166223
802.150984	2836.168277
802.471940	2818.073056
802.792851	2821.957265
803.113717	2823.094045
803.434538	2827.978923
803.755314	2821.695125
804.076045	2815.033240
804.396731	2815.325627
804.717372	2816.016265
805.037967	2806.690130
805.358518	2816.288487
805.679024	2830.678461
805.999485	2820.621359
806.319901	2829.458502
806.640272	2821.501040
806.960598	2824.238387
807.280879	2833.816579
807.601115	2839.276149
807.921306	2828.553614
808.241453	2822.300063
808.561554	2829.176197
808.881611	2834.056034
809.201623	2829.024962
809.521590	2828.233501
809.841513	2821.014569
810.161390	2824.762667
810.481223	2817.606749
810.801011	2811.890080
811.120755	2806.672486
811.440453	2811.375883
811.760107	2809.210707
812.079716	2809.409833
812.399281	2798.465488
812.718801	2791.178500
813.038276	2787.160700
813.357707	2791.365022
813.677093	2799.934984
813.996434	2793.008439
814.315731	2788.541976
814.634983	2784.284722
814.954191	2786.487706
815.273354	2800.187042
815.592473	2808.338587
815.911547	2810.934782
816.230577	2818.211687
816.549562	2824.316525
816.868502	2825.748212
817.187399	2835.112156
817.506250	2850.122191
817.825058	2845.111284
818.143821	2858.472862
818.462539	2872.409132
818.781213	2898.665982
819.099843	2935.342897
819.418429	2991.516474
819.736970	3051.017213
820.055466	3119.791154
820.373919	3226.497258
820.692327	3362.812578
821.010691	3526.524050
821.329011	3963.334989
821.647286	4850.913303
821.965517	6204.543769
822.283704	6918.091370
822.601847	6892.620940
822.919945	6273.834429
823.237999	5776.595178
823.556010	5211.108786
823.873976	4667.717772
824.191897	4267.540898
824.509775	3980.343842
824.827609	3715.834500
825.145398	3592.477465
825.463144	3587.169130
825.780845	3675.159950
826.098502	3781.916465
826.416116	4058.103640
826.733685	4366.029920
827.051210	4421.981687
827.368692	4313.097805
827.686129	4051.731622
828.003522	3731.373857
828.320872	3476.286431
828.638177	3292.707773
828.955439	3157.998059
829.272656	3073.651994
829.589830	3009.226048
829.906960	2961.642597
830.224046	2915.735329
830.541088	2882.955226
830.858086	2865.114583
831.175041	2852.728468
831.491952	2853.623273
831.808819	2864.426465
832.125642	2887.318345
832.442421	2935.821807
832.759157	3013.810977
833.075849	3185.704241
833.392497	3462.818988
833.709101	3665.846418
834.025662	3611.346504
834.342179	3453.389510
834.658653	3280.659415
834.975083	3136.575676
835.291469	3036.740665
835.607811	2956.956844
835.924110	2898.003070
836.240366	2853.567820
836.556578	2808.328505
836.872746	2789.525001
837.188871	2764.954417
837.504952	2749.163003
837.820990	2742.246540
838.136984	2729.010991
838.452935	2723.314487
838.768842	2719.200905
839.084706	2736.713874
839.400526	2815.870071
839.716303	2947.073662
840.032037	3020.976977
840.347727	3006.750841
840.663373	2949.566513
840.978977	2874.695296
841.294537	2805.248360
841.610054	2758.935280
841.925527	2738.294275
842.240957	2715.021789
842.556344	2694.471525
842.871687	2676.096519
843.186987	2669.858091
843.502244	2662.908861
843.817458	2658.495331
844.132629	2648.304638
844.447756	2641.562095
844.762840	2632.074643
845.077881	2633.776033
845.392879	2636.858698
845.707833	2629.433079
846.022745	2625.014507
846.337613	2625.014507
846.652438	2625.415279
846.967221	2625.601802
847.281960	2622.335134
847.596656	2622.884620
847.911309	2623.227418
848.225919	2617.747684
848.540485	2614.312138
848.855009	2615.786675
849.169490	2617.639299
849.483928	2617.188116
849.798323	2614.528907
850.112675	2613.137549
850.426984	2613.888681
850.741251	2610.740480
851.055474	2610.599328
851.369654	2617.319186
851.683792	2614.352467
851.997887	2613.636623
852.311938	2610.743001
852.625947	2615.138887
852.939914	2614.977570
853.253837	2618.529063
853.567718	2610.798453
853.881555	2613.089658
854.195350	2613.976901
854.509103	2612.925820
854.822812	2613.802981
855.136479	2612.099071
855.450103	2613.346757
855.763685	2615.416150
856.077224	2610.261571
856.390720	2607.221755
856.704173	2611.864657
857.017584	2619.086110
857.330953	2617.762807
857.644278	2620.575771
857.957561	2621.215998
858.270802	2618.004783
858.584000	2615.378342
858.897155	2621.084928
859.210268	2619.834722
859.523339	2614.049998
859.836367	2610.506067
860.149352	2612.257867
860.462295	2613.329113
860.775195	2610.009513
861.088054	2607.425922
861.400869	2607.844337
861.713642	2604.872577
862.026373	2607.655294
862.339062	2609.399533
862.651708	2613.213166
862.964312	2616.260544
863.276873	2612.058742
863.589392	2618.014865
863.901869	2621.911677
864.214303	2625.987450
864.526696	2630.968110
864.839045	2629.871659
865.151353	2631.905765
865.463619	2628.961731
865.775842	2631.673872
866.088023	2631.411732
866.400162	2634.600261
866.712258	2631.106742
867.024313	2631.764612
867.336325	2627.131792
867.648296	2628.999539
867.960224	2634.196969
868.272110	2630.731176
868.583954	2625.836215
868.895755	2628.863428
869.207515	2633.944911
869.519233	2639.217958
869.830909	2634.789305
870.142542	2631.646145
870.454134	2632.956845
870.765684	2639.170067
871.077191	2638.403812
871.388657	2645.171561
871.700081	2640.914307
872.011463	2642.905562
872.322803	2643.162661
872.634101	2644.687610
872.945357	2653.955772
873.256571	2658.495331
873.567744	2659.725372
873.878874	2653.779331
874.189963	2655.964671
874.501010	2660.090856
874.812015	2665.169818
875.122979	2665.011022
875.433900	2656.277223
875.744780	2654.449805
876.055618	2661.726710
876.366415	2666.702329
876.677169	2664.131341
876.987882	2657.540032
877.298554	2656.713283
877.609183	2666.089829
877.919771	2675.126097
878.230317	2678.526355
878.540822	2692.818027
878.851285	2703.893442
879.161707	2729.005949
879.472087	2765.967689
879.782425	2811.108702
880.092722	2920.584919
880.402977	3106.767333
880.713191	3358.164635
881.023363	3639.143427
881.333494	3819.664625
881.643583	3991.825070
881.953631	3986.990604
882.263637	3814.749500
882.573602	3601.770832
882.883526	3473.513796
883.193408	3364.042620
883.503248	3265.354472
883.813048	3154.786844
884.122806	3043.437838
884.432522	2962.461784
884.742197	2900.450551
885.051831	2864.287833
885.361424	2830.703667
885.670975	2798.397432
885.980485	2768.619336
886.289954	2747.456572
886.599382	2734.790673
886.908768	2726.256000
887.218113	2704.884028
887.527417	2694.441278
887.836680	2685.369722
888.145901	2682.970132
888.455082	2672.691220
888.764221	2662.356854
889.073319	2656.340237
889.382376	2653.381080
889.691392	2653.764208
890.000366	2654.961482
890.309300	2651.788075
890.618193	2654.807727
890.927044	2658.545742
891.235855	2655.901657
891.544625	2658.996925
891.853353	2658.883499
892.162041	2665.694098
892.470687	2684.742098
892.779293	2695.421782
893.087858	2704.238761
893.396381	2725.759446
893.704864	2766.875097
894.013306	2836.561487
894.321707	2923.627255
894.630068	2972.181129
894.938387	2988.169148
895.246665	2979.374855
895.554903	2940.419339
895.863100	2898.565159
896.171256	2842.900738
896.479371	2784.130967
896.787446	2747.083527
897.095480	2730.299005
897.403473	2721.648385
897.711425	2709.831921
898.019336	2691.880372
898.327207	2677.991993
898.635038	2677.266067
898.942827	2676.628361
899.250576	2664.753923
899.558284	2654.530463
899.865952	2649.585091
900.173579	2648.201294
900.481165	2648.869247
900.788711	2637.977834
901.096216	2632.729993
901.403681	2626.093314
901.711105	2631.200003
902.018489	2626.191617
902.325832	2631.555404
902.633135	2632.951804
902.940397	2646.877992
903.247619	2683.998528
903.554800	2749.838518
903.861941	2872.179760
904.169041	2995.007473
904.476101	3049.557799
904.783121	3042.593445
905.090100	2990.609067
905.397039	2918.460073
905.703938	2845.859896
906.010796	2786.906122
906.317614	2736.786970
906.624391	2702.030735
906.931129	2677.666839
907.237826	2654.172541
907.544483	2637.498925
907.851099	2626.380660
908.157675	2616.464710
908.464211	2608.925665
908.770707	2599.097935
909.077163	2593.318252
909.383578	2591.039651
909.689954	2590.449836
909.996289	2587.483117
910.302584	2587.268868
910.608839	2585.428847
910.915054	2584.791141
911.221229	2589.229877
911.527363	2592.541915
911.833458	2588.937490
912.139513	2591.695001
912.445527	2592.163828
912.751502	2596.607605
913.057436	2604.229830
913.363331	2610.218721
913.669186	2617.863631
913.975000	2630.554735
914.280775	2648.012251
914.586510	2664.716114
914.892205	2698.227185
915.197859	2763.671444
915.503475	2844.153465
915.809050	2908.617220
916.114585	2919.639703
916.420081	2928.696136
916.725536	2942.710543
917.030952	2916.115936
917.336328	2870.624564
917.641665	2825.944817
917.946961	2778.870523
918.252218	2744.147055
918.557435	2719.810885
918.862612	2699.568132
919.167750	2682.428208
919.472848	2667.317350
919.777906	2652.698004
920.082925	2639.591004
920.387904	2631.993985
920.692843	2626.728500
920.997743	2625.563993
921.302603	2615.582508
921.607423	2609.845675
921.912204	2603.660180
922.216946	2602.392329
922.521647	2601.590786
922.826310	2593.598037
923.130932	2593.091401
923.435516	2585.270050
923.740059	2584.569330
924.044564	2583.961871
924.349028	2582.832652
924.653454	2574.103895
924.957840	2572.939388
925.262186	2566.277503
925.566493	2570.741445
925.870761	2567.192473
926.174989	2567.409242
926.479178	2564.976886
926.783328	2563.817420
927.087438	2562.040413
927.391509	2561.831206
927.695541	2562.310115
927.999533	2560.218036
928.303486	2556.147305
928.607400	2561.082594
928.911275	2556.810216
929.215110	2559.209806
929.518906	2558.672923
929.822663	2560.679302
930.126381	2557.369784
930.430060	2556.787531
930.733699	2559.197203
931.037299	2557.324414
931.340861	2557.715103
931.644383	2559.880279
931.947866	2557.059753
932.251309	2559.333314
932.554714	2557.301729
932.858080	2560.767522
933.161407	2556.870710
933.464694	2557.546225
933.767943	2555.391132
934.071153	2556.137222
934.374323	2554.887016
934.677455	2554.844166
934.980548	2555.862479
935.283602	2554.481203
935.586617	2553.631769
935.889593	2556.689229
936.192530	2554.438353
936.495428	2553.866183
936.798287	2555.703683
937.101108	2558.415824
937.403890	2558.335165
937.706632	2561.531257
938.009336	2566.083419
938.312002	2568.495611
938.614628	2573.350242
938.917216	2572.762948
939.219765	2575.553226
939.522275	2576.879050
939.824747	2574.166909
940.127179	2569.942422
940.429573	2566.736248
940.731929	2568.339335
941.034246	2564.256001
941.336524	2570.678431
941.638763	2567.845302
941.940964	2567.194993
942.243126	2563.172152
942.545250	2565.670044
942.847335	2567.265569
943.149381	2563.414128
943.451389	2561.745506
943.753359	2560.850701
944.055290	2560.853222
944.357182	2560.659137
944.659036	2556.202757
944.960851	2557.460525
945.262628	2556.966492
945.564367	2558.219219
945.866067	2561.253993
946.167729	2558.909857
946.469352	2557.037068
946.770937	2558.375495
947.072484	2556.066646
947.373992	2556.701832
947.675462	2556.248128
947.976893	2554.806358
948.278286	2554.418189
948.579641	2555.965823
948.880958	2555.391132
949.182236	2554.234187
949.483476	2554.433312
949.784678	2554.695452
950.085841	2552.051367
950.386967	2555.328117
950.688054	2552.749567
950.989103	2555.101265
951.290114	2557.649568
951.591087	2560.568397
951.892021	2559.507234
952.192917	2562.806669
952.493776	2560.167625
952.794596	2562.068140
953.095378	2561.695094
953.396122	2566.068295
953.696828	2563.507389
953.997496	2560.308777
954.298126	2559.459343
954.598718	2557.034548
954.899272	2556.404403
955.199788	2555.260062
955.500266	2551.998435
955.800706	2550.604556
956.101108	2547.612631
956.401472	2547.289997
956.701798	2546.014585
957.002087	2547.539534
957.302337	2546.629606
957.602550	2546.685059
957.902724	2547.055584
958.202861	2547.557178
958.502960	2545.500388
958.803022	2545.318906
959.103045	2542.790768
959.403031	2545.903680
959.702979	2543.289842
960.002889	2545.835624
960.302762	2541.827907
960.602596	2544.572815
960.902393	2539.355221
961.202153	2543.443597
961.501875	2543.289842
961.801559	2542.768082
962.101205	2542.934440
962.400814	2542.836138
962.700385	2542.158103
962.999918	2543.120963
963.299414	2542.120294
963.598873	2541.570808
963.898293	2538.725077
964.197677	2542.369831
964.497022	2540.650798
964.796331	2541.074255
965.095601	2541.134748
965.394835	2544.161961
965.694030	2541.656508
965.993189	2542.395037
966.292309	2539.902186
966.591393	2541.497712
966.890439	2539.030067
967.189447	2541.328833
967.488419	2542.105171
967.787353	2541.812784
968.086249	2540.975952
968.385108	2540.272711
968.683930	2539.234233
968.982714	2539.435880
969.281462	2541.603576
969.580172	2538.745242
969.878844	2539.551826
970.177480	2542.180788
970.476078	2540.338246
970.774639	2544.126673
971.073162	2541.096940
971.371649	2538.367155
971.670098	2536.446475
971.968510	2539.503935
972.266885	2535.914634
972.565223	2542.652136
972.863524	2537.686599
973.161788	2545.039122
973.460014	2541.873278
973.758204	2543.660367
974.056356	2543.940151
974.354471	2543.700696
974.652550	2542.959646
974.950591	2542.321940
975.248595	2540.986034
975.546563	2543.304965
975.844493	2541.134748
976.142386	2541.996786
976.440243	2540.857485
976.738062	2540.073586
977.035845	2539.481250
977.333590	2542.039636
977.631299	2540.408822
977.928971	2542.193391
978.226606	2543.057949
978.524204	2541.638864
978.821765	2539.806404
979.119290	2539.970242
979.416777	2540.683565
979.714228	2538.120138
980.011642	2539.297248
980.309020	2543.105840
980.606360	2538.861188
980.903664	2536.867412
981.200931	2539.203987
981.498162	2543.388144
981.795356	2542.064841
982.092513	2546.385110
982.389633	2547.993238
982.686717	2549.167827
982.983764	2553.689742
983.280775	2555.963303
983.577749	2554.458518
983.874686	2552.152190
984.171587	2550.917107
984.468451	2549.739998
984.765279	2546.700182
985.062070	2545.228165
985.358824	2541.379244
985.655543	2543.259595
985.952224	2542.221117
986.248869	2542.831097
986.545478	2536.635519
986.842050	2538.299099
987.138586	2537.545447
987.435086	2536.038142
987.731549	2536.370858
988.027975	2539.264480
988.324366	2535.977648
988.620719	2539.841693
988.917037	2535.874304
989.213318	2539.345139
989.509563	2536.864891
989.805772	2534.873635
990.101944	2537.739531
990.398080	2535.690302
990.694180	2538.341949
990.990244	2536.698533
991.286271	2537.684079
991.582262	2537.003523
991.878217	2536.292720
992.174136	2538.954449
992.470019	2537.734490
992.765865	2535.791125
993.061676	2537.575694
993.357450	2538.548637
993.653188	2536.953111
993.948890	2538.510828
994.244556	2537.653832
994.540186	2539.647608
994.835780	2538.639377
995.131337	2537.764737
995.426859	2539.997968
995.722345	2539.259439
996.017795	2539.917310
996.313208	2543.269677
996.608586	2542.518545
996.903928	2541.059131
997.199234	2537.767258
997.494504	2543.894780
997.789738	2542.810932
998.084936	2540.214738
998.380099	2537.830272
998.675225	2537.132072
998.970316	2536.980838
999.265371	2539.599717
999.560390	2536.796836
999.855373	2538.021836
1000.150320	2536.005374
1000.445232	2536.569984
1000.740108	2534.482946
1001.034948	2537.507638
1001.329752	2536.181815
1001.624521	2536.098636
1001.919254	2530.918850
1002.213951	2533.946063
1002.508613	2530.013963
1002.803239	2536.643080
1003.097829	2531.070085
1003.392384	2535.859181
1003.686903	2535.218954
1003.981386	2537.474871
1004.275834	2534.543440
1004.570246	2536.786753
1004.864623	2533.527647
1005.158964	2534.684592
1005.453270	2536.721218
1005.747540	2536.743903
1006.041775	2534.568646
1006.335974	2535.798687
1006.630138	2534.868594
1006.924266	2536.093595
1007.218359	2535.236598
1007.512416	2535.710467
1007.806438	2535.448327
1008.100425	2534.341794
1008.394376	2535.700385
1008.688292	2539.110725
1008.982172	2534.540919
1009.276017	2534.402288
1009.569827	2535.657535
1009.863602	2537.996630
1010.157341	2536.080992
1010.451045	2534.755168
1010.744714	2535.261804
1011.038347	2536.759027
1011.331945	2535.902031
1011.625508	2535.725590
1011.919036	2537.031249
1012.212528	2531.944725
1012.505986	2536.638039
1012.799408	2535.559232
1013.092795	2530.976823
1013.386147	2536.736342
1013.679464	2535.556712
1013.972745	2533.688964
1014.265992	2534.404808
1014.559204	2533.353728
1014.852380	2535.327339
1015.145521	2535.148378
1015.438628	2533.192411
1015.731699	2536.428831
1016.024736	2533.941022
1016.317737	2533.968748
1016.610703	2534.722401
1016.903635	2529.590506
1017.196531	2532.748789
1017.489393	2530.908768
1017.782219	2529.633356
1018.075011	2532.262318
1018.367768	2533.739376
1018.660490	2536.481763
1018.953177	2536.481763
1019.245829	2536.481763
