Dividing Wavelength (nm)	Counts (n)	Blue Motor Position (mm): 9.300000	Red Motor Position (mm): 0.000000	
326.493990	2139.919396
326.888308	2139.919396
327.282561	2139.919396
327.676750	2109.322113
328.070874	2106.073089
328.464933	2107.338419
328.858929	2115.626076
329.252859	2123.505399
329.646726	2137.063583
330.040528	2150.107568
330.434265	2167.663386
330.827938	2186.431602
331.221547	2202.220496
331.615091	2222.969885
332.008571	2241.665004
332.401986	2261.872469
332.795338	2280.217228
333.188625	2299.134158
333.581847	2317.534370
333.975006	2334.535661
334.368100	2354.107941
334.761129	2373.057638
335.154095	2390.142108
335.546996	2406.122566
335.939833	2423.721234
336.332606	2437.576846
336.725315	2451.359360
337.117960	2460.544342
337.510540	2469.320991
337.903056	2478.720223
338.295508	2485.518219
338.687896	2495.885352
339.080220	2504.472957
339.472480	2508.291631
339.864676	2514.000738
340.256807	2517.668177
340.648875	2520.307221
341.040879	2525.880217
341.432818	2526.873324
341.824694	2526.369209
342.216506	2525.706297
342.608253	2526.464991
342.999937	2527.009435
343.391557	2523.576410
343.783113	2528.257121
344.174605	2525.295443
344.566033	2521.988446
344.957397	2521.834691
345.348697	2519.233456
345.739934	2521.809485
346.131106	2514.487209
346.522215	2516.435615
346.913260	2511.669204
347.304241	2511.434791
347.695159	2510.361025
348.086012	2509.030160
348.476802	2505.299706
348.867528	2502.204438
349.258191	2502.138903
349.648789	2501.851557
350.039324	2497.206134
350.429796	2500.702174
350.820203	2498.957935
351.210548	2495.446771
351.600828	2495.083808
351.991045	2496.185300
352.381198	2493.629435
352.771288	2497.135558
353.161314	2495.915598
353.551276	2492.043992
353.941175	2492.157418
354.331010	2493.009373
354.720782	2494.224291
355.110490	2493.894096
355.500135	2490.871924
355.889717	2494.441061
356.279235	2493.364775
356.668689	2496.003819
357.058080	2493.989878
357.447408	2494.504075
357.836672	2492.285968
358.225873	2493.929384
358.615010	2491.179434
359.004084	2498.118583
359.393095	2497.780825
359.782043	2497.619508
360.170927	2497.475836
360.559748	2500.341732
360.948505	2499.593120
361.337199	2498.693274
361.725830	2499.981289
362.114398	2500.808038
362.502903	2504.851044
362.891344	2502.849706
363.279722	2501.407936
363.668037	2501.695281
364.056289	2501.959942
364.444478	2503.275683
364.832603	2501.173522
365.220665	2503.658811
365.608665	2502.295179
365.996601	2503.936074
366.384474	2504.951867
366.772284	2505.584532
367.160031	2505.546723
367.547715	2506.360869
367.935336	2505.660149
368.322893	2502.955570
368.710388	2507.169974
369.097820	2512.995028
369.485189	2504.230982
369.872495	2508.702485
370.259738	2509.982938
370.646918	2505.574449
371.034035	2510.340860
371.421090	2511.946468
371.808081	2507.848010
372.195010	2510.610562
372.581875	2510.522342
372.968678	2508.510921
373.355418	2509.640140
373.742096	2509.219203
374.128710	2510.613082
374.515262	2511.805315
374.901751	2509.443535
375.288177	2511.611231
375.674540	2512.432939
376.060841	2510.653412
376.447079	2512.112826
376.833254	2514.068793
377.219367	2509.025119
377.605417	2509.723319
377.991404	2508.377331
378.377329	2508.624347
378.763191	2508.541168
379.148991	2513.874709
379.534727	2512.102743
379.920402	2512.735408
380.306013	2513.247085
380.691563	2510.794564
381.077049	2515.865965
381.462474	2517.711027
381.847835	2513.965450
382.233134	2514.429236
382.618371	2513.746160
383.003545	2516.128105
383.388657	2514.661129
383.773706	2516.372601
384.158693	2516.435615
384.543618	2514.703979
384.928480	2518.825122
385.313280	2515.871006
385.698017	2518.303363
386.082692	2520.385359
386.467305	2515.782786
386.851856	2520.695390
387.236344	2518.754546
387.620770	2517.085924
388.005133	2519.009124
388.389435	2521.297808
388.773674	2518.996521
389.157851	2516.339833
389.541965	2518.772190
389.926018	2520.120699
390.310008	2520.012314
390.693936	2520.960051
391.077802	2520.720596
391.461606	2519.336799
391.845348	2518.757067
392.229027	2519.966943
392.612645	2518.641120
392.996200	2521.693539
393.379694	2522.006090
393.763125	2522.180010
394.146494	2520.516429
394.529801	2524.067922
394.913047	2522.621111
395.296230	2526.054137
395.679351	2520.498785
396.062410	2521.678415
396.445408	2522.555576
396.828343	2521.133971
397.211217	2515.576098
397.594028	2522.842922
397.976778	2520.455935
398.359466	2521.408713
398.742092	2519.364526
399.124656	2525.028262
399.507158	2526.379291
399.889598	2526.122192
400.271977	2522.290915
400.654294	2528.060516
401.036549	2525.355937
401.418742	2525.005577
401.800874	2525.303005
402.182944	2528.052954
402.564952	2524.430885
402.946898	2525.360978
403.328783	2526.245701
403.710606	2525.721421
404.092367	2524.408200
404.474067	2524.357788
404.855705	2525.597912
405.237282	2527.115300
405.618797	2524.884589
406.000250	2526.843077
406.381642	2527.052285
406.762972	2526.984230
407.144240	2525.839888
407.525447	2528.899868
407.906593	2526.570855
408.287677	2526.013808
408.668700	2527.105217
409.049661	2527.465660
409.430560	2524.156142
409.811399	2526.820392
410.192176	2528.002543
410.572891	2525.885258
410.953545	2528.143695
411.334138	2529.703932
411.714669	2527.566483
412.095139	2528.657893
412.475547	2530.986906
412.855894	2527.546318
413.236180	2528.816689
413.616405	2529.434230
413.996568	2528.851977
414.376670	2531.753161
414.756711	2534.543440
415.136691	2530.606299
415.516609	2530.800383
415.896466	2532.859694
416.276262	2527.397604
416.655997	2526.875845
417.035670	2527.967255
417.415283	2529.779549
417.794834	2528.534384
418.174324	2532.365661
418.553753	2531.846422
418.933121	2532.504293
419.312428	2534.004036
419.691674	2532.905065
420.070859	2528.357944
420.449983	2531.022194
420.829045	2531.801052
421.208047	2530.528161
421.586988	2530.792821
421.965867	2530.961700
422.344686	2531.092770
422.723444	2533.141999
423.102141	2532.884900
423.480777	2532.983203
423.859352	2533.951104
424.237866	2534.767771
424.616319	2535.123173
424.994712	2534.336752
425.373044	2533.918337
425.751314	2532.537061
426.129524	2535.665097
426.507673	2531.967410
426.885762	2535.297092
427.263789	2533.051258
427.641756	2534.500590
428.019662	2534.823224
428.397508	2533.515044
428.775292	2537.069058
429.153016	2535.034952
429.530679	2535.692823
429.908282	2534.054448
430.285824	2535.395395
430.663305	2536.254912
431.040726	2537.585776
431.418086	2532.915147
431.795385	2537.520241
432.172624	2535.894469
432.549802	2535.728111
432.926920	2536.635519
433.303977	2538.546116
433.680974	2533.867925
434.057910	2539.471168
434.434786	2537.689120
434.811601	2538.241126
435.188355	2534.548481
435.565050	2537.709284
435.941683	2537.966383
436.318257	2535.544109
436.694770	2531.163346
437.071222	2535.350024
437.447614	2533.094108
437.823946	2534.611495
438.200218	2535.397915
438.576429	2538.162988
438.952580	2534.976979
439.328670	2537.295910
439.704700	2539.123328
440.080670	2536.315405
440.456580	2537.986548
440.832429	2537.283307
441.208218	2537.467309
441.583947	2537.162319
441.959616	2540.590304
442.335224	2540.204656
442.710773	2538.856147
443.086261	2539.559388
443.461689	2535.788605
443.837057	2539.123328
444.212365	2539.478729
444.587612	2539.932433
444.962800	2540.265149
445.337927	2537.878163
445.712995	2539.138452
446.088002	2537.641229
446.462949	2541.530479
446.837837	2537.225334
447.212664	2540.023174
447.587431	2540.108874
447.962139	2538.178112
448.336786	2542.241282
448.711374	2538.508307
449.085901	2541.855633
449.460369	2539.806404
449.834776	2540.320602
450.209124	2539.531662
450.583412	2540.524769
450.957640	2536.028060
451.331808	2538.707433
451.705917	2539.319933
452.079965	2542.067362
452.453954	2539.647608
452.827883	2541.291024
453.201752	2541.454862
453.575562	2540.658359
453.949311	2540.441590
454.323001	2540.476878
454.696632	2542.760521
455.070202	2540.809594
455.443713	2540.592824
455.817164	2541.054090
456.190556	2535.660055
456.563888	2539.289686
456.937160	2537.305992
457.310373	2542.200953
457.683526	2541.785057
458.056619	2542.503422
458.429653	2539.975283
458.802628	2543.516694
459.175542	2541.691796
459.548398	2542.921837
459.921194	2542.163144
460.293930	2540.902855
460.666607	2543.950233
461.039224	2539.239275
461.411782	2541.394368
461.784280	2543.672969
462.156719	2543.325130
462.529099	2544.048535
462.901419	2542.858823
463.273680	2541.991745
463.645882	2545.470141
464.018024	2544.308155
464.390106	2543.572146
464.762130	2542.634492
465.134094	2541.621220
465.505999	2541.863195
465.877845	2544.522404
466.249631	2542.289173
466.621358	2544.257743
466.993026	2545.210521
467.364634	2546.498536
467.736184	2543.935109
468.107674	2543.970398
468.479105	2541.626261
468.850477	2545.520552
469.221790	2544.456869
469.593043	2543.748587
469.964238	2544.910573
470.335373	2545.205480
470.706449	2547.151366
471.077467	2542.936961
471.448425	2545.981818
471.819324	2544.839997
472.190164	2544.761859
472.560945	2543.204142
472.931667	2544.076262
473.302330	2546.891746
473.672934	2545.540717
474.043479	2543.592311
474.413965	2545.734801
474.784393	2540.701209
475.154761	2543.320089
475.525070	2539.577032
475.895321	2544.461910
476.265513	2539.496373
476.635645	2545.180274
477.005719	2544.106509
477.375734	2545.200439
477.745691	2545.954092
478.115588	2545.812939
478.485427	2546.606921
478.855207	2546.286808
479.224928	2542.453010
479.594591	2549.190512
479.964194	2546.743032
480.333739	2543.741025
480.703226	2544.633309
481.072653	2545.447456
481.442022	2544.338402
481.811333	2546.496016
482.180584	2547.118598
482.549777	2546.122970
482.918912	2546.977446
483.287988	2545.076931
483.657005	2546.601880
484.025964	2547.325285
484.394864	2545.956612
484.763706	2546.995090
485.132489	2546.269164
485.501213	2546.420398
485.869879	2548.053732
486.238487	2545.891077
486.607036	2544.245140
486.975527	2547.935265
487.343959	2548.320913
487.712333	2546.551468
488.080648	2546.269164
488.448905	2548.719164
488.817104	2546.518701
489.185244	2549.860986
489.553326	2546.783361
489.921350	2547.710934
490.289315	2547.731098
490.657222	2546.735470
491.025070	2546.259081
491.392861	2550.118085
491.760593	2546.332178
492.128267	2548.020965
492.495883	2547.937786
492.863440	2548.973743
493.230939	2545.719678
493.598380	2549.659340
493.965763	2542.233720
494.333088	2550.218908
494.700354	2544.167002
495.067563	2546.798485
495.434713	2544.154400
495.801805	2548.971222
496.168839	2548.709082
496.535815	2548.404092
496.902733	2547.529452
497.269593	2547.136242
497.636395	2546.543907
498.003139	2548.416695
498.369825	2550.942313
498.736453	2550.377704
499.103023	2545.631458
499.469535	2548.618341
499.835989	2549.266130
500.202385	2549.001469
500.568723	2548.124308
500.935003	2550.128167
501.301226	2549.324103
501.667390	2549.944165
502.033497	2550.203784
502.399546	2549.470296
502.765537	2548.729247
503.131470	2549.193033
503.497345	2547.320244
503.863163	2549.674463
504.228923	2549.971891
504.594625	2548.283105
504.960269	2548.136911
505.325856	2545.742363
505.691385	2549.820657
506.056856	2549.119936
506.422270	2547.516849
506.787625	2547.726057
507.152924	2546.364946
507.518164	2547.340409
507.883347	2546.617003
508.248472	2547.766386
508.613540	2549.745039
508.978550	2547.703372
509.343503	2550.964998
509.708398	2550.208825
510.073236	2549.135060
510.438016	2548.651109
510.802738	2547.718495
511.167403	2552.807540
511.532010	2547.781510
511.896561	2550.907025
512.261053	2551.028013
512.625488	2545.374359
512.989866	2545.782692
513.354186	2547.728578
513.718449	2543.141128
514.082655	2550.849052
514.446803	2550.833928
514.810894	2549.863506
515.174927	2549.898794
515.538904	2550.571788
515.902822	2549.780327
516.266684	2545.959133
516.630488	2549.881150
516.994235	2551.557334
517.357925	2552.323589
517.721558	2548.202446
518.085133	2549.593805
518.448651	2548.227652
518.812112	2555.239897
519.175516	2549.233362
519.538863	2551.900132
519.902152	2551.597663
520.265385	2549.452652
520.628560	2550.332334
520.991678	2552.943651
521.354739	2551.436346
521.717743	2548.242775
522.080690	2550.077755
522.443580	2552.663867
522.806413	2550.206305
523.169189	2551.980791
523.531908	2554.151008
523.894569	2551.975750
524.257174	2550.196222
524.619722	2551.771583
524.982213	2552.096738
525.344647	2551.990873
525.707025	2550.062632
526.069345	2549.939124
526.431608	2553.104968
526.793815	2550.949875
527.155964	2553.478014
527.518057	2550.614638
527.880093	2553.629248
528.242072	2549.742519
528.603995	2553.414999
528.965860	2553.969526
529.327669	2553.765359
529.689421	2554.178734
530.051117	2554.970195
530.412755	2552.273178
530.774337	2554.128322
531.135862	2554.556821
531.497331	2552.749567
531.858743	2548.005841
532.220098	2550.269319
532.581396	2549.901315
532.942638	2550.556665
533.303824	2552.986501
533.664953	2553.772921
534.026025	2556.681667
534.387040	2555.229815
534.747999	2555.134033
535.108902	2555.759136
535.469748	2554.413148
535.830537	2557.984805
536.191270	2556.535473
536.551947	2553.225956
536.912567	2558.872048
537.273131	2557.725186
537.633638	2557.838612
537.994089	2555.933056
538.354483	2555.733930
538.714821	2555.920453
539.075103	2559.509754
539.435328	2554.208981
539.795497	2556.396842
540.155609	2560.606205
540.515665	2553.142777
540.875665	2560.079405
541.235609	2558.688046
541.595496	2560.064281
541.955328	2559.398849
542.315102	2560.230639
542.674821	2557.982285
543.034483	2559.111503
543.394090	2558.042778
543.753640	2562.693243
544.113134	2558.163766
544.472571	2559.724003
544.831953	2559.489590
545.191278	2562.181566
545.550548	2559.872717
545.909761	2560.391956
546.268918	2559.101421
546.628019	2562.637790
546.987064	2562.254662
547.346053	2561.629559
547.704986	2562.073181
548.063863	2560.439847
548.422684	2559.108983
548.781449	2558.695608
549.140158	2561.236349
549.498811	2563.739282
549.857408	2558.415824
550.215949	2560.013870
550.574434	2557.478169
550.932864	2557.311811
551.291237	2558.798952
551.649555	2561.427913
552.007817	2561.238870
552.366022	2561.609395
552.724173	2559.935732
553.082267	2562.201730
553.440305	2561.190979
553.798288	2561.581668
554.156215	2560.724672
554.514086	2560.495300
554.871902	2562.814231
555.229661	2560.066802
555.587365	2562.045455
555.945014	2561.914385
556.302606	2561.939590
556.660143	2561.722821
557.017625	2563.608212
557.375050	2560.943963
557.732421	2561.115362
558.089735	2560.918757
558.446994	2563.426731
558.804197	2563.698953
559.161345	2564.026628
559.518437	2561.528736
559.875474	2560.447409
560.232455	2560.767522
560.589381	2564.555949
560.946251	2566.007802
561.303065	2560.951524
561.659825	2560.399518
562.016528	2560.805331
562.373177	2559.292985
562.729770	2559.996226
563.086307	2564.931515
563.442789	2563.404046
563.799216	2561.911864
564.155587	2561.780794
564.511904	2563.018397
564.868164	2561.611915
565.224370	2562.007646
565.580520	2562.521844
565.936615	2561.538819
566.292654	2560.429765
566.648638	2561.231308
567.004567	2563.464539
567.360441	2563.570404
567.716260	2562.388253
568.072023	2559.219888
568.427732	2556.185113
568.783385	2561.112841
569.138982	2554.506409
569.494525	2555.383570
569.850013	2555.587737
570.205445	2559.030845
570.560823	2560.996895
570.916145	2558.952707
571.271412	2560.026472
571.626625	2561.858932
571.981782	2559.313149
572.336884	2561.458160
572.691931	2559.955896
573.046923	2560.442368
573.401860	2556.351471
573.756743	2558.241904
574.111570	2557.906667
574.466342	2559.000598
574.821059	2560.190310
575.175722	2560.628890
575.530330	2559.844991
575.884882	2559.212326
576.239380	2559.217367
576.593823	2559.761812
576.948211	2559.030845
577.302544	2557.493293
577.656823	2558.753581
578.011047	2558.882131
578.365216	2558.569579
578.719330	2557.959599
579.073389	2557.606719
579.427394	2558.037737
579.781344	2560.984292
580.135239	2557.074877
580.489080	2556.457336
580.842866	2556.797613
581.196597	2564.974365
581.550273	2557.936914
581.903895	2556.933725
582.257463	2558.418344
582.610975	2557.374826
582.964434	2558.809034
583.317837	2557.838612
583.671186	2555.965823
584.024481	2557.982285
584.377721	2556.245607
584.730906	2557.584033
585.084037	2557.972202
585.437113	2559.630742
585.790135	2558.710731
586.143103	2558.347768
586.496016	2557.011862
586.848874	2553.591440
587.201679	2556.457336
587.554428	2555.471790
587.907124	2555.600339
588.259765	2555.701162
588.612352	2558.952707
588.964884	2554.881975
589.317362	2557.455484
589.669786	2559.318190
590.022155	2562.068140
590.374470	2558.972871
590.726731	2557.478169
591.078937	2558.723334
591.431090	2558.246945
591.783188	2554.947510
592.135232	2558.556976
592.487222	2556.500185
592.839157	2558.320042
593.191038	2554.410627
593.542866	2556.936245
593.894639	2558.186451
594.246358	2557.193344
594.598022	2561.009497
594.949633	2555.829712
595.301190	2557.329455
595.652692	2556.346430
596.004141	2557.856256
596.355535	2556.190154
596.706876	2556.477500
597.058162	2557.291647
597.409395	2553.679660
597.760573	2558.262069
598.111698	2556.681667
598.462768	2557.145453
598.813785	2557.294167
599.164748	2558.657799
599.515657	2558.536812
599.866511	2554.342572
600.217312	2555.408776
600.568060	2556.999260
600.918753	2560.732234
601.269392	2559.376164
601.619978	2557.737789
601.970510	2559.550083
602.320988	2556.631255
602.671412	2559.114024
603.021783	2558.365412
603.372100	2559.015721
603.722363	2557.069836
604.072572	2558.834240
604.422728	2560.361709
604.772830	2556.086811
605.122878	2554.196378
605.472872	2556.419527
605.822813	2553.510781
606.172701	2554.536656
606.522534	2557.316852
606.872314	2557.397511
607.222041	2559.121585
607.571714	2559.250135
607.921333	2560.359189
608.270899	2559.882800
608.620411	2559.809703
608.969870	2558.365412
609.319276	2562.647873
609.668627	2563.721638
610.017926	2565.415466
610.367171	2569.632391
610.716362	2564.495455
611.065500	2566.955538
611.414585	2561.710218
611.763616	2562.599982
612.112594	2564.717266
612.461518	2560.079405
612.810389	2563.325908
613.159207	2563.199879
613.507971	2562.272307
613.856682	2563.777091
614.205340	2563.613253
614.553945	2563.094015
614.902496	2562.259704
615.250994	2563.262893
615.599439	2563.993861
615.947830	2565.836402
616.296169	2561.143088
616.644454	2561.085115
616.992686	2562.577296
617.340864	2563.532595
617.688990	2563.298181
618.037063	2563.368758
618.385082	2564.281206
618.733048	2566.781619
619.080961	2564.185424
619.428821	2566.542164
619.776628	2565.967472
620.124382	2566.141392
620.472083	2564.928995
620.819731	2566.169118
621.167326	2566.824468
621.514868	2564.997050
621.862357	2564.324056
622.209793	2564.329097
622.557176	2566.940415
622.904506	2563.555280
623.251783	2560.969168
623.599007	2563.509910
623.946179	2560.359189
624.293297	2561.027142
624.640363	2564.230795
624.987376	2567.303378
625.334336	2565.170970
625.681243	2564.056875
626.028097	2561.281720
626.374899	2565.236505
626.721647	2565.962431
627.068343	2565.591906
627.414987	2566.579973
627.761577	2566.587534
628.108115	2564.727348
628.454600	2569.471074
628.801032	2567.552915
629.147412	2570.996023
629.493739	2568.926630
629.840014	2568.432597
630.186236	2571.772361
630.532405	2570.738924
630.878521	2569.952504
631.224585	2571.308575
631.570597	2571.578277
631.916556	2574.575242
632.262462	2574.602969
632.608316	2574.711354
632.954117	2573.977866
633.299866	2574.605489
633.645562	2576.959708
633.991206	2574.960891
634.336797	2573.766137
634.682336	2573.912331
635.027823	2572.523493
635.373257	2574.728998
635.718639	2572.926785
636.063968	2575.195304
636.409245	2573.138514
636.754470	2576.294276
637.099642	2576.931982
637.444762	2577.670511
637.789829	2576.584142
638.134845	2576.400140
638.479808	2576.001889
638.824719	2580.959864
639.169577	2579.545820
639.514383	2578.837538
639.859137	2582.530183
640.203839	2581.068249
640.548489	2580.906932
640.893086	2581.305183
641.237632	2577.607497
641.582125	2580.450707
641.926566	2581.098496
642.270955	2583.578743
642.615292	2585.968250
642.959576	2588.758529
643.303809	2585.575040
643.647990	2589.529825
643.992118	2589.784404
644.336195	2590.190217
644.680219	2590.994281
645.024192	2592.967892
645.368112	2596.650455
645.711981	2595.687595
646.055797	2600.958121
646.399562	2602.041969
646.743274	2606.347115
647.086935	2606.763010
647.430544	2608.779471
647.774101	2615.128805
648.117606	2612.726695
648.461059	2611.100923
648.804460	2615.000255
649.147810	2611.809205
649.491108	2616.333640
649.834354	2615.983280
650.177548	2616.653754
650.520690	2613.699637
650.863781	2617.523353
651.206820	2622.143570
651.549807	2620.041409
651.892742	2620.449743
652.235626	2622.703138
652.578458	2621.987294
652.921238	2621.180710
653.263967	2628.598768
653.606644	2624.202882
653.949269	2626.695732
654.291843	2627.451905
654.634365	2631.913326
654.976836	2636.541106
655.319255	2635.560601
655.661622	2637.466157
656.003938	2640.190901
656.346203	2638.688637
656.688416	2642.653505
657.030577	2641.862043
657.372687	2637.859367
657.714746	2642.325830
658.056753	2648.508805
658.398708	2645.534524
658.740612	2645.789102
659.082465	2652.907212
659.424266	2652.849238
659.766016	2651.072232
660.107715	2659.127995
660.449362	2662.651762
660.790958	2665.815086
661.132503	2665.527740
661.473996	2672.991168
661.815438	2672.222392
662.156829	2673.926302
662.498168	2676.010820
662.839456	2676.063752
663.180693	2683.070956
663.521879	2681.223373
663.863013	2684.900894
664.204097	2691.819878
664.545129	2693.213757
664.886110	2696.177956
665.227040	2705.834286
665.567918	2703.412011
665.908746	2709.416026
666.249522	2714.565564
666.590248	2715.046994
666.930922	2716.637478
667.271545	2721.764332
667.612118	2725.847667
667.952639	2722.492779
668.293109	2734.037021
668.633528	2733.064078
668.973896	2732.088615
669.314213	2733.590879
669.654480	2744.358783
669.994695	2741.268556
670.334859	2740.144379
670.674973	2749.026892
671.015035	2747.862385
671.355047	2756.124837
671.695008	2758.854621
672.034918	2757.155752
672.374777	2763.147164
672.714585	2767.376692
673.054342	2768.647063
673.394049	2772.115377
673.733705	2781.285235
674.073310	2786.598612
674.412864	2776.196191
674.752368	2788.000052
675.091820	2791.854014
675.431223	2784.715741
675.770574	2790.931483
676.109875	2782.210287
676.449125	2785.729012
676.788324	2788.804116
677.127473	2788.864610
677.466571	2785.035854
677.805619	2793.837708
678.144616	2800.376085
678.483562	2798.359623
678.822458	2797.336269
679.161303	2803.463792
679.500098	2803.448668
679.838842	2804.666107
680.177535	2812.300934
680.516179	2815.557520
680.854771	2821.296873
681.193314	2832.861280
681.531805	2847.183198
681.870247	2875.552292
682.208638	2891.318500
682.546978	2893.644993
682.885268	2893.244221
683.223508	2893.125754
683.561697	2889.342368
683.899836	2889.181051
684.237925	2891.721793
684.575963	2891.757081
684.913951	2884.137377
685.251889	2909.459093
685.589776	2899.906106
685.927614	2898.416445
686.265401	2923.521391
686.603137	2921.058788
686.940824	2942.095523
687.278460	2949.261523
687.616046	2961.108234
687.953582	2970.056282
688.291068	2971.447641
688.628504	2992.265086
688.965889	2987.516319
689.303224	2983.392655
689.640510	2982.003817
689.977745	2976.027529
690.314930	2967.875983
690.652065	2958.186886
690.989150	2943.794391
691.326185	2940.379010
691.663170	2940.880604
692.000105	2929.716969
692.336990	2918.765063
692.673825	2925.147163
693.010610	2914.812798
693.347345	2895.968965
693.684030	2912.619896
694.020665	2905.398443
694.357251	2889.763304
694.693786	2899.233112
695.030272	2901.483987
695.366707	2899.880900
695.703093	2892.871176
696.039429	2903.777712
696.375716	2909.111253
696.711952	2902.683782
697.048139	2901.539440
697.384276	2903.991961
697.720363	2912.188877
698.056400	2923.322266
698.392388	2914.633837
698.728326	2910.129566
699.064214	2906.487332
699.400053	2914.278436
699.735842	2917.141811
700.071581	2909.491860
700.407270	2909.257446
700.742910	2907.409863
701.078501	2896.238667
701.414042	2907.563619
701.749533	2903.870973
702.084974	2886.053015
702.420366	2906.252919
702.755709	2899.953997
703.091002	2884.356667
703.426246	2906.371386
703.761440	2892.750188
704.096584	2883.451780
704.431679	2899.908627
704.766725	2898.575241
705.101721	2901.418452
705.436668	2913.247520
705.771565	2895.048954
706.106413	2904.725449
706.441212	2924.900147
706.775961	2932.048503
707.110661	2917.981163
707.445311	2923.551638
707.779913	2948.313786
708.114465	2947.751697
708.448967	2944.275822
708.783421	2967.213072
709.117825	2987.604539
709.452180	2984.048005
709.786485	2994.773060
710.120742	3018.900022
710.454949	3016.281143
710.789107	3034.822506
711.123216	3055.488717
711.457275	3053.595763
711.791286	3077.921851
712.125247	3092.916763
712.459159	3053.341185
712.793023	3072.169895
713.126837	3095.921291
713.460602	3089.430805
713.794318	3056.413768
714.127985	3068.643608
714.461602	3060.088769
714.795171	3044.723333
715.128691	3032.478370
715.462162	3025.995446
715.795584	3020.422450
716.128957	3019.701565
716.462281	2997.911178
716.795556	2998.022083
717.128782	2997.147443
717.461960	2981.726553
717.795088	2988.310300
718.128167	2983.821153
718.461198	2961.511527
718.794180	2962.988585
719.127113	2970.729276
719.459997	2966.812300
719.792833	2950.337809
720.125619	2947.678600
720.458357	2945.556275
720.791046	2953.632203
721.123686	2940.966304
721.456278	2934.526230
721.788821	2942.171140
722.121315	2936.824996
722.453761	2924.721186
722.786158	2942.163578
723.118506	2949.148097
723.450805	2928.786876
723.783056	2936.714091
724.115259	2953.790999
724.447412	2959.338789
724.779518	2948.694393
725.111574	2956.099848
725.443582	2967.906230
725.775542	2967.318936
726.107453	2988.456494
726.439315	2990.099910
726.771129	2990.636793
727.102895	2998.072495
727.434612	3025.924870
727.766281	3024.805734
728.097901	3019.114271
728.429473	3030.577855
728.760996	3032.218750
729.092471	3028.047196
729.423897	3034.716642
729.755276	3045.255174
730.086606	3041.209648
730.417887	3049.139383
730.749120	3075.867581
731.080305	3110.971656
731.411442	3117.625979
731.742530	3102.515120
732.073570	3107.601644
732.404562	3133.878659
732.735506	3134.748258
733.066401	3120.133953
733.397249	3103.109976
733.728048	3072.918506
734.058798	3063.753688
734.389501	3043.140410
734.720156	3015.676204
735.050762	3004.663803
735.381320	3015.325844
735.711831	2986.384580
736.042293	2982.712099
736.372707	3000.046107
736.703073	2989.091679
737.033391	2980.189002
737.363661	2989.016062
737.693883	3008.570698
738.024056	3010.932478
738.354182	3001.031652
738.684260	3031.202958
739.014290	3033.292516
739.344272	3029.801517
739.674207	3051.138201
740.004093	3053.068963
740.333931	3049.373797
740.663722	3059.982905
740.993464	3059.234294
741.323159	3050.059394
741.652806	3044.725853
741.982405	3037.501880
742.311956	3027.558204
742.641460	3026.988553
742.970915	3022.113758
743.300323	3010.519104
743.629683	2994.899088
743.958996	2998.866477
744.288260	2990.727534
744.617477	2982.487768
744.946647	2973.685913
745.275768	2971.051910
745.604842	2977.166830
745.933869	2947.005606
746.262847	2948.790175
746.591778	2978.691779
746.920662	2959.719396
747.249498	2942.899587
747.578286	2975.483084
747.907027	2978.054073
748.235720	2965.725931
748.564365	2986.737460
748.892963	2996.192144
749.221514	2983.127994
749.550017	2971.182980
749.878473	2973.476705
750.206881	2966.192238
750.535242	2968.221302
750.863555	2971.626602
751.191821	2972.382775
751.520039	2959.031279
751.848210	2947.340843
752.176334	2972.022332
752.504411	2984.232007
752.832440	2957.108079
753.160421	2947.136676
753.488356	2958.965744
753.816243	2969.287506
754.144082	2943.469237
754.471875	2938.460851
754.799620	2952.318983
755.127318	2946.519135
755.454969	2947.703806
755.782572	2952.676904
756.110129	2936.880449
756.437638	2933.931374
756.765100	2945.654577
757.092515	2954.101030
757.419882	2957.319807
757.747203	2942.776078
758.074477	2939.602672
758.401703	2951.061215
758.728882	2965.352886
759.056014	2970.648618
759.383099	2970.033597
759.710138	2961.894654
760.037129	2972.125676
760.364073	2996.978564
760.690970	2992.363388
761.017820	2976.387972
761.344623	2983.634630
761.671379	3011.290400
761.998088	3039.079761
762.324751	3098.968668
762.651366	3199.592620
762.977935	3392.126888
763.304456	3591.817074
763.630931	3662.151253
763.957359	3499.276613
764.283740	3353.325127
764.610074	3283.447173
764.936362	3199.464070
765.262602	3116.678242
765.588796	3071.703588
765.914943	3027.800179
766.241044	2982.016420
766.567097	2976.128352
766.893104	2952.709672
767.219064	2938.700305
767.544978	2929.026331
767.870845	2897.352762
768.196665	2890.206926
768.522438	2900.816034
768.848165	2904.417939
769.173846	2882.188971
769.499479	2873.067003
769.825066	2863.975282
770.150607	2856.645444
770.476101	2873.835779
770.801548	2870.551467
771.126949	2843.820749
771.452303	2837.090808
771.777611	2844.120697
772.102872	2848.095647
772.428087	2833.844305
772.753256	2833.123420
773.078378	2828.931701
773.403453	2809.629123
773.728482	2800.854995
774.053465	2822.867193
774.378401	2815.013075
774.703291	2793.436937
775.028135	2797.497586
775.352932	2794.127575
775.677683	2790.762605
776.002388	2789.338479
776.327046	2790.392080
776.651658	2784.020061
776.976224	2781.065945
777.300743	2782.530400
777.625216	2778.626027
777.949643	2771.931374
778.274024	2775.200563
778.598359	2768.526075
778.922647	2773.284924
779.246889	2772.569080
779.571086	2764.089860
779.895236	2759.172214
780.219339	2766.617998
780.543397	2779.790533
780.867409	2779.551078
781.191374	2774.615789
781.515294	2772.493463
781.839167	2773.201745
782.162995	2769.607402
782.486776	2779.470420
782.810511	2775.586211
783.134201	2767.686723
783.457844	2774.383896
783.781441	2767.948863
784.104993	2758.025352
784.428498	2756.248345
784.751958	2768.909203
785.075372	2766.277720
785.398739	2756.054260
785.722061	2764.868718
786.045337	2774.799791
786.368568	2763.177411
786.691752	2756.684405
787.014891	2789.439302
787.337983	2804.971097
787.661030	2811.892601
787.984031	2847.442818
788.306987	2877.886346
788.629897	2871.887373
788.952760	2869.089533
789.275579	2867.950232
789.598351	2832.488235
789.921078	2805.366827
790.243759	2807.393371
790.566395	2799.710653
790.888984	2782.636265
791.211529	2775.374482
791.534027	2771.830551
791.856480	2766.991044
792.178888	2753.765577
792.501249	2750.960174
792.823566	2748.051429
793.145836	2750.698034
793.468062	2745.125039
793.790241	2748.409351
794.112375	2750.186357
794.434464	2757.523757
794.756507	2758.542070
795.078505	2765.390477
795.400457	2766.978441
795.722364	2786.356636
796.044226	2800.648307
796.366042	2799.589665
796.687812	2795.352575
797.009538	2815.587767
797.331218	2807.471509
797.652852	2800.134110
797.974442	2788.816719
798.295986	2789.696401
798.617484	2788.330248
798.938938	2776.060079
799.260346	2769.007505
799.581709	2766.181938
799.903026	2762.784201
800.224299	2762.257400
800.545526	2753.425299
800.866708	2745.054463
801.187845	2736.693709
801.508936	2739.078175
801.829983	2749.425143
802.150984	2736.539954
802.471940	2729.726834
802.792851	2728.673233
803.113717	2729.522668
803.434538	2735.496435
803.755314	2728.179200
804.076045	2722.381873
804.396731	2722.860783
804.717372	2725.073849
805.037967	2717.864999
805.358518	2725.293140
805.679024	2730.659448
805.999485	2730.362020
806.319901	2729.351268
806.640272	2727.186093
806.960598	2729.752040
807.280879	2737.079357
807.601115	2740.656056
807.921306	2732.658265
808.241453	2731.055178
808.561554	2737.835530
808.881611	2741.102198
809.201623	2733.875704
809.521590	2736.348390
809.841513	2730.235991
810.161390	2734.649521
810.481223	2731.763461
810.801011	2726.427399
811.120755	2724.635269
811.440453	2728.274982
811.760107	2727.697770
812.079716	2726.447564
812.399281	2718.969012
812.718801	2714.837787
813.038276	2713.955585
813.357707	2720.226780
813.677093	2723.937069
813.996434	2720.962788
814.315731	2716.652602
814.634983	2716.889536
814.954191	2715.949361
815.273354	2729.870507
815.592473	2733.467371
815.911547	2733.893348
816.230577	2737.197824
816.549562	2745.976994
816.868502	2745.419946
817.187399	2753.183323
817.506250	2766.638163
817.825058	2762.655651
818.143821	2770.711415
818.462539	2783.780607
818.781213	2799.892134
819.099843	2827.938594
819.418429	2863.909747
819.736970	2905.534554
820.055466	2957.377780
820.373919	3035.780326
820.692327	3143.088847
821.010691	3249.134559
821.329011	3520.096578
821.647286	4016.826673
821.965517	4771.469759
822.283704	5172.667468
822.601847	5199.201581
822.919945	4907.379267
823.237999	4692.525290
823.556010	4367.723748
823.873976	4020.554606
824.191897	3765.736882
824.509775	3574.967018
824.827609	3386.581619
825.145398	3299.505768
825.463144	3300.214051
825.780845	3368.269628
826.098502	3428.201385
826.416116	3606.023046
826.733685	3802.330618
827.051210	3845.445086
827.368692	3792.225625
827.686129	3630.966675
828.003522	3412.967018
828.320872	3229.819378
828.638177	3090.484407
828.955439	2995.632576
829.272656	2939.073351
829.589830	2890.358161
829.906960	2861.323635
830.224046	2824.712255
830.541088	2801.616209
830.858086	2792.002728
831.175041	2778.656274
831.491952	2780.014865
831.808819	2791.173459
832.125642	2812.626089
832.442421	2844.944926
832.759157	2900.536250
833.075849	3021.551669
833.392497	3222.408882
833.709101	3363.783001
834.025662	3326.538956
834.342179	3221.163717
834.658653	3099.734924
834.975083	2998.758092
835.291469	2924.222112
835.607811	2864.212216
835.924110	2820.855772
836.240366	2781.318003
836.556578	2750.718199
836.872746	2733.069119
837.188871	2715.616645
837.504952	2705.584749
837.820990	2700.445292
838.136984	2689.339630
838.452935	2682.634896
838.768842	2683.645647
839.084706	2694.897502
839.400526	2755.051071
839.716303	2845.943075
840.032037	2902.187228
840.347727	2892.188099
840.663373	2853.464476
840.978977	2799.839202
841.294537	2749.208373
841.610054	2711.482899
841.925527	2697.677699
842.240957	2679.905111
842.556344	2662.591268
842.871687	2649.872437
843.186987	2646.426808
843.502244	2641.647794
843.817458	2638.907927
844.132629	2627.514920
844.447756	2620.956378
844.762840	2615.721140
845.077881	2617.046964
845.392879	2617.667026
845.707833	2613.588732
846.022745	2606.309306
846.337613	2613.641664
846.652438	2609.122270
846.967221	2608.038422
847.281960	2609.263422
847.596656	2605.464913
847.911309	2606.974738
848.225919	2603.047679
848.540485	2601.686568
848.855009	2602.488111
849.169490	2601.999119
849.483928	2602.104984
849.798323	2600.872422
850.112675	2598.276227
850.426984	2600.461567
850.741251	2601.608430
851.055474	2600.577514
851.369654	2605.517845
851.683792	2602.518358
851.997887	2600.930395
852.311938	2597.018459
852.625947	2602.112545
852.939914	2605.681682
853.253837	2604.030704
853.567718	2599.561722
853.881555	2599.637339
854.195350	2604.600355
854.509103	2600.380909
854.822812	2598.195569
855.136479	2598.059458
855.450103	2604.585231
855.763685	2603.382916
856.077224	2598.412338
856.390720	2597.998964
856.704173	2600.466609
857.017584	2605.190170
857.330953	2605.414501
857.644278	2605.681682
857.957561	2605.306116
858.270802	2602.415015
858.584000	2602.972062
858.897155	2607.103288
859.210268	2606.518514
859.523339	2602.840992
859.836367	2600.426279
860.149352	2601.411825
860.462295	2600.005343
860.775195	2598.513162
861.088054	2595.695157
861.400869	2596.731114
861.713642	2595.473346
862.026373	2594.966710
862.339062	2599.178594
862.651708	2604.174377
862.964312	2603.241764
863.276873	2604.252515
863.589392	2601.701691
863.901869	2609.530603
864.214303	2613.596294
864.526696	2614.203753
864.839045	2615.330451
865.151353	2619.449073
865.463619	2616.179885
865.775842	2618.932355
866.088023	2617.866151
866.400162	2619.938065
866.712258	2618.130812
867.024313	2615.486727
867.336325	2612.454472
867.648296	2615.645523
867.960224	2622.539301
868.272110	2619.461676
868.583954	2610.828700
868.895755	2614.748197
869.207515	2616.053856
869.519233	2626.264713
869.830909	2622.193982
870.142542	2616.421861
870.454134	2619.754063
870.765684	2622.632562
871.077191	2625.248921
871.388657	2627.172121
871.700081	2626.176493
872.011463	2625.730351
872.322803	2624.706997
872.634101	2628.969292
872.945357	2634.481794
873.256571	2639.207876
873.567744	2637.839203
873.878874	2635.353914
874.189963	2637.801394
874.501010	2639.482619
874.812015	2643.823052
875.122979	2643.893628
875.433900	2637.100674
875.744780	2634.580097
876.055618	2642.003196
876.366415	2648.007210
876.677169	2646.479740
876.987882	2640.022022
877.298554	2637.856847
877.609183	2648.924700
877.919771	2654.742192
878.230317	2660.360558
878.540822	2668.202072
878.851285	2682.844104
879.161707	2701.256918
879.472087	2734.200858
879.782425	2771.056734
880.092722	2862.959489
880.402977	3008.739576
880.713191	3188.807071
881.023363	3368.418342
881.333494	3489.975684
881.643583	3626.056591
881.953631	3650.589366
882.263637	3530.231818
882.573602	3369.842468
882.883526	3284.518418
883.193408	3203.882642
883.503248	3132.192393
883.813048	3048.032850
884.122806	2955.515074
884.432522	2890.143912
884.742197	2838.840089
885.051831	2814.813950
885.361424	2785.565175
885.670975	2757.659868
885.980485	2732.590210
886.289954	2719.112685
886.599382	2704.354707
886.908768	2695.663758
887.218113	2680.600790
887.527417	2671.272135
887.836680	2665.653769
888.145901	2663.128151
888.455082	2653.134063
888.764221	2644.450676
889.073319	2637.312402
889.382376	2636.984727
889.691392	2639.762403
890.000366	2640.450520
890.309300	2636.634367
890.618193	2640.672331
890.927044	2641.851961
891.235855	2642.913124
891.544625	2642.361118
891.853353	2642.212404
892.162041	2647.931593
892.470687	2666.006650
892.779293	2672.449244
893.087858	2680.552899
893.396381	2696.261135
893.704864	2730.888820
894.013306	2788.007614
894.321707	2861.351361
894.630068	2898.159346
894.938387	2914.366656
895.246665	2910.303486
895.554903	2878.715616
895.863100	2844.965091
896.171256	2795.851649
896.479371	2745.140162
896.787446	2716.937427
897.095480	2702.771785
897.403473	2699.172401
897.711425	2684.858045
898.019336	2672.267763
898.327207	2656.980464
898.635038	2659.064981
898.942827	2654.603560
899.250576	2650.142139
899.558284	2637.919861
899.865952	2636.321815
900.173579	2634.217134
900.481165	2630.582462
900.788711	2625.808489
901.096216	2617.964454
901.403681	2616.454628
901.711105	2617.344392
902.018489	2616.885647
902.325832	2617.871192
902.633135	2621.021913
902.940397	2633.627319
903.247619	2664.930363
903.554800	2716.695452
903.861941	2819.517346
904.169041	2914.525452
904.476101	2962.996146
904.783121	2955.447018
905.090100	2910.648805
905.397039	2855.165866
905.703938	2798.309212
906.010796	2749.846079
906.317614	2706.018288
906.624391	2679.653053
906.931129	2659.672440
907.237826	2636.954480
907.544483	2624.754888
907.851099	2609.341560
908.157675	2605.104470
908.464211	2599.208841
908.770707	2592.741040
909.077163	2585.592684
909.383578	2584.092941
909.689954	2586.091758
909.996289	2583.213260
910.302584	2580.216294
910.608839	2580.367528
910.915054	2578.512384
911.221229	2583.172930
911.527363	2584.065215
911.833458	2583.374577
912.139513	2584.125708
912.445527	2584.493713
912.751502	2590.759867
913.057436	2593.245156
913.363331	2601.363934
913.669186	2608.466920
913.975000	2621.107613
914.280775	2633.675210
914.586510	2646.000831
914.892205	2674.246416
915.197859	2732.514592
915.503475	2795.879376
915.809050	2848.461131
916.114585	2854.712162
916.420081	2862.145343
916.725536	2876.673948
917.030952	2860.874972
917.336328	2822.993222
917.641665	2780.773558
917.946961	2740.388875
918.252218	2712.677652
918.557435	2692.689477
918.862612	2676.625840
919.167750	2661.714107
919.472848	2648.012251
919.777906	2635.348873
920.082925	2624.336472
920.387904	2617.011676
920.692843	2611.504215
920.997743	2611.451283
921.302603	2605.275869
921.607423	2600.942998
921.912204	2596.136257
922.216946	2593.245156
922.521647	2591.740371
922.826310	2587.735175
923.130932	2582.265523
923.435516	2579.586149
923.740059	2575.109605
924.044564	2576.359811
924.349028	2574.161868
924.653454	2568.349417
924.957840	2566.330435
925.262186	2565.271793
925.566493	2567.709191
925.870761	2562.794066
926.174989	2562.642831
926.479178	2560.316339
926.783328	2562.748696
927.087438	2560.424724
927.391509	2559.000598
927.695541	2559.353478
927.999533	2558.834240
928.303486	2557.871379
928.607400	2557.347099
928.911275	2555.287788
929.215110	2554.400545
929.518906	2555.504558
929.822663	2553.697304
930.126381	2555.310473
930.430060	2557.576472
930.733699	2555.933056
931.037299	2555.668395
931.340861	2556.046482
931.644383	2556.064126
931.947866	2557.823488
932.251309	2555.330638
932.554714	2555.812068
932.858080	2557.768036
933.161407	2556.285936
933.464694	2554.009855
933.767943	2553.641851
934.071153	2552.719320
934.374323	2553.926676
934.677455	2553.951882
934.980548	2554.070349
935.283602	2552.915925
935.586617	2552.449618
935.889593	2552.958775
936.192530	2553.548590
936.495428	2553.472973
936.798287	2551.421223
937.101108	2555.174362
937.403890	2557.561348
937.706632	2560.558314
938.009336	2563.918243
938.312002	2564.601320
938.614628	2567.467216
938.917216	2571.064079
939.219765	2571.492577
939.522275	2574.870150
939.824747	2574.207238
940.127179	2565.682647
940.429573	2562.995712
940.731929	2567.048800
941.034246	2560.253324
941.336524	2563.323387
941.638763	2567.338666
941.940964	2564.603840
942.243126	2561.248952
942.545250	2562.063099
942.847335	2560.515464
943.149381	2558.955227
943.451389	2557.674774
943.753359	2557.984805
944.055290	2556.268292
944.357182	2557.445402
944.659036	2552.212684
944.960851	2554.496327
945.262628	2558.362892
945.564367	2555.257541
945.866067	2556.701832
946.167729	2557.863817
946.469352	2555.892726
946.770937	2555.015566
947.072484	2554.990360
947.373992	2555.854918
947.675462	2554.382901
947.976893	2555.018086
948.278286	2553.578837
948.579641	2553.546069
948.880958	2552.862993
949.182236	2555.403734
949.483476	2551.832077
949.784678	2553.475493
950.085841	2554.657644
950.386967	2550.808723
950.688054	2553.888868
950.989103	2553.493137
951.290114	2555.199568
951.591087	2557.702501
951.892021	2558.466235
952.192917	2557.417675
952.493776	2558.549414
952.794596	2557.004301
953.095378	2560.361709
953.396122	2561.437996
953.696828	2561.753068
953.997496	2560.812892
954.298126	2554.052705
954.598718	2555.126471
954.899272	2554.314845
955.199788	2553.435164
955.500266	2552.631100
955.800706	2548.020965
956.101108	2544.769420
956.401472	2548.593136
956.701798	2547.416026
957.002087	2545.686910
957.302337	2549.578681
957.602550	2549.936603
957.902724	2546.296890
958.202861	2545.729760
958.502960	2547.912580
958.803022	2545.828063
959.103045	2545.414688
959.403031	2546.443083
959.702979	2542.989893
960.002889	2546.806047
960.302762	2543.917465
960.602596	2545.386962
960.902393	2540.630633
961.202153	2545.165151
961.501875	2543.559543
961.801559	2545.996941
962.101205	2543.720860
962.400814	2541.711961
962.700385	2542.596683
962.999918	2544.759338
963.299414	2544.764379
963.598873	2541.956457
963.898293	2544.222455
964.197677	2542.263967
964.497022	2544.567774
964.796331	2538.354552
965.095601	2542.276570
965.394835	2542.299255
965.694030	2542.301776
965.993189	2540.799512
966.292309	2541.422094
966.591393	2541.326312
966.890439	2542.168185
967.189447	2540.325643
967.488419	2540.081147
967.787353	2541.621220
968.086249	2542.216076
968.385108	2540.396219
968.683930	2543.945192
968.982714	2542.997455
969.281462	2540.900335
969.580172	2541.961498
969.878844	2542.321940
970.177480	2541.608617
970.476078	2543.012578
970.774639	2545.268495
971.073162	2543.448638
971.371649	2539.672814
971.670098	2541.631302
971.968510	2540.877650
972.266885	2539.803884
972.565223	2542.470654
972.863524	2542.934440
973.161788	2546.511139
973.460014	2544.010727
973.758204	2545.013916
974.056356	2541.280942
974.354471	2543.778834
974.652550	2542.334543
974.950591	2542.674821
975.248595	2541.638864
975.546563	2543.362938
975.844493	2543.312527
976.142386	2543.587270
976.440243	2543.564585
976.738062	2546.521221
977.035845	2541.192722
977.333590	2544.156920
977.631299	2541.986703
977.928971	2542.185829
978.226606	2539.801363
978.524204	2543.171375
978.821765	2541.769934
979.119290	2540.492001
979.416777	2540.423946
979.714228	2541.853113
980.011642	2543.103319
980.309020	2544.822352
980.606360	2542.967208
980.903664	2545.999462
981.200931	2544.212373
981.498162	2543.330171
981.795356	2545.906201
982.092513	2548.696479
982.389633	2549.455173
982.686717	2552.621017
982.983764	2554.009855
983.280775	2555.060936
983.577749	2552.971378
983.874686	2555.529763
984.171587	2552.237890
984.468451	2549.785368
984.765279	2550.375183
985.062070	2546.372507
985.358824	2545.170192
985.655543	2545.142466
985.952224	2545.903680
986.248869	2543.350336
986.545478	2540.459234
986.842050	2540.693647
987.138586	2537.999151
987.435086	2537.064017
987.731549	2539.269522
988.027975	2542.269008
988.324366	2538.934285
988.620719	2541.096940
988.917037	2539.934954
989.213318	2540.045859
989.509563	2541.049049
989.805772	2541.800181
990.101944	2540.134079
990.398080	2539.564429
990.694180	2540.696168
990.990244	2540.025695
991.286271	2541.843031
991.582262	2536.272556
991.878217	2540.784388
992.174136	2540.580222
992.470019	2541.099460
992.765865	2540.837320
993.061676	2540.479398
993.357450	2541.676673
993.653188	2539.937474
993.948890	2541.384286
994.244556	2541.540561
994.540186	2540.111394
994.835780	2541.044008
995.131337	2542.921838
995.426859	2543.771272
995.722345	2542.579039
996.017795	2542.120294
996.313208	2545.092054
996.608586	2543.642723
996.903928	2541.762372
997.199234	2543.337733
997.494504	2543.370500
997.789738	2542.768082
998.084936	2542.705068
998.380099	2542.100129
998.675225	2543.839328
998.970316	2540.229861
999.265371	2542.770603
999.560390	2540.635674
999.855373	2542.407640
1000.150320	2540.244985
1000.445232	2542.463092
1000.740108	2540.963349
1001.034948	2539.851775
1001.329752	2540.925541
1001.624521	2540.902855
1001.919254	2534.591331
1002.213951	2538.873791
1002.508613	2537.338760
1002.803239	2537.096784
1003.097829	2533.799870
1003.392384	2539.889583
1003.686903	2539.803884
1003.981386	2539.884542
1004.275834	2540.567619
1004.570246	2540.315561
1004.864623	2536.567463
1005.158964	2540.431508
1005.453270	2539.819007
1005.747540	2539.516538
1006.041775	2540.960829
1006.335974	2538.594007
1006.630138	2539.945036
1006.924266	2540.028215
1007.218359	2539.493853
1007.512416	2538.155427
1007.806438	2538.886394
1008.100425	2539.819007
1008.394376	2539.871939
1008.688292	2541.124666
1008.982172	2539.254398
1009.276017	2541.104502
1009.569827	2536.817000
1009.863602	2542.626930
1010.157341	2537.827752
1010.451045	2538.498225
1010.744714	2540.098791
1011.038347	2540.784388
1011.331945	2538.634336
1011.625508	2536.612833
1011.919036	2537.366486
1012.212528	2541.210366
1012.505986	2539.234233
1012.799408	2538.533513
1013.092795	2538.755324
1013.386147	2538.271373
1013.679464	2536.297761
1013.972745	2539.662732
1014.265992	2536.534696
1014.559204	2540.053421
1014.852380	2539.035108
1015.145521	2538.024357
1015.438628	2541.275901
1015.731699	2540.073586
1016.024736	2537.865560
1016.317737	2540.050900
1016.610703	2541.679193
1016.903635	2537.618544
1017.196531	2536.448996
1017.489393	2535.642411
1017.782219	2534.147709
1018.075011	2535.823893
1018.367768	2540.847403
1018.660490	2539.047711
1018.953177	2539.047711
1019.245829	2539.047711
