Dividing Wavelength (nm)	Counts (n)	Blue Motor Position (mm): 33.300000	Red Motor Position (mm): 0.000000	
326.493990	2130.570576
326.888308	2130.570576
327.282561	2130.570576
327.676750	2095.761409
328.070874	2096.406677
328.464933	2099.418766
328.858929	2105.823552
329.252859	2114.648092
329.646726	2127.742489
330.040528	2141.000724
330.434265	2158.627118
330.827938	2174.481547
331.221547	2193.567355
331.615091	2209.734336
332.008571	2230.970196
332.401986	2250.106416
332.795338	2268.178953
333.188625	2290.332303
333.581847	2307.431897
333.975006	2326.081646
334.368100	2343.758452
334.761129	2361.563807
335.154095	2377.889584
335.546996	2400.617626
335.939833	2424.283323
336.332606	2436.334201
336.725315	2452.798610
337.117960	2458.868159
337.510540	2468.844602
337.903056	2481.339102
338.295508	2486.778507
338.687896	2498.728562
339.080220	2504.394819
339.472480	2511.893536
339.864676	2514.474606
340.256807	2520.460977
340.648875	2523.185720
341.040879	2527.309384
341.432818	2525.928108
341.824694	2528.781401
342.216506	2529.300640
342.608253	2527.755526
342.999937	2529.756864
343.391557	2529.025897
343.783113	2527.135464
344.174605	2525.497089
344.566033	2525.282840
344.957397	2522.913498
345.348697	2522.502644
345.739934	2522.182531
346.131106	2516.498630
346.522215	2515.598784
346.913260	2513.678104
347.304241	2510.877743
347.695159	2509.584687
348.086012	2513.312620
348.476802	2507.568226
348.867528	2505.246774
349.258191	2503.805004
349.648789	2506.128976
350.039324	2500.666886
350.429796	2503.568070
350.820203	2498.259735
351.210548	2498.821824
351.600828	2496.175218
351.991045	2497.415342
352.381198	2496.021463
352.771288	2495.466936
353.161314	2496.029024
353.551276	2495.252687
353.941175	2496.671772
354.331010	2495.063643
354.720782	2495.585403
355.110490	2496.926350
355.500135	2493.742861
355.889717	2495.693788
356.279235	2495.356030
356.668689	2498.080774
357.058080	2494.864518
357.447408	2494.496514
357.836672	2492.104486
358.225873	2493.493324
358.615010	2494.506596
359.004084	2500.170332
359.393095	2497.498521
359.782043	2498.083295
360.170927	2500.646721
360.559748	2498.917606
360.948505	2501.730569
361.337199	2498.695795
361.725830	2502.206958
362.114398	2502.491784
362.502903	2502.932885
362.891344	2503.752072
363.279722	2504.949346
363.668037	2507.497649
364.056289	2504.556136
364.444478	2505.773575
364.832603	2505.788698
365.220665	2504.115035
365.608665	2506.328102
365.996601	2504.830879
366.384474	2504.614109
366.772284	2506.814573
367.160031	2508.881446
367.547715	2508.069820
367.935336	2507.351456
368.322893	2509.282218
368.710388	2507.744666
369.097820	2511.107116
369.485189	2509.141066
369.872495	2509.133504
370.259738	2511.505367
370.646918	2510.499657
371.034035	2512.816067
371.421090	2511.873371
371.808081	2511.676766
372.195010	2511.757424
372.581875	2511.974194
372.968678	2511.132321
373.355418	2509.067969
373.742096	2513.657939
374.128710	2512.823628
374.515262	2514.008300
374.901751	2512.657270
375.288177	2514.056191
375.674540	2514.479648
376.060841	2515.513084
376.447079	2512.745491
376.833254	2514.278001
377.219367	2512.327075
377.605417	2513.080727
377.991404	2510.106447
378.377329	2511.888494
378.763191	2512.929493
379.148991	2512.962260
379.534727	2515.966788
379.920402	2515.450070
380.306013	2517.317817
380.691563	2518.454597
381.077049	2516.816222
381.462474	2516.544000
381.847835	2519.167921
382.233134	2518.767149
382.618371	2518.941069
383.003545	2520.067767
383.388657	2518.043743
383.773706	2519.782941
384.158693	2520.135822
384.543618	2520.907119
384.928480	2520.909639
385.313280	2522.724455
385.698017	2518.021058
386.082692	2524.390556
386.467305	2521.078518
386.851856	2522.200175
387.236344	2523.299146
387.620770	2523.462984
388.005133	2521.625483
388.389435	2523.157994
388.773674	2524.055319
389.157851	2522.283354
389.541965	2520.990298
389.926018	2522.913498
390.310008	2523.286543
390.693936	2526.036493
391.077802	2524.425844
391.461606	2522.243024
391.845348	2524.284692
392.229027	2525.224867
392.612645	2528.216792
392.996200	2529.338448
393.379694	2525.454239
393.763125	2527.758047
394.146494	2527.047244
394.529801	2529.598068
394.913047	2530.979344
395.296230	2529.575383
395.679351	2528.236956
396.062410	2529.928263
396.445408	2527.407687
396.828343	2530.104704
397.211217	2527.546318
397.594028	2526.623787
397.976778	2527.039682
398.359466	2529.073788
398.742092	2527.725279
399.124656	2533.295754
399.507158	2531.425486
399.889598	2532.302647
400.271977	2532.663089
400.654294	2532.779036
401.036549	2533.073943
401.418742	2533.933460
401.800874	2535.193749
402.182944	2534.929088
402.564952	2534.361958
402.946898	2536.653163
403.328783	2535.952442
403.710606	2540.214738
404.092367	2537.737011
404.474067	2536.408667
404.855705	2537.893287
405.237282	2535.561753
405.618797	2538.011754
406.000250	2540.154244
406.381642	2535.801208
406.762972	2540.267670
407.144240	2543.123484
407.525447	2543.594832
407.906593	2542.846220
408.287677	2546.100285
408.668700	2543.950233
409.049661	2547.594987
409.430560	2551.544731
409.811399	2555.033210
410.192176	2558.667882
410.572891	2561.092677
410.953545	2567.862946
411.334138	2570.023081
411.714669	2577.516756
412.095139	2584.009762
412.475547	2593.401432
412.855894	2598.944180
413.236180	2608.945829
413.616405	2618.261882
413.996568	2629.934673
414.376670	2640.810963
414.756711	2649.774134
415.136691	2664.771567
415.516609	2681.546007
415.896466	2697.934798
416.276262	2714.416850
416.655997	2730.074674
417.035670	2758.905033
417.415283	2787.788324
417.794834	2803.637712
418.174324	2819.313179
418.553753	2831.568224
418.933121	2875.489277
419.312428	2910.101840
419.691674	2930.248811
420.070859	2973.015440
420.449983	2988.315342
420.829045	3035.568597
421.208047	3049.028478
421.586988	3097.171497
421.965867	3131.234574
422.344686	3201.024307
422.723444	3198.687733
423.102141	3193.283616
423.480777	3301.287816
423.859352	3282.227214
424.237866	3393.944224
424.616319	3431.326900
424.994712	3507.203828
425.373044	3513.606093
425.751314	3607.704271
426.129524	3587.025457
426.507673	3698.553425
426.885762	3771.819034
427.263789	3802.285247
427.641756	3794.867189
428.019662	3897.356368
428.397508	3949.416363
428.775292	3981.730160
429.153016	4073.892534
429.530679	4089.230245
429.908282	4179.734080
430.285824	4159.445956
430.663305	4355.491388
431.040726	4267.021659
431.418086	4308.843071
431.795385	4418.505811
432.172624	4474.500427
432.549802	4516.861243
432.926920	4574.078339
433.303977	4624.830156
433.680974	4693.047050
434.057910	4752.595679
434.434786	4801.159635
434.811601	4823.146627
435.188355	5031.121950
435.565050	4984.614785
435.941683	5010.556563
436.318257	5214.924940
436.694770	5249.575311
437.071222	5314.210465
437.447614	5300.924504
437.823946	5265.467548
438.200218	5427.974184
438.576429	5353.337380
438.952580	5469.004135
439.328670	5532.484865
439.704700	5487.737062
440.080670	5508.544425
440.456580	5776.345641
440.832429	5704.494075
441.208218	5591.357980
441.583947	5752.836220
441.959616	5782.770591
442.335224	5731.554989
442.710773	5884.962342
443.086261	5928.142345
443.461689	5752.649697
443.837057	5914.833699
444.212365	6077.242032
444.587612	5994.176419
444.962800	6155.407643
445.337927	6149.491848
445.712995	5793.200739
446.088002	6356.141347
446.462949	6202.106371
446.837837	6148.957486
447.212664	6320.326470
447.587431	6472.576878
447.962139	7012.156780
448.336786	7928.058816
448.711374	7672.782347
449.085901	6775.545183
449.460369	6707.575306
449.834776	6646.083311
450.209124	7039.474793
450.583412	7191.702515
450.957640	7339.040319
451.331808	7107.563137
451.705917	6669.519635
452.079965	6595.127328
452.453954	6812.592622
452.827883	6693.392019
453.201752	6786.255114
453.575562	6585.531492
453.949311	6789.728469
454.323001	6680.632859
454.696632	6758.327122
455.070202	6895.948101
455.443713	7050.111627
455.817164	7156.661455
456.190556	7237.834114
456.563888	7311.031668
456.937160	7353.972216
457.310373	7014.684918
457.683526	7038.388424
458.056619	6931.957063
458.429653	6917.304950
458.802628	6854.144333
459.175542	6964.908565
459.548398	7315.528377
459.921194	7475.360680
460.293930	7481.188254
460.666607	8009.155858
461.039224	8314.034761
461.411782	8445.497971
461.784280	8459.764436
462.156719	8353.358281
462.529099	8229.315650
462.901419	7822.423958
463.273680	7714.273564
463.645882	7726.256387
464.018024	7595.564473
464.390106	7763.114783
464.762130	8146.282805
465.134094	8616.723282
465.505999	9635.946287
465.877845	10850.788746
466.249631	11497.793116
466.621358	11112.906061
466.993026	10485.358025
467.364634	10228.680115
467.736184	9866.286688
468.107674	9537.394250
468.479105	9570.398684
468.850477	9336.267335
469.221790	9105.984906
469.593043	8783.658571
469.964238	8646.456007
470.335373	8651.822315
470.706449	8711.544865
471.077467	8694.304119
471.448425	9999.297532
471.819324	11067.533156
472.190164	11084.068141
472.560945	9843.954377
472.931667	9058.996311
473.302330	8921.342564
473.672934	8572.106549
474.043479	8925.385570
474.413965	8870.313485
474.784393	8756.547245
475.154761	8905.624247
475.525070	8991.212957
475.895321	8824.174324
476.265513	9007.614351
476.635645	9173.012088
477.005719	9167.970934
477.375734	9275.962532
477.745691	9515.165282
478.115588	9648.602103
478.485427	9889.831397
478.855207	10424.102964
479.224928	11236.285781
479.594591	11871.609797
479.964194	11677.081753
480.333739	11617.611261
480.703226	11529.154134
481.072653	11619.617640
481.442022	11864.834487
481.811333	12045.428782
482.180584	11859.536234
482.549777	11569.380021
482.918912	11391.107177
483.287988	11412.300188
483.657005	11417.968966
484.025964	11103.348033
484.394864	11236.270657
484.763706	11200.753208
485.132489	10958.132556
485.501213	10929.864286
485.869879	10997.524132
486.238487	10851.670948
486.607036	10961.018616
486.975527	10738.194575
487.343959	10928.372104
487.712333	10977.762809
488.080648	10907.085832
488.448905	10946.752151
488.817104	10889.436752
489.185244	11152.216979
489.553326	11311.330918
489.921350	11849.030469
490.289315	12900.287487
490.657222	13245.861103
491.025070	13156.907423
491.392861	13021.416331
491.760593	12648.658292
492.128267	12300.042339
492.495883	11970.035806
492.863440	11637.985084
493.230939	11301.238528
493.598380	11236.681512
493.965763	11105.682088
494.333088	11006.288178
494.700354	10928.188102
495.067563	10995.459779
495.434713	10819.425208
495.801805	10948.425814
496.168839	10873.095852
496.535815	10810.381378
496.902733	10811.334156
497.269593	10741.488969
497.636395	10836.809627
498.003139	10830.475417
498.369825	10697.328462
498.736453	10855.401402
499.103023	10780.376430
499.469535	10807.119751
499.835989	10805.977930
500.202385	10758.875909
500.568723	10613.410894
500.935003	10832.317959
501.301226	10640.670933
501.667390	10896.975798
502.033497	10999.401962
502.399546	10856.233193
502.765537	10759.959757
503.131470	10835.075470
503.497345	11011.041986
503.863163	10625.701227
504.228923	10935.104565
504.594625	10998.960861
504.960269	10745.539536
505.325856	10963.176230
505.691385	10756.766186
506.056856	10911.879969
506.422270	10932.200860
506.787625	10828.433750
507.152924	10941.027921
507.518164	10917.737790
507.883347	10845.180463
508.248472	10752.488767
508.613540	10994.910294
508.978550	10874.605678
509.343503	10847.257418
509.708398	10973.079577
510.073236	11077.406256
510.438016	11092.355798
510.802738	11042.982737
511.167403	11092.368400
511.532010	10993.390386
511.896561	11220.532175
512.261053	11289.782506
512.625488	11160.527321
512.989866	11142.416976
513.354186	11130.391303
513.718449	11031.887157
514.082655	11219.982689
514.446803	11129.100768
514.810894	11240.696791
515.174927	11111.096287
515.538904	11139.447736
515.902822	11281.865373
516.266684	11172.477376
516.630488	11106.259300
516.994235	11167.789103
517.357925	11227.829245
517.721558	11315.028604
518.085133	11334.711789
518.448651	11343.984992
518.812112	11228.562733
519.175516	11247.308264
519.538863	11365.324196
519.902152	11279.717842
520.265385	11442.045516
520.628560	11346.883655
520.991678	11328.911942
521.354739	11394.590615
521.717743	11328.138125
522.080690	11304.215329
522.443580	11439.129209
522.806413	11391.379400
523.169189	11427.179154
523.531908	11484.799542
523.894569	11307.905454
524.257174	11310.393263
524.619722	11428.288208
524.982213	11373.140505
525.344647	11428.351222
525.707025	11374.234435
526.069345	11466.537962
526.431608	11384.157947
526.793815	11497.384783
527.155964	11285.469798
527.518057	11339.939466
527.880093	11287.952567
528.242072	11354.647032
528.603995	11262.164544
528.965860	11182.244612
529.327669	11232.772097
529.689421	11184.064468
530.051117	11151.168419
530.412755	11257.960222
530.774337	11149.615743
531.135862	11129.864503
531.497331	11150.737400
531.858743	11002.517395
532.220098	11175.741523
532.581396	11044.951307
532.942638	11027.592094
533.303824	10986.247071
533.664953	11004.312046
534.026025	10915.494477
534.387040	11013.582728
534.747999	11020.204283
535.108902	11070.691439
535.469748	10831.203864
535.830537	10938.751840
536.191270	10916.550598
536.551947	10940.296953
536.912567	10941.032962
537.273131	10863.646209
537.633638	10845.893786
537.994089	10838.251397
538.354483	10783.575042
538.714821	10933.483834
539.075103	10939.147570
539.435328	10896.874975
539.795497	10728.636548
540.155609	10880.697912
540.515665	10968.126643
540.875665	10711.070647
541.235609	10780.323498
541.595496	10767.226580
541.955328	10927.686507
542.315102	10812.566718
542.674821	10759.453121
543.034483	10758.699468
543.394090	10763.644840
543.753640	10692.798985
544.113134	10918.108315
544.472571	10770.589030
544.831953	10914.236709
545.191278	10718.629857
545.550548	10744.001984
545.909761	10885.093798
546.268918	10850.592141
546.628019	10940.856522
546.987064	10806.240070
547.346053	10730.514377
547.704986	10824.869654
548.063863	10814.578138
548.422684	10806.318208
548.781449	10720.943747
549.140158	10824.829325
549.498811	10702.641838
549.857408	10560.892153
550.215949	10789.929417
550.574434	10640.721345
550.932864	10737.796324
551.291237	10794.025354
551.649555	10741.090718
552.007817	10759.281722
552.366022	10719.350742
552.724173	10714.564167
553.082267	10701.825171
553.440305	10836.383649
553.798288	10633.900664
554.156215	10791.285487
554.514086	10768.033165
554.871902	10614.799732
555.229661	10647.368106
555.587365	10631.022165
555.945014	10519.940340
556.302606	10645.233178
556.660143	10543.505214
557.017625	10698.475324
557.375050	10594.246948
557.732421	10723.673532
558.089735	10641.427107
558.446994	10643.337704
558.804197	10674.849957
559.161345	10682.116780
559.518437	10532.790241
559.875474	10616.347366
560.232455	10647.199228
560.589381	10597.165776
560.946251	10595.166958
561.303065	10702.871210
561.659825	10637.757147
562.016528	10569.434388
562.373177	10444.396129
562.729770	10557.980887
563.086307	10480.153033
563.442789	10572.935470
563.799216	10450.115318
564.155587	10494.177523
564.511904	10451.282345
564.868164	10437.847670
565.224370	10462.682915
565.580520	10386.533765
565.936615	10387.577284
566.292654	10254.856306
566.648638	10386.783302
567.004567	10342.736221
567.360441	10333.120220
567.716260	10246.598896
568.072023	10332.195168
568.427732	10291.510536
568.783385	10195.373211
569.138982	10258.559034
569.494525	10285.249423
569.850013	10156.561368
570.205445	10236.239325
570.560823	10128.802254
570.916145	10051.196211
571.271412	10124.406368
571.626625	10063.352954
571.981782	10045.734121
572.336884	10015.078865
572.691931	10031.137460
573.046923	9966.247728
573.401860	9925.134598
573.756743	9865.906081
574.111570	9900.856401
574.466342	9883.280418
574.821059	9912.622454
575.175722	9809.823245
575.530330	9820.641561
575.884882	9812.162340
576.239380	9737.356658
576.593823	9715.561229
576.948211	9731.246780
577.302544	9615.617834
577.656823	9629.622159
578.011047	9630.385894
578.365216	9603.942522
578.719330	9529.716572
579.073389	9541.840547
579.427394	9484.658739
579.781344	9463.024627
580.135239	9409.041432
580.489080	9421.102392
580.842866	9324.045057
581.196597	9331.498403
581.550273	9370.504331
581.903895	9337.051234
582.257463	9403.604547
582.610975	9282.659705
582.964434	9306.700967
583.317837	9231.721366
583.671186	9213.237975
584.024481	9208.751348
584.377721	9129.290161
584.730906	9106.128579
585.084037	9138.129824
585.437113	9070.762364
585.790135	9093.346734
586.143103	8987.621135
586.496016	8964.628432
586.848874	9023.249489
587.201679	9011.879167
587.554428	8897.381960
587.907124	8945.935833
588.259765	8910.322602
588.612352	8915.608252
588.964884	8794.726424
589.317362	8810.091861
589.669786	8800.019635
590.022155	8860.415179
590.374470	8866.278041
590.726731	8809.675966
591.078937	8667.638935
591.431090	8770.896890
591.783188	8645.593970
592.135232	8639.952918
592.487222	8644.439545
592.839157	8695.899644
593.191038	8625.242832
593.542866	8567.922392
593.894639	8471.054100
594.246358	8519.199640
594.598022	8538.696302
594.949633	8438.972197
595.301190	8410.643433
595.652692	8444.283053
596.004141	8550.636275
596.355535	8334.022936
596.706876	8306.778020
597.058162	8247.133608
597.409395	8319.879978
597.760573	8382.634782
598.111698	8294.268396
598.462768	8279.210470
598.813785	8241.053976
599.164748	8209.340078
599.515657	8197.725259
599.866511	8114.095037
600.217312	8238.198163
600.568060	8088.223836
600.918753	8194.693005
601.269392	8170.175353
601.619978	8079.542969
601.970510	8142.761559
602.320988	8141.269377
602.671412	8201.226340
603.021783	8129.616750
603.372100	8106.404757
603.722363	8107.448276
604.072572	8084.090090
604.422728	8099.609282
604.772830	8031.525978
605.122878	8030.928602
605.472872	8033.786936
605.822813	8056.232673
606.172701	8003.040939
606.522534	8074.471568
606.872314	8071.976197
607.222041	8045.731950
607.571714	8100.587266
607.921333	8055.423568
608.270899	8063.494456
608.620411	8156.158425
608.969870	8059.713590
609.319276	8056.489772
609.668627	8070.395795
610.017926	8107.491126
610.367171	8150.713979
610.716362	8129.926781
611.065500	8120.467056
611.414585	8150.167014
611.763616	8135.560270
612.112594	8119.100903
612.461518	8132.391905
612.810389	8194.382974
613.159207	8134.909962
613.507971	8082.870130
613.856682	8197.566463
614.205340	8154.159607
614.553945	8233.121721
614.902496	8134.962894
615.250994	8189.669495
615.599439	8167.856423
615.947830	8174.697268
616.296169	8152.465780
616.644454	8168.957915
616.992686	8170.175353
617.340864	8223.848518
617.688990	8126.478632
618.037063	8218.255358
618.385082	8162.106987
618.733048	8253.750122
619.080961	8194.640073
619.428821	8208.765386
619.776628	8214.267805
620.124382	8166.155033
620.472083	8149.819174
620.819731	8176.978390
621.167326	8070.093326
621.514868	8071.983759
621.862357	7962.066440
622.209793	7983.135943
622.557176	7914.256137
622.904506	7884.374698
623.251783	7815.625962
623.599007	7771.649457
623.946179	7778.419726
624.293297	7736.469764
624.640363	7650.762587
624.987376	7636.652398
625.334336	7587.428051
625.681243	7533.719598
626.028097	7523.062599
626.374899	7499.031418
626.721647	7492.966910
627.068343	7422.073164
627.414987	7394.591313
627.761577	7351.154211
628.108115	7392.660552
628.454600	7283.575023
628.801032	7334.286511
629.147412	7295.336035
629.493739	7285.654499
629.840014	7213.147584
630.186236	7274.964733
630.532405	7157.735221
630.878521	7213.717234
631.224585	7169.183681
631.570597	7091.794408
631.916556	7126.593493
632.262462	7120.433203
632.608316	7080.098931
632.954117	7057.449027
633.299866	7049.874693
633.645562	7037.523866
633.991206	6959.474202
634.336797	6905.473362
634.682336	6859.825713
635.027823	6828.270611
635.373257	6817.948848
635.718639	6748.448981
636.063968	6765.208297
636.409245	6656.490773
636.754470	6654.141595
637.099642	6614.001408
637.444762	6562.609365
637.789829	6569.878709
638.134845	6511.144225
638.479808	6495.763665
638.824719	6495.786350
639.169577	6425.164826
639.514383	6444.154852
639.859137	6378.282095
640.203839	6382.988012
640.548489	6367.521752
640.893086	6345.000397
641.237632	6320.525596
641.582125	6343.687177
641.926566	6309.031765
642.270955	6323.676317
642.615292	6316.759854
642.959576	6332.142935
643.303809	6323.373847
643.647990	6329.897101
643.992118	6317.458053
644.336195	6263.076606
644.680219	6298.707482
645.024192	6282.527898
645.368112	6381.747888
645.711981	6396.823459
646.055797	6478.956458
646.399562	6434.526249
646.743274	6564.099026
647.086935	6611.364884
647.430544	6603.291477
647.774101	6626.972297
648.117606	6632.668801
648.461059	6625.230578
648.804460	6595.661690
649.147810	6498.808522
649.491108	6465.667977
649.834354	6442.453463
650.177548	6360.814497
650.520690	6270.870230
650.863781	6251.590337
651.206820	6269.597339
651.549807	6194.670669
651.892742	6131.983921
652.235626	6139.424664
652.578458	6128.389578
652.921238	6037.928593
653.263967	6075.306228
653.606644	6014.141909
653.949269	6012.253997
654.291843	5954.989010
654.634365	6006.033213
654.976836	5963.944619
655.319255	5959.979752
655.661622	5939.603408
656.003938	5937.350012
656.346203	5897.252675
656.688416	5924.174957
657.030577	5883.444954
657.372687	5850.886662
657.714746	5839.760836
658.056753	5884.899327
658.398708	5821.106046
658.740612	5811.479963
659.082465	5857.939236
659.424266	5851.826837
659.766016	5849.326425
660.107715	5826.797508
660.449362	5838.641699
660.790958	5838.140105
661.132503	5819.760058
661.473996	5862.448548
661.815438	5842.490620
662.156829	5844.928018
662.498168	5836.496688
662.839456	5811.290919
663.180693	5847.201579
663.521879	5844.917936
663.863013	5834.449980
664.204097	5854.813721
664.545129	5898.815432
664.886110	5894.109515
665.227040	5925.649494
665.567918	5883.976796
665.908746	5918.120531
666.249522	5926.234268
666.590248	5904.275002
666.930922	5934.537048
667.271545	5949.416014
667.612118	5952.264266
667.952639	5928.091933
668.293109	5946.963493
668.633528	5904.955558
668.973896	5910.558800
669.314213	5900.070680
669.654480	5881.183997
669.994695	5872.868613
670.334859	5863.723960
670.674973	5858.662642
671.015035	5862.803950
671.355047	5860.724474
671.695008	5842.112534
672.034918	5815.175128
672.374777	5831.705072
672.714585	5814.963400
673.054342	5819.782743
673.394049	5812.405014
673.733705	5843.781156
674.073310	5830.454866
674.412864	5791.461541
674.752368	5779.161125
675.091820	5787.675634
675.431223	5720.391354
675.770574	5726.833948
676.109875	5675.278068
676.449125	5681.329973
676.788324	5647.382843
677.127473	5591.216827
677.466571	5584.476805
677.805619	5570.923663
678.144616	5558.303134
678.483562	5536.469897
678.822458	5501.829608
679.161303	5501.355740
679.500098	5491.772506
679.838842	5474.609898
680.177535	5476.596113
680.516179	5493.909955
680.854771	5508.567110
681.193314	5588.580304
681.531805	5693.625347
681.870247	5842.709911
682.208638	5944.783194
682.546978	5957.287776
682.885268	5934.259785
683.223508	5850.420355
683.561697	5795.864988
683.899836	5771.664929
684.237925	5723.491663
684.575963	5688.760634
684.913951	5647.773532
685.251889	5706.949117
685.589776	5676.450136
685.927614	5649.111959
686.265401	5718.942022
686.603137	5702.616245
686.940824	5780.033245
687.278460	5802.143746
687.616046	5813.556918
687.953582	5877.042689
688.291068	5859.232292
688.628504	5923.995996
688.965889	5885.153905
689.303224	5829.751625
689.640510	5782.238750
689.977745	5707.357450
690.314930	5609.319611
690.652065	5553.256939
690.989150	5459.367969
691.326185	5384.831989
691.663170	5333.064380
692.000105	5257.217700
692.336990	5179.044527
692.673825	5152.994365
693.010610	5085.203448
693.347345	5017.926730
693.684030	5003.350233
694.020665	4960.699551
694.357251	4872.565059
694.693786	4878.024628
695.030272	4848.349876
695.366707	4813.104649
695.703093	4781.673055
696.039429	4804.897651
696.375716	4786.454589
696.711952	4758.768572
697.048139	4744.290378
697.384276	4729.449222
697.720363	4738.359461
698.056400	4743.834154
698.392388	4694.826577
698.728326	4674.304040
699.064214	4656.866688
699.400053	4649.289834
699.735842	4613.757261
700.071581	4595.213377
700.407270	4561.775403
700.742910	4546.457857
701.078501	4491.705886
701.414042	4491.196729
701.749533	4460.312100
702.084974	4394.391452
702.420366	4452.843631
702.755709	4395.417327
703.091002	4341.078729
703.426246	4390.887850
703.761440	4346.273638
704.096584	4309.095129
704.431679	4327.505423
704.766725	4315.041170
705.101721	4305.334428
705.436668	4331.049354
705.771565	4277.293010
706.106413	4303.554901
706.441212	4337.108821
706.775961	4345.928319
707.110661	4323.976615
707.445311	4352.517107
707.779913	4375.560222
708.114465	4389.050349
708.448967	4411.793515
708.783421	4471.939521
709.117825	4514.295296
709.452180	4521.058004
709.786485	4562.556782
710.120742	4651.845699
710.454949	4636.563441
710.789107	4700.891085
711.123216	4776.062251
711.457275	4764.452473
711.791286	4839.290923
712.125247	4854.870609
712.459159	4760.306124
712.793023	4834.547197
713.126837	4792.246875
713.460602	4786.883087
713.794318	4705.660017
714.127985	4715.938929
714.461602	4623.726143
714.795171	4600.095734
715.128691	4534.084345
715.462162	4477.903206
715.795584	4432.729427
716.128957	4410.034152
716.462281	4358.856358
716.795556	4331.266123
717.128782	4292.852531
717.461960	4226.233683
717.795088	4240.701794
718.128167	4194.981050
718.461198	4136.975013
718.794180	4132.833705
719.127113	4114.539358
719.459997	4089.620934
719.792833	4050.191549
720.125619	4044.895817
720.458357	4006.157071
720.791046	4010.021115
721.123686	3986.357939
721.456278	3941.733645
721.788821	3958.989515
722.121315	3931.936162
722.453761	3906.264087
722.786158	3915.244902
723.118506	3941.794139
723.450805	3895.327303
723.783056	3917.899070
724.115259	3933.975309
724.447412	3938.507307
724.779518	3930.370884
725.111574	3933.899692
725.443582	3963.171152
725.775542	3951.599183
726.107453	4001.347810
726.439315	4000.377388
726.771129	4016.778782
727.102895	4052.505439
727.434612	4098.251390
727.766281	4110.619861
728.097901	4113.326960
728.429473	4113.284110
728.760996	4124.276346
729.092471	4116.460037
729.423897	4103.668109
729.755276	4109.372175
730.086606	4104.610805
730.417887	4144.788801
730.749120	4212.264646
731.080305	4273.842340
731.411442	4303.713697
731.742530	4272.783698
732.073570	4274.475005
732.404562	4328.874096
732.735506	4318.895132
733.066401	4280.111015
733.397249	4222.155389
733.728048	4141.426352
734.058798	4060.324269
734.389501	3988.853310
734.720156	3925.526335
735.050762	3880.508832
735.381320	3871.908623
735.711831	3822.984225
736.042293	3793.251500
736.372707	3818.187567
736.703073	3787.668422
737.033391	3780.489819
737.363661	3797.629742
737.693883	3823.997497
738.024056	3829.101665
738.354182	3827.032272
738.684260	3889.948392
739.014290	3911.426228
739.344272	3905.893562
739.674207	3950.827887
740.004093	3951.866364
740.333931	3950.066672
740.663722	3948.733287
740.993464	3946.477371
741.323159	3923.270419
741.652806	3891.959812
741.982405	3864.540977
742.311956	3834.838498
742.641460	3824.279802
742.970915	3799.951193
743.300323	3760.393259
743.629683	3726.962847
743.958996	3714.410374
744.288260	3690.555634
744.617477	3658.128412
744.946647	3643.677944
745.275768	3617.496712
745.604842	3617.252216
745.933869	3569.008374
746.262847	3560.201478
746.591778	3598.569700
746.920662	3567.485945
747.249498	3538.879918
747.578286	3584.419181
747.907027	3603.197479
748.235720	3600.961727
748.564365	3621.340592
748.892963	3626.036427
749.221514	3607.724435
749.550017	3582.506063
749.878473	3583.027822
750.206881	3552.987587
750.535242	3548.425342
750.863555	3550.734191
751.191821	3546.393758
751.520039	3527.917929
751.848210	3503.518744
752.176334	3537.155843
752.504411	3544.911658
752.832440	3506.886235
753.160421	3485.988132
753.488356	3496.405676
753.816243	3510.029394
754.144082	3467.124134
754.471875	3450.984880
754.799620	3471.610761
755.127318	3460.353864
755.454969	3460.374029
755.782572	3470.063127
756.110129	3445.273253
756.437638	3435.110286
756.765100	3448.262657
757.092515	3457.619038
757.419882	3467.557673
757.747203	3437.283024
758.074477	3439.216306
758.401703	3455.912608
758.728882	3476.551092
759.056014	3483.517966
759.383099	3485.925117
759.710138	3483.593583
760.037129	3501.262828
760.364073	3533.153167
760.690970	3520.988863
761.017820	3496.430882
761.344623	3510.846061
761.671379	3557.088565
761.998088	3606.859877
762.324751	3734.083477
762.651366	3981.687310
762.977935	4457.020227
763.304456	4897.034819
763.630931	4989.262729
763.957359	4633.221156
764.283740	4288.600318
764.610074	4096.358436
764.936362	3900.880134
765.262602	3742.308119
765.588796	3632.045482
765.914943	3539.845299
766.241044	3454.138122
766.567097	3425.789193
766.893104	3380.653222
767.219064	3345.299610
767.544978	3321.638954
767.870845	3265.573762
768.196665	3249.106833
768.522438	3255.249479
768.848165	3249.714292
769.173846	3212.830690
769.499479	3199.917774
769.825066	3180.698375
770.150607	3164.977537
770.476101	3180.547141
770.801548	3175.049762
771.126949	3129.802886
771.452303	3113.293107
771.777611	3118.704786
772.102872	3124.751650
772.428087	3100.947321
772.753256	3090.940631
773.078378	3082.037953
773.403453	3048.806667
773.728482	3035.906354
774.053465	3054.941751
774.378401	3046.707027
774.703291	3011.953312
775.028135	3014.100843
775.352932	3010.514063
775.677683	2996.943276
776.002388	2993.512771
776.327046	2996.129130
776.651658	2986.742502
776.976224	2976.037611
777.300743	2972.891931
777.625216	2965.289871
777.949643	2959.164869
778.274024	2961.645117
778.598359	2950.289918
778.922647	2958.411217
779.246889	2954.363170
779.571086	2940.762137
779.895236	2935.864656
780.219339	2946.050308
780.543397	2961.279633
780.867409	2961.330045
781.191374	2953.107923
781.515294	2950.201698
781.839167	2951.729168
782.162995	2941.762806
782.486776	2953.760753
782.810511	2949.642130
783.134201	2935.776436
783.457844	2943.552416
783.781441	2931.993050
784.104993	2913.905390
784.428498	2914.767428
784.751958	2926.614139
785.075372	2921.696493
785.398739	2906.910789
785.722061	2919.884199
786.045337	2933.480191
786.368568	2917.131729
786.691752	2910.409350
787.014891	2956.246041
787.337983	2989.162255
787.661030	3015.991276
787.984031	3083.434353
788.306987	3131.206847
788.629897	3117.643623
788.952760	3105.630553
789.275579	3088.283943
789.598351	3029.884696
789.921078	2984.534476
790.243759	2978.205308
790.566395	2960.336938
790.888984	2936.729214
791.211529	2919.344795
791.534027	2911.856161
791.856480	2898.154305
792.178888	2883.925648
792.501249	2875.617827
792.823566	2876.048845
793.145836	2871.247146
793.468062	2868.232536
793.790241	2866.700026
794.112375	2871.668083
794.434464	2881.601676
794.756507	2888.591236
795.078505	2891.389077
795.400457	2910.827766
795.722364	2945.331943
796.044226	2969.264821
796.366042	2974.641212
796.687812	2958.751495
797.009538	2978.679176
797.331218	2968.584265
797.652852	2955.633541
797.974442	2937.011519
798.295986	2933.790222
798.617484	2927.539191
798.938938	2911.901532
799.260346	2895.124572
799.581709	2892.369581
799.903026	2882.864485
800.224299	2878.564381
800.545526	2867.241950
800.866708	2852.589836
801.187845	2843.999710
801.508936	2843.659432
801.829983	2851.949609
802.150984	2837.599965
802.471940	2828.755261
802.792851	2827.752071
803.113717	2825.985147
803.434538	2831.205261
803.755314	2826.403562
804.076045	2816.384269
804.396731	2815.930565
804.717372	2818.728406
805.037967	2812.356387
805.358518	2819.315700
805.679024	2831.752227
805.999485	2827.719303
806.319901	2830.829695
806.640272	2823.290650
806.960598	2829.271979
807.280879	2839.082064
807.601115	2845.048270
807.921306	2833.362875
808.241453	2826.980774
808.561554	2834.953359
808.881611	2836.551405
809.201623	2830.368430
809.521590	2829.672751
809.841513	2827.779797
810.161390	2828.732575
810.481223	2825.561690
810.801011	2814.287149
811.120755	2810.743218
811.440453	2815.786892
811.760107	2813.092396
812.079716	2811.320430
812.399281	2801.467495
812.718801	2796.733851
813.038276	2792.131278
813.357707	2795.178655
813.677093	2804.466981
813.996434	2796.141516
814.315731	2792.093469
814.634983	2787.541307
814.954191	2788.829322
815.273354	2802.924388
815.592473	2811.927889
815.911547	2814.715647
816.230577	2825.818788
816.549562	2831.048986
816.868502	2829.090497
817.187399	2840.002075
817.506250	2855.614528
817.825058	2847.664629
818.143821	2861.729448
818.462539	2881.649567
818.781213	2902.656055
819.099843	2940.699123
819.418429	2998.798421
819.736970	3061.170097
820.055466	3132.787249
820.373919	3240.466295
820.692327	3381.545506
821.010691	3551.379459
821.329011	3996.798168
821.647286	4897.009614
821.965517	6282.721983
822.283704	7031.938267
822.601847	7015.191554
822.919945	6376.273195
823.237999	5864.548189
823.556010	5277.987254
823.873976	4724.723140
824.191897	4313.647291
824.509775	4015.213503
824.827609	3745.368100
825.145398	3623.717496
825.463144	3611.470013
825.780845	3701.394115
826.098502	3806.731545
826.416116	4089.174792
826.733685	4411.670007
827.051210	4478.777847
827.368692	4357.195298
827.686129	4089.862910
828.003522	3766.871142
828.320872	3505.247860
828.638177	3308.032880
828.955439	3169.287723
829.272656	3086.282605
829.589830	3020.014117
829.906960	2968.692650
830.224046	2926.178079
830.541088	2891.396638
830.858086	2875.859802
831.175041	2857.603263
831.491952	2862.412524
831.808819	2870.801004
832.125642	2894.194479
832.442421	2941.611572
832.759157	3022.670805
833.075849	3202.619833
833.392497	3485.821773
833.709101	3689.607897
834.025662	3638.961945
834.342179	3477.556802
834.658653	3296.334883
834.975083	3151.502533
835.291469	3054.074673
835.607811	2967.996971
835.924110	2908.801222
836.240366	2860.068388
836.556578	2816.071717
836.872746	2789.308232
837.188871	2769.839296
837.504952	2754.841863
837.820990	2745.840883
838.136984	2728.433778
838.452935	2724.715927
838.768842	2723.304404
839.084706	2741.946591
839.400526	2820.850731
839.716303	2953.692697
840.032037	3034.207486
840.347727	3021.791124
840.663373	2959.633697
840.978977	2882.506563
841.294537	2807.169040
841.610054	2760.644231
841.925527	2739.428535
842.240957	2717.202088
842.556344	2694.625280
842.871687	2680.794875
843.186987	2669.076712
843.502244	2665.621002
843.817458	2663.370126
844.132629	2652.385452
844.447756	2640.148051
844.762840	2632.684623
845.077881	2641.133597
845.392879	2635.202679
845.707833	2629.962400
846.022745	2621.342027
846.337613	2628.462657
846.652438	2623.610546
846.967221	2625.286730
847.281960	2624.954013
847.596656	2620.918570
847.911309	2618.584516
848.225919	2618.581995
848.540485	2614.281891
848.855009	2612.507405
849.169490	2614.450769
849.483928	2614.009668
849.798323	2613.112343
850.112675	2610.962291
850.426984	2613.331633
850.741251	2612.898094
851.055474	2611.070676
851.369654	2612.830038
851.683792	2617.271295
851.997887	2612.628392
852.311938	2612.088989
852.625947	2611.453803
852.939914	2614.100409
853.253837	2616.852879
853.567718	2612.492281
853.881555	2611.123608
854.195350	2613.561006
854.509103	2614.634772
854.822812	2610.634616
855.136479	2609.301231
855.450103	2612.303238
855.763685	2615.459000
856.077224	2609.495315
856.390720	2610.642178
856.704173	2610.722836
857.017584	2618.823970
857.330953	2619.713734
857.644278	2622.486369
857.957561	2619.204578
858.270802	2617.374639
858.584000	2616.638630
858.897155	2620.442181
859.210268	2620.598457
859.523339	2615.295163
859.836367	2610.455655
860.149352	2610.455655
860.462295	2611.897425
860.775195	2609.752414
861.088054	2607.758638
861.400869	2608.015737
861.713642	2606.861312
862.026373	2606.977259
862.339062	2609.807867
862.651708	2615.637961
862.964312	2615.751387
863.276873	2616.159721
863.589392	2616.996552
863.901869	2622.501492
864.214303	2625.732872
864.526696	2628.752523
864.839045	2628.460136
865.151353	2632.092287
865.463619	2629.889303
865.775842	2631.247894
866.088023	2632.084726
866.400162	2632.694705
866.712258	2635.525313
867.024313	2632.616567
867.336325	2626.375619
867.648296	2630.320322
867.960224	2634.058337
868.272110	2632.122534
868.583954	2624.412089
868.895755	2629.002060
869.207515	2634.973307
869.519233	2641.100829
869.830909	2634.464150
870.142542	2631.386526
870.454134	2631.963738
870.765684	2637.874491
871.077191	2642.482105
871.388657	2643.898670
871.700081	2642.351035
872.011463	2643.613844
872.322803	2644.294400
872.634101	2646.273053
872.945357	2654.659012
873.256571	2661.121772
873.567744	2657.885351
873.878874	2656.791421
874.189963	2657.487100
874.501010	2662.871052
874.812015	2665.958759
875.122979	2665.792401
875.433900	2657.161945
875.744780	2655.110196
876.055618	2660.930208
876.366415	2667.196362
876.677169	2667.614778
876.987882	2660.143788
877.298554	2661.877945
877.609183	2671.733401
877.919771	2677.049297
878.230317	2686.035154
878.540822	2697.420600
878.851285	2708.765717
879.161707	2734.183214
879.472087	2772.932043
879.782425	2820.515495
880.092722	2931.632608
880.402977	3128.209881
880.713191	3389.697052
881.023363	3683.409798
881.333494	3875.397102
881.643583	4054.022826
881.953631	4051.643402
882.263637	3868.740258
882.573602	3646.916886
882.883526	3517.775127
883.193408	3400.346489
883.503248	3297.113741
883.813048	3180.348015
884.122806	3066.412897
884.432522	2982.608755
884.742197	2914.737181
885.051831	2879.209649
885.361424	2842.295800
885.670975	2805.898669
885.980485	2772.362393
886.289954	2759.441916
886.599382	2740.398957
886.908768	2732.454099
887.218113	2711.366952
887.527417	2698.569983
887.836680	2690.297450
888.145901	2686.418282
888.455082	2676.905624
888.764221	2666.939263
889.073319	2658.303767
889.382376	2657.103972
889.691392	2657.600526
890.000366	2656.965340
890.309300	2656.357881
890.618193	2660.335352
890.927044	2659.826195
891.235855	2663.138233
891.544625	2660.592451
891.853353	2662.475322
892.162041	2669.172494
892.470687	2690.126050
892.779293	2699.699202
893.087858	2709.950388
893.396381	2736.867629
893.704864	2775.742487
894.013306	2847.745287
894.321707	2943.305399
894.630068	2990.082266
894.938387	3012.921213
895.246665	3005.372086
895.554903	2958.549849
895.863100	2916.594846
896.171256	2857.154601
896.479371	2798.508337
896.787446	2757.256576
897.095480	2737.008781
897.403473	2732.141547
897.711425	2716.403065
898.019336	2696.215764
898.327207	2682.554237
898.635038	2680.348732
898.942827	2677.014009
899.250576	2669.999244
899.558284	2658.155053
899.865952	2656.380567
900.173579	2653.204640
900.481165	2649.113743
900.788711	2641.675521
901.096216	2632.881228
901.403681	2631.719242
901.711105	2634.373409
902.018489	2629.027266
902.325832	2634.733852
902.633135	2636.402474
902.940397	2650.883188
903.247619	2688.437264
903.554800	2758.058119
903.861941	2887.230125
904.169041	3016.061852
904.476101	3077.836152
904.783121	3072.800039
905.090100	3012.384331
905.397039	2938.070161
905.703938	2861.595857
906.010796	2796.748975
906.317614	2746.574371
906.624391	2707.160109
906.931129	2680.257992
907.237826	2660.093376
907.544483	2640.712660
907.851099	2628.349231
908.157675	2618.881944
908.464211	2610.715274
908.770707	2602.634305
909.077163	2593.971082
909.383578	2591.236256
909.689954	2591.190886
909.996289	2591.329517
910.302584	2588.272057
910.608839	2583.372056
910.915054	2586.666450
911.221229	2590.928746
911.527363	2590.543097
911.833458	2589.406317
912.139513	2590.901019
912.445527	2591.223653
912.751502	2598.750096
913.057436	2602.593976
913.363331	2610.606890
913.669186	2620.875720
913.975000	2633.347535
914.280775	2652.171203
914.586510	2670.072340
914.892205	2706.030891
915.197859	2775.994544
915.503475	2857.003366
915.809050	2928.635642
916.114585	2945.586522
916.420081	2955.033644
916.725536	2967.671817
917.030952	2937.717280
917.336328	2890.350599
917.641665	2840.927127
917.946961	2792.209416
918.252218	2755.340937
918.557435	2731.763461
918.862612	2707.177753
919.167750	2690.156297
919.472848	2672.696261
919.777906	2659.478356
920.082925	2642.855151
920.387904	2632.787967
920.692843	2628.172790
920.997743	2627.928294
921.302603	2618.375308
921.607423	2611.277363
921.912204	2605.104470
922.216946	2601.704212
922.521647	2603.118256
922.826310	2597.930908
923.130932	2592.010073
923.435516	2586.366501
923.740059	2581.867272
924.044564	2582.658733
924.349028	2579.306365
924.653454	2573.589697
924.957840	2570.350756
925.262186	2569.559294
925.566493	2569.342525
925.870761	2562.955383
926.174989	2565.080229
926.479178	2567.353790
926.783328	2561.072512
927.087438	2560.757440
927.391509	2560.613767
927.695541	2559.555125
927.999533	2555.688560
928.303486	2557.652089
928.607400	2555.595298
928.911275	2556.706873
929.215110	2558.680484
929.518906	2556.394321
929.822663	2553.667057
930.126381	2555.164280
930.430060	2555.801986
930.733699	2555.275185
931.037299	2561.115362
931.340861	2555.759136
931.644383	2556.568241
931.947866	2555.650751
932.251309	2555.766697
932.554714	2556.288457
932.858080	2557.773077
933.161407	2555.499516
933.464694	2555.045812
933.767943	2555.701162
934.071153	2554.579506
934.374323	2553.273847
934.677455	2552.878116
934.980548	2551.688404
935.283602	2552.081614
935.586617	2553.243600
935.889593	2554.544218
936.192530	2551.653116
936.495428	2552.149670
936.798287	2550.513815
937.101108	2555.257541
937.403890	2557.805844
937.706632	2560.641493
938.009336	2564.820610
938.312002	2569.433266
938.614628	2572.299162
938.917216	2574.847465
939.219765	2574.363514
939.522275	2578.877867
939.824747	2574.234965
940.127179	2568.445199
940.429573	2566.854715
940.731929	2568.883780
941.034246	2566.262380
941.336524	2565.942267
941.638763	2569.266908
941.940964	2564.245918
942.243126	2565.128120
942.545250	2566.433779
942.847335	2561.455640
943.149381	2559.615618
943.451389	2560.132337
943.753359	2558.688046
944.055290	2556.802655
944.357182	2556.732078
944.659036	2557.291647
944.960851	2556.936245
945.262628	2558.483879
945.564367	2557.931873
945.866067	2556.026317
946.167729	2555.713765
946.469352	2559.275341
946.770937	2555.038251
947.072484	2556.464897
947.373992	2555.751574
947.675462	2555.345761
947.976893	2555.416337
948.278286	2551.832077
948.579641	2554.297201
948.880958	2552.489948
949.182236	2551.358208
949.483476	2553.664536
949.784678	2552.374001
950.085841	2549.956768
950.386967	2554.418189
950.688054	2551.141439
950.989103	2553.437684
951.290114	2554.387942
951.591087	2553.901471
951.892021	2557.626883
952.192917	2557.952038
952.493776	2559.240052
952.794596	2561.332131
953.095378	2561.493448
953.396122	2561.843808
953.696828	2560.850701
953.997496	2556.873231
954.298126	2554.030020
954.598718	2554.418189
954.899272	2554.299722
955.199788	2553.495658
955.500266	2551.935421
955.800706	2548.474668
956.101108	2542.800850
956.401472	2545.349153
956.701798	2542.873947
957.002087	2543.375541
957.302337	2544.227496
957.602550	2545.260933
957.902724	2543.413350
958.202861	2544.892929
958.502960	2541.235572
958.803022	2539.844213
959.103045	2540.333205
959.403031	2539.163657
959.702979	2541.202804
960.002889	2540.371014
960.302762	2539.887063
960.602596	2538.475540
960.902393	2536.259953
961.202153	2538.881353
961.501875	2537.608461
961.801559	2539.319933
962.101205	2539.892104
962.400814	2539.161137
962.700385	2536.927906
962.999918	2536.408667
963.299414	2540.600386
963.598873	2537.046373
963.898293	2536.706095
964.197677	2539.645087
964.497022	2538.319264
964.796331	2535.549150
965.095601	2536.620395
965.394835	2540.015612
965.694030	2537.043852
965.993189	2539.934954
966.292309	2537.956301
966.591393	2537.164840
966.890439	2536.287679
967.189447	2538.130221
967.488419	2536.736342
967.787353	2538.072247
968.086249	2539.047711
968.385108	2537.051414
968.683930	2536.307844
968.982714	2536.305323
969.281462	2538.692309
969.580172	2538.755324
969.878844	2538.883873
970.177480	2538.893956
970.476078	2536.930426
970.774639	2538.334387
971.073162	2537.416897
971.371649	2535.748276
971.670098	2535.307175
971.968510	2535.047555
972.266885	2534.225847
972.565223	2536.252391
972.863524	2538.737680
973.161788	2539.269522
973.460014	2535.712988
973.758204	2540.386137
974.056356	2536.602751
974.354471	2538.886394
974.652550	2536.844727
974.950591	2539.796322
975.248595	2538.503266
975.546563	2537.308513
975.844493	2537.285827
976.142386	2537.492515
976.440243	2536.716177
976.738062	2535.937319
977.035845	2536.965714
977.333590	2537.505118
977.631299	2536.627957
977.928971	2537.699202
978.226606	2534.976979
978.524204	2537.106867
978.821765	2534.077133
979.119290	2535.082843
979.416777	2537.021167
979.714228	2537.684079
980.011642	2536.753986
980.309020	2538.750283
980.606360	2535.750796
980.903664	2538.702392
981.200931	2538.283976
981.498162	2538.077289
981.795356	2538.962011
982.092513	2547.063145
982.389633	2544.391334
982.686717	2550.357539
982.983764	2551.466593
983.280775	2550.856614
983.577749	2552.132026
983.874686	2551.108671
984.171587	2548.318393
984.468451	2543.854451
984.765279	2543.022661
985.062070	2541.462423
985.358824	2539.967721
985.655543	2541.603576
985.952224	2539.723225
986.248869	2536.116280
986.545478	2532.995806
986.842050	2534.687113
987.138586	2532.889941
987.435086	2532.285003
987.731549	2530.485311
988.027975	2534.553522
988.324366	2534.729962
988.620719	2534.064530
988.917037	2533.257946
989.213318	2534.588810
989.509563	2530.601257
989.805772	2533.716691
990.101944	2535.614685
990.398080	2533.063861
990.694180	2531.967410
990.990244	2534.777853
991.286271	2534.424973
991.582262	2533.290713
991.878217	2530.760054
992.174136	2530.959179
992.470019	2533.431865
992.765865	2533.406660
993.061676	2532.728624
993.357450	2535.150899
993.653188	2532.716022
993.948890	2535.337422
994.244556	2536.751465
994.540186	2536.431352
994.835780	2532.897503
995.131337	2536.038142
995.426859	2534.379602
995.722345	2533.225178
996.017795	2538.407484
996.313208	2536.350693
996.608586	2536.922864
996.903928	2539.755993
997.199234	2539.118287
997.494504	2538.074768
997.789738	2533.739376
998.084936	2537.280786
998.380099	2534.611495
998.675225	2537.255581
998.970316	2534.984541
999.265371	2533.194931
999.560390	2534.586290
999.855373	2535.256763
1000.150320	2532.826927
1000.445232	2530.737369
1000.740108	2534.256094
1001.034948	2535.150899
1001.329752	2532.010260
1001.624521	2534.331711
1001.919254	2527.080012
1002.213951	2527.720238
1002.508613	2527.448016
1002.803239	2530.886083
1003.097829	2529.542615
1003.392384	2531.412883
1003.686903	2531.919519
1003.981386	2534.513193
1004.275834	2530.329035
1004.570246	2533.494880
1004.864623	2531.012112
1005.158964	2531.327184
1005.453270	2530.515558
1005.747540	2530.931453
1006.041775	2528.075639
1006.335974	2531.591844
1006.630138	2530.588655
1006.924266	2530.550846
1007.218359	2533.762061
1007.512416	2530.981865
1007.806438	2531.523789
1008.100425	2531.037317
1008.394376	2533.240302
1008.688292	2531.017153
1008.982172	2531.186031
1009.276017	2530.795342
1009.569827	2531.922040
1009.863602	2529.542615
1010.157341	2530.684437
1010.451045	2530.840712
1010.744714	2531.652338
1011.038347	2531.911958
1011.331945	2528.972965
1011.625508	2532.317770
1011.919036	2529.177132
1012.212528	2530.891124
1012.505986	2528.970444
1012.799408	2529.945907
1013.092795	2528.108407
1013.386147	2531.052441
1013.679464	2531.135620
1013.972745	2529.761905
1014.265992	2529.595547
1014.559204	2532.269879
1014.852380	2531.128058
1015.145521	2529.860208
1015.438628	2527.243849
1015.731699	2532.101001
1016.024736	2529.613191
1016.317737	2530.951618
1016.610703	2531.223840
1016.903635	2529.134282
1017.196531	2527.243849
1017.489393	2526.220495
1017.782219	2525.978519
1018.075011	2531.012112
1018.367768	2530.908768
1018.660490	2530.641587
1018.953177	2530.641587
1019.245829	2530.641587
