Dividing Wavelength (nm)	Counts (n)	Blue Motor Position (mm): 42.900000	Red Motor Position (mm): 0.000000	
326.493990	2127.127468
326.888308	2127.127468
327.282561	2127.127468
327.676750	2093.868456
328.070874	2095.416090
328.464933	2097.803076
328.858929	2104.233068
329.252859	2112.687083
329.646726	2125.632766
330.040528	2139.911834
330.434265	2155.362971
330.827938	2171.177071
331.221547	2190.890503
331.615091	2209.494881
332.008571	2230.967676
332.401986	2248.760428
332.795338	2268.491504
333.188625	2286.927004
333.581847	2304.959211
333.975006	2322.845225
334.368100	2342.805674
334.761129	2360.167408
335.154095	2377.372866
335.546996	2399.243912
335.939833	2424.550504
336.332606	2438.504418
336.725315	2452.808692
337.117960	2463.080043
337.510540	2469.414253
337.903056	2479.189050
338.295508	2487.746409
338.687896	2498.670589
339.080220	2505.808863
339.472480	2512.059894
339.864676	2514.398989
340.256807	2519.160359
340.648875	2519.162879
341.040879	2528.221833
341.432818	2527.155629
341.824694	2527.687471
342.216506	2528.582275
342.608253	2531.496062
342.999937	2529.794673
343.391557	2525.928108
343.783113	2527.470701
344.174605	2527.596730
344.566033	2525.297964
344.957397	2524.466173
345.348697	2519.697242
345.739934	2521.625483
346.131106	2518.900739
346.522215	2517.814371
346.913260	2514.754390
347.304241	2512.690038
347.695159	2513.138701
348.086012	2512.395130
348.476802	2507.459841
348.867528	2504.866167
349.258191	2505.171157
349.648789	2503.517658
350.039324	2502.060765
350.429796	2502.050683
350.820203	2500.722339
351.210548	2500.437513
351.600828	2498.345435
351.991045	2496.911226
352.381198	2494.925012
352.771288	2498.431134
353.161314	2495.623212
353.551276	2495.325783
353.941175	2496.162615
354.331010	2494.506596
354.720782	2497.972389
355.110490	2492.459888
355.500135	2495.960969
355.889717	2494.705722
356.279235	2498.504231
356.668689	2498.335352
357.058080	2497.228819
357.447408	2494.836792
357.836672	2492.558190
358.225873	2495.648417
358.615010	2493.407624
359.004084	2497.478356
359.393095	2498.630260
359.782043	2501.102946
360.170927	2498.663027
360.559748	2503.376506
360.948505	2503.081599
361.337199	2501.854078
361.725830	2505.208966
362.114398	2503.903307
362.502903	2503.280724
362.891344	2501.947339
363.279722	2506.824655
363.668037	2507.875736
364.056289	2508.369769
364.444478	2508.952022
364.832603	2511.210459
365.220665	2507.888339
365.608665	2508.818432
365.996601	2511.323885
366.384474	2507.590911
366.772284	2510.184584
367.160031	2512.891684
367.547715	2510.192146
367.935336	2511.500326
368.322893	2514.782117
368.710388	2511.800274
369.097820	2516.491068
369.485189	2512.811026
369.872495	2514.915707
370.259738	2512.528721
370.646918	2514.053670
371.034035	2515.424864
371.421090	2517.607683
371.808081	2514.000738
372.195010	2517.746315
372.581875	2515.308917
372.968678	2519.024248
373.355418	2518.981398
373.742096	2519.334279
374.128710	2517.690863
374.515262	2519.666995
374.901751	2519.215812
375.288177	2522.583302
375.674540	2519.614063
376.060841	2520.637417
376.447079	2519.311593
376.833254	2521.257479
377.219367	2517.521984
377.605417	2521.655730
377.991404	2518.142046
378.377329	2523.389887
378.763191	2519.382170
379.148991	2528.509179
379.534727	2531.077647
379.920402	2531.906916
380.306013	2533.872966
380.691563	2541.908566
381.077049	2545.344112
381.462474	2552.893240
381.847835	2560.538150
382.233134	2568.893862
382.618371	2576.843762
383.003545	2595.206165
383.388657	2601.847885
383.773706	2620.258179
384.158693	2635.633698
384.543618	2649.549803
384.928480	2668.610406
385.313280	2690.983047
385.698017	2706.514842
386.082692	2735.531723
386.467305	2750.584608
386.851856	2779.097375
387.236344	2798.828451
387.620770	2828.977071
388.005133	2860.275075
388.389435	2891.310939
388.773674	2916.171389
389.157851	2954.002728
389.541965	2986.518170
389.926018	2994.102586
390.310008	3050.702141
390.693936	3082.552151
391.077802	3132.462095
391.461606	3154.784324
391.845348	3211.880432
392.229027	3243.821183
392.612645	3276.243364
392.996200	3350.539889
393.379694	3403.451840
393.763125	3475.016060
394.146494	3484.062411
394.529801	3551.644119
394.913047	3617.320272
395.296230	3616.468317
395.679351	3685.164120
396.062410	3733.198754
396.445408	3747.644181
396.828343	3797.786018
397.211217	3842.163295
397.594028	3798.718631
397.976778	3879.218296
398.359466	3919.557609
398.742092	3968.784477
399.124656	3918.740942
399.507158	4007.540867
399.889598	4044.414387
400.271977	4121.342395
400.654294	4103.640383
401.036549	4131.959065
401.418742	4116.442393
401.800874	4222.331830
402.182944	4252.651850
402.564952	4328.110361
402.946898	4325.307479
403.328783	4325.988035
403.710606	4250.005244
404.092367	4444.820634
404.474067	4415.413063
404.855705	4429.419909
405.237282	4364.643603
405.618797	4476.121158
406.000250	4510.877394
406.381642	4598.255713
406.762972	4563.743974
407.144240	4570.489038
407.525447	4575.840223
407.906593	4635.945900
408.287677	4678.803269
408.668700	4611.614771
409.049661	4663.878933
409.430560	4709.864339
409.811399	4635.567813
410.192176	4794.250734
410.572891	4733.645982
410.953545	4837.329914
411.334138	4716.896748
411.714669	4791.326864
412.095139	4684.469526
412.475547	4823.071010
412.855894	4801.487310
413.236180	4815.410977
413.616405	4766.080766
413.996568	4853.801884
414.376670	4797.406496
414.756711	4755.300258
415.136691	4789.738901
415.516609	4858.467472
415.896466	4897.357453
416.276262	4935.846663
416.655997	4913.214403
417.035670	5095.747022
417.415283	5185.310682
417.794834	5130.702383
418.174324	5086.718315
418.553753	4992.388244
418.933121	5180.347666
419.312428	5243.662037
419.691674	5182.192728
420.070859	5310.764836
420.449983	5224.840889
420.829045	5338.438250
421.208047	5243.770422
421.586988	5312.824148
421.965867	5327.093133
422.344686	5461.704544
422.723444	5310.797604
423.102141	5131.146004
423.480777	5433.632879
423.859352	5199.257034
424.237866	5457.817814
424.616319	5450.334222
424.994712	5562.399072
425.373044	5439.183189
425.751314	5579.823820
426.129524	5384.801742
426.507673	5576.393315
426.885762	5662.130739
427.263789	5592.010809
427.641756	5475.895392
428.019662	5597.107416
428.397508	5599.348209
428.775292	5548.976999
429.153016	5650.387371
429.530679	5580.635446
429.908282	5659.179143
430.285824	5528.015882
430.663305	5803.199867
431.040726	5540.560793
431.418086	5540.250762
431.795385	5647.082894
432.172624	5657.480274
432.549802	5654.188401
432.926920	5660.852806
433.303977	5676.699673
433.680974	5711.095466
434.057910	5725.140121
434.434786	5732.868209
434.811601	5705.320824
435.188355	5940.203305
435.565050	5808.142719
435.941683	5794.158558
436.318257	6009.108317
436.694770	5994.136090
437.071222	6028.342839
437.447614	5959.757941
437.823946	5870.983222
438.200218	6027.523652
438.576429	5889.829576
438.952580	5991.055945
439.328670	6033.968767
439.704700	5943.913595
440.080670	5931.272901
440.456580	6198.496905
440.832429	6078.066260
441.208218	5926.020019
441.583947	6081.287557
441.959616	6090.467499
442.335224	6012.737947
442.710773	6148.150902
443.086261	6176.832546
443.461689	5973.018696
443.837057	6121.397498
444.212365	6272.543893
444.587612	6164.794271
444.962800	6323.492315
445.337927	6304.479603
445.712995	5912.660961
446.088002	6491.133365
446.462949	6322.254711
446.837837	6250.685450
447.212664	6419.251552
447.587431	6564.588018
447.962139	7110.308045
448.336786	8035.261473
448.711374	7778.439891
449.085901	6851.999322
449.460369	6770.188957
449.834776	6700.835283
450.209124	7099.169616
450.583412	7252.203923
450.957640	7393.696509
451.331808	7153.931670
451.705917	6711.625873
452.079965	6628.855168
452.453954	6843.179823
452.827883	6716.510751
453.201752	6810.523229
453.575562	6612.748681
453.949311	6815.297202
454.323001	6708.200409
454.696632	6780.740092
455.070202	6918.257728
455.443713	7077.532983
455.817164	7178.845052
456.190556	7258.676765
456.563888	7332.965728
456.937160	7371.439814
457.310373	7031.164450
457.683526	7056.052627
458.056619	6946.969619
458.429653	6935.092661
458.802628	6867.407609
459.175542	6983.550752
459.548398	7335.781213
459.921194	7497.042683
460.293930	7494.322981
460.666607	8029.433900
461.039224	8335.472267
461.411782	8456.036503
461.784280	8469.597207
462.156719	8368.547278
462.529099	8250.743074
462.901419	7838.192687
463.273680	7735.554795
463.645882	7742.246927
464.018024	7605.987059
464.390106	7774.044005
464.762130	8162.457347
465.134094	8629.666444
465.505999	9656.698197
465.877845	10878.378981
466.249631	11522.751869
466.621358	11139.248611
466.993026	10514.057313
467.364634	10250.972097
467.736184	9886.773938
468.107674	9560.780162
468.479105	9586.946271
468.850477	9353.064459
469.221790	9131.117579
469.593043	8801.065675
469.964238	8661.408069
470.335373	8670.789657
470.706449	8730.353410
471.077467	8716.633910
471.448425	10025.498930
471.819324	11091.587022
472.190164	11113.470670
472.560945	9866.016987
472.931667	9076.375689
473.302330	8942.757386
473.672934	8591.230167
474.043479	8948.542110
474.413965	8893.157473
474.784393	8781.475751
475.154761	8927.916229
475.525070	9015.249178
475.895321	8848.949075
476.265513	9019.788737
476.635645	9192.675108
477.005719	9189.476496
477.375734	9300.938928
477.745691	9542.505980
478.115588	9680.537813
478.485427	9915.798381
478.855207	10454.864085
479.224928	11269.711152
479.594591	11896.533262
479.964194	11708.097452
480.333739	11648.871456
480.703226	11565.021944
481.072653	11650.635860
481.442022	11897.342367
481.811333	12081.120151
482.180584	11882.433155
482.549777	11592.082858
482.918912	11419.471229
483.287988	11441.954776
483.657005	11450.073554
484.025964	11137.060750
484.394864	11264.617066
484.763706	11240.490103
485.132489	10986.678089
485.501213	10958.298914
485.869879	11030.120233
486.238487	10876.538960
486.607036	10989.054993
486.975527	10765.081569
487.343959	10956.564757
487.712333	11005.085863
488.080648	10935.984246
488.448905	10974.279372
488.817104	10914.687892
489.185244	11188.354490
489.553326	11338.227994
489.921350	11886.335008
490.289315	12933.861571
490.657222	13286.180252
491.025070	13188.200386
491.392861	13060.865881
491.760593	12687.344107
492.128267	12328.121566
492.495883	11998.445228
492.863440	11662.918631
493.230939	11326.585449
493.598380	11262.499781
493.965763	11131.676797
494.333088	11023.728050
494.700354	10953.620723
495.067563	11011.563745
495.434713	10844.860349
495.801805	10968.814761
496.168839	10897.933617
496.535815	10831.251755
496.902733	10831.604635
497.269593	10763.211301
497.636395	10862.322906
498.003139	10850.856802
498.369825	10720.807636
498.736453	10873.869669
499.103023	10804.697477
499.469535	10835.922384
499.835989	10820.032667
500.202385	10784.119487
500.568723	10637.810079
500.935003	10859.010868
501.301226	10663.406537
501.667390	10927.096692
502.033497	11022.961794
502.399546	10873.889834
502.765537	10786.448500
503.131470	10857.942144
503.497345	11032.310614
503.863163	10641.764864
504.228923	10955.644746
504.594625	11019.213696
504.960269	10767.375294
505.325856	10996.357105
505.691385	10781.755186
506.056856	10941.123703
506.422270	10959.516352
506.787625	10850.839158
507.152924	10964.018103
507.518164	10946.613519
507.883347	10871.432271
508.248472	10786.088057
508.613540	11020.506752
508.978550	10904.761860
509.343503	10885.678572
509.708398	10996.460448
510.073236	11113.800866
510.438016	11117.448141
510.802738	11061.148535
511.167403	11123.888215
511.532010	11013.587769
511.896561	11249.538974
512.261053	11321.836682
512.625488	11184.863491
512.989866	11168.182313
513.354186	11160.232413
513.718449	11058.940509
514.082655	11250.499314
514.446803	11151.808645
514.810894	11273.391194
515.174927	11141.068467
515.538904	11165.679380
515.902822	11314.400980
516.266684	11194.328258
516.630488	11140.934877
516.994235	11196.974863
517.357925	11255.265725
517.721558	11346.765188
518.085133	11365.707324
518.448651	11368.258148
518.812112	11252.546023
519.175516	11265.844587
519.538863	11391.185315
519.902152	11308.328911
520.265385	11463.752725
520.628560	11377.649817
520.991678	11358.069976
521.354739	11425.558423
521.717743	11359.836900
522.080690	11334.489978
522.443580	11472.415948
522.806413	11426.980028
523.169189	11455.702002
523.531908	11510.302739
523.894569	11337.247490
524.257174	11340.710762
524.619722	11449.889552
524.982213	11399.079762
525.344647	11447.260590
525.707025	11406.573437
526.069345	11501.826039
526.431608	11420.240005
526.793815	11531.165555
527.155964	11309.730351
527.518057	11367.660771
527.880093	11312.497945
528.242072	11379.313398
528.603995	11284.632967
528.965860	11212.524302
529.327669	11264.334761
529.689421	11212.914992
530.051117	11180.671772
530.412755	11283.609613
530.774337	11172.613487
531.135862	11161.354070
531.497331	11176.840495
531.858743	11029.001097
532.220098	11200.932169
532.581396	11060.916642
532.942638	11050.998171
533.303824	11012.677840
533.664953	11030.021930
534.026025	10947.664600
534.387040	11042.450895
534.747999	11046.665300
535.108902	11100.144380
535.469748	10868.112672
535.830537	10966.659668
536.191270	10943.946749
536.551947	10966.379883
536.912567	10963.387959
537.273131	10900.093752
537.633638	10865.030006
537.994089	10856.086999
538.354483	10807.878445
538.714821	10953.174581
539.075103	10960.380910
539.435328	10928.074676
539.795497	10757.388768
540.155609	10911.703529
540.515665	10997.803916
540.875665	10730.083359
541.235609	10796.198091
541.595496	10799.041302
541.955328	10951.594179
542.315102	10832.194450
542.674821	10788.812801
543.034483	10789.949581
543.394090	10793.206167
543.753640	10720.237985
544.113134	10947.009250
544.472571	10791.547627
544.831953	10939.424834
545.191278	10745.375699
545.550548	10768.335634
545.909761	10913.916595
546.268918	10886.984231
546.628019	10964.242434
546.987064	10834.410038
547.346053	10752.065310
547.704986	10851.272697
548.063863	10845.150216
548.422684	10825.303193
548.781449	10752.203942
549.140158	10852.623726
549.498811	10726.330220
549.857408	10580.250184
550.215949	10809.330297
550.574434	10665.347382
550.932864	10761.754408
551.291237	10820.267080
551.649555	10770.410069
552.007817	10787.149220
552.366022	10746.630946
552.724173	10741.516696
553.082267	10725.203522
553.440305	10861.571774
553.798288	10667.656230
554.156215	10813.040586
554.514086	10792.714654
554.871902	10635.360078
555.229661	10679.681903
555.587365	10657.531072
555.945014	10550.421677
556.302606	10675.908599
556.660143	10567.231404
557.017625	10717.551050
557.375050	10620.627306
557.732421	10753.658315
558.089735	10662.312607
558.446994	10666.204378
558.804197	10699.322238
559.161345	10706.636952
559.518437	10552.506194
559.875474	10643.163784
560.232455	10666.718575
560.589381	10619.646801
560.946251	10613.035328
561.303065	10729.493544
561.659825	10663.338482
562.016528	10586.070196
562.373177	10468.460077
562.729770	10579.413352
563.086307	10504.902578
563.442789	10598.783986
563.799216	10473.959976
564.155587	10517.810452
564.511904	10473.085336
564.868164	10468.339089
565.224370	10485.458848
565.580520	10410.975800
565.936615	10407.797352
566.292654	10278.277507
566.648638	10408.336756
567.004567	10365.154232
567.360441	10355.785247
567.716260	10260.688921
568.072023	10350.877684
568.427732	10310.009050
568.783385	10213.591941
569.138982	10288.105236
569.494525	10302.354058
569.850013	10180.348052
570.205445	10266.408110
570.560823	10159.628910
570.916145	10075.633205
571.271412	10145.508638
571.626625	10083.177291
571.981782	10067.867307
572.336884	10043.074913
572.691931	10048.315192
573.046923	9995.793931
573.401860	9950.045459
573.756743	9887.484740
574.111570	9926.606615
574.466342	9913.734028
574.821059	9946.902300
575.175722	9828.490637
575.530330	9844.569397
575.884882	9833.693108
576.239380	9756.979349
576.593823	9743.257329
576.948211	9758.458928
577.302544	9635.522830
577.656823	9651.578905
578.011047	9654.157455
578.365216	9620.175037
578.719330	9550.410509
579.073389	9553.568792
579.427394	9509.700671
579.781344	9485.094799
580.135239	9434.864742
580.489080	9439.109394
580.842866	9347.337708
581.196597	9350.070014
581.550273	9386.071414
581.903895	9364.273465
582.257463	9423.585160
582.610975	9301.657293
582.964434	9327.334410
583.317837	9250.073686
583.671186	9236.129855
584.024481	9228.242969
584.377721	9148.514601
584.730906	9125.219429
585.084037	9153.636413
585.437113	9084.678470
585.790135	9114.411195
586.143103	9014.442594
586.496016	8980.838262
586.848874	9045.969970
587.201679	9026.843832
587.554428	8914.496678
587.907124	8959.002504
588.259765	8931.830685
588.612352	8940.075492
588.964884	8812.877098
589.317362	8825.416968
589.669786	8821.361360
590.022155	8881.398982
590.374470	8888.290239
590.726731	8827.451074
591.078937	8677.867437
591.431090	8793.514026
591.783188	8664.485694
592.135232	8659.709200
592.487222	8660.218357
592.839157	8710.733239
593.191038	8641.384606
593.542866	8588.669260
593.894639	8493.182245
594.246358	8536.011888
594.598022	8560.859735
594.949633	8451.938045
595.301190	8430.644211
595.652692	8452.661450
596.004141	8566.525992
596.355535	8344.284204
596.706876	8327.484559
597.058162	8254.223991
597.409395	8338.607865
597.760573	8399.346207
598.111698	8305.527813
598.462768	8295.238818
598.813785	8262.844364
599.164748	8223.067139
599.515657	8221.970688
599.866511	8127.333107
600.217312	8249.049246
600.568060	8114.397507
600.918753	8212.770583
601.269392	8184.615738
601.619978	8096.773633
601.970510	8161.040783
602.320988	8161.035741
602.671412	8213.156231
603.021783	8146.416395
603.372100	8126.697922
603.722363	8124.804969
604.072572	8098.417049
604.422728	8112.139070
604.772830	8044.806898
605.122878	8053.147487
605.472872	8041.905714
605.822813	8072.318995
606.172701	8018.807147
606.522534	8089.577386
606.872314	8097.607944
607.222041	8061.939260
607.571714	8116.565203
607.921333	8072.918893
608.270899	8078.620438
608.620411	8163.735279
608.969870	8070.587359
609.319276	8068.643994
609.668627	8082.570182
610.017926	8119.935214
610.367171	8163.848705
610.716362	8141.851630
611.065500	8135.335939
611.414585	8158.366450
611.763616	8149.824215
612.112594	8131.149261
612.461518	8148.616859
612.810389	8205.420580
613.159207	8148.289184
613.507971	8098.061647
613.856682	8216.596818
614.205340	8169.530086
614.553945	8252.280626
614.902496	8153.491655
615.250994	8197.916823
615.599439	8184.230090
615.947830	8195.539919
616.296169	8169.346083
616.644454	8180.257661
616.992686	8176.776744
617.340864	8238.266218
617.688990	8141.816342
618.037063	8232.710867
618.385082	8185.233280
618.733048	8267.870394
619.080961	8206.995941
619.428821	8227.513437
619.776628	8230.144919
620.124382	8178.914193
620.472083	8166.661669
620.819731	8193.619239
621.167326	8082.025737
621.514868	8093.068385
621.862357	7977.411712
622.209793	7999.076071
622.557176	7931.055782
622.904506	7902.764827
623.251783	7835.233530
623.599007	7787.816437
623.946179	7792.618136
624.293297	7749.528873
624.640363	7669.213210
624.987376	7650.397104
625.334336	7600.333405
625.681243	7542.798716
626.028097	7535.975514
626.374899	7514.621187
626.721647	7510.114395
627.068343	7436.100174
627.414987	7408.522542
627.761577	7369.509052
628.108115	7401.225472
628.454600	7299.462220
628.801032	7346.859148
629.147412	7301.236706
629.493739	7292.712115
629.840014	7230.978145
630.186236	7286.418234
630.532405	7172.803229
630.878521	7224.069243
631.224585	7181.889909
631.570597	7105.498784
631.916556	7137.366438
632.262462	7134.089688
632.608316	7093.891528
632.954117	7074.233548
633.299866	7057.315436
633.645562	7049.804117
633.991206	6976.057077
634.336797	6916.137923
634.682336	6873.260388
635.027823	6840.984401
635.373257	6828.240364
635.718639	6763.015395
636.063968	6774.650378
636.409245	6667.309089
636.754470	6665.204408
637.099642	6625.033973
637.444762	6566.687658
637.789829	6581.380101
638.134845	6524.094950
638.479808	6504.910839
638.824719	6507.817064
639.169577	6435.683193
639.514383	6458.353262
639.859137	6388.553446
640.203839	6395.442183
640.548489	6384.260904
640.893086	6358.515731
641.237632	6328.909034
641.582125	6351.011973
641.926566	6319.408980
642.270955	6333.713254
642.615292	6329.884498
642.959576	6344.841601
643.303809	6339.336661
643.647990	6338.714079
643.992118	6332.054714
644.336195	6273.269819
644.680219	6304.038502
645.024192	6292.327902
645.368112	6388.810545
645.711981	6410.361478
646.055797	6484.620194
646.399562	6441.795592
646.743274	6571.007927
647.086935	6621.921061
647.430544	6615.748168
647.774101	6638.027547
648.117606	6645.790924
648.461059	6636.212732
648.804460	6596.188491
649.147810	6505.777917
649.491108	6481.010728
649.834354	6456.866122
650.177548	6369.442432
650.520690	6280.471108
650.863781	6265.844200
651.206820	6279.339369
651.549807	6200.586463
651.892742	6146.943545
652.235626	6154.807745
652.578458	6138.479448
652.921238	6049.014091
653.263967	6085.333083
653.606644	6023.616757
653.949269	6030.623961
654.291843	5971.161031
654.634365	6016.062588
654.976836	5972.070959
655.319255	5971.839066
655.661622	5950.063802
656.003938	5944.878976
656.346203	5905.396659
656.688416	5938.252379
657.030577	5887.936622
657.372687	5861.057190
657.714746	5847.559501
658.056753	5887.429986
658.398708	5827.904042
658.740612	5820.624616
659.082465	5867.376276
659.424266	5857.392271
659.766016	5865.503488
660.107715	5835.090207
660.449362	5853.293813
660.790958	5844.222257
661.132503	5832.741029
661.473996	5869.738057
661.815438	5856.036201
662.156829	5855.237178
662.498168	5842.641855
662.839456	5822.469678
663.180693	5853.616447
663.521879	5856.883115
663.863013	5845.737123
664.204097	5865.417788
664.545129	5907.014869
664.886110	5899.367439
665.227040	5936.767759
665.567918	5896.065483
665.908746	5927.653353
666.249522	5929.763076
666.590248	5914.231281
666.930922	5948.821158
667.271545	5961.454289
667.612118	5962.517973
667.952639	5935.817502
668.293109	5955.425069
668.633528	5915.904944
668.973896	5920.194966
669.314213	5906.283902
669.654480	5888.211365
669.994695	5886.489811
670.334859	5874.983378
670.674973	5867.935844
671.015035	5871.784765
671.355047	5870.506833
671.695008	5858.541654
672.034918	5832.778838
672.374777	5841.071536
672.714585	5826.482436
673.054342	5826.500080
673.394049	5820.853988
673.733705	5857.218351
674.073310	5842.689746
674.412864	5800.134846
674.752368	5794.143434
675.091820	5796.951357
675.431223	5732.868209
675.770574	5735.965998
676.109875	5688.319533
676.449125	5689.627712
676.788324	5653.971631
677.127473	5596.625986
677.466571	5588.759265
677.805619	5575.990022
678.144616	5566.779834
678.483562	5545.884252
678.822458	5517.003481
679.161303	5512.322770
679.500098	5498.630996
679.838842	5482.451413
680.177535	5487.721939
680.516179	5502.815154
680.854771	5514.329149
681.193314	5597.495585
681.531805	5704.446184
681.870247	5853.061920
682.208638	5958.119566
682.546978	5963.236337
682.885268	5948.191014
683.223508	5858.448393
683.561697	5807.394107
683.899836	5778.783039
684.237925	5732.341409
684.575963	5696.806315
684.913951	5655.610006
685.251889	5719.693154
685.589776	5687.104615
685.927614	5658.337270
686.265401	5728.530297
686.603137	5719.025201
686.940824	5787.302589
687.278460	5811.916022
687.616046	5825.874977
687.953582	5891.777982
688.291068	5873.188727
688.628504	5935.845228
688.965889	5898.996914
689.303224	5837.769580
689.640510	5797.871368
689.977745	5720.068720
690.314930	5621.352845
690.652065	5562.578032
690.989150	5470.907170
691.326185	5394.730295
691.663170	5341.573848
692.000105	5266.745481
692.336990	5184.496535
692.673825	5163.487527
693.010610	5091.714099
693.347345	5027.315879
693.684030	5008.749309
694.020665	4966.963185
694.357251	4877.424731
694.693786	4889.284045
695.030272	4859.231207
695.366707	4821.195701
695.703093	4788.861740
696.039429	4809.061644
696.375716	4789.423829
696.711952	4765.614459
697.048139	4753.245988
697.384276	4732.557093
697.720363	4749.381944
698.056400	4756.885701
698.392388	4706.645562
698.728326	4686.959856
699.064214	4661.055887
699.400053	4655.142614
699.735842	4621.762614
700.071581	4600.206640
700.407270	4573.770829
700.742910	4555.773910
701.078501	4498.665198
701.414042	4499.136546
701.749533	4469.605467
702.084974	4403.422679
702.420366	4461.670691
702.755709	4404.506527
703.091002	4347.559133
703.426246	4394.893047
703.761440	4352.403681
704.096584	4317.009740
704.431679	4337.675950
704.766725	4319.464782
705.101721	4306.299809
705.436668	4336.587061
705.771565	4281.588073
706.106413	4312.331549
706.441212	4346.182898
706.775961	4355.821584
707.110661	4332.332327
707.445311	4363.695866
707.779913	4382.282600
708.114465	4397.932862
708.448967	4418.009257
708.783421	4480.925378
709.117825	4522.101523
709.452180	4526.583108
709.786485	4573.148247
710.120742	4661.658305
710.454949	4643.000995
710.789107	4708.329307
711.123216	4785.383344
711.457275	4775.515285
711.791286	4850.825083
712.125247	4866.114902
712.459159	4766.962968
712.793023	4845.209237
713.126837	4800.405982
713.460602	4791.558757
713.794318	4715.775092
714.127985	4724.415629
714.461602	4636.392042
714.795171	4608.562352
715.128691	4542.387126
715.462162	4484.907890
715.795584	4436.220426
716.128957	4419.763579
716.462281	4368.104355
716.795556	4345.008309
717.128782	4304.177483
717.461960	4231.199219
717.795088	4245.269080
718.128167	4202.383984
718.461198	4146.233092
718.794180	4139.470384
719.127113	4119.663691
719.459997	4100.129219
719.792833	4056.593815
720.125619	4043.958163
720.458357	4011.999768
720.791046	4020.733567
721.123686	3990.418588
721.456278	3947.561219
721.788821	3966.344558
722.121315	3936.064867
722.453761	3912.305909
722.786158	3922.433587
723.118506	3949.386117
723.450805	3898.871234
723.783056	3920.182712
724.115259	3936.826082
724.447412	3942.210034
724.779518	3931.754681
725.111574	3939.465126
725.443582	3968.867656
725.775542	3955.710244
726.107453	4005.584900
726.439315	4009.396012
726.771129	4020.806664
727.102895	4055.794792
727.434612	4105.261114
727.766281	4115.698823
728.097901	4116.598669
728.429473	4123.187457
728.760996	4129.685504
729.092471	4123.023620
729.423897	4102.833798
729.755276	4112.812762
730.086606	4113.896611
730.417887	4153.857837
730.749120	4219.173547
731.080305	4284.257364
731.411442	4310.496569
731.742530	4281.073875
732.073570	4282.019091
732.404562	4337.628059
732.735506	4326.887881
733.066401	4290.621820
733.397249	4226.856265
733.728048	4146.165036
734.058798	4065.403231
734.389501	3994.136439
734.720156	3930.751491
735.050762	3889.681211
735.381320	3883.586456
735.711831	3830.682067
736.042293	3803.094353
736.372707	3822.159996
736.703073	3795.225111
737.033391	3787.655819
737.363661	3802.121410
737.693883	3824.418433
738.024056	3838.926874
738.354182	3832.557376
738.684260	3896.126326
739.014290	3916.487547
739.344272	3914.385385
739.674207	3953.741673
740.004093	3963.219043
740.333931	3952.559523
740.663722	3953.724029
740.993464	3957.555306
741.323159	3928.097324
741.652806	3900.073550
741.982405	3870.245042
742.311956	3840.524920
742.641460	3830.372036
742.970915	3807.994354
743.300323	3766.084722
743.629683	3733.100452
743.958996	3719.426322
744.288260	3694.598639
744.617477	3664.157632
744.946647	3648.096516
745.275768	3624.491313
745.604842	3621.259933
745.933869	3576.751586
746.262847	3564.995615
746.591778	3603.452057
746.920662	3575.302254
747.249498	3545.146072
747.578286	3584.111671
747.907027	3607.573201
748.235720	3604.593879
748.564365	3630.767549
748.892963	3629.436685
749.221514	3610.018160
749.550017	3588.744491
749.878473	3588.517639
750.206881	3555.513205
750.535242	3553.940365
750.863555	3558.694173
751.191821	3551.185374
751.520039	3531.144267
751.848210	3507.498735
752.176334	3542.350752
752.504411	3549.254612
752.832440	3508.181811
753.160421	3494.116992
753.488356	3504.499248
753.816243	3515.078110
754.144082	3467.051037
754.471875	3456.283133
754.799620	3475.787357
755.127318	3466.158753
755.454969	3465.725214
755.782572	3471.036069
756.110129	3450.256433
756.437638	3437.149433
756.765100	3450.952112
757.092515	3462.148515
757.419882	3467.734113
757.747203	3442.069599
758.074477	3445.719395
758.401703	3461.677167
758.728882	3484.001917
759.056014	3483.742298
759.383099	3494.172445
759.710138	3487.553410
760.037129	3505.469671
760.364073	3536.737427
760.690970	3520.489788
761.017820	3498.868280
761.344623	3515.539375
761.671379	3559.904050
761.998088	3612.672328
762.324751	3742.451792
762.651366	3987.446828
762.977935	4465.844766
763.304456	4912.173404
763.630931	5005.021376
763.957359	4644.142816
764.283740	4298.964930
764.610074	4104.567955
764.936362	3907.720980
765.262602	3750.396651
765.588796	3638.112511
765.914943	3546.194632
766.241044	3458.657516
766.567097	3429.814554
766.893104	3384.487019
767.219064	3354.303111
767.544978	3323.095848
767.870845	3269.669699
768.196665	3249.550454
768.522438	3256.358533
768.848165	3251.687904
769.173846	3217.662636
769.499479	3200.275696
769.825066	3184.514529
770.150607	3168.256807
770.476101	3182.372038
770.801548	3180.078313
771.126949	3130.695170
771.452303	3116.277470
771.777611	3120.496916
772.102872	3125.026393
772.428087	3102.336159
772.753256	3092.331989
773.078378	3084.601380
773.403453	3049.552758
773.728482	3037.564894
774.053465	3059.342679
774.378401	3044.768703
774.703291	3015.817356
775.028135	3016.056811
775.352932	3013.730319
775.677683	2997.064264
776.002388	2995.146105
776.327046	2996.131651
776.651658	2987.649909
776.976224	2975.631798
777.300743	2977.822180
777.625216	2967.714666
777.949643	2962.040848
778.274024	2963.633852
778.598359	2953.687656
778.922647	2957.438274
779.246889	2954.239662
779.571086	2942.282045
779.895236	2935.473967
780.219339	2946.050308
780.543397	2957.788634
780.867409	2963.734675
781.191374	2952.177830
781.515294	2954.937862
781.839167	2954.282512
782.162995	2943.476799
782.486776	2953.284363
782.810511	2952.417285
783.134201	2935.383226
783.457844	2941.447734
783.781441	2932.850046
784.104993	2917.139290
784.428498	2915.450504
784.751958	2927.713111
785.075372	2924.343099
785.398739	2903.979358
785.722061	2923.574323
786.045337	2934.692588
786.368568	2918.649116
786.691752	2910.018661
787.014891	2958.401135
787.337983	2988.937924
787.661030	3016.364322
787.984031	3084.818150
788.306987	3128.925725
788.629897	3122.624283
788.952760	3107.715070
789.275579	3091.361567
789.598351	3033.191693
789.921078	2988.027996
790.243759	2980.004999
790.566395	2964.299285
790.888984	2938.849019
791.211529	2921.464600
791.534027	2909.169226
791.856480	2901.612537
792.178888	2887.638458
792.501249	2878.415667
792.823566	2878.755945
793.145836	2873.180429
793.468062	2869.258411
793.790241	2865.906044
794.112375	2871.839482
794.434464	2884.749877
794.756507	2889.904457
795.078505	2898.345869
795.400457	2912.032602
795.722364	2945.725153
796.044226	2972.440748
796.366042	2972.619709
796.687812	2962.456743
797.009538	2982.195381
797.331218	2971.016622
797.652852	2956.838377
797.974442	2935.461364
798.295986	2934.064964
798.617484	2928.749068
798.938938	2911.959505
799.260346	2899.883421
799.581709	2893.705487
799.903026	2885.848848
800.224299	2879.733929
800.545526	2868.862681
800.866708	2853.126719
801.187845	2842.636078
801.508936	2846.215297
801.829983	2852.796523
802.150984	2842.731860
802.471940	2826.847184
802.792851	2825.808706
803.113717	2829.100580
803.434538	2833.488904
803.755314	2824.064467
804.076045	2821.226297
804.396731	2818.574650
804.717372	2821.909374
805.037967	2812.810091
805.358518	2820.011379
805.679024	2833.017556
805.999485	2828.414983
806.319901	2835.717094
806.640272	2825.574292
806.960598	2831.795076
807.280879	2837.801611
807.601115	2848.196470
807.921306	2829.256855
808.241453	2828.898933
808.561554	2835.560818
808.881611	2836.412773
809.201623	2831.525375
809.521590	2828.772905
809.841513	2824.530774
810.161390	2832.447906
810.481223	2827.026145
810.801011	2816.406954
811.120755	2810.957467
811.440453	2813.203301
811.760107	2811.529638
812.079716	2812.568116
812.399281	2801.182670
812.718801	2794.606484
813.038276	2789.277985
813.357707	2796.396094
813.677093	2805.691982
813.996434	2796.829633
814.315731	2793.189920
814.634983	2788.521812
814.954191	2788.844446
815.273354	2804.681230
815.592473	2810.965029
815.911547	2815.219762
816.230577	2823.232677
816.549562	2832.198369
816.868502	2830.900272
817.187399	2839.903772
817.506250	2857.958665
817.825058	2850.785103
818.143821	2862.462936
818.462539	2880.585884
818.781213	2908.249216
819.099843	2942.972683
819.418429	3003.642970
819.736970	3065.344172
820.055466	3138.723208
820.373919	3242.286152
820.692327	3386.904253
821.010691	3556.871796
821.329011	4003.412162
821.647286	4911.742386
821.965517	6306.816178
822.283704	7064.569656
822.601847	7045.395628
822.919945	6405.663122
823.237999	5889.660697
823.556010	5303.046830
823.873976	4739.574379
824.191897	4328.521215
824.509775	4030.548693
824.827609	3755.188268
825.145398	3631.390132
825.463144	3616.173409
825.780845	3708.388716
826.098502	3816.871826
826.416116	4101.243314
826.733685	4422.692489
827.051210	4490.702696
827.368692	4372.228019
827.686129	4102.430506
828.003522	3769.366513
828.320872	3513.495187
828.638177	3313.202583
828.955439	3176.143693
829.272656	3091.303594
829.589830	3020.971936
829.906960	2972.138279
830.224046	2928.111362
830.541088	2893.455950
830.858086	2876.505070
831.175041	2860.012935
831.491952	2860.512009
831.808819	2874.022302
832.125642	2898.144223
832.442421	2942.866819
832.759157	3024.331865
833.075849	3207.340873
833.392497	3487.157679
833.709101	3699.160884
834.025662	3648.010816
834.342179	3488.314624
834.658653	3307.140596
834.975083	3154.323058
835.291469	3054.856052
835.607811	2973.045687
835.924110	2913.711306
836.240366	2858.873634
836.556578	2816.003662
836.872746	2796.096145
837.188871	2771.969183
837.504952	2754.799013
837.820990	2749.800709
838.136984	2730.356979
838.452935	2725.459498
838.768842	2724.121071
839.084706	2740.714029
839.400526	2819.852583
839.716303	2954.174127
840.032037	3034.933412
840.347727	3022.144004
840.663373	2961.934983
840.978977	2885.080072
841.294537	2808.676345
841.610054	2761.821340
841.925527	2738.448031
842.240957	2718.825339
842.556344	2696.919005
842.871687	2679.471572
843.186987	2670.034532
843.502244	2666.120076
843.817458	2660.297543
844.132629	2647.830770
844.447756	2637.995478
844.762840	2635.033801
845.077881	2636.596558
845.392879	2636.936836
845.707833	2629.254118
846.022745	2622.798920
846.337613	2626.040382
846.652438	2624.848149
846.967221	2626.645321
847.281960	2622.136008
847.596656	2621.296656
847.911309	2620.411934
848.225919	2616.116871
848.540485	2613.636623
848.855009	2615.033023
849.169490	2614.259206
849.483928	2616.310955
849.798323	2613.339195
850.112675	2610.306941
850.426984	2613.830707
850.741251	2611.068155
851.055474	2613.235851
851.369654	2615.229628
851.683792	2615.040584
851.997887	2613.956736
852.311938	2613.167796
852.625947	2611.516818
852.939914	2614.221397
853.253837	2614.818774
853.567718	2612.462034
853.881555	2610.077568
854.195350	2612.025974
854.509103	2614.203753
854.822812	2610.785851
855.136479	2611.741149
855.450103	2612.802312
855.763685	2618.546707
856.077224	2609.586056
856.390720	2608.275356
856.704173	2612.572940
857.017584	2614.821294
857.330953	2616.706686
857.644278	2620.742129
857.957561	2619.428909
858.270802	2614.773403
858.584000	2614.382714
858.897155	2620.437140
859.210268	2617.694752
859.523339	2612.240223
859.836367	2609.938937
860.149352	2611.295007
860.462295	2610.735439
860.775195	2609.926334
861.088054	2608.766868
861.400869	2608.345932
861.713642	2606.581528
862.026373	2604.670931
862.339062	2611.247116
862.651708	2613.891201
862.964312	2615.842128
863.276873	2613.248454
863.589392	2616.011007
863.901869	2619.295318
864.214303	2627.250259
864.526696	2630.118676
864.839045	2632.072123
865.151353	2630.884931
865.463619	2632.528347
865.775842	2634.224695
866.088023	2632.901392
866.400162	2635.999182
866.712258	2632.891310
867.024313	2631.086577
867.336325	2628.197996
867.648296	2628.671864
867.960224	2635.916002
868.272110	2634.174284
868.583954	2626.670526
868.895755	2629.846453
869.207515	2633.264356
869.519233	2640.178298
869.830909	2634.688482
870.142542	2631.084057
870.454134	2632.825775
870.765684	2639.936323
871.077191	2643.155099
871.388657	2645.655512
871.700081	2642.131745
872.011463	2643.928917
872.322803	2643.117291
872.634101	2648.889412
872.945357	2654.177582
873.256571	2661.600681
873.567744	2657.915598
873.878874	2654.928714
874.189963	2657.865186
874.501010	2664.431289
874.812015	2668.191990
875.122979	2665.547905
875.433900	2659.274189
875.744780	2657.086328
876.055618	2667.035045
876.366415	2671.572084
876.677169	2668.270128
876.987882	2662.422389
877.298554	2662.835764
877.609183	2671.020077
877.919771	2678.291942
878.230317	2685.543642
878.540822	2696.591330
878.851285	2713.998434
879.161707	2734.460478
879.472087	2775.974380
879.782425	2824.135043
880.092722	2940.285748
880.402977	3132.983854
880.713191	3398.403125
881.023363	3702.450237
881.333494	3897.726892
881.643583	4072.097883
881.953631	4067.404569
882.263637	3889.986201
882.573602	3666.395904
882.883526	3533.531253
883.193408	3413.660177
883.503248	3310.210659
883.813048	3190.037113
884.122806	3076.369176
884.432522	2989.774756
884.742197	2922.477872
885.051831	2881.021944
885.361424	2846.343846
885.670975	2806.344811
885.980485	2780.002262
886.289954	2759.094076
886.599382	2741.447517
886.908768	2733.762278
887.218113	2717.544886
887.527417	2701.352700
887.836680	2689.790814
888.145901	2687.247552
888.455082	2677.639112
888.764221	2667.723163
889.073319	2659.009528
889.382376	2658.049188
889.691392	2659.490958
890.000366	2661.772081
890.309300	2657.522388
890.618193	2660.605053
890.927044	2663.985147
891.235855	2661.784683
891.544625	2660.514313
891.853353	2661.545229
892.162041	2666.306598
892.470687	2687.192099
892.779293	2701.856815
893.087858	2712.415512
893.396381	2737.555746
893.704864	2778.142076
894.013306	2851.180833
894.321707	2945.770524
894.630068	3000.235150
894.938387	3017.170906
895.246665	3010.078003
895.554903	2965.657876
895.863100	2920.685742
896.171256	2861.495034
896.479371	2799.090591
896.787446	2759.557862
897.095480	2739.113463
897.403473	2732.098697
897.711425	2717.040771
898.019336	2699.419417
898.327207	2686.209074
898.635038	2682.962571
898.942827	2680.053825
899.250576	2673.868329
899.558284	2661.847698
899.865952	2654.976605
900.173579	2653.645741
900.481165	2646.870430
900.788711	2643.603762
901.096216	2636.699902
901.403681	2631.991464
901.711105	2633.050107
902.018489	2629.775877
902.325832	2634.925416
902.633135	2636.157978
902.940397	2653.083652
903.247619	2688.611184
903.554800	2759.091556
903.861941	2894.381001
904.169041	3025.730785
904.476101	3086.149014
904.783121	3081.768252
905.090100	3022.927904
905.397039	2944.679114
905.703938	2868.716487
906.010796	2805.084523
906.317614	2750.929927
906.624391	2712.037426
906.931129	2685.863755
907.237826	2663.226453
907.544483	2642.134266
907.851099	2627.028448
908.157675	2619.007973
908.464211	2613.830707
908.770707	2601.348811
909.077163	2596.340424
909.383578	2594.104672
909.689954	2593.439240
909.996289	2586.764752
910.302584	2588.077973
910.608839	2589.436564
910.915054	2587.072263
911.221229	2589.890268
911.527363	2592.672985
911.833458	2590.104517
912.139513	2590.669126
912.445527	2594.931422
912.751502	2599.859150
913.057436	2603.153544
913.363331	2610.858947
913.669186	2622.592233
913.975000	2635.094294
914.280775	2654.583395
914.586510	2675.269770
914.892205	2709.768906
915.197859	2780.647529
915.503475	2864.555015
915.809050	2937.034204
916.114585	2952.981894
916.420081	2966.008236
916.725536	2977.252529
917.030952	2947.933179
917.336328	2898.900396
917.641665	2850.283508
917.946961	2797.580765
918.252218	2763.121958
918.557435	2732.519634
918.862612	2709.042980
919.167750	2692.122347
919.472848	2676.272960
919.777906	2658.671771
920.082925	2645.438742
920.387904	2635.074130
920.692843	2630.731176
920.997743	2624.654065
921.302603	2619.633076
921.607423	2612.522528
921.912204	2606.397526
922.216946	2605.202773
922.521647	2600.539705
922.826310	2598.626587
923.130932	2595.397728
923.435516	2587.261306
923.740059	2583.775348
924.044564	2584.130750
924.349028	2583.598908
924.653454	2572.687330
924.957840	2572.248750
925.262186	2567.240364
925.566493	2572.137845
925.870761	2565.135682
926.174989	2566.010322
926.479178	2565.649880
926.783328	2561.322049
927.087438	2560.933880
927.391509	2559.955896
927.695541	2559.691236
927.999533	2557.846173
928.303486	2555.461708
928.607400	2555.136553
928.911275	2555.620504
929.215110	2556.343910
929.518906	2554.657644
929.822663	2554.539177
930.126381	2555.814588
930.430060	2554.720658
930.733699	2555.355843
931.037299	2555.943138
931.340861	2554.516491
931.644383	2553.475493
931.947866	2555.093703
932.251309	2553.404917
932.554714	2554.897098
932.858080	2557.911708
933.161407	2554.599670
933.464694	2554.874413
933.767943	2553.006666
934.071153	2555.847356
934.374323	2551.275029
934.677455	2552.474824
934.980548	2554.193857
935.283602	2551.562375
935.586617	2553.629248
935.889593	2552.174875
936.192530	2551.312838
936.495428	2553.125133
936.798287	2551.877447
937.101108	2554.304763
937.403890	2558.577141
937.706632	2561.196020
938.009336	2562.688202
938.312002	2569.718091
938.614628	2571.343863
938.917216	2574.913000
939.219765	2576.614389
939.522275	2576.901735
939.824747	2577.874678
940.127179	2571.575756
940.429573	2567.590724
940.731929	2566.111145
941.034246	2565.685168
941.336524	2565.864129
941.638763	2566.521999
941.940964	2566.990827
942.243126	2566.527040
942.545250	2562.557132
942.847335	2560.046637
943.149381	2561.344734
943.451389	2560.775084
943.753359	2558.821637
944.055290	2555.207129
944.357182	2556.734599
944.659036	2554.367777
944.960851	2554.312325
945.262628	2553.767880
945.564367	2557.090000
945.866067	2554.367777
946.167729	2557.107644
946.469352	2554.627397
946.770937	2557.939435
947.072484	2553.465411
947.373992	2556.537994
947.675462	2555.454146
947.976893	2556.376677
948.278286	2554.370298
948.579641	2553.389793
948.880958	2551.698486
949.182236	2554.128323
949.483476	2552.182437
949.784678	2551.262427
950.085841	2554.879454
950.386967	2550.813764
950.688054	2552.298384
950.989103	2555.176882
951.290114	2554.768549
951.591087	2555.736451
951.892021	2555.444064
952.192917	2555.179403
952.493776	2560.472615
952.794596	2561.120403
953.095378	2559.361040
953.396122	2559.890361
953.696828	2557.218550
953.997496	2556.167469
954.298126	2555.260062
954.598718	2554.773590
954.899272	2554.377860
955.199788	2549.379556
955.500266	2551.363250
955.800706	2546.029709
956.101108	2545.175233
956.401472	2544.862682
956.701798	2543.025181
957.002087	2539.468647
957.302337	2545.195398
957.602550	2545.606252
957.902724	2544.066179
958.202861	2541.154913
958.502960	2543.604914
958.803022	2541.197763
959.103045	2540.113915
959.403031	2541.326312
959.702979	2540.088709
960.002889	2540.572660
960.302762	2535.599562
960.602596	2540.411343
960.902393	2540.401261
961.202153	2538.745242
961.501875	2538.478060
961.801559	2536.605272
962.101205	2535.193749
962.400814	2538.190715
962.700385	2536.219623
962.999918	2537.159799
963.299414	2536.945550
963.598873	2537.056455
963.898293	2535.705426
964.197677	2536.859850
964.497022	2538.306661
964.796331	2536.464119
965.095601	2534.747607
965.394835	2537.560570
965.694030	2537.880684
965.993189	2540.111394
966.292309	2535.100487
966.591393	2535.972607
966.890439	2535.700385
967.189447	2536.471681
967.488419	2535.876825
967.787353	2535.851619
968.086249	2535.057638
968.385108	2535.029911
968.683930	2536.020498
968.982714	2535.090405
969.281462	2536.685930
969.580172	2535.377751
969.878844	2536.960673
970.177480	2535.952442
970.476078	2537.578214
970.774639	2539.082999
971.073162	2536.965714
971.371649	2533.691485
971.670098	2530.437420
971.968510	2535.039993
972.266885	2534.450178
972.565223	2535.145858
972.863524	2536.753986
973.161788	2535.718029
973.460014	2535.891948
973.758204	2538.478060
974.056356	2535.307175
974.354471	2539.123328
974.652550	2538.495704
974.950591	2536.587628
975.248595	2538.747762
975.546563	2536.665766
975.844493	2536.953111
976.142386	2535.728111
976.440243	2535.120652
976.738062	2534.745086
977.035845	2535.516382
977.333590	2536.028060
977.631299	2537.973945
977.928971	2534.969417
978.226606	2537.454706
978.524204	2536.980838
978.821765	2535.828934
979.119290	2536.930426
979.416777	2535.075282
979.714228	2535.435724
980.011642	2537.016126
980.309020	2537.802546
980.606360	2535.229037
980.903664	2537.011085
981.200931	2535.390354
981.498162	2538.009233
981.795356	2538.702392
982.092513	2543.685572
982.389633	2545.034081
982.686717	2547.410985
982.983764	2553.190668
983.280775	2553.581357
983.577749	2553.304094
983.874686	2552.310987
984.171587	2549.460214
984.468451	2544.716488
984.765279	2542.793288
985.062070	2543.620037
985.358824	2542.876467
985.655543	2538.956970
985.952224	2538.982176
986.248869	2537.616023
986.545478	2534.792977
986.842050	2533.008408
987.138586	2532.337935
987.435086	2530.966741
987.731549	2529.230064
988.027975	2533.888090
988.324366	2532.779036
988.620719	2533.257946
988.917037	2534.200641
989.213318	2533.338604
989.509563	2532.975641
989.805772	2534.619057
990.101944	2533.961187
990.398080	2531.120496
990.694180	2532.446320
990.990244	2529.472039
991.286271	2530.749972
991.582262	2534.498069
991.878217	2528.098325
992.174136	2532.514375
992.470019	2530.906247
992.765865	2532.552184
993.061676	2535.841537
993.357450	2532.267359
993.653188	2531.667462
993.948890	2535.428162
994.244556	2532.597554
994.540186	2532.683254
994.835780	2534.593851
995.131337	2533.366330
995.426859	2535.720549
995.722345	2534.964376
996.017795	2535.891948
996.313208	2534.843388
996.608586	2536.953111
996.903928	2535.932278
997.199234	2534.697195
997.494504	2535.859181
997.789738	2537.502597
998.084936	2535.977648
998.380099	2536.514531
998.675225	2533.295754
998.970316	2533.091587
999.265371	2532.688295
999.560390	2533.729293
999.855373	2533.018491
1000.150320	2532.532019
1000.445232	2532.221988
1000.740108	2532.869777
1001.034948	2534.024201
1001.329752	2531.675023
1001.624521	2532.768954
1001.919254	2526.114631
1002.213951	2529.759385
1002.508613	2528.289888
1002.803239	2528.536905
1003.097829	2527.208561
1003.392384	2531.879190
1003.686903	2530.901206
1003.981386	2531.954807
1004.275834	2530.011443
1004.570246	2531.647297
1004.864623	2530.150074
1005.158964	2532.506814
1005.453270	2531.165867
1005.747540	2530.039169
1006.041775	2530.422297
1006.335974	2529.194776
1006.630138	2529.106555
1006.924266	2530.623943
1007.218359	2530.732328
1007.512416	2530.427338
1007.806438	2532.678213
1008.100425	2530.311391
1008.394376	2530.296268
1008.688292	2530.654190
1008.982172	2530.863397
1009.276017	2528.559590
1009.569827	2530.991947
1009.863602	2531.541433
1010.157341	2531.969931
1010.451045	2529.144364
1010.744714	2529.396422
1011.038347	2528.824251
1011.331945	2528.748633
1011.625508	2530.392050
1011.919036	2532.229550
1012.212528	2529.741741
1012.505986	2529.315763
1012.799408	2531.022194
1013.092795	2525.849970
1013.386147	2528.410876
1013.679464	2528.899868
1013.972745	2532.116124
1014.265992	2529.325846
1014.559204	2529.497245
1014.852380	2528.920033
1015.145521	2531.009591
1015.438628	2528.811648
1015.731699	2529.078829
1016.024736	2530.442461
1016.317737	2530.792821
1016.610703	2527.536236
1016.903635	2527.294261
1017.196531	2527.107738
1017.489393	2528.315094
1017.782219	2522.258148
1018.075011	2527.873993
1018.367768	2528.998171
1018.660490	2528.612522
1018.953177	2528.612522
1019.245829	2528.612522
