Dividing Wavelength (nm)	Counts (n)	Blue Motor Position (mm): 16.500000	Red Motor Position (mm): 0.000000	
326.493990	2135.147944
326.888308	2135.147944
327.282561	2135.147944
327.676750	2103.983531
328.070874	2103.310537
328.464933	2105.326998
328.858929	2112.750098
329.252859	2119.515326
329.646726	2132.057717
330.040528	2147.085396
330.434265	2162.602068
330.827938	2180.820798
331.221547	2198.805114
331.615091	2215.269523
332.008571	2235.590414
332.401986	2256.072622
332.795338	2273.993924
333.188625	2296.046451
333.581847	2310.338123
333.975006	2332.047852
334.368100	2349.701972
334.761129	2366.675537
335.154095	2383.860831
335.546996	2404.567370
335.939833	2425.901533
336.332606	2439.535334
336.725315	2449.418516
337.117960	2462.558283
337.510540	2467.564149
337.903056	2478.868937
338.295508	2486.753301
338.687896	2492.507778
339.080220	2502.776609
339.472480	2510.923113
339.864676	2514.217508
340.256807	2516.193640
340.648875	2521.144053
341.040879	2526.202851
341.432818	2526.001205
341.824694	2527.964734
342.216506	2526.734692
342.608253	2526.338962
342.999937	2528.055475
343.391557	2528.025228
343.783113	2526.243180
344.174605	2526.780063
344.566033	2522.127078
344.957397	2523.505833
345.348697	2522.200175
345.739934	2520.942407
346.131106	2516.649864
346.522215	2517.133815
346.913260	2511.550737
347.304241	2512.506036
347.695159	2508.495798
348.086012	2510.451766
348.476802	2508.092506
348.867528	2506.106291
349.258191	2502.547236
349.648789	2503.021105
350.039324	2501.806187
350.429796	2500.417349
350.820203	2500.903820
351.210548	2498.259735
351.600828	2498.869715
351.991045	2494.670433
352.381198	2495.814775
352.771288	2497.377533
353.161314	2494.836792
353.551276	2496.016422
353.941175	2492.676657
354.331010	2494.277223
354.720782	2493.924343
355.110490	2495.950887
355.500135	2492.497696
355.889717	2497.387615
356.279235	2495.242604
356.668689	2497.100270
357.058080	2492.661534
357.447408	2491.534836
357.836672	2492.225474
358.225873	2492.084322
358.615010	2490.148518
359.004084	2495.116576
359.393095	2498.582369
359.782043	2498.383243
360.170927	2499.812410
360.559748	2500.641680
360.948505	2499.010867
361.337199	2501.612102
361.725830	2500.492966
362.114398	2497.846360
362.502903	2499.648573
362.891344	2502.469098
363.279722	2500.825682
363.668037	2503.888183
364.056289	2503.386588
364.444478	2506.033194
364.832603	2503.983965
365.220665	2504.838441
365.608665	2505.108143
365.996601	2505.738287
366.384474	2505.483708
366.772284	2506.716271
367.160031	2507.026302
367.547715	2506.680983
367.935336	2510.091323
368.322893	2507.532938
368.710388	2509.524193
369.097820	2512.266581
369.485189	2508.818432
369.872495	2509.158710
370.259738	2507.215345
370.646918	2510.378669
371.034035	2506.786847
371.421090	2510.287928
371.808081	2508.095026
372.195010	2511.366735
372.581875	2509.753566
372.968678	2513.121057
373.355418	2509.607372
373.742096	2512.874040
374.128710	2513.158865
374.515262	2510.736591
374.901751	2513.252127
375.288177	2510.464368
375.674540	2511.948988
376.060841	2514.736746
376.447079	2510.799605
376.833254	2514.293125
377.219367	2508.654594
377.605417	2510.285408
377.991404	2507.495129
378.377329	2509.488905
378.763191	2507.389265
379.148991	2513.234482
379.534727	2514.756911
379.920402	2514.217507
380.306013	2515.576098
380.691563	2517.237159
381.077049	2515.031654
381.462474	2514.386386
381.847835	2514.260357
382.233134	2516.982580
382.618371	2516.576768
383.003545	2514.431757
383.388657	2516.251613
383.773706	2517.353105
384.158693	2513.602487
384.543618	2517.353105
384.928480	2517.705986
385.313280	2518.005935
385.698017	2517.983249
386.082692	2518.842766
386.467305	2517.141377
386.851856	2519.082221
387.236344	2518.820081
387.620770	2519.959382
388.005133	2518.096675
388.389435	2519.213291
388.773674	2519.767818
389.157851	2515.974350
389.541965	2520.922242
389.926018	2517.678260
390.310008	2517.867303
390.693936	2521.927952
391.077802	2519.747653
391.461606	2520.486182
391.845348	2521.418796
392.229027	2521.590195
392.612645	2520.055164
392.996200	2522.873169
393.379694	2523.394928
393.763125	2522.918539
394.146494	2524.977850
394.529801	2522.863086
394.913047	2523.271420
395.296230	2524.030113
395.679351	2521.330576
396.062410	2523.641945
396.445408	2521.602798
396.828343	2523.505833
397.211217	2517.446367
397.594028	2521.081038
397.976778	2520.203878
398.359466	2522.570699
398.742092	2518.532735
399.124656	2523.427696
399.507158	2526.215454
399.889598	2525.751668
400.271977	2526.384332
400.654294	2526.734693
401.036549	2522.041378
401.418742	2523.906605
401.800874	2523.899043
402.182944	2525.335772
402.564952	2524.743437
402.946898	2526.507841
403.328783	2528.758716
403.710606	2526.228057
404.092367	2527.155629
404.474067	2527.016997
404.855705	2526.815351
405.237282	2529.134282
405.618797	2529.081350
406.000250	2526.769981
406.381642	2526.686802
406.762972	2527.783253
407.144240	2527.566483
407.525447	2527.299302
407.906593	2526.591020
408.287677	2528.799045
408.668700	2527.737882
409.049661	2526.258303
409.430560	2527.821061
409.811399	2528.993129
410.192176	2528.368026
410.572891	2530.041689
410.953545	2529.711494
411.334138	2528.730989
411.714669	2529.600588
412.095139	2526.724610
412.475547	2529.451874
412.855894	2529.724097
413.236180	2530.268541
413.616405	2530.137471
413.996568	2532.355579
414.376670	2527.246370
414.756711	2532.143851
415.136691	2533.706608
415.516609	2529.373737
415.896466	2533.348686
416.276262	2533.595703
416.655997	2529.451874
417.035670	2525.945752
417.415283	2529.106555
417.794834	2526.903571
418.174324	2532.539581
418.553753	2532.935312
418.933121	2532.012781
419.312428	2531.367513
419.691674	2533.230219
420.070859	2532.945394
420.449983	2532.915147
420.829045	2533.457071
421.208047	2534.044366
421.586988	2534.152750
421.965867	2531.657379
422.344686	2531.667462
422.723444	2534.427493
423.102141	2536.033101
423.480777	2535.715508
423.859352	2535.634850
424.237866	2532.408511
424.616319	2534.747607
424.994712	2533.177287
425.373044	2534.785415
425.751314	2532.799201
426.129524	2533.141999
426.507673	2536.930426
426.885762	2532.592513
427.263789	2534.119983
427.641756	2534.603934
428.019662	2535.072761
428.397508	2533.809952
428.775292	2537.464788
429.153016	2535.690302
429.530679	2538.649460
429.908282	2534.246012
430.285824	2536.149047
430.663305	2536.917823
431.040726	2536.912782
431.418086	2535.463450
431.795385	2537.177443
432.172624	2536.937988
432.549802	2537.061496
432.926920	2535.670138
433.303977	2538.399922
433.680974	2537.663914
434.057910	2538.732639
434.434786	2537.646270
434.811601	2536.227185
435.188355	2535.140817
435.565050	2537.268183
435.941683	2536.766589
436.318257	2535.962525
436.694770	2534.901362
437.071222	2535.718029
437.447614	2535.380271
437.823946	2534.369520
438.200218	2539.700540
438.576429	2539.682896
438.952580	2539.347659
439.328670	2538.321785
439.704700	2537.343801
440.080670	2538.904038
440.456580	2538.523431
440.832429	2539.355221
441.208218	2539.113246
441.583947	2539.198945
441.959616	2539.508976
442.335224	2538.052083
442.710773	2538.616692
443.086261	2538.422608
443.461689	2541.792619
443.837057	2539.193904
444.212365	2541.432177
444.587612	2543.216745
444.962800	2536.514531
445.337927	2539.889583
445.712995	2541.525438
446.088002	2539.887063
446.462949	2541.901004
446.837837	2540.930582
447.212664	2539.387989
447.587431	2542.382434
447.962139	2542.732794
448.336786	2542.510983
448.711374	2544.103988
449.085901	2541.472506
449.460369	2538.606610
449.834776	2542.516025
450.209124	2541.590973
450.583412	2544.081303
450.957640	2541.767413
451.331808	2541.545602
451.705917	2542.435366
452.079965	2540.633154
452.453954	2540.418905
452.827883	2542.337064
453.201752	2540.023174
453.575562	2541.926210
453.949311	2541.646426
454.323001	2539.264480
454.696632	2543.539379
455.070202	2542.405119
455.443713	2543.312527
455.817164	2539.932433
456.190556	2537.174922
456.563888	2536.680889
456.937160	2539.004861
457.310373	2538.669624
457.683526	2545.381921
458.056619	2545.626417
458.429653	2544.076262
458.802628	2544.224976
459.175542	2539.977804
459.548398	2543.912424
459.921194	2542.538710
460.293930	2545.485264
460.666607	2542.508463
461.039224	2544.756818
461.411782	2547.980635
461.784280	2545.641540
462.156719	2543.045346
462.529099	2544.212373
462.901419	2542.621889
463.273680	2544.398896
463.645882	2544.940820
464.018024	2544.419060
464.390106	2546.853938
464.762130	2546.924514
465.134094	2545.399565
465.505999	2547.584905
465.877845	2546.155738
466.249631	2548.613300
466.621358	2546.667415
466.993026	2551.370811
467.364634	2550.312169
467.736184	2545.744884
468.107674	2545.780172
468.479105	2544.514842
468.850477	2547.458876
469.221790	2544.537527
469.593043	2545.470141
469.964238	2549.303938
470.335373	2548.300749
470.706449	2550.397869
471.077467	2545.702034
471.448425	2549.954247
471.819324	2547.473999
472.190164	2547.942827
472.560945	2548.046170
472.931667	2543.975439
473.302330	2547.312682
473.672934	2548.237734
474.043479	2547.131201
474.413965	2546.385110
474.784393	2543.337733
475.154761	2543.234389
475.525070	2545.908721
475.895321	2546.508618
476.265513	2543.725902
476.635645	2549.316541
477.005719	2549.003990
477.375734	2549.162786
477.745691	2549.818136
478.115588	2550.717982
478.485427	2548.598177
478.855207	2549.803013
479.224928	2550.261757
479.594591	2550.148332
479.964194	2551.443908
480.333739	2550.816284
480.703226	2550.977601
481.072653	2552.835267
481.442022	2553.621687
481.811333	2553.808209
482.180584	2553.364588
482.549777	2551.438867
482.918912	2549.200595
483.287988	2553.309135
483.657005	2548.507436
484.025964	2552.003476
484.394864	2552.747046
484.763706	2552.174875
485.132489	2550.410472
485.501213	2554.259392
485.869879	2550.922149
486.238487	2549.276212
486.607036	2551.191850
486.975527	2552.189999
487.343959	2552.676470
487.712333	2554.012376
488.080648	2549.757642
488.448905	2553.445246
488.817104	2554.047664
489.185244	2552.920966
489.553326	2553.800647
489.921350	2552.273178
490.289315	2553.934238
490.657222	2553.213353
491.025070	2554.503888
491.392861	2557.190823
491.760593	2554.461039
492.128267	2558.415824
492.495883	2552.434495
492.863440	2553.725030
493.230939	2552.250493
493.598380	2555.678477
493.965763	2548.003321
494.333088	2555.290308
494.700354	2551.925338
495.067563	2552.132026
495.434713	2548.930893
495.801805	2555.131512
496.168839	2553.387273
496.535815	2554.476162
496.902733	2554.781152
497.269593	2555.907850
497.636395	2550.730585
498.003139	2555.118909
498.369825	2557.730227
498.736453	2553.866183
499.103023	2555.590257
499.469535	2556.757284
499.835989	2556.502706
500.202385	2559.086297
500.568723	2557.092521
500.935003	2558.410783
501.301226	2556.081770
501.667390	2558.045299
502.033497	2556.681667
502.399546	2558.945145
502.765537	2557.551266
503.131470	2558.728375
503.497345	2559.169476
503.863163	2560.664178
504.228923	2559.262738
504.594625	2559.353478
504.960269	2556.124619
505.325856	2560.533108
505.691385	2560.961607
506.056856	2563.169632
506.422270	2559.905485
506.787625	2560.815413
507.152924	2559.688715
507.518164	2562.720969
507.883347	2559.721483
508.248472	2564.049313
508.613540	2563.640980
508.978550	2563.711556
509.343503	2562.534447
509.708398	2562.065619
510.073236	2564.777760
510.438016	2563.346072
510.802738	2565.004612
511.167403	2566.673234
511.532010	2568.500652
511.896561	2566.327915
512.261053	2565.478480
512.625488	2565.037379
512.989866	2562.415979
513.354186	2565.821279
513.718449	2563.653583
514.082655	2567.144582
514.446803	2567.522668
514.810894	2569.395457
515.174927	2573.859399
515.538904	2569.735735
515.902822	2570.146589
516.266684	2571.558112
516.630488	2572.805797
516.994235	2575.028946
517.357925	2575.215469
517.721558	2574.126580
518.085133	2575.709502
518.448651	2579.336612
518.812112	2581.191757
519.175516	2578.696386
519.538863	2583.845924
519.902152	2583.145204
520.265385	2587.009248
520.628560	2586.671491
520.991678	2583.873651
521.354739	2588.133426
521.717743	2589.940679
522.080690	2594.087028
522.443580	2592.441092
522.806413	2600.156578
523.169189	2598.850919
523.531908	2601.467278
523.894569	2601.920982
524.257174	2605.139758
524.619722	2607.662856
524.982213	2611.995728
525.344647	2615.257354
525.707025	2617.200719
526.069345	2621.526029
526.431608	2623.066101
526.793815	2627.099024
527.155964	2629.906947
527.518057	2631.157153
527.880093	2638.779378
528.242072	2641.746097
528.603995	2643.724750
528.965860	2648.725574
529.327669	2653.033240
529.689421	2654.885864
530.051117	2660.826864
530.412755	2667.675272
530.774337	2671.430931
531.135862	2679.731191
531.497331	2680.600790
531.858743	2684.081707
532.220098	2693.798531
532.581396	2693.937163
532.942638	2700.079809
533.303824	2710.184802
533.664953	2718.260730
534.026025	2719.770556
534.387040	2732.431413
534.747999	2739.909965
535.108902	2748.948754
535.469748	2751.532345
535.830537	2761.428130
536.191270	2771.018926
536.551947	2780.014865
536.912567	2787.213632
537.273131	2794.518264
537.633638	2804.247691
537.994089	2815.234886
538.354483	2821.546411
538.714821	2835.633915
539.075103	2848.050277
539.435328	2859.629807
539.795497	2863.519057
540.155609	2882.675442
540.515665	2897.319994
540.875665	2901.388205
541.235609	2915.997469
541.595496	2929.409459
541.955328	2951.509877
542.315102	2955.416772
542.674821	2969.509317
543.034483	2979.836121
543.394090	2996.915550
543.753640	3006.657580
544.113134	3041.867519
544.472571	3048.239537
544.831953	3071.932960
545.191278	3080.046697
545.550548	3096.407762
545.909761	3123.728296
546.268918	3139.925523
546.628019	3164.402845
546.987064	3178.576049
547.346053	3185.991587
547.704986	3219.560630
548.063863	3235.006726
548.422684	3250.583891
548.781449	3269.959566
549.140158	3298.411838
549.498811	3311.077737
549.857408	3318.216011
550.215949	3366.691746
550.574434	3368.229298
550.932864	3407.149527
551.291237	3428.166097
551.649555	3458.972588
552.007817	3480.291628
552.366022	3495.939369
552.724173	3526.602187
553.082267	3544.679765
553.440305	3598.733537
553.798288	3591.275150
554.156215	3645.641474
554.514086	3670.524609
554.871902	3678.262780
555.229661	3710.626988
555.587365	3741.400712
555.945014	3747.084613
556.302606	3804.629384
556.660143	3807.918737
557.017625	3876.039849
557.375050	3889.930748
557.732421	3942.094087
558.089735	3963.665185
558.446994	3991.933455
558.804197	4029.573230
559.161345	4065.521698
559.518437	4059.341244
559.875474	4120.563537
560.232455	4160.262623
560.589381	4176.119573
560.946251	4232.671236
561.303065	4266.036113
561.659825	4296.766987
562.016528	4315.210048
562.373177	4312.989420
562.729770	4391.638982
563.086307	4399.677102
563.442789	4451.008651
563.799216	4476.337928
564.155587	4512.074668
564.511904	4544.388464
564.868164	4575.867949
565.224370	4611.597127
565.580520	4650.424094
565.936615	4666.772556
566.292654	4683.978014
566.648638	4744.411366
567.004567	4776.352117
567.360441	4807.140964
567.716260	4827.542514
568.072023	4885.651894
568.427732	4919.031894
568.783385	4912.848919
569.138982	4986.008664
569.494525	5022.362945
569.850013	5018.161143
570.205445	5093.218883
570.560823	5087.313171
570.916145	5106.378815
571.271412	5169.186551
571.626625	5191.271846
571.981782	5212.054003
572.336884	5255.133183
572.691931	5276.008601
573.046923	5311.702491
573.401860	5324.219676
573.756743	5348.540722
574.111570	5394.780706
574.466342	5423.585859
574.821059	5478.216843
575.175722	5468.898271
575.530330	5517.258059
575.884882	5550.469181
576.239380	5559.039142
576.593823	5582.281382
576.948211	5635.503364
577.302544	5608.392039
577.656823	5665.810781
578.011047	5693.524524
578.365216	5724.981324
578.719330	5724.565429
579.073389	5777.603409
579.427394	5776.088542
579.781344	5804.487882
580.135239	5820.460778
580.489080	5854.836406
580.842866	5850.163257
581.196597	5888.307147
581.550273	5939.321103
581.903895	5967.677594
582.257463	6028.388210
582.610975	6009.188975
582.964434	6044.860180
583.317837	6049.886210
583.671186	6063.215021
584.024481	6097.487305
584.377721	6086.852991
584.730906	6108.497185
585.084037	6167.539179
585.437113	6152.246839
585.790135	6208.566610
586.143103	6185.841088
586.496016	6196.631678
586.848874	6263.137100
587.201679	6283.400018
587.554428	6253.440441
587.907124	6315.706252
588.259765	6326.209497
588.612352	6362.397419
588.964884	6311.098638
589.317362	6351.253949
589.669786	6383.255193
590.022155	6433.321413
590.374470	6487.070195
590.726731	6465.761238
591.078937	6408.871817
591.431090	6515.136819
591.783188	6454.065761
592.135232	6495.562019
592.487222	6503.711044
592.839157	6577.571510
593.191038	6552.345576
593.542866	6547.730399
593.894639	6510.299832
594.246358	6572.059008
594.598022	6613.202385
594.949633	6573.399955
595.301190	6581.826243
595.652692	6624.096318
596.004141	6729.864767
596.355535	6600.586898
596.706876	6613.968640
597.058162	6594.358552
597.409395	6667.624161
597.760573	6737.900367
598.111698	6695.048038
598.462768	6714.421193
598.813785	6702.778648
599.164748	6715.449588
599.515657	6718.925463
599.866511	6685.752151
600.217312	6792.680065
600.568060	6719.280865
600.918753	6811.642365
601.269392	6812.751419
601.619978	6771.915552
601.970510	6836.780079
602.320988	6852.079981
602.671412	6921.665548
603.021783	6894.193780
603.372100	6890.062554
603.722363	6917.045330
604.072572	6914.832264
604.422728	6944.829650
604.772830	6904.994452
605.122878	6938.976870
605.472872	6947.143539
605.822813	6992.823955
606.172701	6966.123483
606.522534	7046.111472
606.872314	7058.472381
607.222041	7053.166566
607.571714	7113.957841
607.921333	7097.566529
608.270899	7117.153932
608.620411	7208.257664
608.969870	7145.586040
609.319276	7156.069119
609.668627	7185.758995
610.017926	7232.087199
610.367171	7291.466950
610.716362	7283.892616
611.065500	7291.880324
611.414585	7331.181160
611.763616	7333.895821
612.112594	7328.400963
612.461518	7356.780139
612.810389	7421.160715
613.159207	7385.270220
613.507971	7349.092379
613.856682	7468.620658
614.205340	7438.746780
614.553945	7524.827003
614.902496	7447.011752
615.250994	7509.774117
615.599439	7501.463775
615.947830	7531.897221
616.296169	7512.292173
616.644454	7533.119701
616.992686	7547.819705
617.340864	7606.138293
617.688990	7532.260184
618.037063	7619.933411
618.385082	7585.265396
618.733048	7674.793768
619.080961	7622.905171
619.428821	7651.649830
619.776628	7666.760689
620.124382	7634.832541
620.472083	7628.775595
620.819731	7664.040987
621.167326	7581.693738
621.514868	7592.837209
621.862357	7508.229003
622.209793	7526.437651
622.557176	7482.677915
622.904506	7466.657128
623.251783	7408.860299
623.599007	7383.503296
623.946179	7392.920171
624.293297	7365.672734
624.640363	7294.390819
624.987376	7291.842516
625.334336	7247.911381
625.681243	7208.350926
626.028097	7199.062600
626.374899	7191.614295
626.721647	7189.489449
627.068343	7128.657845
627.414987	7111.679239
627.761577	7077.250679
628.108115	7116.906916
628.454600	7023.343100
628.801032	7078.253868
629.147412	7037.254164
629.493739	7032.419698
629.840014	6981.740978
630.186236	7037.586880
630.532405	6935.627023
630.878521	6982.897923
631.224585	6943.191275
631.570597	6879.148456
631.916556	6909.445791
632.262462	6910.428816
632.608316	6877.653754
632.954117	6861.196907
633.299866	6853.768767
633.645562	6845.445822
633.991206	6779.910822
634.336797	6727.029118
634.682336	6693.835641
635.027823	6663.077041
635.373257	6658.792060
635.718639	6599.707216
636.063968	6612.103413
636.409245	6512.601119
636.754470	6517.554052
637.099642	6481.998794
637.444762	6425.817655
637.789829	6439.953051
638.134845	6384.664196
638.479808	6373.689604
638.824719	6379.247476
639.169577	6318.161294
639.514383	6340.927145
639.859137	6266.819663
640.203839	6279.218381
640.548489	6271.835611
640.893086	6249.042034
641.237632	6220.693105
641.582125	6245.291416
641.926566	6219.200924
642.270955	6229.507563
642.615292	6226.888683
642.959576	6246.458443
643.303809	6239.567185
643.647990	6247.736375
643.992118	6236.469396
644.336195	6183.990985
644.680219	6211.026693
645.024192	6205.841866
645.368112	6297.638757
645.711981	6315.386139
646.055797	6394.277676
646.399562	6355.009608
646.743274	6477.852445
647.086935	6531.802874
647.430544	6531.787750
647.774101	6551.917078
648.117606	6558.805814
648.461059	6552.090998
648.804460	6513.410224
649.147810	6426.354538
649.491108	6394.630557
649.834354	6375.277567
650.177548	6292.315299
650.520690	6206.250200
650.863781	6189.778229
651.206820	6207.870931
651.549807	6133.166072
651.892742	6079.170273
652.235626	6084.859215
652.578458	6068.684673
652.921238	5982.901878
653.263967	6026.747314
653.606644	5966.233303
653.949269	5965.225073
654.291843	5910.450415
654.634365	5957.764165
654.976836	5914.962248
655.319255	5909.144757
655.661622	5890.464761
656.003938	5890.782354
656.346203	5850.735428
656.688416	5885.486622
657.030577	5835.871585
657.372687	5808.674560
657.714746	5794.045132
658.056753	5837.290670
658.398708	5782.455519
658.740612	5766.747284
659.082465	5822.504966
659.424266	5807.247914
659.766016	5808.500641
660.107715	5785.767557
660.449362	5796.079238
660.790958	5795.257529
661.132503	5782.279079
661.473996	5817.640253
661.815438	5804.528211
662.156829	5803.497295
662.498168	5797.873888
662.839456	5775.387822
663.180693	5808.321680
663.521879	5812.372247
663.863013	5797.873888
664.204097	5816.047248
664.545129	5860.182550
664.886110	5856.895718
665.227040	5889.166664
665.567918	5854.919585
665.908746	5881.030242
666.249522	5884.816148
666.590248	5876.588985
666.930922	5901.184775
667.271545	5915.846971
667.612118	5919.642959
667.952639	5889.748917
668.293109	5909.946300
668.633528	5868.019023
668.973896	5870.413572
669.314213	5861.808322
669.654480	5845.031362
669.994695	5839.743192
670.334859	5830.076779
670.674973	5829.807077
671.015035	5829.232386
671.355047	5827.193239
671.695008	5812.876362
672.034918	5787.405932
672.374777	5797.750380
672.714585	5785.931395
673.054342	5786.790912
673.394049	5785.835613
673.733705	5813.539274
674.073310	5795.928003
674.412864	5758.459627
674.752368	5751.671713
675.091820	5754.857722
675.431223	5691.969328
675.770574	5694.373959
676.109875	5646.997195
676.449125	5648.938039
676.788324	5613.833964
677.127473	5558.159461
677.466571	5547.653697
677.805619	5542.604981
678.144616	5532.187437
678.483562	5510.439899
678.822458	5481.085260
679.161303	5473.541173
679.500098	5461.404595
679.838842	5445.371206
680.177535	5451.705415
680.516179	5471.431450
680.854771	5477.715249
681.193314	5560.596859
681.531805	5664.903373
681.870247	5814.368544
682.208638	5916.829996
682.546978	5927.061017
682.885268	5902.054374
683.223508	5824.397919
683.561697	5766.409527
683.899836	5735.335854
684.237925	5693.642991
684.575963	5660.900697
684.913951	5620.102639
685.251889	5683.868194
685.589776	5648.345703
685.927614	5625.811746
686.265401	5690.164595
686.603137	5677.622204
686.940824	5749.567032
687.278460	5775.980157
687.616046	5784.570283
687.953582	5848.802145
688.291068	5830.689279
688.628504	5888.947374
688.965889	5855.625347
689.303224	5799.953364
689.640510	5759.251088
689.977745	5681.120765
690.314930	5578.021607
690.652065	5525.379358
690.989150	5434.187406
691.326185	5361.133525
691.663170	5309.985978
692.000105	5234.419082
692.336990	5154.320188
692.673825	5123.758193
693.010610	5063.266868
693.347345	4996.073328
693.684030	4982.676462
694.020665	4937.691725
694.357251	4846.898024
694.693786	4862.112226
695.030272	4826.768697
695.366707	4795.649654
695.703093	4759.925517
696.039429	4781.932674
696.375716	4766.600005
696.711952	4739.939863
697.048139	4726.200198
697.384276	4707.439544
697.720363	4722.144590
698.056400	4731.322010
698.392388	4678.878887
698.728326	4654.762007
699.064214	4639.878000
699.400053	4632.530518
699.735842	4600.955251
700.071581	4577.380295
700.407270	4545.316036
700.742910	4530.026217
701.078501	4476.837002
701.414042	4473.797187
701.749533	4448.286428
702.084974	4383.651273
702.420366	4440.931384
702.755709	4379.709091
703.091002	4328.080114
703.426246	4370.791290
703.761440	4327.626410
704.096584	4292.524856
704.431679	4312.024039
704.766725	4298.196154
705.101721	4283.654946
705.436668	4313.866581
705.771565	4261.672994
706.106413	4291.950164
706.441212	4325.902336
706.775961	4331.429961
707.110661	4313.344821
707.445311	4342.598637
707.779913	4363.847101
708.114465	4372.711970
708.448967	4395.802975
708.783421	4459.409733
709.117825	4499.439016
709.452180	4506.917567
709.786485	4546.301582
710.120742	4631.260147
710.454949	4618.556440
710.789107	4684.111604
711.123216	4753.573663
711.457275	4750.213734
711.791286	4824.492616
712.125247	4838.822095
712.459159	4738.072115
712.793023	4818.992717
713.126837	4773.892034
713.460602	4769.760808
713.794318	4689.364487
714.127985	4697.309345
714.461602	4609.656283
714.795171	4582.862550
715.128691	4515.202704
715.462162	4461.877378
715.795584	4412.612702
716.128957	4394.320876
716.462281	4344.675593
716.795556	4316.984534
717.128782	4276.403246
717.461960	4213.149368
717.795088	4224.423909
718.128167	4183.189791
718.461198	4126.350781
718.794180	4120.510604
719.127113	4100.393880
719.459997	4077.368410
719.792833	4037.064385
720.125619	4023.385214
720.458357	3991.706603
720.791046	4000.891585
721.123686	3969.797748
721.456278	3928.417437
721.788821	3946.313533
722.121315	3916.721960
722.453761	3893.610790
722.786158	3903.867018
723.118506	3929.161007
723.450805	3881.406157
723.783056	3902.286616
724.115259	3922.337806
724.447412	3923.383845
724.779518	3915.597783
725.111574	3923.615738
725.443582	3950.522897
725.775542	3936.763067
726.107453	3988.167713
726.439315	3986.347857
726.771129	3998.923015
727.102895	4035.146226
727.434612	4084.937702
727.766281	4094.110082
728.097901	4095.753498
728.429473	4100.807255
728.760996	4105.760188
729.092471	4100.164508
729.423897	4088.101026
729.755276	4094.432716
730.086606	4095.599743
730.417887	4131.102069
730.749120	4195.575906
731.080305	4260.599229
731.411442	4284.605203
731.742530	4252.001541
732.073570	4258.950771
732.404562	4315.058814
732.735506	4302.849139
733.066401	4265.766411
733.397249	4202.996484
733.728048	4123.741984
734.058798	4043.542267
734.389501	3972.635918
734.720156	3912.671393
735.050762	3869.877038
735.381320	3859.978732
735.711831	3812.362514
736.042293	3783.219603
736.372707	3806.958397
736.703073	3778.286834
737.033391	3768.484311
737.363661	3785.132721
737.693883	3810.461999
738.024056	3818.001044
738.354182	3812.017195
738.684260	3878.593193
739.014290	3898.611615
739.344272	3895.037437
739.674207	3931.923560
740.004093	3940.168367
740.333931	3933.022531
740.663722	3936.568983
740.993464	3933.309877
741.323159	3909.727359
741.652806	3877.922720
741.982405	3852.825335
742.311956	3824.055470
742.641460	3809.844457
742.970915	3787.091210
743.300323	3749.499325
743.629683	3715.615210
743.958996	3705.069116
744.288260	3679.931402
744.617477	3647.075682
744.946647	3633.898106
745.275768	3607.704271
745.604842	3604.601440
745.933869	3557.844738
746.262847	3552.191084
746.591778	3591.179368
746.920662	3556.680232
747.249498	3527.499513
747.578286	3571.874270
747.907027	3591.244903
748.235720	3587.907659
748.564365	3615.122328
748.892963	3615.094602
749.221514	3597.939556
749.550017	3572.844692
749.878473	3569.996440
750.206881	3539.895710
750.535242	3539.573076
750.863555	3540.679610
751.191821	3533.765667
751.520039	3514.793285
751.848210	3491.049450
752.176334	3526.730737
752.504411	3536.180380
752.832440	3491.616580
753.160421	3475.510093
753.488356	3485.312617
753.816243	3499.178311
754.144082	3455.695838
754.471875	3442.513221
754.799620	3461.299081
755.127318	3449.790126
755.454969	3452.908080
755.782572	3457.036785
756.110129	3434.533074
756.437638	3425.237187
756.765100	3434.429731
757.092515	3452.671146
757.419882	3456.557875
757.747203	3427.969492
758.074477	3428.108124
758.401703	3447.025053
758.728882	3468.991881
759.056014	3473.773416
759.383099	3475.379023
759.710138	3474.496821
760.037129	3491.979543
760.364073	3522.014738
760.690970	3504.441275
761.017820	3478.219713
761.344623	3500.741068
761.671379	3546.920558
761.998088	3595.567693
762.324751	3724.986715
762.651366	3969.742296
762.977935	4436.822844
763.304456	4871.405593
763.630931	4958.131083
763.957359	4604.466415
764.283740	4265.940331
764.610074	4079.543668
764.936362	3883.657032
765.262602	3725.606777
765.588796	3615.525621
765.914943	3531.905481
766.241044	3444.607820
766.567097	3415.767379
766.893104	3371.115359
767.219064	3336.263342
767.544978	3310.450113
767.870845	3256.136722
768.196665	3237.890266
768.522438	3245.449476
768.848165	3242.129876
769.173846	3207.277859
769.499479	3192.063657
769.825066	3172.841737
770.150607	3159.858245
770.476101	3172.831655
770.801548	3168.813855
771.126949	3122.495733
771.452303	3108.851851
771.777611	3110.008795
772.102872	3116.446349
772.428087	3093.884665
772.753256	3083.809919
773.078378	3078.431008
773.403453	3043.899104
773.728482	3029.962834
774.053465	3054.155331
774.378401	3037.138917
774.703291	3009.319309
775.028135	3008.732015
775.352932	3003.504338
775.677683	2994.329438
776.002388	2987.934734
776.327046	2991.997904
776.651658	2981.081286
776.976224	2969.055613
777.300743	2970.487301
777.625216	2960.150415
777.949643	2956.601443
778.274024	2959.497586
778.598359	2945.548713
778.922647	2951.535083
779.246889	2950.637758
779.571086	2934.990016
779.895236	2933.165118
780.219339	2939.960594
780.543397	2954.763942
780.867409	2955.726803
781.191374	2948.472582
781.515294	2945.168106
781.839167	2946.529217
782.162995	2937.603854
782.486776	2947.688683
782.810511	2943.698609
783.134201	2929.240580
783.457844	2938.173505
783.781441	2926.273861
784.104993	2908.387847
784.428498	2912.198960
784.751958	2923.072728
785.075372	2917.242634
785.398739	2902.242681
785.722061	2917.202305
786.045337	2928.098759
786.368568	2912.070410
786.691752	2908.118146
787.014891	2953.354940
787.337983	2983.032212
787.661030	3007.040708
787.984031	3076.401943
788.306987	3120.617904
788.629897	3112.022736
788.952760	3099.182918
789.275579	3083.724219
789.598351	3022.998480
789.921078	2980.988024
790.243759	2971.901345
790.566395	2953.816205
790.888984	2933.460026
791.211529	2916.173909
791.534027	2905.582445
791.856480	2894.832185
792.178888	2878.536655
792.501249	2873.321581
792.823566	2870.581714
793.145836	2868.035931
793.468062	2861.744571
793.790241	2863.541743
794.112375	2869.767568
794.434464	2882.554454
794.756507	2884.759959
795.078505	2887.131822
795.400457	2903.868453
795.722364	2940.973866
796.044226	2964.263997
796.366042	2963.727114
796.687812	2954.698407
797.009538	2974.744555
797.331218	2959.973975
797.652852	2948.749846
797.974442	2929.364088
798.295986	2924.819488
798.617484	2919.942172
798.938938	2906.036149
799.260346	2894.615415
799.581709	2887.741802
799.903026	2881.193343
800.224299	2876.119422
800.545526	2865.117103
800.866708	2848.682942
801.187845	2841.000223
801.508936	2845.257478
801.829983	2849.562623
802.150984	2837.017712
802.471940	2823.283088
802.792851	2822.042964
803.113717	2823.633448
803.434538	2828.188131
803.755314	2820.810402
804.076045	2815.807057
804.396731	2815.008034
804.717372	2813.921665
805.037967	2807.721046
805.358518	2818.355360
805.679024	2827.469766
805.999485	2823.794765
806.319901	2827.958758
806.640272	2817.246306
806.960598	2823.434323
807.280879	2832.069819
807.601115	2840.710357
807.921306	2831.888338
808.241453	2823.033551
808.561554	2828.079746
808.881611	2833.130982
809.201623	2825.501196
809.521590	2824.795434
809.841513	2823.434323
810.161390	2825.869200
810.481223	2817.788230
810.801011	2812.507622
811.120755	2807.642908
811.440453	2806.518731
811.760107	2809.810604
812.079716	2807.539565
812.399281	2795.571865
812.718801	2791.758232
813.038276	2783.198353
813.357707	2790.999539
813.677093	2799.473718
813.996434	2793.815023
814.315731	2791.244035
814.634983	2785.834877
814.954191	2787.173303
815.273354	2803.171405
815.592473	2808.908238
815.911547	2807.043011
816.230577	2818.436019
816.549562	2824.213181
816.868502	2825.367605
817.187399	2837.337825
817.506250	2852.602439
817.825058	2845.441480
818.143821	2859.279447
818.462539	2872.880480
818.781213	2896.863770
819.099843	2933.949018
819.418429	2987.707883
819.736970	3048.688200
820.055466	3122.054632
820.373919	3223.671691
820.692327	3363.702342
821.010691	3525.636807
821.329011	3959.551603
821.647286	4845.473898
821.965517	6200.389858
822.283704	6915.384270
822.601847	6878.523353
822.919945	6259.194918
823.237999	5767.957161
823.556010	5200.524884
823.873976	4657.053211
824.191897	4261.209208
824.509775	3976.938543
824.827609	3716.555385
825.145398	3593.916715
825.463144	3582.816094
825.780845	3673.360258
826.098502	3778.929582
826.416116	4058.068352
826.733685	4364.827605
827.051210	4419.014968
827.368692	4306.811486
827.686129	4044.938667
828.003522	3729.392683
828.320872	3476.936740
828.638177	3287.462452
828.955439	3156.102586
829.272656	3074.093095
829.589830	3008.875688
829.906960	2960.891465
830.224046	2916.327665
830.541088	2885.793396
830.858086	2867.047865
831.175041	2852.171420
831.491952	2853.850124
831.808819	2865.880838
832.125642	2890.537122
832.442421	2930.765529
832.759157	3011.239989
833.075849	3187.115764
833.392497	3464.621201
833.709101	3661.478259
834.025662	3608.891462
834.342179	3449.921196
834.658653	3279.842748
834.975083	3134.400418
835.291469	3036.654966
835.607811	2958.418779
835.924110	2900.629512
836.240366	2853.968592
836.556578	2810.758341
836.872746	2789.565331
837.188871	2764.394849
837.504952	2751.701224
837.820990	2742.853999
838.136984	2725.895557
838.452935	2722.321379
838.768842	2717.945658
839.084706	2738.493401
839.400526	2815.870071
839.716303	2946.511573
840.032037	3019.527646
840.347727	3007.025584
840.663373	2950.809157
840.978977	2872.406612
841.294537	2804.545119
841.610054	2757.808582
841.925527	2737.263359
842.240957	2715.566233
842.556344	2692.898685
842.871687	2678.115501
843.186987	2669.230468
843.502244	2665.903306
843.817458	2659.821154
844.132629	2650.026192
844.447756	2639.981693
844.762840	2633.498769
845.077881	2639.654018
845.392879	2633.982720
845.707833	2630.151443
846.022745	2623.870165
846.337613	2627.610702
846.652438	2624.011318
846.967221	2626.037862
847.281960	2622.761112
847.596656	2623.156842
847.911309	2623.058540
848.225919	2618.806326
848.540485	2613.646705
848.855009	2614.740636
849.169490	2615.695934
849.483928	2615.350615
849.798323	2612.961108
850.112675	2615.196860
850.426984	2615.370780
850.741251	2611.715943
851.055474	2612.908176
851.369654	2618.012345
851.683792	2615.605194
851.997887	2613.140069
852.311938	2612.472117
852.625947	2612.784668
852.939914	2619.887654
853.253837	2617.598970
853.567718	2613.288783
853.881555	2611.902466
854.195350	2616.479834
854.509103	2615.101078
854.822812	2613.157713
855.136479	2609.933896
855.450103	2610.811056
855.763685	2614.760800
856.077224	2614.443208
856.390720	2609.986828
856.704173	2611.383227
857.017584	2618.133332
857.330953	2616.908332
857.644278	2620.381687
857.957561	2621.324383
858.270802	2614.251644
858.584000	2615.998404
858.897155	2618.884464
859.210268	2621.440329
859.523339	2615.680811
859.836367	2609.676797
860.149352	2612.295676
860.462295	2612.870368
860.775195	2612.749380
861.088054	2606.221086
861.400869	2607.337701
861.713642	2605.722012
862.026373	2607.962804
862.339062	2611.504215
862.651708	2616.142077
862.964312	2613.785337
863.276873	2615.403547
863.589392	2618.501337
863.901869	2623.597943
864.214303	2626.748664
864.526696	2628.593727
864.839045	2632.263687
865.151353	2630.761423
865.463619	2632.377112
865.775842	2632.616567
866.088023	2632.692185
866.400162	2632.999695
866.712258	2634.146557
867.024313	2631.426855
867.336325	2627.618263
867.648296	2629.125568
867.960224	2636.941877
868.272110	2633.027421
868.583954	2625.594240
868.895755	2625.979888
869.207515	2634.423821
869.519233	2639.195273
869.830909	2637.844244
870.142542	2632.719911
870.454134	2633.302164
870.765684	2636.616723
871.077191	2641.425984
871.388657	2643.001344
871.700081	2639.563277
872.011463	2640.642084
872.322803	2640.735346
872.634101	2643.762558
872.945357	2655.785710
873.256571	2655.198416
873.567744	2655.263951
873.878874	2654.691780
874.189963	2655.999959
874.501010	2660.519354
874.812015	2664.315343
875.122979	2662.571103
875.433900	2656.302429
875.744780	2654.946358
876.055618	2659.324600
876.366415	2663.302071
876.677169	2666.041938
876.987882	2659.309477
877.298554	2657.010711
877.609183	2666.112514
877.919771	2674.372445
878.230317	2684.137160
878.540822	2691.086390
878.851285	2704.647094
879.161707	2724.947821
879.472087	2765.198913
879.782425	2808.764565
880.092722	2920.713468
880.402977	3103.790532
880.713191	3354.040971
881.023363	3634.772746
881.333494	3817.930468
881.643583	3987.104030
881.953631	3985.614369
882.263637	3809.410918
882.573602	3593.740274
882.883526	3466.544401
883.193408	3361.958103
883.503248	3263.582506
883.813048	3149.072697
884.122806	3040.970193
884.432522	2961.859366
884.742197	2902.035993
885.051831	2863.148533
885.361424	2827.784838
885.670975	2795.922226
885.980485	2766.804521
886.289954	2750.440936
886.599382	2735.660273
886.908768	2726.999570
887.218113	2706.048535
887.527417	2692.823068
887.836680	2687.086235
888.145901	2681.606500
888.455082	2671.090653
888.764221	2661.373829
889.073319	2655.458035
889.382376	2653.650782
889.691392	2656.705721
890.000366	2656.688077
890.309300	2654.291008
890.618193	2654.480052
890.927044	2657.708911
891.235855	2657.454332
891.544625	2657.560197
891.853353	2658.543222
892.162041	2664.159067
892.470687	2683.968281
892.779293	2696.399766
893.087858	2702.923019
893.396381	2724.421020
893.704864	2765.380395
894.013306	2832.024449
894.321707	2922.727409
894.630068	2968.294399
894.938387	2991.085456
895.246665	2983.480875
895.554903	2938.486056
895.863100	2896.470560
896.171256	2842.920903
896.479371	2781.749022
896.787446	2749.233579
897.095480	2731.367730
897.403473	2722.069322
897.711425	2709.269832
898.019336	2693.803572
898.327207	2677.069462
898.635038	2677.253464
898.942827	2674.634585
899.250576	2664.721156
899.558284	2654.235556
899.865952	2649.890081
900.173579	2648.201294
900.481165	2644.556540
900.788711	2638.819707
901.096216	2632.442647
901.403681	2629.181021
901.711105	2630.194293
902.018489	2626.080711
902.325832	2633.251753
902.633135	2632.412401
902.940397	2647.505615
903.247619	2682.249247
903.554800	2749.389855
903.861941	2871.000130
904.169041	2991.650065
904.476101	3047.445556
904.783121	3039.541026
905.090100	2984.663026
905.397039	2917.562747
905.703938	2845.481809
906.010796	2785.880247
906.317614	2736.282855
906.624391	2702.852443
906.931129	2676.358659
907.237826	2654.394352
907.544483	2638.958339
907.851099	2625.160701
908.157675	2616.172323
908.464211	2610.869030
908.770707	2600.045672
909.077163	2595.153232
909.383578	2589.040833
909.689954	2592.594847
909.996289	2591.684919
910.302584	2589.391194
910.608839	2587.992273
910.915054	2586.046388
911.221229	2588.811461
911.527363	2592.126020
911.833458	2589.580237
912.139513	2589.653334
912.445527	2593.235073
912.751502	2596.834457
913.057436	2600.731269
913.363331	2607.430963
913.669186	2619.370936
913.975000	2630.020373
914.280775	2649.517036
914.586510	2663.503717
914.892205	2697.526464
915.197859	2762.189345
915.503475	2843.755214
915.809050	2908.108063
916.114585	2915.571492
916.420081	2927.534150
916.725536	2936.835078
917.030952	2914.752304
917.336328	2868.456868
917.641665	2821.768221
917.946961	2775.336674
918.252218	2741.732342
918.557435	2715.987170
918.862612	2697.919674
919.167750	2680.321006
919.472848	2667.193842
919.777906	2650.762201
920.082925	2639.165026
920.387904	2629.100362
920.692843	2625.195989
920.997743	2623.378653
921.302603	2614.445728
921.607423	2609.845675
921.912204	2603.723194
922.216946	2597.963676
922.521647	2600.683378
922.826310	2594.949066
923.130932	2590.805237
923.435516	2587.314238
923.740059	2582.434401
924.044564	2580.556572
924.349028	2578.890470
924.653454	2575.119687
924.957840	2570.317988
925.262186	2568.248594
925.566493	2573.892166
925.870761	2566.264900
926.174989	2568.220868
926.479178	2567.184911
926.783328	2565.922102
927.087438	2565.319684
927.391509	2563.202399
927.695541	2562.380691
927.999533	2559.025803
928.303486	2558.612429
928.607400	2559.373643
928.911275	2557.047151
929.215110	2558.277192
929.518906	2555.887685
929.822663	2557.447922
930.126381	2557.377346
930.430060	2554.455997
930.733699	2557.861297
931.037299	2560.119734
931.340861	2561.521175
931.644383	2559.610577
931.947866	2562.292471
932.251309	2558.685526
932.554714	2558.420865
932.858080	2559.804662
933.161407	2560.636452
933.464694	2559.908005
933.767943	2557.218550
934.071153	2555.290308
934.374323	2554.531615
934.677455	2556.684187
934.980548	2555.665874
935.283602	2556.472459
935.586617	2557.505896
935.889593	2555.363405
936.192530	2555.403734
936.495428	2557.374826
936.798287	2555.776780
937.101108	2556.777449
937.403890	2561.848850
937.706632	2564.298850
938.009336	2566.237174
938.312002	2570.948132
938.614628	2574.345870
938.917216	2578.043556
939.219765	2579.659246
939.522275	2575.356621
939.824747	2576.513566
940.127179	2572.687330
940.429573	2568.230950
940.731929	2572.029460
941.034246	2564.739951
941.336524	2566.431258
941.638763	2567.910837
941.940964	2566.355641
942.243126	2564.641649
942.545250	2564.540826
942.847335	2563.895558
943.149381	2561.238870
943.451389	2561.677450
943.753359	2559.945814
944.055290	2561.256514
944.357182	2558.055381
944.659036	2558.766184
944.960851	2561.793397
945.262628	2558.743499
945.564367	2558.531770
945.866067	2559.247614
946.167729	2558.221739
946.469352	2556.210319
946.770937	2559.716442
947.072484	2558.478838
947.373992	2558.161246
947.675462	2556.694270
947.976893	2557.674774
948.278286	2556.238045
948.579641	2555.237376
948.880958	2557.755433
949.182236	2553.866182
949.483476	2558.622511
949.784678	2555.300391
950.085841	2555.668395
950.386967	2556.240566
950.688054	2558.080587
950.989103	2555.272664
951.290114	2557.997408
951.591087	2557.566389
951.892021	2560.954045
952.192917	2559.224929
952.493776	2561.894220
952.794596	2562.637790
953.095378	2561.594271
953.396122	2561.551422
953.696828	2560.205433
953.997496	2558.693087
954.298126	2559.456822
954.598718	2559.179559
954.899272	2557.173179
955.199788	2556.933725
955.500266	2555.048333
955.800706	2551.496840
956.101108	2545.623896
956.401472	2549.180430
956.701798	2546.223793
957.002087	2544.877805
957.302337	2549.500543
957.602550	2547.605069
957.902724	2547.610111
958.202861	2546.473330
958.502960	2545.510470
958.803022	2544.645912
959.103045	2545.442414
959.403031	2544.240099
959.702979	2546.942158
960.002889	2546.317055
960.302762	2545.291180
960.602596	2545.694472
960.902393	2543.471323
961.202153	2544.792106
961.501875	2540.713812
961.801559	2543.511653
962.101205	2541.737166
962.400814	2540.933102
962.700385	2543.158772
962.999918	2543.378062
963.299414	2541.079296
963.598873	2542.566436
963.898293	2540.244985
964.197677	2542.374872
964.497022	2541.613658
964.796331	2541.868236
965.095601	2540.083668
965.394835	2543.504091
965.694030	2538.969573
965.993189	2543.967877
966.292309	2540.618030
966.591393	2542.775644
966.890439	2540.875129
967.189447	2540.557536
967.488419	2541.918648
967.787353	2542.218597
968.086249	2542.828576
968.385108	2542.369831
968.683930	2542.677342
968.982714	2542.805891
969.281462	2541.588452
969.580172	2541.984183
969.878844	2542.521066
970.177480	2543.284801
970.476078	2541.394368
970.774639	2543.998124
971.073162	2543.206663
971.371649	2540.066024
971.670098	2536.806918
971.968510	2539.642567
972.266885	2538.619213
972.565223	2543.557023
972.863524	2541.843031
973.161788	2542.228679
973.460014	2542.528627
973.758204	2540.983514
974.056356	2541.764893
974.354471	2544.590459
974.652550	2543.975439
974.950591	2543.062990
975.248595	2542.742877
975.546563	2542.584080
975.844493	2541.114584
976.142386	2542.059800
976.440243	2541.222969
976.738062	2540.693648
977.035845	2540.222300
977.333590	2539.461085
977.631299	2540.955788
977.928971	2540.532331
978.226606	2539.685417
978.524204	2542.032074
978.821765	2541.583411
979.119290	2538.291538
979.416777	2541.359080
979.714228	2541.840510
980.011642	2541.906045
980.309020	2543.330171
980.606360	2540.948226
980.903664	2542.289173
981.200931	2544.514842
981.498162	2543.521735
981.795356	2545.311344
982.092513	2547.920142
982.389633	2549.838301
982.686717	2552.353836
982.983764	2556.071687
983.280775	2555.549928
983.577749	2554.415668
983.874686	2558.831719
984.171587	2550.768393
984.468451	2551.285112
984.765279	2545.704554
985.062070	2548.532642
985.358824	2545.371838
985.655543	2542.649615
985.952224	2541.565767
986.248869	2541.447300
986.545478	2538.876312
986.842050	2539.582073
987.138586	2538.392361
987.435086	2536.622916
987.731549	2531.768285
988.027975	2540.723894
988.324366	2539.473688
988.620719	2540.391178
988.917037	2539.466127
989.213318	2538.588966
989.509563	2538.034439
989.805772	2539.788760
990.101944	2539.032587
990.398080	2537.164840
990.694180	2537.709284
990.990244	2538.357073
991.286271	2537.303472
991.582262	2535.949922
991.878217	2537.464788
992.174136	2541.018802
992.470019	2540.494522
992.765865	2538.510828
993.061676	2538.057124
993.357450	2540.371014
993.653188	2539.970242
993.948890	2539.708102
994.244556	2538.669624
994.540186	2540.592824
994.835780	2538.929244
995.131337	2539.680376
995.426859	2542.735315
995.722345	2537.976466
996.017795	2545.311344
996.313208	2540.045859
996.608586	2543.831766
996.903928	2542.876467
997.199234	2539.488812
997.494504	2542.319420
997.789738	2541.722043
998.084936	2542.112732
998.380099	2538.336908
998.675225	2539.571991
998.970316	2542.004348
999.265371	2541.273380
999.560390	2538.410005
999.855373	2539.196425
1000.150320	2540.003009
1000.445232	2539.246836
1000.740108	2541.389327
1001.034948	2539.826569
1001.329752	2537.875643
1001.624521	2535.576876
1001.919254	2533.860363
1002.213951	2535.534027
1002.508613	2532.897503
1002.803239	2535.208872
1003.097829	2534.130065
1003.392384	2537.061496
1003.686903	2537.931095
1003.981386	2539.133410
1004.275834	2535.418080
1004.570246	2538.057124
1004.864623	2538.251208
1005.158964	2537.230375
1005.453270	2536.141486
1005.747540	2538.420087
1006.041775	2536.806918
1006.335974	2538.578883
1006.630138	2537.278266
1006.924266	2536.920344
1007.218359	2537.847916
1007.512416	2537.585776
1007.806438	2537.026208
1008.100425	2536.900179
1008.394376	2533.399098
1008.688292	2538.208359
1008.982172	2534.724921
1009.276017	2535.849099
1009.569827	2536.438914
1009.863602	2535.760878
1010.157341	2535.493697
1010.451045	2537.038811
1010.744714	2534.782895
1011.038347	2535.554191
1011.331945	2535.261804
1011.625508	2538.641898
1011.919036	2537.530323
1012.212528	2533.762061
1012.505986	2535.564273
1012.799408	2534.422452
1013.092795	2535.375230
1013.386147	2534.614016
1013.679464	2534.833306
1013.972745	2536.769109
1014.265992	2537.207690
1014.559204	2536.002854
1014.852380	2535.975128
1015.145521	2538.470499
1015.438628	2535.662576
1015.731699	2535.816331
1016.024736	2536.461599
1016.317737	2534.603934
1016.610703	2538.178112
1016.903635	2534.419932
1017.196531	2531.238963
1017.489393	2531.914478
1017.782219	2531.584282
1018.075011	2532.743748
1018.367768	2534.616537
1018.660490	2536.348173
1018.953177	2536.348173
1019.245829	2536.348173
