Dividing Wavelength (nm)	Counts (n)	Blue Motor Position (mm): 3.600000	Red Motor Position (mm): 0.000000	
326.493990	2142.523152
326.888308	2142.523152
327.282561	2142.523152
327.676750	2111.966198
328.070874	2108.830600
328.464933	2113.430653
328.858929	2119.492641
329.252859	2127.830709
329.646726	2141.298152
330.040528	2153.880872
330.434265	2170.337718
330.827938	2190.066274
331.221547	2205.764427
331.615091	2224.658672
332.008571	2245.849162
332.401986	2263.132758
332.795338	2283.781324
333.188625	2305.412915
333.581847	2321.201809
333.975006	2341.285766
334.368100	2358.844105
334.761129	2376.654501
335.154095	2391.626728
335.546996	2409.943761
335.939833	2423.375915
336.332606	2439.769747
336.725315	2452.914556
337.117960	2459.142902
337.510540	2470.029273
337.903056	2481.059318
338.295508	2485.888743
338.687896	2494.178921
339.080220	2506.386075
339.472480	2512.611900
339.864676	2514.673732
340.256807	2519.692201
340.648875	2522.096831
341.040879	2526.464991
341.432818	2525.381143
341.824694	2527.369878
342.216506	2530.039169
342.608253	2529.832482
342.999937	2528.859539
343.391557	2527.301822
343.783113	2530.220650
344.174605	2525.943231
344.566033	2526.001205
344.957397	2522.245545
345.348697	2520.970133
345.739934	2520.425688
346.131106	2519.848476
346.522215	2517.007786
346.913260	2515.306397
347.304241	2512.962260
347.695159	2512.364883
348.086012	2510.545027
348.476802	2508.238699
348.867528	2506.050838
349.258191	2504.911538
349.648789	2502.796773
350.039324	2498.917606
350.429796	2500.498007
350.820203	2497.735455
351.210548	2498.083295
351.600828	2497.783346
351.991045	2500.931547
352.381198	2495.023314
352.771288	2494.854436
353.161314	2495.915598
353.551276	2495.870228
353.941175	2496.598675
354.331010	2497.191010
354.720782	2494.269662
355.110490	2495.552635
355.500135	2496.124806
355.889717	2495.320742
356.279235	2494.125989
356.668689	2494.199086
357.058080	2495.814775
357.447408	2493.528612
357.836672	2496.714621
358.225873	2493.311842
358.615010	2492.411997
359.004084	2497.637153
359.393095	2499.595641
359.782043	2500.566063
360.170927	2500.939108
360.559748	2499.469612
360.948505	2498.118583
361.337199	2501.062617
361.725830	2501.617143
362.114398	2502.252329
362.502903	2502.857267
362.891344	2506.194511
363.279722	2502.869870
363.668037	2503.837772
364.056289	2504.548574
364.444478	2504.992196
364.832603	2503.946157
365.220665	2506.093688
365.608665	2506.834738
365.996601	2505.203924
366.384474	2506.688544
366.772284	2509.040243
367.160031	2507.492608
367.547715	2506.310458
367.935336	2508.112670
368.322893	2510.774399
368.710388	2509.047804
369.097820	2508.982269
369.485189	2508.460510
369.872495	2511.485202
370.259738	2510.010665
370.646918	2506.108812
371.034035	2511.149965
371.421090	2510.671056
371.808081	2513.375635
372.195010	2511.071827
372.581875	2515.054339
372.968678	2512.143073
373.355418	2512.473268
373.742096	2509.372959
374.128710	2511.228103
374.515262	2513.123577
374.901751	2511.754904
375.288177	2514.802281
375.674540	2513.136180
376.060841	2513.831859
376.447079	2512.516118
376.833254	2514.386386
377.219367	2512.001920
377.605417	2512.231293
377.991404	2509.330109
378.377329	2510.875223
378.763191	2509.763648
379.148991	2514.283043
379.534727	2513.315141
379.920402	2515.903773
380.306013	2516.107940
380.691563	2516.239010
381.077049	2516.012158
381.462474	2514.963598
381.847835	2517.834535
382.233134	2515.495440
382.618371	2518.951151
383.003545	2515.369411
383.388657	2518.018537
383.773706	2516.286901
384.158693	2518.073990
384.543618	2518.142046
384.928480	2516.218846
385.313280	2517.784124
385.698017	2519.074659
386.082692	2521.960720
386.467305	2517.118692
386.851856	2521.068436
387.236344	2518.618435
387.620770	2520.569361
388.005133	2518.741943
388.389435	2520.788652
388.773674	2520.854187
389.157851	2518.807478
389.541965	2519.777900
389.926018	2518.827643
390.310008	2522.333765
390.693936	2519.072139
391.077802	2520.264372
391.461606	2522.795031
391.845348	2520.125740
392.229027	2522.847963
392.612645	2522.162366
392.996200	2521.839732
393.379694	2522.495082
393.763125	2524.889630
394.146494	2526.122192
394.529801	2526.162522
394.913047	2523.631862
395.296230	2525.867614
395.679351	2520.602129
396.062410	2524.350227
396.445408	2523.392408
396.828343	2524.960206
397.211217	2519.863600
397.594028	2522.623632
397.976778	2518.618435
398.359466	2524.937521
398.742092	2520.529032
399.124656	2524.388035
399.507158	2525.522295
399.889598	2527.712676
400.271977	2526.893489
400.654294	2526.033972
401.036549	2525.655886
401.418742	2528.229395
401.800874	2528.083201
402.182944	2525.517254
402.564952	2527.692512
402.946898	2526.039013
403.328783	2526.255783
403.710606	2525.544980
404.092367	2526.933818
404.474067	2528.640249
404.855705	2525.340813
405.237282	2527.284178
405.618797	2527.735362
406.000250	2527.979857
406.381642	2528.955321
406.762972	2529.325846
407.144240	2530.994468
407.525447	2530.374406
407.906593	2531.062523
408.287677	2529.691329
408.668700	2529.030938
409.049661	2530.762574
409.430560	2528.002543
409.811399	2530.926412
410.192176	2529.582944
410.572891	2526.044054
410.953545	2530.384488
411.334138	2530.621422
411.714669	2530.444982
412.095139	2532.695857
412.475547	2530.122348
412.855894	2530.790301
413.236180	2528.277286
413.616405	2529.991278
413.996568	2532.557225
414.376670	2532.809283
414.756711	2532.491690
415.136691	2530.107224
415.516609	2533.341125
415.896466	2532.446320
416.276262	2534.341794
416.655997	2530.293747
417.035670	2528.857018
417.415283	2530.107224
417.794834	2528.572193
418.174324	2529.192255
418.553753	2533.053779
418.933121	2533.041176
419.312428	2534.024201
419.691674	2531.430527
420.070859	2532.660569
420.449983	2530.777698
420.829045	2532.358100
421.208047	2535.476053
421.586988	2533.817514
421.965867	2537.782381
422.344686	2531.503624
422.723444	2534.525796
423.102141	2534.762730
423.480777	2533.769623
423.859352	2532.436238
424.237866	2535.680220
424.616319	2532.630322
424.994712	2536.358255
425.373044	2535.564273
425.751314	2535.085364
426.129524	2534.356917
426.507673	2536.338091
426.885762	2532.678213
427.263789	2537.603420
427.641756	2535.783564
428.019662	2537.706764
428.397508	2535.995292
428.775292	2535.987730
429.153016	2539.017464
429.530679	2539.876981
429.908282	2534.167874
430.285824	2535.685261
430.663305	2536.733821
431.040726	2535.672658
431.418086	2539.632485
431.795385	2536.685930
432.172624	2536.277597
432.549802	2539.556867
432.926920	2535.947401
433.303977	2538.906558
433.680974	2538.609130
434.057910	2538.437731
434.434786	2537.106867
434.811601	2537.482432
435.188355	2536.690971
435.565050	2538.725077
435.941683	2539.859337
436.318257	2536.569984
436.694770	2536.784233
437.071222	2537.169881
437.447614	2536.965714
437.823946	2534.545960
438.200218	2539.082999
438.576429	2541.689275
438.952580	2537.537885
439.328670	2540.139121
439.704700	2539.249357
440.080670	2539.861857
440.456580	2540.318082
440.832429	2542.687424
441.208218	2542.372352
441.583947	2539.014943
441.959616	2541.885880
442.335224	2540.378575
442.710773	2538.321785
443.086261	2539.927392
443.461689	2543.073072
443.837057	2540.353370
444.212365	2540.209697
444.587612	2541.094419
444.962800	2543.191539
445.337927	2542.357228
445.712995	2538.823379
446.088002	2541.401930
446.462949	2539.362783
446.837837	2543.287321
447.212664	2540.930582
447.587431	2542.780685
447.962139	2542.142979
448.336786	2542.702547
448.711374	2542.221117
449.085901	2544.114070
449.460369	2542.677342
449.834776	2541.424615
450.209124	2542.964687
450.583412	2542.947043
450.957640	2541.081816
451.331808	2542.826056
451.705917	2542.931920
452.079965	2545.908721
452.453954	2544.008206
452.827883	2543.894780
453.201752	2543.302445
453.575562	2542.828576
453.949311	2543.914945
454.323001	2543.569626
454.696632	2542.848741
455.070202	2544.550130
455.443713	2542.720191
455.817164	2541.311189
456.190556	2541.054090
456.563888	2541.217927
456.937160	2542.087527
457.310373	2541.780016
457.683526	2545.238248
458.056619	2544.860161
458.429653	2546.246478
458.802628	2542.382434
459.175542	2545.520552
459.548398	2546.445604
459.921194	2546.916952
460.293930	2544.333361
460.666607	2543.592311
461.039224	2545.187836
461.411782	2544.351005
461.784280	2545.303783
462.156719	2544.673638
462.529099	2547.400903
462.901419	2546.100285
463.273680	2545.162630
463.645882	2544.595501
464.018024	2545.409647
464.390106	2542.931920
464.762130	2547.637837
465.134094	2544.038453
465.505999	2544.824873
465.877845	2543.617517
466.249631	2546.488454
466.621358	2546.775800
466.993026	2550.533980
467.364634	2546.801005
467.736184	2546.470810
468.107674	2546.743032
468.479105	2543.567105
468.850477	2545.061807
469.221790	2545.470141
469.593043	2543.289842
469.964238	2550.402910
470.335373	2545.475182
470.706449	2547.300080
471.077467	2543.499050
471.448425	2546.801005
471.819324	2548.739329
472.190164	2546.901828
472.560945	2547.191695
472.931667	2545.029040
473.302330	2546.624565
473.672934	2546.566592
474.043479	2548.134391
474.413965	2545.596170
474.784393	2539.879501
475.154761	2544.093906
475.525070	2539.466127
475.895321	2545.376879
476.265513	2541.452341
476.635645	2548.623382
477.005719	2547.458876
477.375734	2544.872764
477.745691	2543.519214
478.115588	2548.099103
478.485427	2548.545245
478.855207	2548.643547
479.224928	2545.739842
479.594591	2549.079607
479.964194	2547.378217
480.333739	2549.911397
480.703226	2545.230686
481.072653	2548.923331
481.442022	2547.426108
481.811333	2547.678166
482.180584	2545.807898
482.549777	2548.000800
482.918912	2547.237065
483.287988	2549.067004
483.657005	2547.945347
484.025964	2549.389638
484.394864	2547.491643
484.763706	2548.567930
485.132489	2550.622200
485.501213	2548.159596
485.869879	2550.357539
486.238487	2547.133722
486.607036	2548.759494
486.975527	2551.078424
487.343959	2547.128680
487.712333	2549.835780
488.080648	2549.926521
488.448905	2548.467107
488.817104	2548.996428
489.185244	2548.608259
489.553326	2549.639175
489.921350	2550.372663
490.289315	2547.869730
490.657222	2549.124977
491.025070	2546.445604
491.392861	2550.110523
491.760593	2548.772097
492.128267	2549.689587
492.495883	2550.080276
492.863440	2549.238403
493.230939	2550.770914
493.598380	2548.668753
493.965763	2544.925696
494.333088	2551.247303
494.700354	2545.903680
495.067563	2547.128680
495.434713	2546.634647
495.801805	2552.358877
496.168839	2550.876778
496.535815	2549.616490
496.902733	2548.648588
497.269593	2550.544062
497.636395	2551.053219
498.003139	2550.183620
498.369825	2551.683363
498.736453	2550.778476
499.103023	2550.052550
499.469535	2546.919472
499.835989	2549.800492
500.202385	2548.391489
500.568723	2548.847714
500.935003	2552.565565
501.301226	2550.070194
501.667390	2549.810574
502.033497	2550.150852
502.399546	2551.824515
502.765537	2549.435008
503.131470	2551.242262
503.497345	2552.840308
503.863163	2551.849721
504.228923	2548.451983
504.594625	2550.977601
504.960269	2549.704710
505.325856	2548.978784
505.691385	2549.850903
506.056856	2552.842828
506.422270	2551.927859
506.787625	2550.579350
507.152924	2550.264278
507.518164	2550.365101
507.883347	2549.896274
508.248472	2550.579350
508.613540	2550.690256
508.978550	2549.818136
509.343503	2550.909546
509.708398	2549.891233
510.073236	2550.486089
510.438016	2551.403579
510.802738	2551.350647
511.167403	2551.587581
511.532010	2549.591284
511.896561	2554.786193
512.261053	2552.137067
512.625488	2547.917621
512.989866	2550.942313
513.354186	2548.930893
513.718449	2546.677497
514.082655	2549.903836
514.446803	2550.561706
514.810894	2551.547252
515.174927	2551.688404
515.538904	2551.706048
515.902822	2550.327292
516.266684	2550.614638
516.630488	2549.581202
516.994235	2553.331820
517.357925	2553.619166
517.721558	2551.133877
518.085133	2551.844680
518.448651	2550.244113
518.812112	2552.938610
519.175516	2552.449618
519.538863	2549.167827
519.902152	2550.609597
520.265385	2551.262427
520.628560	2551.045657
520.991678	2553.130174
521.354739	2551.620348
521.717743	2549.417364
522.080690	2553.480534
522.443580	2549.974412
522.806413	2550.516336
523.169189	2550.662529
523.531908	2552.835267
523.894569	2550.128167
524.257174	2551.615307
524.619722	2550.624721
524.982213	2555.320555
525.344647	2552.658826
525.707025	2554.493806
526.069345	2552.734443
526.431608	2554.057746
526.793815	2549.452652
527.155964	2551.711089
527.518057	2552.258054
527.880093	2551.554813
528.242072	2552.978939
528.603995	2551.562375
528.965860	2550.254196
529.327669	2552.149670
529.689421	2549.447611
530.051117	2552.363919
530.412755	2553.296532
530.774337	2551.126315
531.135862	2554.211502
531.497331	2551.582540
531.858743	2547.416026
532.220098	2549.341747
532.581396	2549.762683
532.942638	2550.813764
533.303824	2552.981460
533.664953	2551.839639
534.026025	2549.427447
534.387040	2554.834084
534.747999	2550.501212
535.108902	2552.371480
535.469748	2553.485575
535.830537	2552.759649
536.191270	2551.814433
536.551947	2554.004814
536.912567	2551.227138
537.273131	2555.071018
537.633638	2550.342416
537.994089	2551.280071
538.354483	2554.556821
538.714821	2554.312325
539.075103	2551.471634
539.435328	2553.198230
539.795497	2552.114382
540.155609	2556.328786
540.515665	2552.265616
540.875665	2554.307283
541.235609	2554.040102
541.595496	2555.411296
541.955328	2552.356357
542.315102	2554.012376
542.674821	2554.002294
543.034483	2553.052036
543.394090	2551.567416
543.753640	2552.084135
544.113134	2550.382745
544.472571	2555.940617
544.831953	2552.860472
545.191278	2550.571788
545.550548	2554.461039
545.909761	2550.624721
546.268918	2553.541028
546.628019	2555.524722
546.987064	2553.888868
547.346053	2552.711758
547.704986	2549.805533
548.063863	2553.256203
548.422684	2555.164280
548.781449	2552.255534
549.140158	2553.465411
549.498811	2550.158414
549.857408	2553.127653
550.215949	2550.503733
550.574434	2549.389638
550.932864	2551.539690
551.291237	2547.506767
551.649555	2552.368960
552.007817	2550.317210
552.366022	2554.183775
552.724173	2553.278888
553.082267	2553.210832
553.440305	2551.900133
553.798288	2553.573796
554.156215	2549.835780
554.514086	2552.547921
554.871902	2554.612273
555.229661	2555.504557
555.587365	2551.426264
555.945014	2553.110009
556.302606	2553.679660
556.660143	2553.525905
557.017625	2552.338713
557.375050	2553.914073
557.732421	2554.367777
558.089735	2552.777293
558.446994	2554.264434
558.804197	2553.283929
559.161345	2551.451470
559.518437	2553.339382
559.875474	2553.992211
560.232455	2553.740154
560.589381	2554.319886
560.946251	2555.890206
561.303065	2552.668908
561.659825	2556.129661
562.016528	2554.430792
562.373177	2553.573796
562.729770	2552.164793
563.086307	2553.699824
563.442789	2553.699824
563.799216	2552.099258
564.155587	2553.848538
564.511904	2553.538507
564.868164	2555.013045
565.224370	2556.820299
565.580520	2556.792572
565.936615	2552.754608
566.292654	2552.313507
566.648638	2555.083621
567.004567	2548.772097
567.360441	2553.089845
567.716260	2552.424412
568.072023	2553.525905
568.427732	2549.616490
568.783385	2550.140770
569.138982	2546.102806
569.494525	2551.549772
569.850013	2549.288815
570.205445	2554.546738
570.560823	2553.266285
570.916145	2550.980122
571.271412	2553.712427
571.626625	2556.343910
571.981782	2552.772252
572.336884	2553.329300
572.691931	2552.255534
573.046923	2554.148487
573.401860	2550.821326
573.756743	2552.437015
574.111570	2552.658826
574.466342	2552.447098
574.821059	2555.960782
575.175722	2554.423230
575.530330	2554.002294
575.884882	2553.535987
576.239380	2554.730740
576.593823	2557.553787
576.948211	2551.960626
577.302544	2554.834084
577.656823	2551.968188
578.011047	2554.065308
578.365216	2552.928528
578.719330	2552.157231
579.073389	2557.480690
579.427394	2554.612273
579.781344	2554.234187
580.135239	2554.070349
580.489080	2554.927345
580.842866	2553.228477
581.196597	2552.973898
581.550273	2552.104299
581.903895	2550.826367
582.257463	2554.793755
582.610975	2552.578168
582.964434	2552.285781
583.317837	2556.749723
583.671186	2556.767367
584.024481	2553.016748
584.377721	2555.398693
584.730906	2554.173693
585.084037	2554.506409
585.437113	2553.258723
585.790135	2555.383570
586.143103	2557.216029
586.496016	2552.263096
586.848874	2549.787889
587.201679	2550.612118
587.554428	2548.273022
587.907124	2553.190668
588.259765	2552.116902
588.612352	2554.163611
588.964884	2552.762170
589.317362	2554.161090
589.669786	2554.335010
590.022155	2553.288970
590.374470	2555.275185
590.726731	2553.563713
591.078937	2557.931873
591.431090	2553.198230
591.783188	2552.442057
592.135232	2553.651933
592.487222	2553.906512
592.839157	2555.726368
593.191038	2552.126984
593.542866	2553.591440
593.894639	2554.889537
594.246358	2554.072870
594.598022	2552.079093
594.949633	2551.756460
595.301190	2553.684701
595.652692	2555.885165
596.004141	2553.110009
596.355535	2555.146636
596.706876	2555.522202
597.058162	2552.142108
597.409395	2551.580019
597.760573	2554.203940
598.111698	2554.206460
598.462768	2555.149156
598.813785	2554.836605
599.164748	2553.162942
599.515657	2553.987170
599.866511	2555.128992
600.217312	2555.428940
600.568060	2552.026161
600.918753	2555.071018
601.269392	2552.711758
601.619978	2554.327448
601.970510	2555.875082
602.320988	2556.172510
602.671412	2553.896429
603.021783	2552.618497
603.372100	2555.108827
603.722363	2552.610935
604.072572	2554.327448
604.422728	2554.836605
604.772830	2550.178578
605.122878	2548.169679
605.472872	2551.053219
605.822813	2548.557848
606.172701	2553.198230
606.522534	2551.854762
606.872314	2554.115720
607.222041	2554.178734
607.571714	2552.951213
607.921333	2553.004145
608.270899	2552.215205
608.620411	2552.797458
608.969870	2555.381049
609.319276	2555.166800
609.668627	2557.798283
610.017926	2558.403221
610.367171	2559.108982
610.716362	2559.519837
611.065500	2557.276523
611.414585	2555.305432
611.763616	2556.091852
612.112594	2552.023641
612.461518	2552.883157
612.810389	2554.758467
613.159207	2556.049002
613.507971	2556.573282
613.856682	2555.721327
614.205340	2554.105637
614.553945	2554.788714
614.902496	2556.396842
615.250994	2553.609084
615.599439	2554.314845
615.947830	2553.367108
616.296169	2553.619166
616.644454	2554.430792
616.992686	2550.942313
617.340864	2554.690411
617.688990	2552.303425
618.037063	2555.204609
618.385082	2553.079762
618.733048	2556.512788
619.080961	2552.449618
619.428821	2555.461708
619.776628	2554.861810
620.124382	2556.351471
620.472083	2552.525236
620.819731	2553.972047
621.167326	2550.833928
621.514868	2555.597819
621.862357	2553.503219
622.209793	2555.587737
622.557176	2550.813764
622.904506	2553.982129
623.251783	2551.111192
623.599007	2550.087838
623.946179	2547.945347
624.293297	2550.526418
624.640363	2553.425082
624.987376	2554.269475
625.334336	2554.221584
625.681243	2552.888199
626.028097	2553.987170
626.374899	2555.738971
626.721647	2553.291491
627.068343	2553.089845
627.414987	2555.575134
627.761577	2553.788045
628.108115	2554.254351
628.454600	2552.923487
628.801032	2555.227294
629.147412	2554.304763
629.493739	2554.645041
629.840014	2552.144628
630.186236	2556.535473
630.532405	2552.200081
630.878521	2553.878785
631.224585	2552.452139
631.570597	2553.972047
631.916556	2555.058415
632.262462	2554.634958
632.608316	2551.980791
632.954117	2554.645041
633.299866	2552.862993
633.645562	2551.837118
633.991206	2554.448436
634.336797	2552.346275
634.682336	2553.777962
635.027823	2551.743857
635.373257	2551.577499
635.718639	2553.258723
636.063968	2553.873744
636.409245	2556.023796
636.754470	2550.108002
637.099642	2554.022458
637.444762	2555.640669
637.789829	2553.306614
638.134845	2553.299053
638.479808	2551.131357
638.824719	2553.480534
639.169577	2553.835936
639.514383	2553.213353
639.859137	2554.423230
640.203839	2554.201419
640.548489	2552.018600
640.893086	2551.048178
641.237632	2548.880481
641.582125	2551.595143
641.926566	2547.337888
642.270955	2554.327448
642.615292	2553.785524
642.959576	2554.980278
643.303809	2555.123950
643.647990	2553.099927
643.992118	2552.497509
644.336195	2554.634958
644.680219	2553.230997
645.024192	2555.416337
645.368112	2552.439536
645.711981	2552.101779
646.055797	2550.261758
646.399562	2554.768549
646.743274	2554.622356
647.086935	2553.067160
647.430544	2551.922818
647.774101	2552.817622
648.117606	2555.522202
648.461059	2551.683363
648.804460	2556.240566
649.147810	2553.798127
649.491108	2555.008004
649.834354	2552.812581
650.177548	2553.760318
650.520690	2553.309135
650.863781	2550.561706
651.206820	2556.333827
651.549807	2553.351985
651.892742	2553.828374
652.235626	2553.636810
652.578458	2554.372818
652.921238	2555.549928
653.263967	2554.236707
653.606644	2551.390976
653.949269	2551.403579
654.291843	2551.564896
654.634365	2554.748384
654.976836	2553.256203
655.319255	2553.803168
655.661622	2551.327962
656.003938	2552.893240
656.346203	2553.798127
656.688416	2552.573127
657.030577	2554.123281
657.372687	2551.847200
657.714746	2554.531615
658.056753	2555.875082
658.398708	2546.057435
658.740612	2551.758980
659.082465	2550.579350
659.424266	2549.639175
659.766016	2546.982487
660.107715	2555.217212
660.449362	2551.365770
660.790958	2552.764690
661.132503	2550.468445
661.473996	2555.554969
661.815438	2553.147818
662.156829	2554.251831
662.498168	2554.561862
662.839456	2553.495658
663.180693	2553.886347
663.521879	2550.223949
663.863013	2552.250493
664.204097	2551.670760
664.545129	2553.495658
664.886110	2551.741336
665.227040	2553.956923
665.567918	2551.431305
665.908746	2553.110009
666.249522	2553.339382
666.590248	2551.637992
666.930922	2552.878116
667.271545	2552.762170
667.612118	2550.723023
667.952639	2554.602191
668.293109	2551.953065
668.633528	2553.399876
668.973896	2551.685883
669.314213	2552.366439
669.654480	2553.276368
669.994695	2551.711089
670.334859	2552.976419
670.674973	2551.814433
671.015035	2555.706204
671.355047	2551.333003
671.695008	2552.424412
672.034918	2555.794424
672.374777	2552.805020
672.714585	2553.916594
673.054342	2553.291491
673.394049	2546.985007
673.733705	2554.546738
674.073310	2555.249979
674.412864	2553.989691
674.752368	2552.802499
675.091820	2551.864844
675.431223	2551.161603
675.770574	2556.164949
676.109875	2546.685059
676.449125	2552.142108
676.788324	2548.832590
677.127473	2548.799823
677.466571	2548.681356
677.805619	2555.522202
678.144616	2553.843497
678.483562	2552.308466
678.822458	2550.743188
679.161303	2553.157900
679.500098	2553.538507
679.838842	2555.310473
680.177535	2551.201933
680.516179	2550.080276
680.854771	2551.275029
681.193314	2552.149670
681.531805	2551.637993
681.870247	2554.425751
682.208638	2551.580019
682.546978	2552.409289
682.885268	2552.356357
683.223508	2551.564896
683.561697	2556.159907
683.899836	2552.560524
684.237925	2552.696635
684.575963	2550.458362
684.913951	2552.646223
685.251889	2553.455328
685.589776	2553.110009
685.927614	2554.425751
686.265401	2553.611604
686.603137	2551.252344
686.940824	2552.310987
687.278460	2553.117571
687.616046	2552.563044
687.953582	2552.946172
688.291068	2551.960626
688.628504	2552.033723
688.965889	2551.953065
689.303224	2552.356357
689.640510	2552.144628
689.977745	2552.966337
690.314930	2552.908363
690.652065	2551.761501
690.989150	2553.102448
691.326185	2550.977601
691.663170	2550.811243
692.000105	2551.504402
692.336990	2553.707386
692.673825	2551.537169
693.010610	2553.304094
693.347345	2545.147507
693.684030	2546.498536
694.020665	2551.007848
694.357251	2546.450645
694.693786	2551.690925
695.030272	2549.014072
695.366707	2550.370142
695.703093	2551.799309
696.039429	2551.559855
696.375716	2551.610266
696.711952	2549.404761
697.048139	2550.975081
697.384276	2552.230328
697.720363	2554.642520
698.056400	2551.927859
698.392388	2550.889381
698.728326	2551.998435
699.064214	2552.978939
699.400053	2553.440205
699.735842	2553.679660
700.071581	2552.487427
700.407270	2550.042467
700.742910	2555.713765
701.078501	2554.234187
701.414042	2552.731923
701.749533	2550.009700
702.084974	2552.588250
702.420366	2553.346944
702.755709	2550.927190
703.091002	2550.407951
703.426246	2554.100596
703.761440	2555.466749
704.096584	2551.680842
704.431679	2550.929710
704.766725	2552.880637
705.101721	2550.728064
705.436668	2550.884340
705.771565	2553.016748
706.106413	2552.258054
706.441212	2553.341902
706.775961	2551.816953
707.110661	2552.247972
707.445311	2552.797458
707.779913	2552.200081
708.114465	2551.007848
708.448967	2552.686553
708.783421	2553.568754
709.117825	2553.059598
709.452180	2552.247972
709.786485	2551.353167
710.120742	2551.706048
710.454949	2553.780483
710.789107	2549.949206
711.123216	2547.892415
711.457275	2551.496840
711.791286	2545.505429
712.125247	2549.810574
712.459159	2550.395348
712.793023	2551.040616
713.126837	2553.450287
713.460602	2552.308466
713.794318	2550.115564
714.127985	2551.514484
714.461602	2550.365101
714.795171	2551.917777
715.128691	2551.685883
715.462162	2549.619010
715.795584	2551.186809
716.128957	2553.064639
716.462281	2550.692776
716.795556	2550.894422
717.128782	2551.164124
717.461960	2553.044474
717.795088	2551.408620
718.128167	2552.525236
718.461198	2550.786038
718.794180	2552.300904
719.127113	2551.794268
719.459997	2554.723179
719.792833	2550.700338
720.125619	2550.818805
720.458357	2552.013558
720.791046	2552.489948
721.123686	2551.738816
721.456278	2555.098745
721.788821	2551.587581
722.121315	2553.447767
722.453761	2550.934752
722.786158	2550.995245
723.118506	2549.437529
723.450805	2553.644372
723.783056	2551.111192
724.115259	2548.152035
724.447412	2548.802343
724.779518	2552.928528
725.111574	2550.138249
725.443582	2551.045657
725.775542	2550.102961
726.107453	2551.448949
726.439315	2551.101110
726.771129	2557.805844
727.102895	2553.412479
727.434612	2553.780483
727.766281	2551.753939
728.097901	2547.355532
728.429473	2546.934596
728.760996	2550.496171
729.092471	2547.340409
729.423897	2550.748229
729.755276	2548.419216
730.086606	2552.021120
730.417887	2549.888712
730.749120	2550.932231
731.080305	2550.586912
731.411442	2552.815102
731.742530	2552.363919
732.073570	2550.579350
732.404562	2551.580019
732.735506	2551.514484
733.066401	2547.710934
733.397249	2551.267468
733.728048	2551.529608
734.058798	2552.709238
734.389501	2553.145298
734.720156	2549.026675
735.050762	2551.108671
735.381320	2550.705379
735.711831	2553.097407
736.042293	2552.792417
736.372707	2548.741850
736.703073	2553.740154
737.033391	2551.106151
737.363661	2548.935934
737.693883	2549.742519
738.024056	2555.680998
738.354182	2551.431305
738.684260	2550.312169
739.014290	2550.153373
739.344272	2552.167314
739.674207	2551.776624
740.004093	2552.338713
740.333931	2551.277550
740.663722	2551.040616
740.993464	2551.005328
741.323159	2547.978115
741.652806	2552.600853
741.982405	2551.829556
742.311956	2550.947354
742.641460	2551.020451
742.970915	2548.890564
743.300323	2547.617672
743.629683	2549.873589
743.958996	2553.276368
744.288260	2552.182437
744.617477	2552.046326
744.946647	2546.463248
745.275768	2548.845193
745.604842	2543.488967
745.933869	2548.368804
746.262847	2545.250851
746.591778	2550.728064
746.920662	2553.150339
747.249498	2549.238403
747.578286	2551.577499
747.907027	2551.247303
748.235720	2550.856614
748.564365	2551.138918
748.892963	2550.831408
749.221514	2551.476676
749.550017	2551.327962
749.878473	2549.954247
750.206881	2551.610266
750.535242	2550.982643
750.863555	2550.171017
751.191821	2550.556665
751.520039	2551.340564
751.848210	2548.020965
752.176334	2551.048178
752.504411	2552.658826
752.832440	2550.533980
753.160421	2551.393497
753.488356	2548.560368
753.816243	2551.524567
754.144082	2550.110523
754.471875	2550.506253
754.799620	2552.207643
755.127318	2548.769576
755.454969	2549.719833
755.782572	2549.770245
756.110129	2551.017931
756.437638	2548.595656
756.765100	2549.001469
757.092515	2552.366439
757.419882	2550.130687
757.747203	2548.719164
758.074477	2550.319731
758.401703	2550.445760
758.728882	2550.309648
759.056014	2552.691594
759.383099	2553.770401
759.710138	2550.443239
760.037129	2549.918959
760.364073	2553.659495
760.690970	2550.299566
761.017820	2552.333672
761.344623	2549.475338
761.671379	2550.823846
761.998088	2547.811757
762.324751	2547.264792
762.651366	2547.380738
762.977935	2547.479041
763.304456	2547.380738
763.630931	2550.445760
763.957359	2549.823177
764.283740	2549.349309
764.610074	2549.233362
764.936362	2554.302242
765.262602	2550.954916
765.588796	2552.061449
765.914943	2550.004659
766.241044	2549.208156
766.567097	2547.358053
766.893104	2549.772766
767.219064	2549.805533
767.544978	2550.062632
767.870845	2551.466593
768.196665	2549.508105
768.522438	2549.785368
768.848165	2549.593805
769.173846	2548.036088
769.499479	2550.105482
769.825066	2547.562220
770.150607	2552.099258
770.476101	2550.980122
770.801548	2550.208825
771.126949	2548.242775
771.452303	2551.063301
771.777611	2551.184289
772.102872	2549.656819
772.428087	2549.278732
772.753256	2550.576830
773.078378	2549.505584
773.403453	2549.964329
773.728482	2549.936603
774.053465	2550.884340
774.378401	2550.947354
774.703291	2552.429454
775.028135	2551.060780
775.352932	2553.420040
775.677683	2549.321582
776.002388	2552.147149
776.327046	2547.930224
776.651658	2550.095399
776.976224	2549.704710
777.300743	2549.966850
777.625216	2549.601366
777.949643	2548.767055
778.274024	2550.702858
778.598359	2546.027188
778.922647	2547.342929
779.246889	2544.459389
779.571086	2544.905532
779.895236	2547.630275
780.219339	2549.412323
780.543397	2552.754608
780.867409	2547.894936
781.191374	2548.164637
781.515294	2548.696479
781.839167	2549.082128
782.162995	2549.755122
782.486776	2549.898794
782.810511	2549.732436
783.134201	2550.917107
783.457844	2548.373845
783.781441	2548.451983
784.104993	2545.770089
784.428498	2549.074566
784.751958	2548.595656
785.075372	2549.437529
785.398739	2548.983825
785.722061	2550.954916
786.045337	2548.351160
786.368568	2551.421223
786.691752	2547.781510
787.014891	2551.267468
787.337983	2548.905687
787.661030	2551.085986
787.984031	2547.736139
788.306987	2548.129349
788.629897	2549.024154
788.952760	2548.270502
789.275579	2549.813095
789.598351	2550.155893
789.921078	2547.436191
790.243759	2549.752601
790.566395	2547.413506
790.888984	2548.772097
791.211529	2547.894936
791.534027	2549.276212
791.856480	2551.345606
792.178888	2551.244782
792.501249	2549.775286
792.823566	2551.297715
793.145836	2548.562889
793.468062	2548.996428
793.790241	2547.877292
794.112375	2550.670091
794.434464	2548.368804
794.756507	2549.314021
795.078505	2550.468445
795.400457	2547.789072
795.722364	2546.816129
796.044226	2549.009031
796.366042	2546.342260
796.687812	2544.368649
797.009538	2549.339226
797.331218	2546.478372
797.652852	2546.987528
797.974442	2549.054401
798.295986	2547.337888
798.617484	2549.651778
798.938938	2549.435008
799.260346	2549.273691
799.581709	2549.276212
799.903026	2551.602704
800.224299	2548.656150
800.545526	2550.034906
800.866708	2549.999617
801.187845	2551.922818
801.508936	2549.666901
801.829983	2550.339895
802.150984	2549.619010
802.471940	2550.702858
802.792851	2549.036757
803.113717	2548.809905
803.434538	2549.795451
803.755314	2552.792417
804.076045	2549.409802
804.396731	2549.876109
804.717372	2546.939637
805.037967	2550.191181
805.358518	2549.046839
805.679024	2550.826367
805.999485	2546.143135
806.319901	2548.787220
806.640272	2549.676984
806.960598	2547.224462
807.280879	2547.983156
807.601115	2547.574823
807.921306	2546.553989
808.241453	2549.674463
808.561554	2547.829401
808.881611	2548.935934
809.201623	2550.178578
809.521590	2547.675646
809.841513	2547.852086
810.161390	2550.518856
810.481223	2547.037940
810.801011	2547.920142
811.120755	2547.778989
811.440453	2551.307797
811.760107	2549.563558
812.079716	2547.678166
812.399281	2545.366797
812.718801	2549.175389
813.038276	2544.744215
813.357707	2550.312169
813.677093	2549.135060
813.996434	2548.083979
814.315731	2549.147662
814.634983	2548.222611
814.954191	2546.523742
815.273354	2548.996428
815.592473	2548.210008
815.911547	2550.685214
816.230577	2547.456355
816.549562	2548.204967
816.868502	2547.360573
817.187399	2549.273691
817.506250	2547.332847
817.825058	2547.181612
818.143821	2549.777807
818.462539	2545.586087
818.781213	2550.430636
819.099843	2549.855945
819.418429	2546.183464
819.736970	2548.202446
820.055466	2549.150183
820.373919	2551.070863
820.692327	2546.372507
821.010691	2547.932744
821.329011	2548.187323
821.647286	2551.010369
821.965517	2547.418547
822.283704	2548.020965
822.601847	2547.489123
822.919945	2547.766386
823.237999	2549.339226
823.556010	2550.717982
823.873976	2550.912066
824.191897	2545.568443
824.509775	2547.315203
824.827609	2549.414844
825.145398	2545.984338
825.463144	2549.435008
825.780845	2549.581202
826.098502	2550.241593
826.416116	2546.506098
826.733685	2548.318393
827.051210	2548.162117
827.368692	2547.695810
827.686129	2544.991231
828.003522	2549.818136
828.320872	2547.521890
828.638177	2546.170861
828.955439	2545.076931
829.272656	2545.172713
829.589830	2541.051569
829.906960	2547.259750
830.224046	2547.398382
830.541088	2548.356201
830.858086	2548.731767
831.175041	2551.292673
831.491952	2549.296377
831.808819	2546.095244
832.125642	2548.542724
832.442421	2550.483568
832.759157	2547.577343
833.075849	2548.220090
833.392497	2546.629606
833.709101	2547.993238
834.025662	2547.983156
834.342179	2550.985163
834.658653	2548.252858
834.975083	2548.184802
835.291469	2552.575647
835.607811	2551.615307
835.924110	2549.545914
836.240366	2548.812426
836.556578	2549.087169
836.872746	2548.257899
837.188871	2548.794782
837.504952	2549.014072
837.820990	2547.431150
838.136984	2547.912580
838.452935	2547.247148
838.768842	2548.338557
839.084706	2549.288815
839.400526	2547.176571
839.716303	2545.535676
840.032037	2550.591953
840.347727	2547.479041
840.663373	2549.203115
840.978977	2544.915614
841.294537	2548.484751
841.610054	2547.337888
841.925527	2549.377035
842.240957	2547.554658
842.556344	2549.044319
842.871687	2545.969215
843.186987	2548.134391
843.502244	2547.635316
843.817458	2551.532128
844.132629	2546.662374
844.447756	2547.473999
844.762840	2542.843700
845.077881	2545.364277
845.392879	2545.880995
845.707833	2547.073228
846.022745	2543.977959
846.337613	2545.949050
846.652438	2547.345450
846.967221	2548.290666
847.281960	2546.705223
847.596656	2548.179761
847.911309	2545.313865
848.225919	2546.067517
848.540485	2548.565409
848.855009	2546.942158
849.169490	2544.277908
849.483928	2549.167827
849.798323	2547.617672
850.112675	2546.553989
850.426984	2545.346633
850.741251	2548.648588
851.055474	2547.673125
851.369654	2550.259237
851.683792	2545.528114
851.997887	2547.146324
852.311938	2544.865202
852.625947	2546.881664
852.939914	2547.370656
853.253837	2548.739329
853.567718	2550.420554
853.881555	2547.957950
854.195350	2547.612631
854.509103	2547.872251
854.822812	2544.504760
855.136479	2547.020296
855.450103	2548.744370
855.763685	2546.760676
856.077224	2546.911911
856.390720	2547.544576
856.704173	2547.552137
857.017584	2545.482744
857.330953	2550.410472
857.644278	2545.583567
857.957561	2553.505740
858.270802	2545.911242
858.584000	2548.923331
858.897155	2545.412168
859.210268	2550.506253
859.523339	2549.051881
859.836367	2546.793444
860.149352	2547.907539
860.462295	2546.674977
860.775195	2545.588608
861.088054	2544.615665
861.400869	2543.456200
861.713642	2542.974770
862.026373	2545.528114
862.339062	2545.666746
862.651708	2548.104144
862.964312	2546.455686
863.276873	2544.910573
863.589392	2547.395862
863.901869	2546.581715
864.214303	2546.712785
864.526696	2547.509287
864.839045	2548.799823
865.151353	2544.862682
865.463619	2546.395192
865.775842	2550.115564
866.088023	2548.038609
866.400162	2549.934082
866.712258	2545.399565
867.024313	2546.949719
867.336325	2546.722867
867.648296	2549.064483
867.960224	2546.901828
868.272110	2548.492312
868.583954	2546.117929
868.895755	2546.947199
869.207515	2545.699513
869.519233	2546.687579
869.830909	2548.756973
870.142542	2547.995759
870.454134	2545.790254
870.765684	2549.104813
871.077191	2548.240255
871.388657	2549.455173
871.700081	2543.488967
872.011463	2545.802857
872.322803	2545.621375
872.634101	2544.477033
872.945357	2546.806047
873.256571	2549.024154
873.567744	2546.591797
873.878874	2546.327137
874.189963	2546.095244
874.501010	2546.906870
874.812015	2549.026675
875.122979	2545.046684
875.433900	2543.713299
875.744780	2547.975594
876.055618	2546.997610
876.366415	2546.871582
876.677169	2545.903680
876.987882	2548.008362
877.298554	2542.652136
877.609183	2542.894111
877.919771	2541.656508
878.230317	2545.127342
878.540822	2549.084648
878.851285	2546.642209
879.161707	2544.540048
879.472087	2544.966025
879.782425	2548.192364
880.092722	2545.737322
880.402977	2543.667928
880.713191	2547.284956
881.023363	2546.120450
881.333494	2547.181612
881.643583	2544.535007
881.953631	2547.395862
882.263637	2545.543238
882.573602	2545.427291
882.883526	2545.490305
883.193408	2546.606921
883.503248	2546.649771
883.813048	2545.911242
884.122806	2548.580533
884.432522	2545.868392
884.742197	2545.596170
885.051831	2547.698331
885.361424	2547.053063
885.670975	2545.031560
885.980485	2547.433670
886.289954	2546.105326
886.599382	2544.424101
886.908768	2545.714637
887.218113	2545.573484
887.527417	2548.681356
887.836680	2546.569112
888.145901	2546.009544
888.455082	2546.717826
888.764221	2545.626417
889.073319	2546.584236
889.382376	2546.362425
889.691392	2545.954092
890.000366	2547.894936
890.309300	2545.709596
890.618193	2547.640358
890.927044	2546.979966
891.235855	2546.256561
891.544625	2543.839327
891.853353	2546.649771
892.162041	2545.233207
892.470687	2548.086500
892.779293	2547.297559
893.087858	2545.036602
893.396381	2542.110212
893.704864	2544.658515
894.013306	2539.826569
894.321707	2546.768238
894.630068	2547.181612
894.938387	2545.311344
895.246665	2546.289328
895.554903	2549.508105
895.863100	2548.015923
896.171256	2546.717826
896.479371	2546.322096
896.787446	2543.846889
897.095480	2546.133052
897.403473	2544.913093
897.711425	2545.452497
898.019336	2546.062476
898.327207	2542.848741
898.635038	2546.793444
898.942827	2545.248330
899.250576	2544.106509
899.558284	2544.146838
899.865952	2545.550799
900.173579	2547.438711
900.481165	2545.644061
900.788711	2547.373176
901.096216	2545.243289
901.403681	2549.828218
901.711105	2547.441232
902.018489	2547.663043
902.325832	2547.640357
902.633135	2545.407126
902.940397	2545.651622
903.247619	2546.024668
903.554800	2547.668084
903.861941	2542.707588
904.169041	2543.945192
904.476101	2545.684390
904.783121	2550.002138
905.090100	2545.805377
905.397039	2545.555840
905.703938	2546.279246
906.010796	2545.986859
906.317614	2547.587425
906.624391	2547.678166
906.931129	2546.362425
907.237826	2546.579195
907.544483	2544.550130
907.851099	2546.637168
908.157675	2544.209852
908.464211	2546.077600
908.770707	2541.956457
909.077163	2543.347815
909.383578	2540.713812
909.689954	2543.680531
909.996289	2544.091385
910.302584	2548.502395
910.608839	2544.224976
910.915054	2546.974925
911.221229	2547.050542
911.527363	2548.146993
911.833458	2545.011396
912.139513	2542.952084
912.445527	2545.190357
912.751502	2545.137425
913.057436	2545.938968
913.363331	2546.228834
913.669186	2544.298073
913.975000	2544.981149
914.280775	2545.512991
914.586510	2548.583053
914.892205	2544.633309
915.197859	2545.555840
915.503475	2544.293031
915.809050	2545.984338
916.114585	2544.794626
916.420081	2544.976108
916.725536	2544.625748
917.030952	2546.463248
917.336328	2544.719009
917.641665	2545.147507
917.946961	2545.434853
918.252218	2545.686910
918.557435	2546.279246
918.862612	2547.738660
919.167750	2545.311344
919.472848	2547.537014
919.777906	2544.928217
920.082925	2544.436704
920.387904	2543.597352
920.692843	2546.090203
920.997743	2542.687424
921.302603	2545.601211
921.607423	2546.392672
921.912204	2547.821839
922.216946	2543.967877
922.521647	2545.051725
922.826310	2547.163968
923.130932	2546.112888
923.435516	2543.788916
923.740059	2545.828063
924.044564	2546.760676
924.349028	2548.169679
924.653454	2539.309851
924.957840	2542.667259
925.262186	2540.839841
925.566493	2542.097609
925.870761	2542.221117
926.174989	2546.627086
926.479178	2545.316386
926.783328	2542.896632
927.087438	2544.126673
927.391509	2546.864020
927.695541	2546.337219
927.999533	2546.546427
928.303486	2543.811601
928.607400	2547.816798
928.911275	2545.838145
929.215110	2545.132383
929.518906	2544.020809
929.822663	2545.109698
930.126381	2546.662374
930.430060	2545.303783
930.733699	2547.589946
931.037299	2545.273536
931.340861	2544.487116
931.644383	2543.196580
931.947866	2545.132383
932.251309	2544.930737
932.554714	2543.869574
932.858080	2545.979297
933.161407	2545.306303
933.464694	2544.280428
933.767943	2545.898639
934.071153	2544.250182
934.374323	2543.743546
934.677455	2546.165820
934.980548	2545.245809
935.283602	2545.926365
935.586617	2543.602393
935.889593	2546.669935
936.192530	2543.272198
936.495428	2543.597352
936.798287	2544.504760
937.101108	2542.916796
937.403890	2542.077444
937.706632	2544.822353
938.009336	2546.100285
938.312002	2546.344781
938.614628	2546.589277
938.917216	2543.317568
939.219765	2544.782023
939.522275	2542.919317
939.824747	2545.704554
940.127179	2540.839841
940.429573	2541.603576
940.731929	2542.286652
941.034246	2539.816487
941.336524	2542.536189
941.638763	2546.410316
941.940964	2543.257074
942.243126	2544.827394
942.545250	2544.897970
942.847335	2546.677497
943.149381	2543.378062
943.451389	2545.810419
943.753359	2545.760007
944.055290	2544.424101
944.357182	2544.759338
944.659036	2544.988711
944.960851	2545.618855
945.262628	2541.515356
945.564367	2544.860161
945.866067	2546.180943
946.167729	2543.473844
946.469352	2543.758669
946.770937	2541.936292
947.072484	2542.742877
947.373992	2545.334030
947.675462	2543.191539
947.976893	2545.772610
948.278286	2543.932589
948.579641	2545.754966
948.880958	2544.479554
949.182236	2544.683721
949.483476	2541.772454
949.784678	2545.018958
950.085841	2544.865202
950.386967	2543.317568
950.688054	2542.538710
950.989103	2541.263298
951.290114	2545.102137
951.591087	2546.231355
951.892021	2543.380582
952.192917	2549.450132
952.493776	2544.066179
952.794596	2546.722868
953.095378	2545.301262
953.396122	2545.505429
953.696828	2542.016950
953.997496	2546.344781
954.298126	2544.320758
954.598718	2544.386293
954.899272	2542.480737
955.199788	2543.446117
955.500266	2545.855789
955.800706	2539.803884
956.101108	2541.018802
956.401472	2542.193391
956.701798	2542.979811
957.002087	2543.068031
957.302337	2546.140614
957.602550	2545.578526
957.902724	2542.631971
958.202861	2543.874616
958.502960	2544.093906
958.803022	2544.716488
959.103045	2542.891591
959.403031	2545.505429
959.702979	2541.482588
960.002889	2544.958464
960.302762	2542.936961
960.602596	2544.517363
960.902393	2544.487116
961.202153	2543.519214
961.501875	2544.227496
961.801559	2546.924514
962.101205	2542.841179
962.400814	2545.233207
962.700385	2544.585418
962.999918	2543.365459
963.299414	2541.013761
963.598873	2546.727909
963.898293	2542.521066
964.197677	2543.718340
964.497022	2543.471323
964.796331	2544.565254
965.095601	2544.550130
965.394835	2543.289842
965.694030	2543.201622
965.993189	2546.019627
966.292309	2544.217414
966.591393	2546.090203
966.890439	2544.459389
967.189447	2542.989893
967.488419	2542.442928
967.787353	2545.427291
968.086249	2543.683052
968.385108	2543.083154
968.683930	2543.315047
968.982714	2546.692621
969.281462	2544.824873
969.580172	2543.085675
969.878844	2543.821683
970.177480	2542.339584
970.476078	2542.054759
970.774639	2543.909904
971.073162	2542.551313
971.371649	2543.335212
971.670098	2540.408822
971.968510	2542.868905
972.266885	2539.282124
972.565223	2542.387475
972.863524	2543.841848
973.161788	2546.705223
973.460014	2543.163813
973.758204	2545.518032
974.056356	2543.980480
974.354471	2544.895449
974.652550	2544.071221
974.950591	2542.546272
975.248595	2544.048535
975.546563	2544.300593
975.844493	2543.718340
976.142386	2544.474513
976.440243	2543.869574
976.738062	2544.749256
977.035845	2542.957126
977.333590	2543.773793
977.631299	2541.901004
977.928971	2542.445448
978.226606	2544.570295
978.524204	2540.439069
978.821765	2546.135573
979.119290	2543.970397
979.416777	2543.075593
979.714228	2542.190870
980.011642	2544.033412
980.309020	2546.183464
980.606360	2541.525438
980.903664	2542.135417
981.200931	2542.218597
981.498162	2543.209183
981.795356	2542.722712
982.092513	2543.718340
982.389633	2543.768751
982.686717	2541.585932
982.983764	2542.644574
983.280775	2543.763710
983.577749	2543.700696
983.874686	2543.862013
984.171587	2544.109029
984.468451	2544.509801
984.765279	2541.285983
985.062070	2543.509132
985.358824	2542.510983
985.655543	2544.174564
985.952224	2543.267157
986.248869	2544.923176
986.545478	2538.722556
986.842050	2541.727084
987.138586	2538.654501
987.435086	2541.848072
987.731549	2537.976466
988.027975	2543.645243
988.324366	2543.698175
988.620719	2543.486447
988.917037	2541.472506
989.213318	2543.652805
989.509563	2540.307999
989.805772	2541.376724
990.101944	2540.295396
990.398080	2544.948381
990.694180	2544.010727
990.990244	2544.857641
991.286271	2541.820345
991.582262	2544.512322
991.878217	2547.564740
992.174136	2545.076931
992.470019	2543.146169
992.765865	2543.960315
993.061676	2540.325643
993.357450	2545.200439
993.653188	2545.316386
993.948890	2547.058104
994.244556	2543.786395
994.540186	2540.983514
994.835780	2541.427135
995.131337	2542.642053
995.426859	2545.137425
995.722345	2542.647095
996.017795	2543.814122
996.313208	2544.356046
996.608586	2543.307486
996.903928	2545.654143
997.199234	2543.738504
997.494504	2543.887218
997.789738	2544.903011
998.084936	2544.197249
998.380099	2544.114070
998.675225	2544.043494
998.970316	2544.441745
999.265371	2542.954605
999.560390	2544.298073
999.855373	2546.213711
1000.150320	2543.841848
1000.445232	2544.892929
1000.740108	2545.276056
1001.034948	2543.365459
1001.329752	2541.210366
1001.624521	2542.823535
1001.919254	2538.125180
1002.213951	2540.081147
1002.508613	2537.260622
1002.803239	2541.366642
1003.097829	2538.548637
1003.392384	2542.168185
1003.686903	2542.805891
1003.981386	2543.841848
1004.275834	2543.075593
1004.570246	2543.478885
1004.864623	2541.679193
1005.158964	2543.864533
1005.453270	2542.009389
1005.747540	2544.950902
1006.041775	2541.414532
1006.335974	2544.237579
1006.630138	2542.490819
1006.924266	2543.161292
1007.218359	2544.184647
1007.512416	2543.042825
1007.806438	2543.541899
1008.100425	2541.253216
1008.394376	2539.781199
1008.688292	2543.373021
1008.982172	2543.738504
1009.276017	2540.655839
1009.569827	2543.468803
1009.863602	2545.346633
1010.157341	2544.469472
1010.451045	2541.477547
1010.744714	2543.347815
1011.038347	2543.133566
1011.331945	2539.829090
1011.625508	2544.267826
1011.919036	2540.668442
1012.212528	2542.616848
1012.505986	2541.553164
1012.799408	2542.848741
1013.092795	2541.759852
1013.386147	2540.587783
1013.679464	2543.768751
1013.972745	2541.994265
1014.265992	2543.214224
1014.559204	2542.952084
1014.852380	2543.766231
1015.145521	2541.061652
1015.438628	2542.566436
1015.731699	2545.139945
1016.024736	2542.732794
1016.317737	2544.678680
1016.610703	2544.136756
1016.903635	2539.042670
1017.196531	2537.336239
1017.489393	2539.062834
1017.782219	2538.982176
1018.075011	2541.107022
1018.367768	2540.625592
1018.660490	2543.534338
1018.953177	2543.534338
1019.245829	2543.534338
