Dividing Wavelength (nm)	Counts (n)	Blue Motor Position (mm): 43.600000	Red Motor Position (mm): 0.000000	
326.493990	2131.984620
326.888308	2131.984620
327.282561	2131.984620
327.676750	2097.399784
328.070874	2097.893817
328.464933	2100.096801
328.858929	2105.589138
329.252859	2116.142794
329.646726	2127.243415
330.040528	2140.801598
330.434265	2156.154432
330.827938	2175.363749
331.221547	2189.864628
331.615091	2210.175437
332.008571	2230.191338
332.401986	2250.507188
332.795338	2271.022164
333.188625	2291.131326
333.581847	2307.338636
333.975006	2327.125165
334.368100	2343.377845
334.761129	2362.141019
335.154095	2379.540562
335.546996	2401.033521
335.939833	2425.810792
336.332606	2440.606579
336.725315	2456.491255
337.117960	2463.838737
337.510540	2471.287041
337.903056	2483.010245
338.295508	2491.313025
338.687896	2498.174035
339.080220	2505.070334
339.472480	2518.658764
339.864676	2515.911335
340.256807	2522.129598
340.648875	2527.150588
341.040879	2528.610002
341.432818	2532.252235
341.824694	2530.374406
342.216506	2531.680064
342.608253	2530.845753
342.999937	2533.779705
343.391557	2532.040507
343.783113	2529.290558
344.174605	2529.323325
344.566033	2524.584640
344.957397	2526.472552
345.348697	2524.801410
345.739934	2522.711852
346.131106	2521.252438
346.522215	2519.016686
346.913260	2518.257992
347.304241	2515.452590
347.695159	2514.628362
348.086012	2509.246930
348.476802	2510.355984
348.867528	2509.168792
349.258191	2508.026971
349.648789	2509.259533
350.039324	2502.640498
350.429796	2503.525220
350.820203	2502.832062
351.210548	2502.862308
351.600828	2501.725528
351.991045	2501.765857
352.381198	2499.875425
352.771288	2499.353665
353.161314	2497.342245
353.551276	2496.974241
353.941175	2496.828047
354.331010	2499.270486
354.720782	2498.741165
355.110490	2498.428614
355.500135	2499.966166
355.889717	2500.177894
356.279235	2499.305774
356.668689	2498.433655
357.058080	2498.239570
357.447408	2496.323932
357.836672	2499.020949
358.225873	2498.600013
358.615010	2497.745537
359.004084	2502.953049
359.393095	2499.681340
359.782043	2502.025477
360.170927	2505.120745
360.559748	2504.835920
360.948505	2505.924809
361.337199	2504.049500
361.725830	2507.386744
362.114398	2505.178719
362.502903	2508.881446
362.891344	2508.379851
363.279722	2506.136538
363.668037	2510.345901
364.056289	2507.681652
364.444478	2509.123422
364.832603	2512.022085
365.220665	2511.356653
365.608665	2509.801457
365.996601	2515.145080
366.384474	2514.131808
366.772284	2516.178516
367.160031	2510.882784
367.547715	2514.709020
367.935336	2514.202384
368.322893	2515.208094
368.710388	2518.126922
369.097820	2519.470390
369.485189	2516.133146
369.872495	2521.728827
370.259738	2516.186078
370.646918	2516.049967
371.034035	2518.341171
371.421090	2519.140194
371.808081	2515.858403
372.195010	2518.376459
372.581875	2519.425019
372.968678	2519.324196
373.355418	2518.744464
373.742096	2521.791841
374.128710	2520.019876
374.515262	2521.270082
374.901751	2523.639424
375.288177	2523.531039
375.674540	2524.748478
376.060841	2525.509692
376.447079	2523.732685
376.833254	2526.096987
377.219367	2520.400483
377.605417	2525.189579
377.991404	2529.270393
378.377329	2535.017308
378.763191	2535.062679
379.148991	2544.212373
379.534727	2549.961809
379.920402	2556.056564
380.306013	2564.132492
380.691563	2577.824266
381.077049	2585.806933
381.462474	2594.286154
381.847835	2609.296190
382.233134	2624.996863
382.618371	2634.587658
383.003545	2660.453819
383.388657	2672.434121
383.773706	2691.318283
384.158693	2709.131200
384.543618	2731.700446
384.928480	2753.725247
385.313280	2782.633744
385.698017	2802.692495
386.082692	2840.332270
386.467305	2860.650641
386.851856	2891.840260
387.236344	2917.318251
387.620770	2956.127574
388.005133	2988.509426
388.389435	3025.168697
388.773674	3053.283212
389.157851	3100.672578
389.541965	3130.463277
389.926018	3136.794966
390.310008	3202.463557
390.693936	3239.626943
391.077802	3288.659726
391.461606	3308.252170
391.845348	3376.711040
392.229027	3395.401118
392.612645	3428.675253
392.996200	3507.360103
393.379694	3564.597364
393.763125	3635.717962
394.146494	3640.955721
394.529801	3709.477605
394.913047	3773.268366
395.296230	3768.690998
395.679351	3836.804548
396.062410	3878.807442
396.445408	3880.791136
396.828343	3929.534053
397.211217	3970.415290
397.594028	3913.379675
397.976778	3988.006396
398.359466	4031.511554
398.742092	4072.465888
399.124656	4006.126824
399.507158	4094.097479
399.889598	4128.553765
400.271977	4200.213767
400.654294	4178.662835
401.036549	4195.611194
401.418742	4170.428110
401.800874	4277.565232
402.182944	4301.971978
402.564952	4370.811455
402.946898	4363.731154
403.328783	4365.056977
403.710606	4282.009009
404.092367	4477.409173
404.474067	4443.996406
404.855705	4453.642653
405.237282	4384.596490
405.618797	4496.381556
406.000250	4528.501267
406.381642	4609.494966
406.762972	4573.977516
407.144240	4588.183488
407.525447	4586.131738
407.906593	4644.808248
408.287677	4686.291903
408.668700	4620.063745
409.049661	4671.002084
409.430560	4716.216193
409.811399	4640.545953
410.192176	4797.943379
410.572891	4736.872321
410.953545	4841.657744
411.334138	4721.017892
411.714669	4791.823418
412.095139	4686.067572
412.475547	4826.254499
412.855894	4811.050379
413.236180	4819.910207
413.616405	4769.470942
413.996568	4858.051577
414.376670	4803.158452
414.756711	4759.335702
415.136691	4787.193118
415.516609	4867.329820
415.896466	4903.396756
416.276262	4941.654072
416.655997	4919.614148
417.035670	5100.891519
417.415283	5186.878480
417.794834	5134.798320
418.174324	5089.705199
418.553753	4999.534080
418.933121	5182.404456
419.312428	5248.844343
419.691674	5185.540054
420.070859	5314.361699
420.449983	5227.101847
420.829045	5345.591648
421.208047	5249.913068
421.586988	5320.201876
421.965867	5331.398279
422.344686	5460.408967
422.723444	5320.942926
423.102141	5138.949710
423.480777	5436.355102
423.859352	5206.319690
424.237866	5460.456858
424.616319	5454.407474
424.994712	5561.625254
425.373044	5440.849291
425.751314	5582.142751
426.129524	5392.842383
426.507673	5580.648048
426.885762	5664.573178
427.263789	5595.794195
427.641756	5480.510568
428.019662	5599.383497
428.397508	5605.838694
428.775292	5555.512855
429.153016	5652.237474
429.530679	5581.255507
429.908282	5663.696017
430.285824	5533.853538
430.663305	5809.534077
431.040726	5543.464498
431.418086	5543.734199
431.795385	5652.028266
432.172624	5660.230224
432.549802	5655.864584
432.926920	5668.343961
433.303977	5680.462895
433.680974	5713.439602
434.057910	5731.320575
434.434786	5743.920939
434.811601	5707.390218
435.188355	5943.664058
435.565050	5818.030942
435.941683	5797.397499
436.318257	6008.397514
436.694770	5991.958311
437.071222	6034.906422
437.447614	5962.512932
437.823946	5876.188213
438.200218	6030.933992
438.576429	5894.422067
438.952580	5992.525441
439.328670	6033.933479
439.704700	5944.790755
440.080670	5932.117295
440.456580	6204.069901
440.832429	6087.823413
441.208218	5928.676707
441.583947	6089.101346
441.959616	6085.484318
442.335224	6019.568711
442.710773	6157.179608
443.086261	6182.934863
443.461689	5973.364015
443.837057	6121.175687
444.212365	6278.915912
444.587612	6174.637124
444.962800	6325.324774
445.337927	6309.034285
445.712995	5919.302682
446.088002	6493.414487
446.462949	6325.135731
446.837837	6254.352890
447.212664	6425.739517
447.587431	6574.415747
447.962139	7114.275433
448.336786	8044.789254
448.711374	7776.758666
449.085901	6855.984354
449.460369	6776.059381
449.834776	6708.565892
450.209124	7101.846468
450.583412	7253.388594
450.957640	7399.161119
451.331808	7161.619430
451.705917	6714.456481
452.079965	6640.081817
452.453954	6850.718869
452.827883	6727.802935
453.201752	6821.490259
453.575562	6616.194310
453.949311	6822.364899
454.323001	6710.549586
454.696632	6782.842253
455.070202	6921.242091
455.443713	7077.691780
455.817164	7185.549787
456.190556	7266.120028
456.563888	7338.369845
456.937160	7379.510702
457.310373	7030.062958
457.683526	7062.613689
458.056619	6951.950279
458.429653	6937.333454
458.802628	6872.960440
459.175542	6985.116031
459.548398	7336.149217
459.921194	7502.081316
460.293930	7502.010740
460.666607	8028.483642
461.039224	8338.766661
461.411782	8462.940363
461.784280	8481.595153
462.156719	8374.737815
462.529099	8254.365143
462.901419	7840.534303
463.273680	7732.111687
463.645882	7745.727843
464.018024	7615.076259
464.390106	7781.305787
464.762130	8167.591762
465.134094	8642.959967
465.505999	9658.931428
465.877845	10874.832530
466.249631	11524.838907
466.621358	11137.867334
466.993026	10516.582932
467.364634	10263.491803
467.736184	9899.621318
468.107674	9564.797962
468.479105	9598.251059
468.850477	9363.718938
469.221790	9129.282599
469.593043	8804.586921
469.964238	8668.957197
470.335373	8680.214094
470.706449	8737.471519
471.077467	8715.900422
471.448425	10028.730309
471.819324	11096.804616
472.190164	11124.846034
472.560945	9880.502742
472.931667	9089.013862
473.302330	8956.766753
473.672934	8600.770550
474.043479	8953.774828
474.413965	8894.372391
474.784393	8781.052294
475.154761	8936.403012
475.525070	9027.552114
475.895321	8851.946041
476.265513	9029.296353
476.635645	9194.857928
477.005719	9198.283392
477.375734	9314.504673
477.745691	9546.150734
478.115588	9682.110653
478.485427	9931.579713
478.855207	10465.523605
479.224928	11279.874118
479.594591	11912.511199
479.964194	11720.302085
480.333739	11657.446458
480.703226	11573.407903
481.072653	11661.252530
481.442022	11904.432750
481.811333	12085.581572
482.180584	11894.955381
482.549777	11606.515681
482.918912	11426.606983
483.287988	11443.656165
483.657005	11456.301899
484.025964	11142.900927
484.394864	11273.809610
484.763706	11245.831206
485.132489	11002.580409
485.501213	10969.102107
485.869879	11043.055833
486.238487	10887.231248
486.607036	10993.362659
486.975527	10776.230081
487.343959	10972.323404
487.712333	11019.337205
488.080648	10943.397263
488.448905	10990.506846
488.817104	10927.820098
489.185244	11191.232989
489.553326	11345.661175
489.921350	11883.101107
490.289315	12945.158797
490.657222	13286.071867
491.025070	13190.002598
491.392861	13071.414495
491.760593	12690.719159
492.128267	12341.410048
492.495883	12011.658092
492.863440	11678.122751
493.230939	11337.610453
493.598380	11266.484813
493.965763	11149.056175
494.333088	11039.660616
494.700354	10961.699172
495.067563	11022.480364
495.434713	10850.062820
495.801805	10975.622839
496.168839	10907.148846
496.535815	10835.072949
496.902733	10844.378919
497.269593	10771.748495
497.636395	10875.497962
498.003139	10860.603873
498.369825	10726.383152
498.736453	10890.676876
499.103023	10812.259208
499.469535	10837.447333
499.835989	10836.522281
500.202385	10795.313369
500.568723	10650.097891
500.935003	10869.962775
501.301226	10676.271562
501.667390	10929.095510
502.033497	11031.070490
502.399546	10889.222503
502.765537	10794.726074
503.131470	10865.846673
503.497345	11041.926615
503.863163	10652.048818
504.228923	10961.066507
504.594625	11027.158555
504.960269	10774.032138
505.325856	10996.152938
505.691385	10783.446493
506.056856	10938.232601
506.422270	10972.731737
506.787625	10857.591783
507.152924	10974.319701
507.518164	10957.126846
507.883347	10876.090298
508.248472	10790.773810
508.613540	11034.894205
508.978550	10910.627243
509.343503	10891.060004
509.708398	11013.091215
510.073236	11121.977618
510.438016	11129.307455
510.802738	11073.073384
511.167403	11124.142793
511.532010	11026.266271
511.896561	11262.051118
512.261053	11335.379742
512.625488	11197.388238
512.989866	11179.487101
513.354186	11169.326655
513.718449	11074.641183
514.082655	11267.528332
514.446803	11157.898359
514.810894	11279.415373
515.174927	11145.121555
515.538904	11171.824547
515.902822	11323.265849
516.266684	11204.259331
516.630488	11149.850157
516.994235	11208.496420
517.357925	11261.597414
517.721558	11354.604182
518.085133	11369.168076
518.448651	11382.267514
518.812112	11264.964905
519.175516	11275.122830
519.538863	11395.664380
519.902152	11310.357975
520.265385	11479.471043
520.628560	11387.774975
520.991678	11360.532579
521.354739	11432.074114
521.717743	11368.104392
522.080690	11344.317708
522.443580	11480.557411
522.806413	11436.298601
523.169189	11463.334309
523.531908	11523.777744
523.894569	11337.315545
524.257174	11345.530105
524.619722	11465.670884
524.982213	11410.684498
525.344647	11461.673249
525.707025	11406.898592
526.069345	11507.552790
526.431608	11430.150914
526.793815	11542.777853
527.155964	11324.395068
527.518057	11378.753830
527.880093	11321.990437
528.242072	11385.955118
528.603995	11294.997579
528.965860	11223.140972
529.327669	11268.183682
529.689421	11213.925743
530.051117	11189.922289
530.412755	11292.061107
530.774337	11185.889366
531.135862	11165.707107
531.497331	11194.141735
531.858743	11037.878568
532.220098	11203.765297
532.581396	11078.316184
532.942638	11059.222814
533.303824	11027.125787
533.664953	11039.635411
534.026025	10949.262646
534.387040	11053.833820
534.747999	11049.528675
535.108902	11111.376071
535.469748	10872.289268
535.830537	10973.629063
536.191270	10956.284973
536.551947	10976.182407
536.912567	10971.579834
537.273131	10901.853114
537.633638	10877.680782
537.994089	10871.548218
538.354483	10817.990999
538.714821	10965.036416
539.075103	10972.462036
539.435328	10933.698083
539.795497	10759.760631
540.155609	10914.619836
540.515665	11005.393373
540.875665	10742.204813
541.235609	10803.376694
541.595496	10799.558020
541.955328	10962.541045
542.315102	10847.141472
542.674821	10795.875458
543.034483	10797.128184
543.394090	10799.394183
543.753640	10727.237627
544.113134	10947.651997
544.472571	10803.656478
544.831953	10946.389188
545.191278	10746.618343
545.550548	10784.653849
545.909761	10923.081413
546.268918	10891.238965
546.628019	10974.609567
546.987064	10845.412356
547.346053	10758.949006
547.704986	10864.795592
548.063863	10853.634478
548.422684	10839.862045
548.781449	10754.734601
549.140158	10855.287976
549.498811	10738.282795
549.857408	10591.849879
550.215949	10817.597789
550.574434	10678.472026
550.932864	10772.862590
551.291237	10832.716210
551.649555	10777.192941
552.007817	10790.998141
552.366022	10752.309806
552.724173	10750.011040
553.082267	10733.541590
553.440305	10872.455626
553.798288	10667.336117
554.156215	10825.525004
554.514086	10802.693618
554.871902	10646.594289
555.229661	10687.815804
555.587365	10665.173462
555.945014	10560.279653
556.302606	10684.718015
556.660143	10573.540408
557.017625	10732.611497
557.375050	10627.619386
557.732421	10764.012845
558.089735	10681.905051
558.446994	10671.379122
558.804197	10712.184742
559.161345	10714.881759
559.518437	10562.039016
559.875474	10651.849692
560.232455	10678.005719
560.589381	10631.677515
560.946251	10632.849583
561.303065	10736.049564
561.659825	10667.777218
562.016528	10594.410785
562.373177	10483.313837
562.729770	10595.252658
563.086307	10511.083033
563.442789	10604.356982
563.799216	10481.592283
564.155587	10536.412310
564.511904	10490.580660
564.868164	10479.686727
565.224370	10491.762811
565.580520	10414.955791
565.936615	10425.794271
566.292654	10294.265526
566.648638	10423.039281
567.004567	10379.844154
567.360441	10365.809582
567.716260	10273.153174
568.072023	10368.176403
568.427732	10318.561367
568.783385	10220.394978
569.138982	10297.973295
569.494525	10309.376385
569.850013	10188.313075
570.205445	10268.520354
570.560823	10169.955714
570.916145	10084.578732
571.271412	10156.553806
571.626625	10093.879661
571.981782	10074.471219
572.336884	10048.151354
572.691931	10057.853055
573.046923	9995.645217
573.401860	9959.452253
573.756743	9893.478672
574.111570	9935.408469
574.466342	9923.090410
574.821059	9953.223907
575.175722	9840.236526
575.530330	9848.803967
575.884882	9846.711888
576.239380	9765.927397
576.593823	9749.730170
576.948211	9762.451522
577.302544	9641.831834
577.656823	9658.911263
578.011047	9654.018823
578.365216	9633.556780
578.719330	9556.769924
579.073389	9566.922808
579.427394	9516.881795
579.781344	9493.949586
580.135239	9442.285321
580.489080	9458.109503
580.842866	9351.988173
581.196597	9361.397487
581.550273	9398.679340
581.903895	9369.765802
582.257463	9433.853991
582.610975	9311.195156
582.964434	9338.268673
583.317837	9263.760419
583.671186	9236.676820
584.024481	9237.881656
584.377721	9159.045571
584.730906	9136.292323
585.084037	9164.583279
585.437113	9097.490562
585.790135	9120.326989
586.143103	9020.129015
586.496016	8990.290426
586.848874	9052.359632
587.201679	9043.131800
587.554428	8924.311804
587.907124	8968.132034
588.259765	8940.110780
588.612352	8946.921379
588.964884	8818.941606
589.317362	8832.933329
589.669786	8835.209410
590.022155	8882.225731
590.374470	8895.897340
590.726731	8837.314092
591.078937	8687.243983
591.431090	8801.350500
591.783188	8671.114811
592.135232	8665.768667
592.487222	8662.930498
592.839157	8712.152324
593.191038	8648.898446
593.542866	8597.677802
593.894639	8491.501020
594.246358	8550.452273
594.598022	8566.228564
594.949633	8462.443809
595.301190	8435.080426
595.652692	8467.590827
596.004141	8576.802384
596.355535	8354.618570
596.706876	8337.985283
597.058162	8268.114890
597.409395	8344.097682
597.760573	8403.656394
598.111698	8315.594998
598.462768	8302.798029
598.813785	8268.379551
599.164748	8237.724294
599.515657	8226.162408
599.866511	8144.447825
600.217312	8260.994260
600.568060	8122.753219
600.918753	8220.536480
601.269392	8194.002367
601.619978	8107.506249
601.970510	8169.096546
602.320988	8165.597986
602.671412	8224.400525
603.021783	8161.360896
603.372100	8130.743448
603.722363	8134.763768
604.072572	8111.398020
604.422728	8124.739434
604.772830	8050.382414
605.122878	8059.761481
605.472872	8052.784524
605.822813	8084.284174
606.172701	8019.873351
606.522534	8101.328315
606.872314	8099.032070
607.222041	8066.521668
607.571714	8121.208105
607.921333	8084.422806
608.270899	8091.712314
608.620411	8181.008793
608.969870	8080.652023
609.319276	8080.231086
609.668627	8098.175073
610.017926	8132.901062
610.367171	8178.379831
610.716362	8151.881006
611.065500	8141.372721
611.414585	8170.122421
611.763616	8157.494331
612.112594	8144.251220
612.461518	8156.407962
612.810389	8219.308959
613.159207	8160.042634
613.507971	8104.905014
613.856682	8222.341213
614.205340	8181.275974
614.553945	8260.583406
614.902496	8152.470821
615.250994	8208.125159
615.599439	8193.972120
615.947830	8206.872433
616.296169	8181.205398
616.644454	8191.486831
616.992686	8190.365174
617.340864	8246.533711
617.688990	8151.704566
618.037063	8242.828463
618.385082	8191.529681
618.733048	8274.335674
619.080961	8215.518012
619.428821	8229.338335
619.776628	8238.183039
620.124382	8186.039864
620.472083	8170.339191
620.819731	8198.042852
621.167326	8084.551355
621.514868	8101.736649
621.862357	7988.071232
622.209793	8004.689396
622.557176	7939.161958
622.904506	7911.309583
623.251783	7843.770724
623.599007	7797.084598
623.946179	7805.838562
624.293297	7755.986592
624.640363	7677.054725
624.987376	7662.866398
625.334336	7607.017975
625.681243	7557.329842
626.028097	7545.941875
626.374899	7520.156373
626.721647	7516.655292
627.068343	7446.273223
627.414987	7415.832215
627.761577	7370.749176
628.108115	7411.143942
628.454600	7305.541851
628.801032	7350.899633
629.147412	7308.374980
629.493739	7301.382899
629.840014	7239.701862
630.186236	7299.920965
630.532405	7178.305649
630.878521	7228.278607
631.224585	7187.110024
631.570597	7115.608818
631.916556	7146.957234
632.262462	7139.957592
632.608316	7098.065603
632.954117	7076.935607
633.299866	7063.783236
633.645562	7061.169398
633.991206	6977.549259
634.336797	6919.964158
634.682336	6879.597119
635.027823	6846.055802
635.373257	6837.019533
635.718639	6771.371108
636.063968	6784.273941
636.409245	6670.114491
636.754470	6672.970305
637.099642	6629.903728
637.444762	6575.509678
637.789829	6588.914106
638.134845	6525.554364
638.479808	6511.799575
638.824719	6520.142685
639.169577	6440.401713
639.514383	6465.851979
639.859137	6393.476133
640.203839	6405.229583
640.548489	6386.910030
640.893086	6368.421598
641.237632	6337.108471
641.582125	6357.978848
641.926566	6326.073385
642.270955	6341.600139
642.615292	6337.804150
642.959576	6347.253793
643.303809	6342.071487
643.647990	6347.334452
643.992118	6334.580332
644.336195	6285.958404
644.680219	6309.286343
645.024192	6298.732687
645.368112	6392.546040
645.711981	6419.659886
646.055797	6498.712740
646.399562	6448.654082
646.743274	6578.123516
647.086935	6625.081864
647.430544	6626.347194
647.774101	6646.353013
648.117606	6653.211503
648.461059	6646.973075
648.804460	6602.479851
649.147810	6518.650503
649.491108	6489.247974
649.834354	6462.497091
650.177548	6375.713627
650.520690	6291.670031
650.863781	6269.982987
651.206820	6289.759434
651.549807	6212.975099
651.892742	6152.214072
652.235626	6162.440052
652.578458	6143.497917
652.921238	6050.995264
653.263967	6089.529844
653.606644	6033.678901
653.949269	6035.768459
654.291843	5977.492720
654.634365	6026.722108
654.976836	5977.903574
655.319255	5979.148739
655.661622	5958.643846
656.003938	5953.862312
656.346203	5912.799593
656.688416	5945.030210
657.030577	5896.428446
657.372687	5866.894846
657.714746	5853.913875
658.056753	5895.674793
658.398708	5834.628941
658.740612	5828.483774
659.082465	5878.239963
659.424266	5867.855186
659.766016	5862.700606
660.107715	5843.755950
660.449362	5858.801274
660.790958	5851.342887
661.132503	5839.286967
661.473996	5876.687288
661.815438	5865.531214
662.156829	5861.364700
662.498168	5852.444379
662.839456	5825.317930
663.180693	5862.032653
663.521879	5861.803281
663.863013	5853.815573
664.204097	5871.394076
664.545129	5909.094345
664.886110	5909.739613
665.227040	5939.938645
665.567918	5907.075363
665.908746	5932.240803
666.249522	5941.521567
666.590248	5922.778557
666.930922	5952.271828
667.271545	5970.835877
667.612118	5969.923428
667.952639	5942.713800
668.293109	5962.061748
668.633528	5922.592034
668.973896	5921.374596
669.314213	5914.939563
669.654480	5894.850565
669.994695	5892.463578
670.334859	5882.582917
670.674973	5875.240476
671.015035	5877.529160
671.355047	5874.940528
671.695008	5859.842272
672.034918	5837.026010
672.374777	5845.583368
672.714585	5834.016441
673.054342	5836.978119
673.394049	5832.758673
673.733705	5861.465523
674.073310	5845.580848
674.412864	5812.140354
674.752368	5798.395648
675.091820	5802.766328
675.431223	5741.561679
675.770574	5742.945476
676.109875	5691.790367
676.449125	5696.448393
676.788324	5657.639071
677.127473	5607.351040
677.466571	5595.922745
677.805619	5584.708698
678.144616	5571.916770
678.483562	5555.268359
678.822458	5524.832393
679.161303	5516.199417
679.500098	5506.953941
679.838842	5493.650336
680.177535	5496.480944
680.516179	5511.985013
680.854771	5520.350807
681.193314	5603.877685
681.531805	5710.833326
681.870247	5862.650195
682.208638	5964.007634
682.546978	5973.973995
682.885268	5954.684020
683.223508	5867.688828
683.561697	5814.461805
683.899836	5782.495848
684.237925	5738.627728
684.575963	5699.831008
684.913951	5663.454042
685.251889	5722.974945
685.589776	5696.685328
685.927614	5667.091234
686.265401	5734.809054
686.603137	5720.724070
686.940824	5796.031347
687.278460	5819.434903
687.616046	5830.485113
687.953582	5896.511625
688.291068	5880.074943
688.628504	5944.846208
688.965889	5903.680146
689.303224	5845.041444
689.640510	5801.213653
689.977745	5724.308330
690.314930	5624.377537
690.652065	5566.852931
690.989150	5476.144929
691.326185	5403.464094
691.663170	5349.785888
692.000105	5272.623466
692.336990	5195.045150
692.673825	5168.377446
693.010610	5099.711889
693.347345	5029.334861
693.684030	5014.100494
694.020665	4977.743693
694.357251	4881.472777
694.693786	4896.089603
695.030272	4858.285990
695.366707	4825.538655
695.703093	4794.374242
696.039429	4815.277386
696.375716	4798.316424
696.711952	4772.029327
697.048139	4760.900980
697.384276	4739.130757
697.720363	4751.133745
698.056400	4761.432822
698.392388	4712.241243
698.728326	4690.481102
699.064214	4667.846322
699.400053	4661.907842
699.735842	4630.327534
700.071581	4603.579172
700.407270	4575.099173
700.742910	4556.091502
701.078501	4507.434286
701.414042	4505.831199
701.749533	4470.999346
702.084974	4407.095159
702.420366	4465.083552
702.755709	4409.131786
703.091002	4352.033157
703.426246	4401.156680
703.761440	4357.008775
704.096584	4315.850275
704.431679	4341.439172
704.766725	4326.628262
705.101721	4313.745593
705.436668	4343.546374
705.771565	4288.191984
706.106413	4314.595028
706.441212	4349.404195
706.775961	4356.295452
707.110661	4338.101928
707.445311	4370.249366
707.779913	4389.307448
708.114465	4397.917739
708.448967	4421.222993
708.783421	4485.732118
709.117825	4528.168551
709.452180	4531.447822
709.786485	4577.347528
710.120742	4662.258202
710.454949	4645.375378
710.789107	4718.318354
711.123216	4787.419970
711.457275	4781.521820
711.791286	4850.880535
712.125247	4867.483576
712.459159	4773.148464
712.793023	4847.593703
713.126837	4805.769770
713.460602	4801.157114
713.794318	4723.233479
714.127985	4729.376125
714.461602	4642.398577
714.795171	4615.211634
715.128691	4549.351480
715.462162	4491.544569
715.795584	4438.889717
716.128957	4425.576029
716.462281	4371.670971
716.795556	4346.200542
717.128782	4305.687309
717.461960	4239.010487
717.795088	4247.285541
718.128167	4209.635684
718.461198	4145.829800
718.794180	4143.223523
719.127113	4123.477323
719.459997	4100.378757
719.792833	4060.881316
720.125619	4049.014440
720.458357	4016.957743
720.791046	4019.765665
721.123686	3995.769773
721.456278	3951.679842
721.788821	3969.023931
722.121315	3940.483439
722.453761	3915.353287
722.786158	3927.313424
723.118506	3950.759831
723.450805	3902.548756
723.783056	3925.586829
724.115259	3943.848409
724.447412	3945.166671
724.779518	3941.232050
725.111574	3944.977627
725.443582	3973.576093
725.775542	3956.453814
726.107453	4011.667052
726.439315	4009.582535
726.771129	4023.818753
727.102895	4059.842838
727.434612	4106.927215
727.766281	4124.480513
728.097901	4119.938433
728.429473	4126.214670
728.760996	4134.411586
729.092471	4128.037047
729.423897	4114.584728
729.755276	4120.054380
730.086606	4117.296869
730.417887	4156.227179
730.749120	4221.522725
731.080305	4283.723001
731.411442	4313.937157
731.742530	4279.571611
732.073570	4286.283908
732.404562	4338.840457
732.735506	4334.260569
733.066401	4295.206750
733.397249	4228.091348
733.728048	4150.878515
734.058798	4068.372471
734.389501	3999.659023
734.720156	3933.849280
735.050762	3888.398237
735.381320	3882.379100
735.711831	3831.760874
736.042293	3804.311791
736.372707	3824.544462
736.703073	3798.953045
737.033391	3791.209832
737.363661	3808.271618
737.693883	3829.066377
738.024056	3841.127338
738.354182	3840.010722
738.684260	3899.052716
739.014290	3920.918721
739.344272	3918.715737
739.674207	3960.295173
740.004093	3962.364567
740.333931	3958.036737
740.663722	3958.424905
740.993464	3954.528093
741.323159	3934.340793
741.652806	3901.648910
741.982405	3874.477091
742.311956	3845.316537
742.641460	3832.882531
742.970915	3810.759427
743.300323	3770.304167
743.629683	3737.579517
743.958996	3727.091397
744.288260	3702.077191
744.617477	3668.175432
744.946647	3650.876712
745.275768	3628.718320
745.604842	3626.616159
745.933869	3579.854416
746.262847	3567.070050
746.591778	3604.155298
746.920662	3578.621854
747.249498	3545.446021
747.578286	3589.392279
747.907027	3609.970269
748.235720	3609.443469
748.564365	3631.175883
748.892963	3633.429279
749.221514	3616.198615
749.550017	3589.641816
749.878473	3590.692897
750.206881	3563.916808
750.535242	3556.760890
750.863555	3557.113771
751.191821	3552.047412
751.520039	3534.166439
751.848210	3514.382431
752.176334	3544.689847
752.504411	3552.294428
752.832440	3515.211700
753.160421	3493.733864
753.488356	3502.119824
753.816243	3515.430991
754.144082	3474.159064
754.471875	3456.545273
754.799620	3476.291472
755.127318	3469.057416
755.454969	3467.996253
755.782572	3473.256698
756.110129	3450.974797
756.437638	3441.504990
756.765100	3455.489151
757.092515	3465.387456
757.419882	3470.229485
757.747203	3443.221503
758.074477	3444.101184
758.401703	3461.641879
758.728882	3484.742967
759.056014	3489.781600
759.383099	3495.715038
759.710138	3490.237824
760.037129	3505.479753
760.364073	3538.532078
760.690970	3524.749563
761.017820	3501.764422
761.344623	3520.555323
761.671379	3565.091397
761.998088	3614.754324
762.324751	3743.374323
762.651366	3989.450687
762.977935	4469.638235
763.304456	4911.061830
763.630931	5009.187890
763.957359	4642.522085
764.283740	4302.241680
764.610074	4106.720528
764.936362	3911.479160
765.262602	3751.719954
765.588796	3640.698622
765.914943	3549.257133
766.241044	3460.235397
766.567097	3432.970317
766.893104	3383.955178
767.219064	3351.888398
767.544978	3327.043071
767.870845	3271.890328
768.196665	3251.266967
768.522438	3257.437340
768.848165	3256.033378
769.173846	3217.614745
769.499479	3202.277034
769.825066	3184.259950
770.150607	3170.936181
770.476101	3183.140814
770.801548	3180.839527
771.126949	3135.554842
771.452303	3117.757049
771.777611	3123.987915
772.102872	3132.527630
772.428087	3105.912858
772.753256	3095.517999
773.078378	3087.000969
773.403453	3054.430074
773.728482	3037.902651
774.053465	3061.737227
774.378401	3049.875392
774.703291	3015.706451
775.028135	3017.271729
775.352932	3015.174609
775.677683	3000.608195
776.002388	2997.679285
776.327046	2999.237001
776.651658	2988.632934
776.976224	2976.793784
777.300743	2978.941316
777.625216	2965.000005
777.949643	2964.155612
778.274024	2966.106538
778.598359	2953.637244
778.922647	2959.492544
779.246889	2959.558079
779.571086	2943.764144
779.895236	2937.553443
780.219339	2947.481995
780.543397	2963.323821
780.867409	2967.213072
781.191374	2956.276288
781.515294	2954.350568
781.839167	2955.331072
782.162995	2944.127108
782.486776	2953.312090
782.810511	2954.584981
783.134201	2938.808690
783.457844	2945.886470
783.781441	2937.351797
784.104993	2916.786410
784.428498	2918.192892
784.751958	2933.754933
785.075372	2926.541042
785.398739	2906.951118
785.722061	2928.381063
786.045337	2939.895059
786.368568	2923.828902
786.691752	2913.698703
787.014891	2965.569655
787.337983	2993.293481
787.661030	3020.346833
787.984031	3086.711103
788.306987	3134.939822
788.629897	3125.162504
788.952760	3108.486367
789.275579	3094.663523
789.598351	3035.006508
789.921078	2989.444560
790.243759	2983.763180
790.566395	2962.509675
790.888984	2940.099226
791.211529	2922.888726
791.534027	2915.135432
791.856480	2900.339645
792.178888	2887.209960
792.501249	2880.994217
792.823566	2878.836603
793.145836	2872.998947
793.468062	2870.231354
793.790241	2868.464429
794.112375	2873.876108
794.434464	2886.778941
794.756507	2893.453429
795.078505	2897.098183
795.400457	2912.572005
795.722364	2948.565843
796.044226	2974.157261
796.366042	2974.772282
796.687812	2965.746096
797.009538	2981.812253
797.331218	2970.116776
797.652852	2958.693522
797.974442	2937.583690
798.295986	2933.419697
798.617484	2927.829057
798.938938	2917.119126
799.260346	2900.385016
799.581709	2895.817730
799.903026	2886.355484
800.224299	2883.716440
800.545526	2872.222610
800.866708	2858.200640
801.187845	2848.952643
801.508936	2849.570185
801.829983	2854.190402
802.150984	2842.124401
802.471940	2829.103100
802.792851	2826.950527
803.113717	2830.517144
803.434538	2836.226251
803.755314	2828.198213
804.076045	2820.245793
804.396731	2819.736636
804.717372	2820.984322
805.037967	2815.950730
805.358518	2823.946000
805.679024	2834.476970
805.999485	2831.154850
806.319901	2836.027125
806.640272	2825.617142
806.960598	2832.243739
807.280879	2839.815552
807.601115	2848.955164
807.921306	2834.736590
808.241453	2829.932370
808.561554	2836.816066
808.881611	2841.191787
809.201623	2833.337669
809.521590	2832.251301
809.841513	2828.911536
810.161390	2832.299192
810.481223	2824.351813
810.801011	2817.896615
811.120755	2812.416881
811.440453	2815.943168
811.760107	2816.336378
812.079716	2814.012406
812.399281	2804.837506
812.718801	2797.847946
813.038276	2793.444498
813.357707	2798.367185
813.677093	2805.082002
813.996434	2798.228553
814.315731	2797.631177
814.634983	2791.380146
814.954191	2793.663789
815.273354	2807.511838
815.592473	2814.793785
815.911547	2818.304949
816.230577	2825.982626
816.549562	2836.221209
816.868502	2832.705005
817.187399	2840.120542
817.506250	2857.205012
817.825058	2852.743591
818.143821	2866.818493
818.462539	2881.694938
818.781213	2907.180491
819.099843	2944.575770
819.418429	3001.230778
819.736970	3066.012125
820.055466	3139.691109
820.373919	3244.715988
820.692327	3388.219994
821.010691	3557.627969
821.329011	4004.128006
821.647286	4914.661214
821.965517	6304.872813
822.283704	7068.615182
822.601847	7052.057513
822.919945	6405.970633
823.237999	5893.930554
823.556010	5303.119926
823.873976	4744.035800
824.191897	4330.015917
824.509775	4029.653889
824.827609	3760.272271
825.145398	3636.572438
825.463144	3620.859162
825.780845	3711.017678
826.098502	3819.755366
826.416116	4104.930918
826.733685	4423.007562
827.051210	4490.375021
827.368692	4372.265828
827.686129	4104.147019
828.003522	3774.594189
828.320872	3517.205477
828.638177	3319.715754
828.955439	3176.100843
829.272656	3091.875765
829.589830	3026.434026
829.906960	2974.046356
830.224046	2927.352668
830.541088	2894.751526
830.858086	2879.610421
831.175041	2863.826568
831.491952	2863.042668
831.808819	2873.440048
832.125642	2899.119686
832.442421	2945.110133
832.759157	3026.358409
833.075849	3211.202397
833.392497	3490.469717
833.709101	3696.322714
834.025662	3648.550220
834.342179	3488.778410
834.658653	3307.180925
834.975083	3157.856907
835.291469	3061.124727
835.607811	2970.255408
835.924110	2912.559402
836.240366	2862.233563
836.556578	2820.563386
836.872746	2795.077832
837.188871	2774.575460
837.504952	2754.146184
837.820990	2747.494381
838.136984	2736.103894
838.452935	2726.538305
838.768842	2723.664847
839.084706	2744.696541
839.400526	2823.457008
839.716303	2956.919035
840.032037	3039.614123
840.347727	3024.236083
840.663373	2963.003708
840.978977	2886.708365
841.294537	2811.756490
841.610054	2763.091711
841.925527	2741.608834
842.240957	2718.742160
842.556344	2698.166691
842.871687	2680.910821
843.186987	2672.877742
843.502244	2667.758451
843.817458	2664.247287
844.132629	2649.264978
844.447756	2645.703403
844.762840	2636.594038
845.077881	2637.700571
845.392879	2638.310551
845.707833	2631.376443
846.022745	2625.435444
846.337613	2628.041720
846.652438	2627.242697
846.967221	2625.811010
847.281960	2623.169445
847.596656	2624.308746
847.911309	2622.809003
848.225919	2617.160390
848.540485	2614.932200
848.855009	2617.256172
849.169490	2617.810698
849.483928	2613.500512
849.798323	2615.927827
850.112675	2618.173662
850.426984	2617.220883
850.741251	2614.828856
851.055474	2614.130656
851.369654	2619.494444
851.683792	2618.544186
851.997887	2616.479834
852.311938	2613.422374
852.625947	2617.074690
852.939914	2619.035699
853.253837	2618.708024
853.567718	2613.182919
853.881555	2612.000769
854.195350	2613.301386
854.509103	2618.087962
854.822812	2612.429267
855.136479	2613.888681
855.450103	2616.323558
855.763685	2616.588219
856.077224	2615.305245
856.390720	2612.507405
856.704173	2613.250975
857.017584	2617.926645
857.330953	2619.423868
857.644278	2622.554424
857.957561	2623.028293
858.270802	2617.044443
858.584000	2615.854731
858.897155	2622.710700
859.210268	2624.220526
859.523339	2617.132663
859.836367	2612.628392
860.149352	2612.751901
860.462295	2614.186109
860.775195	2611.758793
861.088054	2608.219903
861.400869	2609.533124
861.713642	2608.429111
862.026373	2609.384410
862.339062	2610.591766
862.651708	2617.230966
862.964312	2617.155348
863.276873	2616.172323
863.589392	2620.336317
863.901869	2623.522326
864.214303	2629.823768
864.526696	2633.702936
864.839045	2634.239819
865.151353	2636.790643
865.463619	2635.863070
865.775842	2636.266363
866.088023	2636.732669
866.400162	2633.864253
866.712258	2634.814510
867.024313	2632.707308
867.336325	2630.063223
867.648296	2629.271762
867.960224	2638.272742
868.272110	2638.681075
868.583954	2631.464664
868.895755	2630.695888
869.207515	2634.779222
869.519233	2642.154430
869.830909	2638.371044
870.142542	2632.576238
870.454134	2635.293420
870.765684	2640.768113
871.077191	2642.971097
871.388657	2648.226500
871.700081	2644.044863
872.011463	2645.768938
872.322803	2648.947385
872.634101	2649.333033
872.945357	2656.519198
873.256571	2662.457677
873.567744	2658.835608
873.878874	2659.584220
874.189963	2661.290650
874.501010	2665.840292
874.812015	2669.043945
875.122979	2667.932371
875.433900	2660.726041
875.744780	2660.766370
876.055618	2665.847853
876.366415	2671.193997
876.677169	2668.406239
876.987882	2662.465239
877.298554	2666.805673
877.609183	2673.941426
877.919771	2680.265553
878.230317	2688.565813
878.540822	2700.672144
878.851285	2714.036243
879.161707	2736.902917
879.472087	2778.220214
879.782425	2826.148984
880.092722	2942.208948
880.402977	3137.160450
880.713191	3401.866397
881.023363	3701.661296
881.333494	3899.395514
881.643583	4072.070157
881.953631	4068.133016
882.263637	3891.203639
882.573602	3667.162160
882.883526	3532.092004
883.193408	3416.331988
883.503248	3312.726194
883.813048	3193.384439
884.122806	3076.406984
884.432522	2988.905157
884.742197	2922.654313
885.051831	2884.268447
885.361424	2849.882736
885.670975	2813.367138
885.980485	2781.665842
886.289954	2762.678337
886.599382	2749.644433
886.908768	2733.984089
887.218113	2716.713096
887.527417	2705.146168
887.836680	2694.524457
888.145901	2690.244517
888.455082	2677.520645
888.764221	2669.396826
889.073319	2660.504230
889.382376	2660.506751
889.691392	2661.245280
890.000366	2663.176042
890.309300	2660.239570
890.618193	2662.709735
890.927044	2664.895075
891.235855	2664.620332
891.544625	2664.239725
891.853353	2666.296516
892.162041	2673.961591
892.470687	2690.453725
892.779293	2705.239430
893.087858	2718.782489
893.396381	2740.983731
893.704864	2779.760286
894.013306	2851.851307
894.321707	2949.790844
894.630068	2999.610047
894.938387	3023.152235
895.246665	3017.085207
895.554903	2968.410346
895.863100	2923.599529
896.171256	2866.521065
896.479371	2803.254584
896.787446	2764.493152
897.095480	2743.456417
897.403473	2737.333936
897.711425	2722.636452
898.019336	2700.742720
898.327207	2686.856862
898.635038	2688.044054
898.942827	2682.680266
899.250576	2672.507218
899.558284	2664.123779
899.865952	2656.975423
900.173579	2654.840494
900.481165	2652.209012
900.788711	2644.400264
901.096216	2640.256436
901.403681	2636.936836
901.711105	2635.694192
902.018489	2632.309057
902.325832	2637.788791
902.633135	2637.541775
902.940397	2655.372336
903.247619	2692.719724
903.554800	2763.981475
903.861941	2896.389901
904.169041	3024.896474
904.476101	3089.072883
904.783121	3085.957450
905.090100	3025.897143
905.397039	2947.461831
905.703938	2870.170860
906.010796	2805.697023
906.317614	2752.016296
906.624391	2712.876778
906.931129	2688.601101
907.237826	2665.099242
907.544483	2645.821870
907.851099	2631.285703
908.157675	2620.822788
908.464211	2614.231479
908.770707	2603.012391
909.077163	2599.657503
909.383578	2593.983685
909.689954	2592.020155
909.996289	2593.121648
910.302584	2591.689960
910.608839	2588.748447
910.915054	2590.134764
911.221229	2591.523602
911.527363	2593.507296
911.833458	2590.303642
912.139513	2593.038468
912.445527	2590.659044
912.751502	2601.989037
913.057436	2606.548761
913.363331	2612.759462
913.669186	2623.734054
913.975000	2637.866929
914.280775	2656.095741
914.586510	2675.912517
914.892205	2712.796119
915.197859	2782.865637
915.503475	2869.437372
915.809050	2936.767023
916.114585	2954.174127
916.420081	2968.561580
916.725536	2979.168168
917.030952	2946.100719
917.336328	2898.764285
917.641665	2851.687469
917.946961	2798.213430
918.252218	2766.252515
918.557435	2735.398132
918.862612	2713.816953
919.167750	2696.755168
919.472848	2681.510718
919.777906	2662.868532
920.082925	2648.970070
920.387904	2636.697381
920.692843	2633.087915
920.997743	2629.690177
921.302603	2619.925462
921.607423	2615.746346
921.912204	2607.864502
922.216946	2606.846189
922.521647	2604.141610
922.826310	2598.548450
923.130932	2591.979826
923.435516	2588.602253
923.740059	2585.489341
924.044564	2586.784917
924.349028	2584.947417
924.653454	2577.073134
924.957840	2572.848647
925.262186	2570.373441
925.566493	2571.243040
925.870761	2567.797411
926.174989	2570.123904
926.479178	2564.669375
926.783328	2564.808007
927.087438	2564.820610
927.391509	2564.003943
927.695541	2558.730896
927.999533	2558.859445
928.303486	2559.540001
928.607400	2555.499516
928.911275	2557.768036
929.215110	2556.636297
929.518906	2554.428271
929.822663	2558.471277
930.126381	2558.372974
930.430060	2555.509599
930.733699	2557.687377
931.037299	2556.429609
931.340861	2558.811554
931.644383	2558.100752
931.947866	2558.677964
932.251309	2558.302398
932.554714	2559.660989
932.858080	2558.685526
933.161407	2558.990515
933.464694	2557.246276
933.767943	2555.048333
934.071153	2557.412634
934.374323	2555.716286
934.677455	2554.808878
934.980548	2553.442726
935.283602	2555.723848
935.586617	2554.929866
935.889593	2553.278888
936.192530	2551.632951
936.495428	2554.788714
936.798287	2555.131512
937.101108	2558.836760
937.403890	2558.766184
937.706632	2565.365054
938.009336	2566.164077
938.312002	2570.292782
938.614628	2574.461817
938.917216	2578.242682
939.219765	2579.283680
939.522275	2579.571026
939.824747	2577.302507
940.127179	2570.907803
940.429573	2567.250446
940.731929	2566.955538
941.034246	2565.601989
941.336524	2568.379664
941.638763	2570.113821
941.940964	2568.767833
942.243126	2567.802452
942.545250	2566.096022
942.847335	2564.482852
943.149381	2560.936401
943.451389	2561.584189
943.753359	2560.704508
944.055290	2558.309960
944.357182	2557.760474
944.659036	2559.003118
944.960851	2559.361040
945.262628	2556.255689
945.564367	2560.301215
945.866067	2559.335834
946.167729	2556.371636
946.469352	2558.841801
946.770937	2558.614949
947.072484	2558.844322
947.373992	2559.547563
947.675462	2557.742830
947.976893	2557.326935
948.278286	2558.040258
948.579641	2552.552962
948.880958	2554.108158
949.182236	2556.449774
949.483476	2554.024979
949.784678	2555.562531
950.085841	2551.181768
950.386967	2555.358364
950.688054	2555.910370
950.989103	2557.112686
951.290114	2556.336348
951.591087	2558.529250
951.892021	2561.150650
952.192917	2559.340876
952.493776	2560.840619
952.794596	2563.709035
953.095378	2562.637790
953.396122	2563.935887
953.696828	2561.175856
953.997496	2561.571586
954.298126	2557.039589
954.598718	2557.936914
954.899272	2555.577654
955.199788	2553.064639
955.500266	2555.136553
955.800706	2552.873075
956.101108	2544.880326
956.401472	2544.691283
956.701798	2545.520552
957.002087	2545.790254
957.302337	2545.525593
957.602550	2545.659184
957.902724	2545.228165
958.202861	2545.008875
958.502960	2543.579708
958.803022	2544.456869
959.103045	2542.437887
959.403031	2541.449821
959.702979	2544.114070
960.002889	2542.183308
960.302762	2541.515356
960.602596	2543.471323
960.902393	2542.001827
961.202153	2540.542413
961.501875	2541.674152
961.801559	2536.953111
962.101205	2540.607948
962.400814	2541.958977
962.700385	2540.265149
962.999918	2539.955118
963.299414	2539.261960
963.598873	2537.124511
963.898293	2541.122146
964.197677	2539.801363
964.497022	2538.586445
964.796331	2539.821528
965.095601	2538.309182
965.394835	2540.015612
965.694030	2537.540406
965.993189	2538.914120
966.292309	2538.634336
966.591393	2538.420087
966.890439	2537.555529
967.189447	2538.904038
967.488419	2538.548637
967.787353	2538.205838
968.086249	2539.645087
968.385108	2536.312885
968.683930	2539.556867
968.982714	2536.690971
969.281462	2538.825900
969.580172	2537.865560
969.878844	2538.523431
970.177480	2539.703061
970.476078	2538.878832
970.774639	2539.929913
971.073162	2537.253060
971.371649	2539.264480
971.670098	2536.002854
971.968510	2538.248688
972.266885	2536.595189
972.565223	2539.082999
972.863524	2539.209028
973.161788	2538.702392
973.460014	2540.582742
973.758204	2540.295396
974.056356	2539.650129
974.354471	2539.768596
974.652550	2540.539892
974.950591	2540.668442
975.248595	2538.321785
975.546563	2539.012423
975.844493	2539.267001
976.142386	2539.559388
976.440243	2540.340767
976.738062	2538.815818
977.035845	2538.639377
977.333590	2538.140303
977.631299	2536.446475
977.928971	2537.663914
978.226606	2539.007382
978.524204	2537.205169
978.821765	2537.230375
979.119290	2536.849768
979.416777	2539.367824
979.714228	2535.675179
980.011642	2539.670293
980.309020	2539.846734
980.606360	2538.467978
980.903664	2538.127700
981.200931	2537.694161
981.498162	2540.857485
981.795356	2541.669111
982.092513	2542.672300
982.389633	2547.269833
982.686717	2551.547252
982.983764	2552.938610
983.280775	2555.035730
983.577749	2554.168652
983.874686	2553.568754
984.171587	2551.025492
984.468451	2543.279759
984.765279	2545.318906
985.062070	2544.005686
985.358824	2541.089378
985.655543	2543.665408
985.952224	2540.585263
986.248869	2538.263811
986.545478	2533.323481
986.842050	2536.063348
987.138586	2532.363141
987.435086	2531.662420
987.731549	2532.963038
988.027975	2535.896990
988.324366	2535.581918
988.620719	2536.504449
988.917037	2532.267359
989.213318	2535.400436
989.509563	2531.876669
989.805772	2534.896321
990.101944	2535.503780
990.398080	2534.767771
990.694180	2534.079654
990.990244	2535.171063
991.286271	2531.216278
991.582262	2533.872966
991.878217	2535.143337
992.174136	2530.996988
992.470019	2534.487987
992.765865	2533.893131
993.061676	2534.876156
993.357450	2536.098636
993.653188	2534.074613
993.948890	2535.294572
994.244556	2535.186187
994.540186	2535.261804
994.835780	2534.830786
995.131337	2535.249201
995.426859	2536.995961
995.722345	2538.357073
996.017795	2537.505118
996.313208	2538.102494
996.608586	2539.090561
996.903928	2540.819676
997.199234	2537.762217
997.494504	2538.437731
997.789738	2536.842206
998.084936	2538.276414
998.380099	2535.909592
998.675225	2536.055786
998.970316	2538.886394
999.265371	2536.885056
999.560390	2533.852802
999.855373	2534.644263
1000.150320	2538.518390
1000.445232	2534.208203
1000.740108	2534.707277
1001.034948	2535.339942
1001.329752	2535.221475
1001.624521	2533.489839
1001.919254	2528.960362
1002.213951	2530.026566
1002.508613	2529.098994
1002.803239	2533.565456
1003.097829	2526.996833
1003.392384	2534.563604
1003.686903	2531.281813
1003.981386	2533.439427
1004.275834	2533.436907
1004.570246	2534.248532
1004.864623	2532.763913
1005.158964	2533.159643
1005.453270	2534.077133
1005.747540	2532.426155
1006.041775	2532.761392
1006.335974	2533.147040
1006.630138	2530.568490
1006.924266	2533.177287
1007.218359	2532.753830
1007.512416	2533.383974
1007.806438	2530.553367
1008.100425	2530.697039
1008.394376	2534.714839
1008.688292	2534.911444
1008.982172	2530.961700
1009.276017	2532.305168
1009.569827	2533.880528
1009.863602	2535.039993
1010.157341	2534.253573
1010.451045	2534.399767
1010.744714	2533.207534
1011.038347	2528.584796
1011.331945	2530.462626
1011.625508	2531.990095
1011.919036	2533.331042
1012.212528	2532.388347
1012.505986	2529.066226
1012.799408	2533.298275
1013.092795	2530.107224
1013.386147	2530.389529
1013.679464	2530.543284
1013.972745	2531.130579
1014.265992	2532.098480
1014.559204	2531.727955
1014.852380	2529.948428
1015.145521	2531.165867
1015.438628	2530.752492
1015.731699	2530.538243
1016.024736	2530.843233
1016.317737	2533.547812
1016.610703	2532.179139
1016.903635	2528.688140
1017.196531	2528.826771
1017.489393	2524.198992
1017.782219	2529.898017
1018.075011	2528.136133
1018.367768	2530.878521
1018.660490	2531.314581
1018.953177	2531.314581
1019.245829	2531.314581
