Dividing Wavelength (nm)	Counts (n)	Blue Motor Position (mm): 43.300000	Red Motor Position (mm): 0.000000	
326.493990	2127.956738
326.888308	2127.956738
327.282561	2127.956738
327.676750	2097.992120
328.070874	2095.973138
328.464933	2099.806935
328.858929	2105.311875
329.252859	2115.789913
329.646726	2127.308950
330.040528	2141.404016
330.434265	2159.136275
330.827938	2174.796619
331.221547	2190.431758
331.615091	2209.799871
332.008571	2227.945504
332.401986	2249.312435
332.795338	2267.720208
333.188625	2286.289298
333.581847	2307.237813
333.975006	2323.593837
334.368100	2344.043277
334.761129	2361.427696
335.154095	2379.548124
335.546996	2398.835578
335.939833	2424.172418
336.332606	2437.680189
336.725315	2452.516305
337.117960	2462.747327
337.510540	2469.399129
337.903056	2479.063021
338.295508	2488.038796
338.687896	2496.018942
339.080220	2505.617299
339.472480	2511.951509
339.864676	2516.596932
340.256807	2521.474248
340.648875	2523.591533
341.040879	2525.204702
341.432818	2526.124713
341.824694	2529.860208
342.216506	2530.308871
342.608253	2532.083357
342.999937	2528.821730
343.391557	2528.247039
343.783113	2528.610002
344.174605	2528.057995
344.566033	2524.874507
344.957397	2523.810823
345.348697	2522.742099
345.739934	2520.239166
346.131106	2517.874865
346.522215	2518.061387
346.913260	2517.708507
347.304241	2514.812364
347.695159	2513.027795
348.086012	2509.700634
348.476802	2509.955212
348.867528	2505.546723
349.258191	2506.708709
349.648789	2502.874911
350.039324	2504.190652
350.429796	2500.293841
350.820203	2501.730569
351.210548	2502.927843
351.600828	2500.175373
351.991045	2499.056237
352.381198	2501.314674
352.771288	2496.981803
353.161314	2497.992554
353.551276	2498.506752
353.941175	2498.226968
354.331010	2498.287461
354.720782	2499.527585
355.110490	2495.721514
355.500135	2494.579693
355.889717	2497.506083
356.279235	2498.075733
356.668689	2500.737462
357.058080	2498.317708
357.447408	2496.747389
357.836672	2495.837461
358.225873	2496.754951
358.615010	2493.732779
359.004084	2496.427276
359.393095	2503.981445
359.782043	2500.752586
360.170927	2502.658142
360.559748	2504.140241
360.948505	2506.814573
361.337199	2502.869870
361.725830	2503.542864
362.114398	2508.321878
362.502903	2508.095026
362.891344	2507.583349
363.279722	2508.682321
363.668037	2506.885149
364.056289	2509.761128
364.444478	2511.598628
364.832603	2512.490912
365.220665	2507.275839
365.608665	2510.328257
365.996601	2511.066786
366.384474	2509.864471
366.772284	2513.478978
367.160031	2510.802126
367.547715	2512.334637
367.935336	2515.911335
368.322893	2513.511746
368.710388	2511.724657
369.097820	2515.119874
369.485189	2516.662467
369.872495	2516.972498
370.259738	2514.378824
370.646918	2514.567868
371.034035	2516.728002
371.421090	2518.114319
371.808081	2517.988291
372.195010	2520.395442
372.581875	2518.620955
372.968678	2520.241686
373.355418	2519.462828
373.742096	2520.521470
374.128710	2519.760256
374.515262	2519.450225
374.901751	2522.258148
375.288177	2520.718075
375.674540	2522.091790
376.060841	2522.427027
376.447079	2526.528005
376.833254	2522.379136
377.219367	2519.447705
377.605417	2522.457273
377.991404	2526.091945
378.377329	2526.797707
378.763191	2525.653365
379.148991	2534.427493
379.534727	2539.166178
379.920402	2546.669935
380.306013	2548.497354
380.691563	2560.273489
381.077049	2565.581824
381.462474	2576.155644
381.847835	2589.973447
382.233134	2601.563060
382.618371	2609.288628
383.003545	2628.424848
383.388657	2643.034112
383.773706	2661.804848
384.158693	2676.550223
384.543618	2697.367668
384.928480	2715.273846
385.313280	2747.665780
385.698017	2760.898809
386.082692	2792.393418
386.467305	2814.135914
386.851856	2841.456448
387.236344	2867.907382
387.620770	2902.144378
388.005133	2935.395829
388.389435	2966.708956
388.773674	2996.930673
389.157851	3041.751572
389.541965	3071.552353
389.926018	3080.157603
390.310008	3141.417704
390.693936	3176.645287
391.077802	3222.015672
391.461606	3242.991913
391.845348	3310.175371
392.229027	3336.081860
392.612645	3369.343393
392.996200	3447.030095
393.379694	3499.863908
393.763125	3570.941656
394.146494	3577.069179
394.529801	3646.926968
394.913047	3714.233934
395.296230	3709.492728
395.679351	3779.728604
396.062410	3821.557578
396.445408	3828.360616
396.828343	3882.076630
397.211217	3921.984925
397.594028	3873.559601
397.976778	3951.218576
398.359466	3990.705934
398.742092	4032.119013
399.124656	3975.474088
399.507158	4066.502203
399.889598	4101.255917
400.271977	4172.497503
400.654294	4153.951098
401.036549	4169.966844
401.418742	4153.525121
401.800874	4257.859362
402.182944	4286.692241
402.564952	4353.628682
402.946898	4352.101212
403.328783	4352.953167
403.710606	4274.427114
404.092367	4466.898367
404.474067	4435.129016
404.855705	4448.357004
405.237282	4376.339080
405.618797	4485.132221
406.000250	4523.593704
406.381642	4607.949852
406.762972	4570.355447
407.144240	4583.522941
407.525447	4580.097477
407.906593	4642.955624
408.287677	4685.210576
408.668700	4614.450420
409.049661	4665.315662
409.430560	4706.436354
409.811399	4640.208196
410.192176	4794.832987
410.572891	4738.132609
410.953545	4840.793187
411.334138	4725.383531
411.714669	4790.109426
412.095139	4686.745607
412.475547	4824.742153
412.855894	4809.906037
413.236180	4817.800484
413.616405	4771.820120
413.996568	4860.887226
414.376670	4801.247855
414.756711	4757.104992
415.136691	4788.045073
415.516609	4864.925190
415.896466	4900.339296
416.276262	4936.799441
416.655997	4917.068365
417.035670	5096.609059
417.415283	5187.168347
417.794834	5132.950737
418.174324	5085.992389
418.553753	4998.687166
418.933121	5180.468653
419.312428	5247.601699
419.691674	5186.059293
420.070859	5312.844312
420.449983	5223.885591
420.829045	5343.555021
421.208047	5244.488787
421.586988	5314.641483
421.965867	5325.142207
422.344686	5461.782682
422.723444	5314.336494
423.102141	5134.425275
423.480777	5431.467703
423.859352	5204.378846
424.237866	5462.987518
424.616319	5453.399243
424.994712	5562.320934
425.373044	5441.091266
425.751314	5583.869346
426.129524	5387.198811
426.507673	5579.488583
426.885762	5663.325492
427.263789	5593.447538
427.641756	5478.584848
428.019662	5594.508701
428.397508	5609.281802
428.775292	5552.440272
429.153016	5651.461137
429.530679	5575.508592
429.908282	5660.167209
430.285824	5537.261358
430.663305	5806.839580
431.040726	5545.468356
431.418086	5545.949787
431.795385	5649.200179
432.172624	5664.638713
432.549802	5655.882228
432.926920	5670.675494
433.303977	5676.924005
433.680974	5710.782914
434.057910	5731.358384
434.434786	5739.663685
434.811601	5707.884251
435.188355	5942.318069
435.565050	5811.653882
435.941683	5795.834742
436.318257	6008.410117
436.694770	5997.304455
437.071222	6028.814187
437.447614	5959.846161
437.823946	5872.745105
438.200218	6028.274784
438.576429	5893.766717
438.952580	5990.229196
439.328670	6035.937338
439.704700	5944.546259
440.080670	5931.918169
440.456580	6198.131421
440.832429	6084.899544
441.208218	5927.338281
441.583947	6086.114462
441.959616	6089.408856
442.335224	6016.100397
442.710773	6149.736344
443.086261	6179.027969
443.461689	5973.018696
443.837057	6124.782633
444.212365	6278.391632
444.587612	6171.337689
444.962800	6321.934598
445.337927	6303.935158
445.712995	5914.541312
446.088002	6495.216700
446.462949	6325.796122
446.837837	6252.724597
447.212664	6426.291524
447.587431	6571.577578
447.962139	7110.310566
448.336786	8035.216103
448.711374	7777.356043
449.085901	6854.288006
449.460369	6773.548886
449.834776	6706.688063
450.209124	7099.519976
450.583412	7246.953561
450.957640	7395.677682
451.331808	7158.909809
451.705917	6712.301387
452.079965	6634.249202
452.453954	6850.108889
452.827883	6726.643470
453.201752	6820.991185
453.575562	6614.533250
453.949311	6822.702657
454.323001	6709.924483
454.696632	6784.226050
455.070202	6926.532782
455.443713	7074.122643
455.817164	7175.729619
456.190556	7258.737258
456.563888	7337.530493
456.937160	7379.462811
457.310373	7034.529421
457.683526	7058.363996
458.056619	6952.464477
458.429653	6939.964936
458.802628	6871.793413
459.175542	6983.339024
459.548398	7338.473189
459.921194	7500.619382
460.293930	7498.023188
460.666607	8030.230402
461.039224	8335.739448
461.411782	8466.287689
461.784280	8482.782344
462.156719	8379.194195
462.529099	8250.559072
462.901419	7838.069179
463.273680	7729.633960
463.645882	7746.181547
464.018024	7618.819316
464.390106	7780.811754
464.762130	8166.964138
465.134094	8631.403122
465.505999	9659.548969
465.877845	10875.455112
466.249631	11528.037519
466.621358	11140.352623
466.993026	10514.074957
467.364634	10261.876113
467.736184	9897.015042
468.107674	9562.879803
468.479105	9600.980844
468.850477	9365.067447
469.221790	9129.925346
469.593043	8808.534144
469.964238	8666.945777
470.335373	8671.651694
470.706449	8735.535716
471.077467	8713.115184
471.448425	10032.750629
471.819324	11100.943403
472.190164	11119.867895
472.560945	9874.813800
472.931667	9082.276360
473.302330	8956.136608
473.672934	8597.637473
474.043479	8954.752812
474.413965	8894.563955
474.784393	8783.212428
475.154761	8934.552908
475.525070	9027.521867
475.895321	8850.196760
476.265513	9029.714769
476.635645	9196.672743
477.005719	9190.814923
477.375734	9309.811359
477.745691	9544.923213
478.115588	9677.334160
478.485427	9926.654506
478.855207	10461.752822
479.224928	11276.050402
479.594591	11904.077349
479.964194	11716.082639
480.333739	11649.068061
480.703226	11567.645864
481.072653	11662.802684
481.442022	11906.391238
481.811333	12089.261615
482.180584	11888.752241
482.549777	11605.179775
482.918912	11428.946078
483.287988	11444.750095
483.657005	11458.842641
484.025964	11145.101390
484.394864	11269.554876
484.763706	11244.490259
485.132489	10997.637558
485.501213	10961.404265
485.869879	11039.216995
486.238487	10880.687830
486.607036	10992.853503
486.975527	10775.985585
487.343959	10957.935951
487.712333	11010.888231
488.080648	10949.668458
488.448905	10983.784467
488.817104	10925.062587
489.185244	11194.824811
489.553326	11341.857625
489.921350	11883.262424
490.289315	12942.466821
490.657222	13285.408955
491.025070	13194.302702
491.392861	13061.173391
491.760593	12700.372969
492.128267	12336.895694
492.495883	12004.907987
492.863440	11671.186123
493.230939	11334.293373
493.598380	11273.708787
493.965763	11137.569906
494.333088	11033.679287
494.700354	10953.971083
495.067563	11019.032215
495.434713	10847.335556
495.801805	10973.339196
496.168839	10902.896633
496.535815	10841.608805
496.902733	10832.759060
497.269593	10767.556776
497.636395	10870.935718
498.003139	10866.103772
498.369825	10726.234438
498.736453	10887.425332
499.103023	10807.449947
499.469535	10838.448002
499.835989	10823.715230
500.202385	10784.724425
500.568723	10641.454833
500.935003	10861.281908
501.301226	10674.081181
501.667390	10932.478124
502.033497	11022.618996
502.399546	10884.325022
502.765537	10794.347988
503.131470	10871.001253
503.497345	11035.017714
503.863163	10657.291618
504.228923	10958.452669
504.594625	11025.068997
504.960269	10774.183372
505.325856	10995.961374
505.691385	10780.414239
506.056856	10937.552045
506.422270	10967.262085
506.787625	10860.031702
507.152924	10974.188631
507.518164	10953.749273
507.883347	10872.453105
508.248472	10791.456886
508.613540	11029.444718
508.978550	10911.486759
509.343503	10889.351053
509.708398	11010.774805
510.073236	11121.844027
510.438016	11130.658484
510.802738	11084.133676
511.167403	11128.473144
511.532010	11023.634788
511.896561	11248.016546
512.261053	11327.802888
512.625488	11199.571057
512.989866	11181.180928
513.354186	11173.588951
513.718449	11066.272867
514.082655	11255.358987
514.446803	11151.118007
514.810894	11281.116762
515.174927	11144.420834
515.538904	11167.791624
515.902822	11317.773512
516.266684	11206.409383
516.630488	11149.330918
516.994235	11208.879548
517.357925	11273.360947
517.721558	11356.159378
518.085133	11367.978363
518.448651	11377.836340
518.812112	11262.295614
519.175516	11278.381936
519.538863	11398.255533
519.902152	11312.066926
520.265385	11475.231432
520.628560	11379.905733
520.991678	11360.653567
521.354739	11425.205542
521.717743	11358.632064
522.080690	11344.605054
522.443580	11471.727830
522.806413	11423.516755
523.169189	11462.769700
523.531908	11517.723318
523.894569	11340.446102
524.257174	11345.880466
524.619722	11454.161930
524.982213	11410.923953
525.344647	11461.340533
525.707025	11414.251115
526.069345	11513.133347
526.431608	11426.271746
526.793815	11528.526511
527.155964	11326.338433
527.518057	11368.868127
527.880093	11321.151085
528.242072	11393.211859
528.603995	11291.730912
528.965860	11216.068233
529.327669	11266.930955
529.689421	11212.146216
530.051117	11185.486074
530.412755	11288.905345
530.774337	11181.107832
531.135862	11163.181488
531.497331	11184.873573
531.858743	11039.751357
532.220098	11208.451050
532.581396	11079.304250
532.942638	11062.416385
533.303824	11023.085303
533.664953	11037.621470
534.026025	10953.862698
534.387040	11043.915350
534.747999	11051.285517
535.108902	11105.858528
535.469748	10875.014011
535.830537	10974.241563
536.191270	10949.691144
536.551947	10975.184259
536.912567	10970.800975
537.273131	10900.749102
537.633638	10880.529033
537.994089	10868.911694
538.354483	10818.563170
538.714821	10962.588936
539.075103	10964.461724
539.435328	10931.588360
539.795497	10757.366083
540.155609	10919.240054
540.515665	11005.310194
540.875665	10740.016952
541.235609	10811.160236
541.595496	10806.078753
541.955328	10956.315220
542.315102	10840.250214
542.674821	10792.230703
543.034483	10792.843203
543.394090	10801.224122
543.753640	10726.289890
544.113134	10952.151227
544.472571	10799.615994
544.831953	10944.070257
545.191278	10752.229148
545.550548	10772.439133
545.909761	10916.989179
546.268918	10889.577905
546.628019	10972.454474
546.987064	10834.810809
547.346053	10755.400033
547.704986	10858.179078
548.063863	10854.468789
548.422684	10841.374392
548.781449	10755.475651
549.140158	10861.531445
549.498811	10740.415203
549.857408	10590.357698
550.215949	10818.974024
550.574434	10675.827940
550.932864	10772.030800
551.291237	10831.279481
551.649555	10780.893148
552.007817	10792.639037
552.366022	10754.182595
552.724173	10748.226471
553.082267	10732.843390
553.440305	10870.718948
553.798288	10667.499954
554.156215	10818.278345
554.514086	10805.393156
554.871902	10645.860801
555.229661	10684.188694
555.587365	10658.922431
555.945014	10551.621471
556.302606	10682.661224
556.660143	10570.195603
557.017625	10729.218801
557.375050	10627.412699
557.732421	10763.367577
558.089735	10676.856336
558.446994	10675.782570
558.804197	10713.011491
559.161345	10712.441841
559.518437	10562.137318
559.875474	10652.855402
560.232455	10681.441265
560.589381	10632.670622
560.946251	10626.805240
561.303065	10730.993287
561.659825	10668.213278
562.016528	10594.763666
562.373177	10472.344286
562.729770	10590.352656
563.086307	10505.991467
563.442789	10603.593247
563.799216	10477.599689
564.155587	10528.439725
564.511904	10484.760648
564.868164	10473.821344
565.224370	10486.318364
565.580520	10409.513865
565.936615	10418.986193
566.292654	10289.519280
566.648638	10419.656667
567.004567	10381.832889
567.360441	10358.807419
567.716260	10274.269790
568.072023	10361.479231
568.427732	10317.737139
568.783385	10224.546369
569.138982	10292.158324
569.494525	10310.805552
569.850013	10192.431698
570.205445	10266.917267
570.560823	10166.384056
570.916145	10076.699409
571.271412	10152.619186
571.626625	10100.226474
571.981782	10072.452237
572.336884	10044.506600
572.691931	10057.180061
573.046923	9993.606070
573.401860	9951.966139
573.756743	9885.972394
574.111570	9931.201626
574.466342	9919.695193
574.821059	9944.512793
575.175722	9833.675464
575.530330	9850.948978
575.884882	9830.922994
576.239380	9767.780022
576.593823	9744.386547
576.948211	9758.781562
577.302544	9640.914344
577.656823	9653.005551
578.011047	9654.071755
578.365216	9625.511098
578.719330	9556.911077
579.073389	9566.310308
579.427394	9514.152010
579.781344	9492.681736
580.135239	9443.845558
580.489080	9450.469634
580.842866	9345.414508
581.196597	9355.978246
581.550273	9399.725379
581.903895	9364.820430
582.257463	9428.548176
582.610975	9306.557294
582.964434	9333.076284
583.317837	9255.301363
583.671186	9240.644208
584.024481	9233.707580
584.377721	9151.446032
584.730906	9131.669585
585.084037	9159.484152
585.437113	9089.149973
585.790135	9116.331875
586.143103	9016.242286
586.496016	8986.754056
586.848874	9044.621461
587.201679	9032.048823
587.554428	8923.351464
587.907124	8965.898803
588.259765	8932.675078
588.612352	8941.615565
588.964884	8817.895567
589.317362	8834.112959
589.669786	8832.225047
590.022155	8880.292449
590.374470	8900.547805
590.726731	8836.613371
591.078937	8684.811626
591.431090	8794.711300
591.783188	8669.002567
592.135232	8662.776743
592.487222	8665.289758
592.839157	8719.419147
593.191038	8647.527252
593.542866	8593.375178
593.894639	8492.426072
594.246358	8550.245586
594.598022	8560.534581
594.949633	8460.732338
595.301190	8431.546577
595.652692	8462.831978
596.004141	8570.871467
596.355535	8350.026078
596.706876	8329.049837
597.058162	8257.931759
597.409395	8335.373965
597.760573	8401.735714
598.111698	8315.405954
598.462768	8298.245867
598.813785	8267.633460
599.164748	8232.957883
599.515657	8220.128147
599.866511	8126.566852
600.217312	8257.354547
600.568060	8115.194009
600.918753	8218.356181
601.269392	8190.657561
601.619978	8100.988037
601.970510	8165.567739
602.320988	8155.929052
602.671412	8216.304432
603.021783	8151.182806
603.372100	8124.948642
603.722363	8127.993498
604.072572	8105.494829
604.422728	8113.797609
604.772830	8048.902836
605.122878	8054.581696
605.472872	8047.191364
605.822813	8078.927948
606.172701	8022.013321
606.522534	8098.006195
606.872314	8095.054599
607.222041	8067.096360
607.571714	8119.448743
607.921333	8077.912156
608.270899	8087.172755
608.620411	8172.269953
608.969870	8084.405162
609.319276	8072.611382
609.668627	8096.287161
610.017926	8122.634752
610.367171	8170.218203
610.716362	8146.113926
611.065500	8140.457751
611.414585	8167.637132
611.763616	8150.648444
612.112594	8137.541444
612.461518	8154.449474
612.810389	8215.081952
613.159207	8154.482241
613.507971	8098.316226
613.856682	8217.113537
614.205340	8174.432608
614.553945	8249.939010
614.902496	8152.559041
615.250994	8208.140283
615.599439	8190.985236
615.947830	8200.155095
616.296169	8172.063265
616.644454	8188.830143
616.992686	8182.773197
617.340864	8245.757373
617.688990	8145.544276
618.037063	8240.925427
618.385082	8179.564502
618.733048	8269.249150
619.080961	8210.033236
619.428821	8229.444199
619.776628	8225.834733
620.124382	8181.540635
620.472083	8165.718973
620.819731	8196.323818
621.167326	8081.317455
621.514868	8095.180628
621.862357	7980.325499
622.209793	8001.727718
622.557176	7927.353055
622.904506	7907.112822
623.251783	7837.297882
623.599007	7790.384905
623.946179	7790.707539
624.293297	7754.985923
624.640363	7673.346957
624.987376	7654.591344
625.334336	7599.320133
625.681243	7546.025054
626.028097	7540.031123
626.374899	7517.545056
626.721647	7509.474168
627.068343	7442.595701
627.414987	7415.416320
627.761577	7367.716922
628.108115	7404.255205
628.454600	7296.803011
628.801032	7345.475352
629.147412	7307.533107
629.493739	7293.667413
629.840014	7234.822025
630.186236	7289.450488
630.532405	7179.182810
630.878521	7224.490180
631.224585	7183.356885
631.570597	7104.175482
631.916556	7137.668908
632.262462	7136.159082
632.608316	7100.006447
632.954117	7074.392345
633.299866	7058.162350
633.645562	7047.921246
633.991206	6972.871068
634.336797	6914.186996
634.682336	6872.615121
635.027823	6843.159659
635.373257	6830.597103
635.718639	6762.463389
636.063968	6778.849659
636.409245	6666.230282
636.754470	6665.980745
637.099642	6626.284179
637.444762	6570.796199
637.789829	6581.806079
638.134845	6522.113776
638.479808	6508.782445
638.824719	6513.889134
639.169577	6440.764677
639.514383	6458.733869
639.859137	6386.554629
640.203839	6397.360342
640.548489	6382.292333
640.893086	6356.098498
641.237632	6334.698800
641.582125	6354.629001
641.926566	6324.329146
642.270955	6335.389438
642.615292	6327.401729
642.959576	6346.633731
643.303809	6332.735270
643.647990	6343.152815
643.992118	6338.020920
644.336195	6276.276868
644.680219	6303.625127
645.024192	6292.216996
645.368112	6391.782305
645.711981	6409.065901
646.055797	6488.824517
646.399562	6443.842301
646.743274	6569.903915
647.086935	6624.686133
647.430544	6619.347552
647.774101	6640.696838
648.117606	6649.102962
648.461059	6636.757176
648.804460	6603.553617
649.147810	6513.460636
649.491108	6479.556355
649.834354	6455.479805
650.177548	6370.536362
650.520690	6285.933198
650.863781	6263.832779
651.206820	6280.221571
651.549807	6207.699531
651.892742	6146.106714
652.235626	6151.130223
652.578458	6140.145549
652.921238	6048.630963
653.263967	6084.516417
653.606644	6026.273446
653.949269	6031.105392
654.291843	5970.046936
654.634365	6013.811713
654.976836	5978.962217
655.319255	5978.838708
655.661622	5953.539678
656.003938	5944.848729
656.346203	5908.005456
656.688416	5937.657523
657.030577	5890.293362
657.372687	5860.401840
657.714746	5851.804152
658.056753	5889.043156
658.398708	5832.219269
658.740612	5822.878011
659.082465	5872.929107
659.424266	5861.238672
659.766016	5864.165061
660.107715	5837.951061
660.449362	5850.516137
660.790958	5843.362740
661.132503	5831.498384
661.473996	5867.875351
661.815438	5855.849678
662.156829	5853.389595
662.498168	5842.619170
662.839456	5822.426828
663.180693	5864.238158
663.521879	5860.225400
663.863013	5849.049162
664.204097	5865.737901
664.545129	5912.829840
664.886110	5904.012862
665.227040	5934.796668
665.567918	5905.888171
665.908746	5928.212921
666.249522	5931.517397
666.590248	5923.207055
666.930922	5950.273010
667.271545	5960.030163
667.612118	5968.839580
667.952639	5941.982833
668.293109	5957.375996
668.633528	5918.652373
668.973896	5921.598927
669.314213	5910.384880
669.654480	5895.606738
669.994695	5885.915120
670.334859	5879.406990
670.674973	5865.543817
671.015035	5875.079159
671.355047	5875.742071
671.695008	5855.826993
672.034918	5833.073745
672.374777	5839.289488
672.714585	5825.784237
673.054342	5829.338250
673.394049	5827.268856
673.733705	5857.929154
674.073310	5844.872566
674.412864	5803.845135
674.752368	5797.140400
675.091820	5799.424043
675.431223	5733.402572
675.770574	5737.153190
676.109875	5684.997412
676.449125	5692.423032
676.788324	5661.056973
677.127473	5602.297284
677.466571	5595.804277
677.805619	5581.757102
678.144616	5566.641202
678.483562	5547.631011
678.822458	5518.798132
679.161303	5513.482235
679.500098	5499.966902
679.838842	5483.469726
680.177535	5489.340149
680.516179	5506.951420
680.854771	5518.775447
681.193314	5596.958702
681.531805	5704.052974
681.870247	5857.737590
682.208638	5959.115194
682.546978	5971.995342
682.885268	5945.131033
683.223508	5863.308065
683.561697	5808.389735
683.899836	5781.296054
684.237925	5734.801492
684.575963	5700.859403
684.913951	5661.699720
685.251889	5723.194235
685.589776	5685.998082
685.927614	5661.588815
686.265401	5734.655298
686.603137	5711.960024
686.940824	5786.432990
687.278460	5815.580941
687.616046	5824.145862
687.953582	5891.019288
688.291068	5872.155290
688.628504	5939.648778
688.965889	5901.187295
689.303224	5843.851732
689.640510	5798.491430
689.977745	5720.217434
690.314930	5624.425428
690.652065	5561.738680
690.989150	5474.521678
691.326185	5396.628289
691.663170	5347.300599
692.000105	5268.608187
692.336990	5190.366959
692.673825	5165.123381
693.010610	5091.308286
693.347345	5024.281104
693.684030	5015.663252
694.020665	4972.407631
694.357251	4881.238364
694.693786	4889.662132
695.030272	4860.458728
695.366707	4822.123273
695.703093	4789.375938
696.039429	4814.196059
696.375716	4792.277122
696.711952	4767.376342
697.048139	4755.224641
697.384276	4734.835694
697.720363	4747.622581
698.056400	4758.662708
698.392388	4702.136250
698.728326	4687.559754
699.064214	4666.003780
699.400053	4657.857275
699.735842	4623.698417
700.071581	4598.399386
700.407270	4574.012804
700.742910	4557.762645
701.078501	4500.061598
701.414042	4497.243593
701.749533	4473.691322
702.084974	4405.623142
702.420366	4461.779076
702.755709	4402.346393
703.091002	4348.148947
703.426246	4398.114344
703.761440	4352.227241
704.096584	4315.832631
704.431679	4336.829037
704.766725	4318.653156
705.101721	4310.728463
705.436668	4338.699305
705.771565	4287.529073
706.106413	4316.505625
706.441212	4346.908824
706.775961	4355.947613
707.110661	4336.985312
707.445311	4363.731154
707.779913	4388.153024
708.114465	4397.925301
708.448967	4420.350873
708.783421	4482.465451
709.117825	4523.926420
709.452180	4529.075959
709.786485	4574.690840
710.120742	4663.533614
710.454949	4645.019977
710.789107	4709.934915
711.123216	4786.076503
711.457275	4772.825830
711.791286	4849.736193
712.125247	4866.714800
712.459159	4768.424902
712.793023	4842.547508
713.126837	4804.683402
713.460602	4799.753153
713.794318	4718.023446
714.127985	4725.330599
714.461602	4637.637207
714.795171	4612.484370
715.128691	4547.360224
715.462162	4490.173375
715.795584	4438.995581
716.128957	4422.732819
716.462281	4365.671998
716.795556	4343.001929
717.128782	4300.434426
717.461960	4234.516299
717.795088	4245.430397
718.128167	4204.125703
718.461198	4144.829131
718.794180	4141.451558
719.127113	4120.377014
719.459997	4098.790793
719.792833	4057.065163
720.125619	4047.340777
720.458357	4014.159902
720.791046	4016.995551
721.123686	3990.716016
721.456278	3949.935602
721.788821	3964.486893
722.121315	3935.041513
722.453761	3912.694078
722.786158	3927.063887
723.118506	3950.291004
723.450805	3902.357192
723.783056	3922.173968
724.115259	3939.132410
724.447412	3943.815642
724.779518	3937.499076
725.111574	3939.051751
725.443582	3969.366730
725.775542	3956.105975
726.107453	4006.678830
726.439315	4005.448788
726.771129	4024.169113
727.102895	4054.244637
727.434612	4104.275568
727.766281	4119.761993
728.097901	4120.520687
728.429473	4123.505050
728.760996	4128.170638
729.092471	4123.573105
729.423897	4112.971559
729.755276	4115.303093
730.086606	4113.568936
730.417887	4155.009741
730.749120	4217.144483
731.080305	4280.912558
731.411442	4308.591013
731.742530	4277.857619
732.073570	4280.695788
732.404562	4336.057740
732.735506	4328.911904
733.066401	4289.936223
733.397249	4227.390628
733.728048	4148.826766
734.058798	4067.603695
734.389501	3995.404289
734.720156	3930.617901
735.050762	3890.754977
735.381320	3883.215931
735.711831	3830.099814
736.042293	3801.261893
736.372707	3825.426664
736.703073	3794.267292
737.033391	3783.494346
737.363661	3804.339518
737.693883	3829.194927
738.024056	3835.884538
738.354182	3834.334383
738.684260	3899.395514
739.014290	3915.799429
739.344272	3913.377155
739.674207	3953.340902
740.004093	3961.507571
740.333931	3952.425932
740.663722	3955.012044
740.993464	3951.760500
741.323159	3932.052109
741.652806	3900.096235
741.982405	3871.825444
742.311956	3839.347810
742.641460	3832.106193
742.970915	3806.497131
743.300323	3766.611522
743.629683	3730.854618
743.958996	3719.857341
744.288260	3697.477138
744.617477	3663.179648
744.946647	3650.070127
745.275768	3627.687404
745.604842	3621.307824
745.933869	3573.817634
746.262847	3566.427303
746.591778	3605.460957
746.920662	3575.957604
747.249498	3541.158519
747.578286	3590.486210
747.907027	3607.270731
748.235720	3605.783591
748.564365	3629.109010
748.892963	3628.136067
749.221514	3615.780199
749.550017	3589.878751
749.878473	3588.565530
750.206881	3557.189388
750.535242	3554.666291
750.863555	3552.642268
751.191821	3551.550858
751.520039	3533.117879
751.848210	3508.620392
752.176334	3540.672048
752.504411	3549.148748
752.832440	3512.544930
753.160421	3492.682784
753.488356	3501.449350
753.816243	3515.042822
754.144082	3472.384578
754.471875	3457.054429
754.799620	3473.120586
755.127318	3467.383753
755.454969	3466.027683
755.782572	3473.780978
756.110129	3451.642750
756.437638	3438.480298
756.765100	3454.022175
757.092515	3461.495686
757.419882	3466.189000
757.747203	3443.854168
758.074477	3448.129066
758.401703	3460.326138
758.728882	3482.688696
759.056014	3490.371415
759.383099	3490.933503
759.710138	3486.275477
760.037129	3506.064527
760.364073	3538.080895
760.690970	3522.581867
761.017820	3500.443640
761.344623	3517.543234
761.671379	3563.891603
761.998088	3615.016464
762.324751	3740.934405
762.651366	3990.194257
762.977935	4466.043892
763.304456	4907.817847
763.630931	5005.994319
763.957359	4644.720028
764.283740	4299.602636
764.610074	4105.780353
764.936362	3907.065630
765.262602	3751.679624
765.588796	3638.951863
765.914943	3548.773182
766.241044	3459.529636
766.567097	3429.605346
766.893104	3384.774365
767.219064	3353.189016
767.544978	3326.145746
767.870845	3269.843619
768.196665	3250.803181
768.522438	3259.695777
768.848165	3253.820312
769.173846	3218.683469
769.499479	3204.432127
769.825066	3184.403623
770.150607	3169.449040
770.476101	3181.520083
770.801548	3177.426666
771.126949	3134.642394
771.452303	3115.236472
771.777611	3120.116309
772.102872	3127.660396
772.428087	3104.695419
772.753256	3091.061619
773.078378	3084.341761
773.403453	3050.296328
773.728482	3038.426931
774.053465	3062.551373
774.378401	3047.138045
774.703291	3018.053108
775.028135	3017.173427
775.352932	3011.383662
775.677683	2999.529388
776.002388	2999.973010
776.327046	3000.663648
776.651658	2984.612614
776.976224	2975.697333
777.300743	2977.983497
777.625216	2969.552167
777.949643	2963.351548
778.274024	2964.195941
778.598359	2953.750670
778.922647	2960.853656
779.246889	2955.709158
779.571086	2941.084771
779.895236	2936.686364
780.219339	2945.460493
780.543397	2959.369036
780.867409	2963.729634
781.191374	2954.476596
781.515294	2953.569189
781.839167	2952.606328
782.162995	2942.947478
782.486776	2952.288736
782.810511	2951.628344
783.134201	2935.786518
783.457844	2944.696758
783.781441	2937.591252
784.104993	2912.937489
784.428498	2915.203487
784.751958	2927.607246
785.075372	2923.440733
785.398739	2907.399781
785.722061	2924.436361
786.045337	2934.044800
786.368568	2921.673808
786.691752	2911.813311
787.014891	2960.170580
787.337983	2988.844663
787.661030	3018.814322
787.984031	3083.872933
788.306987	3131.592496
788.629897	3125.059160
788.952760	3109.769341
789.275579	3095.419696
789.598351	3034.189842
789.921078	2987.065135
790.243759	2981.058601
790.566395	2962.262658
790.888984	2939.111159
791.211529	2922.218253
791.534027	2912.715678
791.856480	2903.621436
792.178888	2888.669374
792.501249	2879.537324
792.823566	2877.752755
793.145836	2873.046838
793.468062	2870.319574
793.790241	2867.811600
794.112375	2871.746221
794.434464	2886.688201
794.756507	2890.272461
795.078505	2892.979561
795.400457	2910.547982
795.722364	2945.977211
796.044226	2972.329843
796.366042	2973.285141
796.687812	2960.722586
797.009538	2983.841318
797.331218	2970.537713
797.652852	2956.208233
797.974442	2937.689554
798.295986	2937.944132
798.617484	2929.810231
798.938938	2911.609145
799.260346	2897.972823
799.581709	2895.651372
799.903026	2887.691390
800.224299	2882.536810
800.545526	2869.205479
800.866708	2857.159642
801.187845	2845.312930
801.508936	2847.188240
801.829983	2854.429857
802.150984	2841.774040
802.471940	2826.640497
802.792851	2827.396670
803.113717	2827.177379
803.434538	2833.244408
803.755314	2824.805517
804.076045	2822.887357
804.396731	2818.085658
804.717372	2820.346616
805.037967	2812.600883
805.358518	2824.137564
805.679024	2832.082422
805.999485	2827.076556
806.319901	2834.948318
806.640272	2825.339879
806.960598	2828.246104
807.280879	2837.912517
807.601115	2845.469206
807.921306	2831.961434
808.241453	2828.183090
808.561554	2835.631394
808.881611	2837.728514
809.201623	2833.345231
809.521590	2830.496979
809.841513	2826.582523
810.161390	2828.598985
810.481223	2823.313335
810.801011	2813.730102
811.120755	2813.624237
811.440453	2814.879485
811.760107	2812.008547
812.079716	2812.159782
812.399281	2803.161322
812.718801	2798.541105
813.038276	2791.748150
813.357707	2794.687143
813.677093	2805.944039
813.996434	2798.278965
814.315731	2793.903243
814.634983	2790.686987
814.954191	2792.930301
815.273354	2806.087712
815.592473	2812.573157
815.911547	2815.862510
816.230577	2822.990701
816.549562	2833.640139
816.868502	2830.401197
817.187399	2839.518124
817.506250	2859.085363
817.825058	2851.228724
818.143821	2861.744571
818.462539	2879.920452
818.781213	2905.093453
819.099843	2942.876901
819.418429	3001.349245
819.736970	3062.175807
820.055466	3138.088022
820.373919	3242.389495
820.692327	3384.839900
821.010691	3556.350036
821.329011	4002.613139
821.647286	4909.289864
821.965517	6303.816691
822.283704	7055.735034
822.601847	7044.072325
822.919945	6401.736063
823.237999	5889.680862
823.556010	5297.728412
823.873976	4740.811982
824.191897	4327.545752
824.509775	4027.148435
824.827609	3754.714399
825.145398	3628.335193
825.463144	3616.554016
825.780845	3707.829148
826.098502	3815.714881
826.416116	4097.981688
826.733685	4421.974125
827.051210	4488.933251
827.368692	4372.563256
827.686129	4100.666102
828.003522	3772.907923
828.320872	3513.364117
828.638177	3313.046308
828.955439	3174.840554
829.272656	3092.488265
829.589830	3024.712472
829.906960	2973.207003
830.224046	2928.023142
830.541088	2893.725651
830.858086	2878.322406
831.175041	2860.867411
831.491952	2860.333048
831.808819	2875.154041
832.125642	2898.061044
832.442421	2943.799433
832.759157	3028.420241
833.075849	3206.229299
833.392497	3488.390241
833.709101	3696.380687
834.025662	3647.675579
834.342179	3484.692555
834.658653	3304.627581
834.975083	3156.740292
835.291469	3057.490055
835.607811	2970.313381
835.924110	2910.863054
836.240366	2860.935466
836.556578	2817.223621
836.872746	2794.818213
837.188871	2769.511621
837.504952	2754.655340
837.820990	2748.805081
838.136984	2733.371589
838.452935	2727.319683
838.768842	2725.895557
839.084706	2743.153948
839.400526	2821.019610
839.716303	2954.156483
840.032037	3037.615306
840.347727	3022.675846
840.663373	2963.409521
840.978977	2884.465052
841.294537	2811.418732
841.610054	2762.602719
841.925527	2737.953997
842.240957	2716.894577
842.556344	2695.222657
842.871687	2681.455266
843.186987	2670.894048
843.502244	2667.133348
843.817458	2660.955414
844.132629	2648.206336
844.447756	2640.256436
844.762840	2635.941208
845.077881	2640.173257
845.392879	2636.374747
845.707833	2632.614047
846.022745	2624.210443
846.337613	2628.588685
846.652438	2627.562811
846.967221	2626.690691
847.281960	2623.043416
847.596656	2621.437809
847.911309	2624.202882
848.225919	2619.648199
848.540485	2616.820112
848.855009	2615.244751
849.169490	2616.401696
849.483928	2615.138887
849.798323	2614.692745
850.112675	2612.073865
850.426984	2612.386417
850.741251	2612.877929
851.055474	2610.659822
851.369654	2618.176182
851.683792	2616.343723
851.997887	2612.031016
852.311938	2612.159565
852.625947	2615.506891
852.939914	2616.159721
853.253837	2619.582664
853.567718	2610.536313
853.881555	2611.000100
854.195350	2614.044957
854.509103	2615.844648
854.822812	2613.119905
855.136479	2611.153855
855.450103	2613.117384
855.763685	2613.964298
856.077224	2610.969853
856.390720	2613.568567
856.704173	2612.146962
857.017584	2615.902622
857.330953	2615.516973
857.644278	2622.125926
857.957561	2621.871348
858.270802	2617.193157
858.584000	2618.745832
858.897155	2619.484362
859.210268	2620.439660
859.523339	2614.387755
859.836367	2611.766355
860.149352	2611.421036
860.462295	2613.863475
860.775195	2608.119080
861.088054	2606.823504
861.400869	2607.128493
861.713642	2604.539861
862.026373	2609.505397
862.339062	2610.874071
862.651708	2615.156531
862.964312	2615.741305
863.276873	2613.659308
863.589392	2617.601491
863.901869	2625.894189
864.214303	2627.280506
864.526696	2630.910137
864.839045	2633.498769
865.151353	2632.926598
865.463619	2633.375261
865.775842	2635.492546
866.088023	2632.540950
866.400162	2634.202010
866.712258	2632.863584
867.024313	2631.230250
867.336325	2625.679940
867.648296	2630.642956
867.960224	2634.935498
868.272110	2635.888276
868.583954	2625.185907
868.895755	2628.346710
869.207515	2635.706795
869.519233	2640.551343
869.830909	2636.044552
870.142542	2631.464664
870.454134	2632.808131
870.765684	2642.436735
871.077191	2640.974800
871.388657	2646.701551
871.700081	2645.534524
872.011463	2644.054945
872.322803	2644.256592
872.634101	2648.665081
872.945357	2655.778149
873.256571	2663.559170
873.567744	2657.895433
873.878874	2655.931904
874.189963	2660.289981
874.501010	2662.180414
874.812015	2668.418842
875.122979	2667.874397
875.433900	2659.196051
875.744780	2654.832932
876.055618	2661.890548
876.366415	2667.919768
876.677169	2670.097546
876.987882	2665.109324
877.298554	2661.603202
877.609183	2671.972855
877.919771	2679.264884
878.230317	2688.291070
878.540822	2699.873121
878.851285	2710.956098
879.161707	2735.158678
879.472087	2774.454472
879.782425	2822.746205
880.092722	2939.930347
880.402977	3136.898310
880.713191	3397.034451
881.023363	3700.133826
881.333494	3895.556676
881.643583	4070.293150
881.953631	4064.755443
882.263637	3891.337230
882.573602	3666.673168
882.883526	3533.238867
883.193408	3414.623037
883.503248	3311.604538
883.813048	3192.620704
884.122806	3075.517221
884.432522	2990.437667
884.742197	2923.163469
885.051831	2883.383724
885.361424	2846.691686
885.670975	2810.183650
885.980485	2779.188115
886.289954	2759.222626
886.599382	2746.554206
886.908768	2733.646332
887.218113	2714.484906
887.527417	2701.130889
887.836680	2691.898016
888.145901	2685.473065
888.455082	2677.873526
888.764221	2669.447237
889.073319	2663.125630
889.382376	2658.391987
889.691392	2659.574138
890.000366	2660.053047
890.309300	2661.451967
890.618193	2660.451298
890.927044	2664.716114
891.235855	2665.273162
891.544625	2662.250990
891.853353	2663.997750
892.162041	2669.500169
892.470687	2690.027748
892.779293	2703.197762
893.087858	2713.602704
893.396381	2737.180180
893.704864	2777.554782
894.013306	2852.015144
894.321707	2947.580298
894.630068	2999.574759
894.938387	3021.808768
895.246665	3011.855009
895.554903	2964.750468
895.863100	2922.548448
896.171256	2863.261959
896.479371	2800.040848
896.787446	2760.069539
897.095480	2740.482136
897.403473	2734.765468
897.711425	2717.912890
898.019336	2699.522761
898.327207	2686.062880
898.635038	2684.290915
898.942827	2678.342353
899.250576	2671.579645
899.558284	2662.263593
899.865952	2653.781852
900.173579	2651.674649
900.481165	2651.283960
900.788711	2641.496560
901.096216	2637.201497
901.403681	2632.578759
901.711105	2633.985241
902.018489	2631.290744
902.325832	2636.609161
902.633135	2637.813997
902.940397	2654.399393
903.247619	2689.611853
903.554800	2762.756474
903.861941	2893.937380
904.169041	3023.560569
904.476101	3089.876947
904.783121	3081.107860
905.090100	3022.857328
905.397039	2945.473096
905.703938	2871.736138
906.010796	2804.192238
906.317614	2750.536717
906.624391	2716.425750
906.931129	2686.135977
907.237826	2659.178407
907.544483	2647.997128
907.851099	2628.518109
908.157675	2620.585854
908.464211	2612.572940
908.770707	2599.665065
909.077163	2598.424941
909.383578	2591.241297
909.689954	2595.508634
909.996289	2592.604929
910.302584	2588.277099
910.608839	2590.439754
910.915054	2589.991091
911.221229	2591.148036
911.527363	2590.585947
911.833458	2592.446133
912.139513	2592.231884
912.445527	2596.221957
912.751502	2600.287648
913.057436	2604.461723
913.363331	2610.619492
913.669186	2621.861266
913.975000	2638.592855
914.280775	2653.849907
914.586510	2674.516117
914.892205	2710.131869
915.197859	2781.023095
915.503475	2868.610623
915.809050	2937.540840
916.114585	2953.186061
916.420081	2965.037814
916.725536	2974.893269
917.030952	2951.635906
917.336328	2901.322670
917.641665	2849.277798
917.946961	2796.456588
918.252218	2766.060951
918.557435	2737.044069
918.862612	2712.589432
919.167750	2696.316587
919.472848	2676.870336
919.777906	2660.559683
920.082925	2648.556696
920.387904	2636.621764
920.692843	2634.912813
920.997743	2629.503655
921.302603	2619.186933
921.607423	2611.912548
921.912204	2607.935078
922.216946	2607.531786
922.521647	2601.913420
922.826310	2598.308995
923.130932	2591.984867
923.435516	2586.926069
923.740059	2586.537901
924.044564	2584.881882
924.349028	2582.305852
924.653454	2576.405181
924.957840	2569.871846
925.262186	2568.243553
925.566493	2572.760427
925.870761	2564.767678
926.174989	2565.874211
926.479178	2563.295661
926.783328	2563.668706
927.087438	2563.008315
927.391509	2562.456309
927.695541	2559.366081
927.999533	2559.855073
928.303486	2555.600339
928.607400	2558.962789
928.911275	2556.419527
929.215110	2553.750236
929.518906	2556.205278
929.822663	2556.056564
930.126381	2556.480021
930.430060	2554.216543
930.733699	2554.574465
931.037299	2555.101265
931.340861	2556.328786
931.644383	2557.163097
931.947866	2557.526060
932.251309	2557.578992
932.554714	2556.800134
932.858080	2560.039075
933.161407	2556.411965
933.464694	2557.236194
933.767943	2554.854249
934.071153	2555.822150
934.374323	2552.762170
934.677455	2554.274516
934.980548	2554.599670
935.283602	2553.772921
935.586617	2556.285936
935.889593	2554.201419
936.192530	2553.561193
936.495428	2553.747715
936.798287	2553.271326
937.101108	2554.808878
937.403890	2557.402552
937.706632	2563.368757
938.009336	2565.826320
938.312002	2569.478636
938.614628	2575.253278
938.917216	2572.606672
939.219765	2576.649677
939.522275	2578.860223
939.824747	2576.405181
940.127179	2570.260015
940.429573	2568.278841
940.731929	2570.121383
941.034246	2565.380178
941.336524	2568.210786
941.638763	2568.172977
941.940964	2566.146433
942.243126	2566.471588
942.545250	2564.808007
942.847335	2562.983109
943.149381	2560.701987
943.451389	2559.018242
943.753359	2561.528736
944.055290	2556.590926
944.357182	2557.019424
944.659036	2556.260731
944.960851	2554.929866
945.262628	2556.628735
945.564367	2554.544218
945.866067	2554.970195
946.167729	2557.163097
946.469352	2557.480690
946.770937	2558.453633
947.072484	2556.737120
947.373992	2556.739640
947.675462	2555.471790
947.976893	2556.366595
948.278286	2553.130174
948.579641	2553.369629
948.880958	2550.571788
949.182236	2555.403734
949.483476	2552.978939
949.784678	2551.602704
950.085841	2552.051367
950.386967	2553.599001
950.688054	2551.733774
950.989103	2554.093034
951.290114	2552.805020
951.591087	2558.211657
951.892021	2559.562686
952.192917	2559.769374
952.493776	2558.642676
952.794596	2560.407080
953.095378	2561.987481
953.396122	2562.398335
953.696828	2557.914229
953.997496	2559.741647
954.298126	2556.154866
954.598718	2557.344579
954.899272	2553.994732
955.199788	2553.485575
955.500266	2551.955585
955.800706	2547.557178
956.101108	2544.030891
956.401472	2546.995090
956.701798	2544.245140
957.002087	2545.460058
957.302337	2547.582384
957.602550	2545.213042
957.902724	2544.323278
958.202861	2542.027033
958.502960	2542.778165
958.803022	2544.610624
959.103045	2541.545603
959.403031	2541.288504
959.702979	2539.244316
960.002889	2538.760365
960.302762	2540.507125
960.602596	2539.201466
960.902393	2539.821528
961.202153	2540.822197
961.501875	2539.370345
961.801559	2536.282638
962.101205	2536.955632
962.400814	2537.510159
962.700385	2539.589635
962.999918	2537.283307
963.299414	2540.963349
963.598873	2537.840354
963.898293	2537.442103
964.197677	2537.716846
964.497022	2538.314223
964.796331	2536.083512
965.095601	2536.920344
965.394835	2538.019315
965.694030	2534.654345
965.993189	2539.317413
966.292309	2535.047555
966.591393	2537.648791
966.890439	2535.851619
967.189447	2538.359593
967.488419	2534.689633
967.787353	2539.292207
968.086249	2533.817514
968.385108	2536.396064
968.683930	2540.439069
968.982714	2536.033101
969.281462	2536.728780
969.580172	2537.086702
969.878844	2539.158616
970.177480	2536.688451
970.476078	2539.307330
970.774639	2538.160468
971.073162	2538.639377
971.371649	2534.624098
971.670098	2536.864891
971.968510	2534.004036
972.266885	2535.229037
972.565223	2538.475540
972.863524	2538.893956
973.161788	2535.523944
973.460014	2537.079140
973.758204	2538.503266
974.056356	2537.903369
974.354471	2537.250539
974.652550	2540.635674
974.950591	2537.497556
975.248595	2536.423790
975.546563	2539.030067
975.844493	2537.626105
976.142386	2536.325488
976.440243	2536.486805
976.738062	2536.300282
977.035845	2537.099305
977.333590	2536.068389
977.631299	2534.520755
977.928971	2537.656352
978.226606	2536.527134
978.524204	2537.759696
978.821765	2536.073430
979.119290	2536.126362
979.416777	2532.322812
979.714228	2534.674510
980.011642	2534.934129
980.309020	2538.808256
980.606360	2538.115097
980.903664	2536.401105
981.200931	2536.285158
981.498162	2538.833462
981.795356	2541.054090
982.092513	2542.841179
982.389633	2545.966694
982.686717	2546.601880
982.983764	2554.032541
983.280775	2552.512633
983.577749	2554.839125
983.874686	2552.699155
984.171587	2549.916438
984.468451	2546.228834
984.765279	2543.735984
985.062070	2543.642722
985.358824	2538.881353
985.655543	2537.794984
985.952224	2536.343132
986.248869	2537.048893
986.545478	2535.712988
986.842050	2535.264325
987.138586	2531.428007
987.435086	2531.697708
987.731549	2529.648479
988.027975	2532.577390
988.324366	2533.527647
988.620719	2531.317101
988.917037	2530.876000
989.213318	2536.055786
989.509563	2531.057482
989.805772	2532.617719
990.101944	2532.393388
990.398080	2532.511855
990.694180	2529.429189
990.990244	2534.601413
991.286271	2533.598223
991.582262	2532.622760
991.878217	2533.983872
992.174136	2535.274407
992.470019	2533.331042
992.765865	2533.933460
993.061676	2532.700898
993.357450	2533.794828
993.653188	2534.535878
993.948890	2533.041176
994.244556	2534.752648
994.540186	2535.765920
994.835780	2532.968079
995.131337	2534.742565
995.426859	2535.839016
995.722345	2535.516383
996.017795	2538.631816
996.313208	2536.806918
996.608586	2538.536034
996.903928	2537.805066
997.199234	2536.101156
997.494504	2534.062010
997.789738	2536.348173
998.084936	2533.262987
998.380099	2533.419262
998.675225	2533.918337
998.970316	2534.321629
999.265371	2536.476722
999.560390	2531.180990
999.855373	2534.974458
1000.150320	2533.787267
1000.445232	2534.397246
1000.740108	2530.876000
1001.034948	2531.188552
1001.329752	2533.837678
1001.624521	2532.942873
1001.919254	2528.287368
1002.213951	2531.639735
1002.508613	2526.235618
1002.803239	2529.918181
1003.097829	2527.427851
1003.392384	2530.145033
1003.686903	2529.877852
1003.981386	2534.472864
1004.275834	2531.007070
1004.570246	2532.272400
1004.864623	2533.010929
1005.158964	2530.008922
1005.453270	2530.230733
1005.747540	2531.120496
1006.041775	2531.012112
1006.335974	2531.685106
1006.630138	2531.826258
1006.924266	2534.218285
1007.218359	2531.395239
1007.512416	2529.744261
1007.806438	2534.414890
1008.100425	2530.618902
1008.394376	2532.627801
1008.688292	2532.469005
1008.982172	2532.753830
1009.276017	2532.426155
1009.569827	2529.461957
1009.863602	2534.533357
1010.157341	2529.928263
1010.451045	2533.489839
1010.744714	2531.974972
1011.038347	2530.603778
1011.331945	2528.420958
1011.625508	2529.308202
1011.919036	2532.161495
1012.212528	2531.329704
1012.505986	2533.976310
1012.799408	2530.515558
1013.092795	2530.114786
1013.386147	2529.645959
1013.679464	2532.234591
1013.972745	2529.323325
1014.265992	2530.578572
1014.559204	2530.114786
1014.852380	2533.124355
1015.145521	2530.986906
1015.438628	2530.061854
1015.731699	2527.942049
1016.024736	2528.357944
1016.317737	2530.623943
1016.610703	2530.495393
1016.903635	2527.730320
1017.196531	2525.741585
1017.489393	2530.462626
1017.782219	2524.894671
1018.075011	2529.898017
1018.367768	2530.608819
1018.660490	2530.623943
1018.953177	2530.623943
1019.245829	2530.623943
