Dividing Wavelength (nm)	Counts (n)	Blue Motor Position (mm): 2.600000	Red Motor Position (mm): 0.000000	
326.493990	2143.969963
326.888308	2143.969963
327.282561	2143.969963
327.676750	2110.385796
328.070874	2107.870261
328.464933	2111.918307
328.858929	2116.818309
329.252859	2128.513786
329.646726	2141.482154
330.040528	2150.863741
330.434265	2170.675476
330.827938	2190.835050
331.221547	2202.845599
331.615091	2222.324618
332.008571	2240.979407
332.401986	2263.982192
332.795338	2280.486930
333.188625	2303.275466
333.581847	2321.602581
333.975006	2337.860302
334.368100	2357.210771
334.761129	2377.032588
335.154095	2393.822151
335.546996	2408.696075
335.939833	2420.976326
336.332606	2435.451999
336.725315	2451.142591
337.117960	2459.591564
337.510540	2467.412915
337.903056	2479.496560
338.295508	2486.879330
338.687896	2493.211019
339.080220	2504.498163
339.472480	2510.555109
339.864676	2514.832528
340.256807	2517.181706
340.648875	2523.112623
341.040879	2525.182017
341.432818	2526.270906
341.824694	2528.362985
342.216506	2528.713345
342.608253	2529.998840
342.999937	2528.491535
343.391557	2527.778211
343.783113	2527.049765
344.174605	2524.231760
344.566033	2522.805113
344.957397	2524.272089
345.348697	2520.345030
345.739934	2518.086593
346.131106	2514.220028
346.522215	2515.387055
346.913260	2513.393279
347.304241	2513.410923
347.695159	2511.031498
348.086012	2505.839110
348.476802	2505.937412
348.867528	2506.950684
349.258191	2502.922802
349.648789	2501.360045
350.039324	2500.992040
350.429796	2499.129334
350.820203	2498.070692
351.210548	2499.588079
351.600828	2497.798469
351.991045	2496.528099
352.381198	2496.575990
352.771288	2496.081957
353.161314	2495.847543
353.551276	2495.053561
353.941175	2492.457367
354.331010	2496.238232
354.720782	2494.766215
355.110490	2493.841164
355.500135	2493.974754
355.889717	2493.730258
356.279235	2493.747902
356.668689	2495.534991
357.058080	2493.538694
357.447408	2492.636328
357.836672	2491.018118
358.225873	2495.537512
358.615010	2491.302943
359.004084	2498.216885
359.393095	2499.018429
359.782043	2498.862153
360.170927	2498.370640
360.559748	2499.772081
360.948505	2498.700836
361.337199	2499.830054
361.725830	2499.152019
362.114398	2501.239057
362.502903	2499.036073
362.891344	2499.063799
363.279722	2504.167967
363.668037	2501.841475
364.056289	2501.430621
364.444478	2503.792401
364.832603	2503.646208
365.220665	2504.190652
365.608665	2505.070334
365.996601	2504.125118
366.384474	2506.471775
366.772284	2506.060921
367.160031	2503.716784
367.547715	2506.214676
367.935336	2504.548574
368.322893	2507.850530
368.710388	2504.972031
369.097820	2511.696931
369.485189	2506.491939
369.872495	2508.647033
370.259738	2509.803977
370.646918	2510.144255
371.034035	2508.042094
371.421090	2511.918741
371.808081	2508.931858
372.195010	2509.498988
372.581875	2507.790036
372.968678	2510.371107
373.355418	2510.872702
373.742096	2512.180881
374.128710	2513.168947
374.515262	2510.358504
374.901751	2508.697444
375.288177	2511.742301
375.674540	2511.684328
376.060841	2512.354801
376.447079	2513.373114
376.833254	2510.852537
377.219367	2508.062259
377.605417	2510.424039
377.991404	2510.839934
378.377329	2508.508401
378.763191	2506.247443
379.148991	2515.387055
379.534727	2514.593073
379.920402	2514.388907
380.306013	2512.700120
380.691563	2514.109123
381.077049	2516.206243
381.462474	2512.069976
381.847835	2513.219359
382.233134	2511.185253
382.618371	2512.616941
383.003545	2515.591222
383.388657	2515.137518
383.773706	2515.369411
384.158693	2516.049967
384.543618	2516.107940
384.928480	2515.971829
385.313280	2516.629700
385.698017	2514.913187
386.082692	2517.385873
386.467305	2516.017199
386.851856	2517.065759
387.236344	2519.480472
387.620770	2518.308404
388.005133	2518.308404
388.389435	2518.928466
388.773674	2517.627848
389.157851	2516.659947
389.541965	2521.108765
389.926018	2518.752025
390.310008	2518.860410
390.693936	2520.481141
391.077802	2519.727489
391.461606	2519.556089
391.845348	2519.362005
392.229027	2521.509537
392.612645	2523.652027
392.996200	2521.617921
393.379694	2524.723272
393.763125	2520.193795
394.146494	2520.758405
394.529801	2520.952489
394.913047	2523.362161
395.296230	2522.517767
395.679351	2524.572037
396.062410	2525.197141
396.445408	2522.404341
396.828343	2521.713703
397.211217	2517.315297
397.594028	2520.481141
397.976778	2518.361336
398.359466	2521.418796
398.742092	2519.349402
399.124656	2526.326359
399.507158	2525.156811
399.889598	2525.754188
400.271977	2524.433406
400.654294	2525.912984
401.036549	2524.123375
401.418742	2524.924918
401.800874	2524.244362
402.182944	2525.255114
402.564952	2527.153108
402.946898	2527.735362
403.328783	2527.642100
403.710606	2528.844415
404.092367	2525.134126
404.474067	2525.572707
404.855705	2527.818541
405.237282	2526.540608
405.618797	2529.517409
406.000250	2527.319466
406.381642	2525.633200
406.762972	2526.006246
407.144240	2528.005063
407.525447	2528.809127
407.906593	2529.981196
408.287677	2527.485824
408.668700	2528.262162
409.049661	2527.291740
409.430560	2527.924405
409.811399	2528.877183
410.192176	2526.701925
410.572891	2530.641587
410.953545	2529.403983
411.334138	2527.137985
411.714669	2528.635208
412.095139	2526.795186
412.475547	2529.933305
412.855894	2527.536236
413.236180	2529.769467
413.616405	2531.042358
413.996568	2529.628315
414.376670	2529.686288
414.756711	2531.722914
415.136691	2528.463808
415.516609	2529.847605
415.896466	2530.321473
416.276262	2533.010929
416.655997	2528.567152
417.035670	2529.396422
417.415283	2529.018335
417.794834	2527.947090
418.174324	2531.359951
418.553753	2530.654190
418.933121	2533.683923
419.312428	2533.484797
419.691674	2531.180990
420.070859	2531.531350
420.449983	2530.591175
420.829045	2532.239633
421.208047	2536.864891
421.586988	2532.201824
421.965867	2532.015301
422.344686	2533.119314
422.723444	2535.324819
423.102141	2532.821886
423.480777	2532.584952
423.859352	2531.465815
424.237866	2535.080323
424.616319	2534.152750
424.994712	2536.643080
425.373044	2534.472864
425.751314	2532.993285
426.129524	2535.816331
426.507673	2535.077802
426.885762	2536.806918
427.263789	2536.632998
427.641756	2534.044366
428.019662	2535.808769
428.397508	2533.809952
428.775292	2534.349355
429.153016	2532.801721
429.530679	2536.088553
429.908282	2535.995292
430.285824	2534.558563
430.663305	2536.925385
431.040726	2534.210724
431.418086	2533.371372
431.795385	2535.917154
432.172624	2535.022349
432.549802	2535.125693
432.926920	2537.232895
433.303977	2538.437731
433.680974	2539.438400
434.057910	2541.134748
434.434786	2536.602751
434.811601	2537.893287
435.188355	2535.788605
435.565050	2536.058307
435.941683	2539.677855
436.318257	2534.641742
436.694770	2532.963038
437.071222	2533.605785
437.447614	2535.365148
437.823946	2534.419932
438.200218	2539.972763
438.576429	2539.508976
438.952580	2539.728267
439.328670	2538.664583
439.704700	2536.353214
440.080670	2536.738862
440.456580	2537.192566
440.832429	2537.671476
441.208218	2537.283307
441.583947	2538.707433
441.959616	2537.568132
442.335224	2541.023843
442.710773	2537.676517
443.086261	2540.053421
443.461689	2537.008564
443.837057	2537.984027
444.212365	2541.790098
444.587612	2539.604758
444.962800	2539.692978
445.337927	2540.265149
445.712995	2541.389327
446.088002	2539.400592
446.462949	2538.825900
446.837837	2539.798843
447.212664	2540.459234
447.587431	2541.964018
447.962139	2541.381765
448.336786	2543.151210
448.711374	2538.059645
449.085901	2538.304141
449.460369	2540.388658
449.834776	2540.759183
450.209124	2542.039636
450.583412	2537.424459
450.957640	2541.091899
451.331808	2540.665921
451.705917	2536.287679
452.079965	2541.558205
452.453954	2539.206507
452.827883	2539.950077
453.201752	2542.526107
453.575562	2539.786240
453.949311	2541.477547
454.323001	2541.391847
454.696632	2540.451672
455.070202	2539.871939
455.443713	2543.302445
455.817164	2539.272042
456.190556	2538.427649
456.563888	2540.307999
456.937160	2537.386651
457.310373	2542.402599
457.683526	2542.213555
458.056619	2542.992414
458.429653	2544.149358
458.802628	2541.906045
459.175542	2540.701209
459.548398	2545.225645
459.921194	2541.923689
460.293930	2543.950233
460.666607	2539.377906
461.039224	2544.343443
461.411782	2543.640202
461.784280	2545.263453
462.156719	2541.235572
462.529099	2542.516025
462.901419	2541.008720
463.273680	2543.093237
463.645882	2543.635161
464.018024	2544.103988
464.390106	2543.375541
464.762130	2543.025181
465.134094	2542.067362
465.505999	2543.995603
465.877845	2545.187836
466.249631	2543.413350
466.621358	2544.167003
466.993026	2546.145655
467.364634	2547.413506
467.736184	2543.078113
468.107674	2544.993752
468.479105	2543.350336
468.850477	2544.230017
469.221790	2545.112219
469.593043	2544.716488
469.964238	2543.778834
470.335373	2545.286139
470.706449	2544.023330
471.077467	2542.843700
471.448425	2544.565254
471.819324	2545.747404
472.190164	2545.339071
472.560945	2543.146169
472.931667	2544.043494
473.302330	2545.591128
473.672934	2545.177754
474.043479	2545.258412
474.413965	2546.170861
474.784393	2541.346477
475.154761	2544.487116
475.525070	2540.260108
475.895321	2542.420243
476.265513	2539.932433
476.635645	2543.534338
477.005719	2544.318237
477.375734	2545.442414
477.745691	2546.276725
478.115588	2544.192208
478.485427	2544.882846
478.855207	2544.192208
479.224928	2545.548279
479.594591	2543.786395
479.964194	2545.560882
480.333739	2543.650284
480.703226	2546.949719
481.072653	2548.368804
481.442022	2546.528783
481.811333	2547.874771
482.180584	2545.631458
482.549777	2546.231355
482.918912	2549.765204
483.287988	2548.106664
483.657005	2545.674307
484.025964	2548.167158
484.394864	2548.290666
484.763706	2547.801674
485.132489	2547.811757
485.501213	2546.125491
485.869879	2544.754297
486.238487	2543.110881
486.607036	2547.466438
486.975527	2549.510626
487.343959	2544.713968
487.712333	2547.801674
488.080648	2546.349822
488.448905	2546.879143
488.817104	2546.183464
489.185244	2547.390820
489.553326	2548.293187
489.921350	2548.764535
490.289315	2548.837632
490.657222	2548.837632
491.025070	2549.104813
491.392861	2545.984338
491.760593	2544.479554
492.128267	2547.002652
492.495883	2547.448794
492.863440	2548.504915
493.230939	2546.838814
493.598380	2547.005172
493.965763	2542.528627
494.333088	2546.057435
494.700354	2543.892260
495.067563	2547.433670
495.434713	2543.781354
495.801805	2547.358053
496.168839	2547.239586
496.535815	2546.516180
496.902733	2549.215718
497.269593	2547.650440
497.636395	2546.748073
498.003139	2549.739998
498.369825	2549.629093
498.736453	2545.283618
499.103023	2545.235727
499.469535	2547.799154
499.835989	2547.584905
500.202385	2549.674463
500.568723	2546.783361
500.935003	2546.496016
501.301226	2550.281922
501.667390	2549.009031
502.033497	2548.986346
502.399546	2547.400903
502.765537	2546.969884
503.131470	2550.349978
503.497345	2550.972560
503.863163	2550.932231
504.228923	2547.610111
504.594625	2547.111036
504.960269	2546.455686
505.325856	2548.905687
505.691385	2546.306972
506.056856	2550.491130
506.422270	2546.954761
506.787625	2546.949719
507.152924	2550.266799
507.518164	2550.612118
507.883347	2549.712272
508.248472	2549.187992
508.613540	2548.981304
508.978550	2548.908208
509.343503	2547.353012
509.708398	2550.145811
510.073236	2549.119936
510.438016	2548.693959
510.802738	2547.579864
511.167403	2550.115564
511.532010	2552.051367
511.896561	2548.968702
512.261053	2548.850234
512.625488	2546.639688
512.989866	2544.098947
513.354186	2546.816129
513.718449	2545.044163
514.082655	2547.468958
514.446803	2546.700182
514.810894	2550.881819
515.174927	2552.162273
515.538904	2552.258054
515.902822	2548.328475
516.266684	2550.228990
516.630488	2549.011551
516.994235	2552.384083
517.357925	2547.607590
517.721558	2548.620862
518.085133	2549.371994
518.448651	2550.168496
518.812112	2551.075904
519.175516	2548.870399
519.538863	2549.306459
519.902152	2545.008875
520.265385	2548.509957
520.628560	2551.108671
520.991678	2549.442570
521.354739	2549.641696
521.717743	2549.797971
522.080690	2551.275029
522.443580	2550.808723
522.806413	2552.769732
523.169189	2548.817467
523.531908	2550.821326
523.894569	2553.392314
524.257174	2548.290666
524.619722	2547.269833
524.982213	2552.948693
525.344647	2552.300904
525.707025	2549.127498
526.069345	2549.752601
526.431608	2549.755122
526.793815	2550.002138
527.155964	2549.374514
527.518057	2550.148332
527.880093	2549.495502
528.242072	2551.718651
528.603995	2551.748898
528.965860	2550.836449
529.327669	2549.979453
529.689421	2548.998948
530.051117	2547.932744
530.412755	2548.709082
530.774337	2549.913918
531.135862	2551.138918
531.497331	2550.145811
531.858743	2547.176571
532.220098	2549.808054
532.581396	2546.279246
532.942638	2547.758825
533.303824	2549.011551
533.664953	2551.491799
534.026025	2551.821995
534.387040	2550.365101
534.747999	2551.789227
535.108902	2550.667570
535.469748	2550.763352
535.830537	2553.846018
536.191270	2551.428785
536.551947	2550.775955
536.912567	2551.680842
537.273131	2552.023641
537.633638	2550.397869
537.994089	2553.848538
538.354483	2551.146480
538.714821	2550.912066
539.075103	2548.938455
539.435328	2552.376522
539.795497	2548.217570
540.155609	2552.527756
540.515665	2551.156562
540.875665	2555.076059
541.235609	2551.388455
541.595496	2552.008517
541.955328	2551.287632
542.315102	2554.430792
542.674821	2553.798127
543.034483	2551.574978
543.394090	2552.205122
543.753640	2553.788045
544.113134	2551.695966
544.472571	2553.901471
544.831953	2551.758980
545.191278	2553.203271
545.550548	2549.780327
545.909761	2548.938455
546.268918	2551.176727
546.628019	2550.602035
546.987064	2551.695966
547.346053	2549.331665
547.704986	2549.787889
548.063863	2548.691438
548.422684	2553.273847
548.781449	2549.606407
549.140158	2553.914073
549.498811	2554.544218
549.857408	2552.903322
550.215949	2547.499205
550.574434	2547.547096
550.932864	2549.891233
551.291237	2547.353012
551.649555	2550.108002
552.007817	2551.539690
552.366022	2552.323589
552.724173	2549.621531
553.082267	2550.879299
553.440305	2553.165462
553.798288	2551.224618
554.156215	2549.886192
554.514086	2550.249155
554.871902	2550.899463
555.229661	2552.734443
555.587365	2550.942313
555.945014	2550.561706
556.302606	2550.596994
556.660143	2550.168496
557.017625	2553.551110
557.375050	2552.966337
557.732421	2553.344423
558.089735	2552.500030
558.446994	2552.310987
558.804197	2552.535318
559.161345	2552.416851
559.518437	2551.116233
559.875474	2552.139587
560.232455	2550.783517
560.589381	2549.732436
560.946251	2555.764177
561.303065	2549.709751
561.659825	2552.356357
562.016528	2552.487427
562.373177	2551.315359
562.729770	2552.288301
563.086307	2551.136398
563.442789	2552.439536
563.799216	2553.656975
564.155587	2554.277037
564.511904	2548.300749
564.868164	2548.938455
565.224370	2550.521377
565.580520	2550.949875
565.936615	2552.192519
566.292654	2555.002963
566.648638	2552.651264
567.004567	2552.389124
567.360441	2550.445760
567.716260	2552.484906
568.072023	2553.268806
568.427732	2547.831921
568.783385	2550.470965
569.138982	2549.513146
569.494525	2546.672456
569.850013	2546.518701
570.205445	2551.471634
570.560823	2549.193033
570.916145	2553.077242
571.271412	2551.196892
571.626625	2553.039433
571.981782	2551.983312
572.336884	2553.001625
572.691931	2550.924669
573.046923	2552.613456
573.401860	2552.928528
573.756743	2552.111861
574.111570	2551.872406
574.466342	2553.508261
574.821059	2552.835267
575.175722	2550.919628
575.530330	2550.586912
575.884882	2550.937272
576.239380	2553.115051
576.593823	2554.214022
576.948211	2550.692776
577.302544	2552.734443
577.656823	2551.948023
578.011047	2554.400545
578.365216	2552.719320
578.719330	2551.438867
579.073389	2550.705379
579.427394	2548.656150
579.781344	2552.915925
580.135239	2553.127653
580.489080	2553.004145
580.842866	2551.524567
581.196597	2553.649413
581.550273	2552.736964
581.903895	2551.438867
582.257463	2553.813250
582.610975	2551.930379
582.964434	2553.541028
583.317837	2553.709907
583.671186	2552.217725
584.024481	2552.893240
584.377721	2553.089845
584.730906	2551.038095
585.084037	2552.424413
585.437113	2551.007848
585.790135	2555.791903
586.143103	2554.120761
586.496016	2552.613456
586.848874	2547.471479
587.201679	2551.383414
587.554428	2546.982487
587.907124	2552.878116
588.259765	2549.797971
588.612352	2551.821995
588.964884	2553.321738
589.317362	2553.057077
589.669786	2550.365101
590.022155	2550.574309
590.374470	2554.498847
590.726731	2551.660678
591.078937	2555.640669
591.431090	2550.818805
591.783188	2555.504557
592.135232	2552.149670
592.487222	2552.018600
592.839157	2552.588250
593.191038	2553.808209
593.542866	2552.502550
593.894639	2551.930379
594.246358	2550.846531
594.598022	2552.580688
594.949633	2551.161603
595.301190	2552.633620
595.652692	2552.500030
596.004141	2554.133364
596.355535	2554.851728
596.706876	2551.862324
597.058162	2552.963816
597.409395	2550.884340
597.760573	2553.097407
598.111698	2551.222097
598.462768	2551.842159
598.813785	2553.783003
599.164748	2552.915925
599.515657	2548.290666
599.866511	2551.733774
600.217312	2550.924669
600.568060	2552.646223
600.918753	2552.421892
601.269392	2551.781665
601.619978	2548.814946
601.970510	2551.819474
602.320988	2549.041798
602.671412	2553.926676
603.021783	2552.656306
603.372100	2553.611604
603.722363	2552.701676
604.072572	2553.470452
604.422728	2554.143446
604.772830	2548.933413
605.122878	2547.789072
605.472872	2552.376522
605.822813	2549.394679
606.172701	2548.711603
606.522534	2550.460883
606.872314	2552.457180
607.222041	2550.695297
607.571714	2553.815771
607.921333	2553.041954
608.270899	2553.465411
608.620411	2553.956923
608.969870	2555.038251
609.319276	2555.955741
609.668627	2559.981102
610.017926	2557.319373
610.367171	2558.874569
610.716362	2562.025290
611.065500	2557.712583
611.414585	2556.288457
611.763616	2555.605381
612.112594	2554.471121
612.461518	2550.549103
612.810389	2554.105637
613.159207	2553.488096
613.507971	2553.437684
613.856682	2554.690411
614.205340	2551.731254
614.553945	2555.312994
614.902496	2552.963816
615.250994	2552.888199
615.599439	2552.522715
615.947830	2550.297046
616.296169	2551.721172
616.644454	2551.443908
616.992686	2551.443908
617.340864	2552.991542
617.688990	2553.004145
618.037063	2553.409958
618.385082	2551.068342
618.733048	2553.586398
619.080961	2550.874258
619.428821	2553.780483
619.776628	2553.631769
620.124382	2555.544887
620.472083	2552.716799
620.819731	2550.677653
621.167326	2553.732592
621.514868	2553.813250
621.862357	2555.650751
622.209793	2553.601522
622.557176	2551.058260
622.904506	2552.242931
623.251783	2549.823177
623.599007	2550.975081
623.946179	2548.633465
624.293297	2547.930224
624.640363	2553.397355
624.987376	2552.931048
625.334336	2551.738816
625.681243	2553.808209
626.028097	2551.264947
626.374899	2551.461552
626.721647	2555.033210
627.068343	2551.055739
627.414987	2553.893909
627.761577	2553.084804
628.108115	2554.559341
628.454600	2552.694114
628.801032	2553.911553
629.147412	2553.866182
629.493739	2552.968857
629.840014	2554.655123
630.186236	2555.514640
630.532405	2553.046995
630.878521	2554.340051
631.224585	2555.302911
631.570597	2552.200081
631.916556	2551.643034
632.262462	2551.940462
632.608316	2553.961964
632.954117	2549.203115
633.299866	2554.274516
633.645562	2551.103630
633.991206	2551.635472
634.336797	2549.140101
634.682336	2554.143446
635.027823	2549.908877
635.373257	2551.577499
635.718639	2548.877961
636.063968	2552.825184
636.409245	2550.042467
636.754470	2550.443239
637.099642	2549.934083
637.444762	2552.338713
637.789829	2550.717982
638.134845	2548.507436
638.479808	2553.125133
638.824719	2548.464586
639.169577	2553.535987
639.514383	2550.798640
639.859137	2552.341233
640.203839	2551.123795
640.548489	2551.191850
640.893086	2552.628579
641.237632	2549.644216
641.582125	2548.905687
641.926566	2547.428629
642.270955	2552.966337
642.615292	2550.927190
642.959576	2551.895091
643.303809	2549.490461
643.647990	2552.242931
643.992118	2552.822664
644.336195	2553.513302
644.680219	2550.231511
645.024192	2553.967006
645.368112	2553.377191
645.711981	2552.512633
646.055797	2553.162942
646.399562	2552.336192
646.743274	2552.580688
647.086935	2552.479865
647.430544	2550.773435
647.774101	2553.599001
648.117606	2551.035575
648.461059	2553.707386
648.804460	2553.483055
649.147810	2553.775442
649.491108	2551.864844
649.834354	2552.472303
650.177548	2553.823333
650.520690	2553.813250
650.863781	2549.722354
651.206820	2554.987839
651.549807	2554.902140
651.892742	2553.989691
652.235626	2552.769732
652.578458	2552.225287
652.921238	2550.712941
653.263967	2553.256203
653.606644	2550.503733
653.949269	2551.799309
654.291843	2551.038095
654.634365	2553.488096
654.976836	2551.282591
655.319255	2550.269319
655.661622	2551.350647
656.003938	2554.478683
656.346203	2550.985163
656.688416	2552.973898
657.030577	2549.762683
657.372687	2550.377704
657.714746	2552.036244
658.056753	2553.573796
658.398708	2546.586756
658.740612	2549.739998
659.082465	2550.208825
659.424266	2548.164637
659.766016	2545.293700
660.107715	2551.297715
660.449362	2550.743188
660.790958	2554.057746
661.132503	2554.022458
661.473996	2551.643034
661.815438	2552.678991
662.156829	2550.894422
662.498168	2548.920811
662.839456	2551.133877
663.180693	2550.309648
663.521879	2551.872406
663.863013	2553.072201
664.204097	2553.052036
664.545129	2550.634803
664.886110	2552.086655
665.227040	2548.182282
665.567918	2551.590102
665.908746	2553.384752
666.249522	2551.890050
666.590248	2551.637992
666.930922	2553.818292
667.271545	2552.205122
667.612118	2550.778476
667.952639	2549.510626
668.293109	2548.870399
668.633528	2550.831408
668.973896	2550.725544
669.314213	2553.246121
669.654480	2553.835936
669.994695	2552.290822
670.334859	2551.174206
670.674973	2550.178578
671.015035	2551.320400
671.355047	2552.389124
671.695008	2548.782179
672.034918	2549.253527
672.374777	2552.626059
672.714585	2551.267468
673.054342	2553.478014
673.394049	2553.604042
673.733705	2552.419371
674.073310	2552.747046
674.412864	2550.022303
674.752368	2552.116902
675.091820	2549.762683
675.431223	2549.329144
675.770574	2550.912066
676.109875	2545.785213
676.449125	2548.993907
676.788324	2547.537014
677.127473	2550.964998
677.466571	2547.509288
677.805619	2548.620862
678.144616	2549.707231
678.483562	2550.297046
678.822458	2552.270657
679.161303	2551.257385
679.500098	2552.437015
679.838842	2552.109340
680.177535	2553.026830
680.516179	2551.791748
680.854771	2550.294525
681.193314	2548.527601
681.531805	2552.810061
681.870247	2552.278219
682.208638	2551.161603
682.546978	2551.655637
682.885268	2550.826367
683.223508	2553.147818
683.561697	2552.310987
683.899836	2550.972560
684.237925	2553.220915
684.575963	2548.673794
684.913951	2549.651778
685.251889	2551.872406
685.589776	2549.107333
685.927614	2549.281253
686.265401	2551.005328
686.603137	2551.038095
686.940824	2549.616490
687.278460	2551.418702
687.616046	2550.707900
687.953582	2550.536500
688.291068	2548.812426
688.628504	2551.048178
688.965889	2549.311500
689.303224	2550.841490
689.640510	2553.493137
689.977745	2552.709238
690.314930	2551.983312
690.652065	2551.302756
690.989150	2549.992056
691.326185	2551.413661
691.663170	2547.746222
692.000105	2549.868548
692.336990	2552.522715
692.673825	2552.293342
693.010610	2552.920966
693.347345	2548.386448
693.684030	2545.601211
694.020665	2547.849565
694.357251	2545.457538
694.693786	2547.940306
695.030272	2550.029864
695.366707	2552.424412
695.703093	2552.835267
696.039429	2550.569268
696.375716	2552.386604
696.711952	2550.720502
697.048139	2551.857283
697.384276	2551.317879
697.720363	2550.765873
698.056400	2548.971222
698.392388	2548.973743
698.728326	2550.586912
699.064214	2549.717313
699.400053	2548.658671
699.735842	2549.205636
700.071581	2550.964998
700.407270	2549.929041
700.742910	2548.492312
701.078501	2550.468445
701.414042	2549.871068
701.749533	2549.366953
702.084974	2552.250493
702.420366	2550.297046
702.755709	2549.361912
703.091002	2552.230328
703.426246	2552.482386
703.761440	2551.330482
704.096584	2550.947354
704.431679	2550.518856
704.766725	2551.000287
705.101721	2549.568599
705.436668	2550.765873
705.771565	2549.548434
706.106413	2550.060111
706.441212	2547.829401
706.775961	2553.362067
707.110661	2549.175389
707.445311	2549.278733
707.779913	2552.104299
708.114465	2553.104968
708.448967	2550.932231
708.783421	2549.989535
709.117825	2550.196222
709.452180	2550.145811
709.786485	2551.416182
710.120742	2551.469114
710.454949	2551.393497
710.789107	2549.596325
711.123216	2547.383259
711.457275	2547.156407
711.791286	2545.170192
712.125247	2548.194884
712.459159	2549.298897
712.793023	2549.911397
713.126837	2550.778476
713.460602	2550.755791
713.794318	2550.034906
714.127985	2553.437684
714.461602	2549.203115
714.795171	2549.823177
715.128691	2549.883671
715.462162	2549.873589
715.795584	2550.007179
716.128957	2552.343754
716.462281	2548.676315
716.795556	2551.408620
717.128782	2550.909546
717.461960	2549.026675
717.795088	2551.728733
718.128167	2549.286294
718.461198	2552.318548
718.794180	2550.186140
719.127113	2551.075904
719.459997	2551.388455
719.792833	2552.941131
720.125619	2551.466593
720.458357	2549.414844
720.791046	2549.765204
721.123686	2548.971222
721.456278	2549.087169
721.788821	2549.276212
722.121315	2550.717982
722.453761	2549.256047
722.786158	2549.261088
723.118506	2549.888712
723.450805	2549.931562
723.783056	2550.236552
724.115259	2553.041954
724.447412	2550.670091
724.779518	2550.115564
725.111574	2550.705379
725.443582	2551.000287
725.775542	2550.012220
726.107453	2549.961809
726.439315	2549.089689
726.771129	2551.511964
727.102895	2549.460214
727.434612	2551.950544
727.766281	2550.483568
728.097901	2546.261602
728.429473	2544.119112
728.760996	2551.620348
729.092471	2544.053577
729.423897	2550.292004
729.755276	2551.572458
730.086606	2549.019113
730.417887	2549.026675
730.749120	2550.914587
731.080305	2547.897456
731.411442	2551.663198
731.742530	2550.211346
732.073570	2550.833928
732.404562	2547.857127
732.735506	2549.072045
733.066401	2549.233362
733.397249	2549.808054
733.728048	2551.695966
734.058798	2550.539021
734.389501	2550.044988
734.720156	2551.426264
735.050762	2549.881150
735.381320	2548.865358
735.711831	2550.019782
736.042293	2549.187992
736.372707	2547.778989
736.703073	2550.412992
737.033391	2549.026675
737.363661	2548.988866
737.693883	2550.591953
738.024056	2552.500030
738.354182	2548.104144
738.684260	2546.377548
739.014290	2549.777807
739.344272	2546.879143
739.674207	2552.008517
740.004093	2550.234031
740.333931	2548.376366
740.663722	2548.086500
740.993464	2549.203115
741.323159	2548.585574
741.652806	2551.161603
741.982405	2548.946016
742.311956	2545.896118
742.641460	2550.531459
742.970915	2550.657488
743.300323	2552.399207
743.629683	2549.263609
743.958996	2547.123639
744.288260	2550.692776
744.617477	2550.319731
744.946647	2545.659184
745.275768	2548.787220
745.604842	2546.395192
745.933869	2547.300080
746.262847	2546.342260
746.591778	2548.404092
746.920662	2549.729916
747.249498	2549.858465
747.578286	2551.675801
747.907027	2550.052550
748.235720	2548.588094
748.564365	2551.154042
748.892963	2547.652960
749.221514	2550.526418
749.550017	2549.803012
749.878473	2550.465924
750.206881	2548.547765
750.535242	2549.830739
750.863555	2550.433157
751.191821	2551.156562
751.520039	2546.798485
751.848210	2547.937786
752.176334	2551.219577
752.504411	2545.863351
752.832440	2552.061449
753.160421	2549.636654
753.488356	2547.486602
753.816243	2548.149514
754.144082	2547.284956
754.471875	2547.721016
754.799620	2548.888043
755.127318	2549.109854
755.454969	2547.088351
755.782572	2548.663712
756.110129	2548.152035
756.437638	2546.380069
756.765100	2548.247817
757.092515	2548.474668
757.419882	2551.401058
757.747203	2549.535831
758.074477	2549.182951
758.401703	2549.268650
758.728882	2549.213197
759.056014	2550.143290
759.383099	2550.105482
759.710138	2549.248486
760.037129	2546.483413
760.364073	2550.571788
760.690970	2547.400903
761.017820	2548.797302
761.344623	2547.000131
761.671379	2547.806716
761.998088	2545.860830
762.324751	2546.488454
762.651366	2547.332847
762.977935	2547.388300
763.304456	2543.821683
763.630931	2550.115564
763.957359	2547.736139
764.283740	2547.652960
764.610074	2546.770758
764.936362	2549.848383
765.262602	2549.535831
765.588796	2547.214380
765.914943	2548.308310
766.241044	2549.550955
766.567097	2548.973743
766.893104	2548.373845
767.219064	2547.854607
767.544978	2551.496840
767.870845	2550.513815
768.196665	2548.555327
768.522438	2544.938299
768.848165	2550.539021
769.173846	2546.934596
769.499479	2550.110523
769.825066	2547.496685
770.150607	2545.823022
770.476101	2547.612631
770.801548	2548.736808
771.126949	2549.346788
771.452303	2550.738147
771.777611	2550.967519
772.102872	2545.500388
772.428087	2548.426778
772.753256	2547.849565
773.078378	2546.969884
773.403453	2547.587425
773.728482	2548.343598
774.053465	2548.252858
774.378401	2545.961653
774.703291	2547.111036
775.028135	2547.292518
775.352932	2547.814277
775.677683	2546.755635
776.002388	2548.701520
776.327046	2548.073897
776.651658	2547.894936
776.976224	2546.490974
777.300743	2550.957437
777.625216	2548.154555
777.949643	2546.906870
778.274024	2551.872406
778.598359	2546.281767
778.922647	2543.960315
779.246889	2544.572815
779.571086	2543.683052
779.895236	2547.862168
780.219339	2549.243444
780.543397	2548.688918
780.867409	2547.421067
781.191374	2546.788403
781.515294	2546.586756
781.839167	2547.998279
782.162995	2550.448280
782.486776	2549.424926
782.810511	2546.571633
783.134201	2548.189843
783.457844	2547.917621
783.781441	2549.170348
784.104993	2549.863506
784.428498	2549.049360
784.751958	2544.877805
785.075372	2549.122457
785.398739	2550.281922
785.722061	2550.972560
786.045337	2545.502908
786.368568	2547.158927
786.691752	2549.964329
787.014891	2543.977959
787.337983	2549.067004
787.661030	2548.514998
787.984031	2548.215049
788.306987	2547.068187
788.629897	2549.377035
788.952760	2548.935934
789.275579	2546.352343
789.598351	2548.595656
789.921078	2548.530121
790.243759	2546.891746
790.566395	2549.886192
790.888984	2548.144473
791.211529	2547.239586
791.534027	2548.048691
791.856480	2546.228834
792.178888	2545.732281
792.501249	2548.890564
792.823566	2547.970553
793.145836	2550.299566
793.468062	2548.799823
793.790241	2548.817467
794.112375	2545.543238
794.434464	2548.421736
794.756507	2549.283774
795.078505	2547.433670
795.400457	2545.210521
795.722364	2542.727753
796.044226	2543.988042
796.366042	2544.098947
796.687812	2545.495347
797.009538	2545.336550
797.331218	2547.849565
797.652852	2545.379400
797.974442	2548.633465
798.295986	2547.824360
798.617484	2548.865358
798.938938	2549.351829
799.260346	2547.894936
799.581709	2546.397713
799.903026	2548.194884
800.224299	2549.876109
800.545526	2547.380738
800.866708	2547.784030
801.187845	2547.418547
801.508936	2548.066335
801.829983	2548.053732
802.150984	2551.020451
802.471940	2550.445760
802.792851	2548.608259
803.113717	2549.142621
803.434538	2546.072559
803.755314	2548.141952
804.076045	2546.606921
804.396731	2548.832590
804.717372	2546.443083
805.037967	2549.815615
805.358518	2547.436191
805.679024	2545.523073
805.999485	2545.034081
806.319901	2549.679504
806.640272	2548.174720
806.960598	2546.269164
807.280879	2548.343598
807.601115	2548.333516
807.921306	2548.517518
808.241453	2546.001982
808.561554	2546.231355
808.881611	2545.986859
809.201623	2547.146324
809.521590	2550.193702
809.841513	2547.622713
810.161390	2547.237065
810.481223	2547.226983
810.801011	2548.094061
811.120755	2545.525593
811.440453	2549.097251
811.760107	2546.599359
812.079716	2545.669266
812.399281	2543.534338
812.718801	2546.027188
813.038276	2543.884698
813.357707	2548.908208
813.677093	2543.599873
813.996434	2549.024154
814.315731	2548.605738
814.634983	2545.664225
814.954191	2549.019113
815.273354	2547.025337
815.592473	2544.628268
815.911547	2548.827549
816.230577	2549.911397
816.549562	2548.822508
816.868502	2547.100954
817.187399	2549.457693
817.506250	2545.124822
817.825058	2546.576674
818.143821	2547.907539
818.462539	2547.007693
818.781213	2547.887374
819.099843	2548.073897
819.418429	2547.922662
819.736970	2549.641696
820.055466	2547.083310
820.373919	2548.237734
820.692327	2545.749925
821.010691	2547.887374
821.329011	2546.927034
821.647286	2551.738816
821.965517	2545.197918
822.283704	2546.778320
822.601847	2547.443753
822.919945	2543.781354
823.237999	2547.937786
823.556010	2546.695141
823.873976	2546.712785
824.191897	2545.969215
824.509775	2546.914431
824.827609	2547.330327
825.145398	2548.467107
825.463144	2545.966694
825.780845	2548.046170
826.098502	2549.074566
826.416116	2547.675646
826.733685	2545.707075
827.051210	2547.322765
827.368692	2545.749925
827.686129	2548.913249
828.003522	2546.939637
828.320872	2543.529297
828.638177	2545.137425
828.955439	2542.553833
829.272656	2540.789429
829.589830	2542.637012
829.906960	2545.676828
830.224046	2545.843186
830.541088	2547.756304
830.858086	2546.183464
831.175041	2546.334699
831.491952	2545.044163
831.808819	2548.199926
832.125642	2546.586756
832.442421	2545.409647
832.759157	2547.007693
833.075849	2544.524924
833.392497	2545.938968
833.709101	2548.172199
834.025662	2546.687579
834.342179	2545.313865
834.658653	2546.715306
834.975083	2546.367466
835.291469	2553.735112
835.607811	2546.715306
835.924110	2546.508618
836.240366	2546.485933
836.556578	2546.735470
836.872746	2548.159596
837.188871	2546.122970
837.504952	2547.105995
837.820990	2547.756304
838.136984	2545.880995
838.452935	2547.421067
838.768842	2545.399565
839.084706	2545.828063
839.400526	2547.524411
839.716303	2546.344781
840.032037	2547.491643
840.347727	2547.597508
840.663373	2547.436191
840.978977	2545.651622
841.294537	2543.983000
841.610054	2546.402754
841.925527	2547.927703
842.240957	2543.824204
842.556344	2547.819318
842.871687	2545.812939
843.186987	2547.622713
843.502244	2546.382590
843.817458	2547.433670
844.132629	2545.863351
844.447756	2546.067517
844.762840	2542.364790
845.077881	2544.033412
845.392879	2540.325643
845.707833	2543.360418
846.022745	2543.123484
846.337613	2546.627086
846.652438	2546.112888
846.967221	2544.885367
847.281960	2545.810419
847.596656	2547.499205
847.911309	2544.925696
848.225919	2547.768907
848.540485	2545.016437
848.855009	2545.064328
849.169490	2545.462579
849.483928	2546.962322
849.798323	2547.544576
850.112675	2544.252702
850.426984	2545.268495
850.741251	2545.855789
851.055474	2542.843700
851.369654	2544.101467
851.683792	2547.383259
851.997887	2548.177240
852.311938	2543.226827
852.625947	2543.854451
852.939914	2546.803526
853.253837	2546.972405
853.567718	2545.540717
853.881555	2546.092723
854.195350	2547.148845
854.509103	2546.175902
854.822812	2545.117260
855.136479	2547.035419
855.450103	2546.758156
855.763685	2544.237579
856.077224	2546.460727
856.390720	2547.214380
856.704173	2544.839997
857.017584	2545.132383
857.330953	2544.663556
857.644278	2546.760676
857.957561	2551.637992
858.270802	2545.805377
858.584000	2545.727240
858.897155	2548.509957
859.210268	2543.355377
859.523339	2545.364277
859.836367	2544.721529
860.149352	2545.535676
860.462295	2544.852599
860.775195	2541.774975
861.088054	2541.033925
861.400869	2544.880326
861.713642	2540.693648
862.026373	2545.326468
862.339062	2546.243958
862.651708	2545.316386
862.964312	2544.154400
863.276873	2544.237579
863.589392	2543.229348
863.901869	2546.228834
864.214303	2544.784544
864.526696	2546.644730
864.839045	2544.277908
865.151353	2547.473999
865.463619	2546.846376
865.775842	2547.146324
866.088023	2542.989893
866.400162	2548.777138
866.712258	2544.958464
867.024313	2547.171530
867.336325	2545.205480
867.648296	2546.062476
867.960224	2546.538865
868.272110	2545.144986
868.583954	2544.610624
868.895755	2544.419060
869.207515	2544.948381
869.519233	2546.145655
869.830909	2544.464431
870.142542	2546.281767
870.454134	2545.777651
870.765684	2547.610111
871.077191	2547.857127
871.388657	2549.006510
871.700081	2543.872095
872.011463	2545.240768
872.322803	2547.017775
872.634101	2546.715306
872.945357	2546.067518
873.256571	2545.964174
873.567744	2544.391334
873.878874	2544.615665
874.189963	2545.422250
874.501010	2545.888557
874.812015	2544.787064
875.122979	2544.547610
875.433900	2543.700696
875.744780	2546.874102
876.055618	2548.903167
876.366415	2544.086344
876.677169	2545.520552
876.987882	2542.382434
877.298554	2539.289686
877.609183	2540.232382
877.919771	2544.918134
878.230317	2542.458051
878.540822	2547.075748
878.851285	2543.882177
879.161707	2546.248999
879.472087	2546.654812
879.782425	2544.522404
880.092722	2545.555840
880.402977	2546.236396
880.713191	2545.192877
881.023363	2546.082641
881.333494	2546.191026
881.643583	2543.927548
881.953631	2547.161448
882.263637	2545.066848
882.573602	2545.671787
882.883526	2548.111705
883.193408	2544.393854
883.503248	2544.671118
883.813048	2547.403423
884.122806	2544.716488
884.432522	2543.630120
884.742197	2542.561395
885.051831	2544.222455
885.361424	2545.870912
885.670975	2545.704554
885.980485	2544.628268
886.289954	2546.354863
886.599382	2546.523742
886.908768	2547.473999
887.218113	2547.935265
887.527417	2544.955943
887.836680	2545.780172
888.145901	2545.001313
888.455082	2546.422919
888.764221	2546.443083
889.073319	2542.778165
889.382376	2545.470141
889.691392	2544.121632
890.000366	2544.005686
890.309300	2546.092723
890.618193	2545.724719
890.927044	2542.425284
891.235855	2543.189019
891.544625	2544.424101
891.853353	2545.369318
892.162041	2541.545602
892.470687	2544.146838
892.779293	2545.331509
893.087858	2544.219935
893.396381	2542.372352
893.704864	2542.876467
894.013306	2540.839841
894.321707	2545.187836
894.630068	2545.898639
894.938387	2547.799154
895.246665	2546.911911
895.554903	2545.921324
895.863100	2543.993083
896.171256	2545.888557
896.479371	2545.356715
896.787446	2544.524924
897.095480	2543.511653
897.403473	2544.219935
897.711425	2545.548279
898.019336	2546.397713
898.327207	2543.519214
898.635038	2543.967877
898.942827	2543.342774
899.250576	2543.922507
899.558284	2541.026364
899.865952	2545.200439
900.173579	2543.569626
900.481165	2546.372507
900.788711	2543.103319
901.096216	2543.768751
901.403681	2545.190357
901.711105	2544.580377
902.018489	2543.867054
902.325832	2545.487785
902.633135	2544.487116
902.940397	2545.722198
903.247619	2542.878988
903.554800	2543.017619
903.861941	2546.934596
904.169041	2544.696324
904.476101	2543.478885
904.783121	2545.558361
905.090100	2543.085675
905.397039	2543.788916
905.703938	2545.313865
906.010796	2546.347302
906.317614	2543.899821
906.624391	2543.395706
906.931129	2545.656663
907.237826	2545.089534
907.544483	2542.909235
907.851099	2543.052907
908.157675	2545.754966
908.464211	2542.415202
908.770707	2542.326981
909.077163	2540.837320
909.383578	2540.154244
909.689954	2541.805222
909.996289	2540.103832
910.302584	2544.358566
910.608839	2544.131714
910.915054	2543.224307
911.221229	2544.151879
911.527363	2544.966025
911.833458	2544.005686
912.139513	2543.970398
912.445527	2546.818649
912.751502	2543.972918
913.057436	2543.932589
913.363331	2545.649102
913.669186	2543.766231
913.975000	2545.137425
914.280775	2547.075748
914.586510	2546.879143
914.892205	2543.120963
915.197859	2546.191026
915.503475	2543.438556
915.809050	2546.128011
916.114585	2545.593649
916.420081	2543.718340
916.725536	2546.617003
917.030952	2543.589790
917.336328	2544.096426
917.641665	2544.804708
917.946961	2546.236396
918.252218	2542.493339
918.557435	2544.149358
918.862612	2542.082485
919.167750	2543.007537
919.472848	2544.111550
919.777906	2545.538196
920.082925	2544.285470
920.387904	2541.164995
920.692843	2541.921168
920.997743	2543.655325
921.302603	2545.235727
921.607423	2543.206663
921.912204	2544.318237
922.216946	2544.212373
922.521647	2543.531817
922.826310	2543.567105
923.130932	2542.957126
923.435516	2545.364277
923.740059	2545.321427
924.044564	2542.561395
924.349028	2546.188505
924.653454	2538.946888
924.957840	2541.865716
925.262186	2540.807073
925.566493	2541.215407
925.870761	2539.093081
926.174989	2544.731612
926.479178	2545.175233
926.783328	2544.842517
927.087438	2544.978628
927.391509	2545.810419
927.695541	2543.176416
927.999533	2541.475026
928.303486	2542.153062
928.607400	2546.455686
928.911275	2543.816642
929.215110	2545.901159
929.518906	2541.835469
929.822663	2544.078782
930.126381	2544.459389
930.430060	2546.801005
930.733699	2540.164326
931.037299	2543.587270
931.340861	2541.868236
931.644383	2545.520552
931.947866	2547.433670
932.251309	2542.631971
932.554714	2542.682383
932.858080	2545.003834
933.161407	2541.535520
933.464694	2543.773792
933.767943	2542.783206
934.071153	2543.423432
934.374323	2541.525438
934.677455	2544.557692
934.980548	2541.646426
935.283602	2543.678011
935.586617	2542.790767
935.889593	2544.131714
936.192530	2544.303114
936.495428	2543.988042
936.798287	2542.309337
937.101108	2541.381765
937.403890	2543.904862
937.706632	2544.300593
938.009336	2544.792106
938.312002	2544.782023
938.614628	2543.438556
938.917216	2543.980480
939.219765	2541.916127
939.522275	2542.637012
939.824747	2544.938299
940.127179	2540.068544
940.429573	2539.574511
940.731929	2540.320602
941.034246	2539.879501
941.336524	2542.687424
941.638763	2543.607434
941.940964	2542.642053
942.243126	2542.326981
942.545250	2543.730943
942.847335	2543.549461
943.149381	2543.602393
943.451389	2543.370500
943.753359	2544.635830
944.055290	2543.814122
944.357182	2543.478885
944.659036	2543.446117
944.960851	2543.680531
945.262628	2541.275901
945.564367	2546.881664
945.866067	2543.758669
946.167729	2544.809750
946.469352	2542.999975
946.770937	2544.681200
947.072484	2542.367311
947.373992	2543.746066
947.675462	2541.101981
947.976893	2544.625748
948.278286	2545.954092
948.579641	2545.016437
948.880958	2545.356715
949.182236	2543.506611
949.483476	2542.258926
949.784678	2543.983000
950.085841	2542.563916
950.386967	2540.950746
950.688054	2543.433515
950.989103	2540.824717
951.290114	2544.386293
951.591087	2541.167516
951.892021	2541.820345
952.192917	2546.732950
952.493776	2544.590459
952.794596	2542.142979
953.095378	2544.910573
953.396122	2545.112219
953.696828	2545.613814
953.997496	2541.810263
954.298126	2543.877136
954.598718	2543.045346
954.899272	2543.060469
955.199788	2543.113401
955.500266	2543.791437
955.800706	2543.128525
956.101108	2538.533513
956.401472	2540.824717
956.701798	2535.382792
957.002087	2541.510314
957.302337	2545.263453
957.602550	2542.153062
957.902724	2541.328833
958.202861	2540.310520
958.502960	2543.567105
958.803022	2546.032229
959.103045	2543.922507
959.403031	2544.083823
959.702979	2542.851261
960.002889	2542.538710
960.302762	2542.316899
960.602596	2545.913762
960.902393	2545.233207
961.202153	2542.054759
961.501875	2544.749256
961.801559	2544.817311
962.101205	2543.564585
962.400814	2544.439225
962.700385	2542.190870
962.999918	2547.458876
963.299414	2541.384286
963.598873	2545.523073
963.898293	2542.513504
964.197677	2541.205325
964.497022	2540.615510
964.796331	2544.182126
965.095601	2542.130376
965.394835	2542.858823
965.694030	2542.926879
965.993189	2544.333361
966.292309	2540.045859
966.591393	2542.281611
966.890439	2540.875129
967.189447	2541.863195
967.488419	2543.733463
967.787353	2542.117773
968.086249	2542.057280
968.385108	2542.130376
968.683930	2544.020809
968.982714	2545.744884
969.281462	2539.950077
969.580172	2541.979142
969.878844	2541.351518
970.177480	2546.387631
970.476078	2541.860675
970.774639	2543.884698
971.073162	2545.472661
971.371649	2538.977135
971.670098	2538.480581
971.968510	2540.212217
972.266885	2539.980324
972.565223	2542.203473
972.863524	2542.258926
973.161788	2542.556354
973.460014	2544.371169
973.758204	2542.710109
974.056356	2541.588452
974.354471	2542.286652
974.652550	2544.877805
974.950591	2543.423432
975.248595	2542.997455
975.546563	2539.498894
975.844493	2541.354039
976.142386	2544.683721
976.440243	2542.866385
976.738062	2540.539892
977.035845	2540.980993
977.333590	2541.066693
977.631299	2541.641384
977.928971	2542.637012
978.226606	2542.959646
978.524204	2541.011240
978.821765	2540.948226
979.119290	2541.500232
979.416777	2541.311189
979.714228	2541.971580
980.011642	2543.614996
980.309020	2544.857641
980.606360	2543.463762
980.903664	2542.543751
981.200931	2542.364790
981.498162	2539.864378
981.795356	2540.549975
982.092513	2544.633309
982.389633	2543.274718
982.686717	2542.090047
982.983764	2541.386806
983.280775	2541.409491
983.577749	2543.914945
983.874686	2542.364790
984.171587	2543.546941
984.468451	2541.359080
984.765279	2545.069369
985.062070	2542.087527
985.358824	2541.301107
985.655543	2542.760521
985.952224	2541.933771
986.248869	2540.610468
986.545478	2538.636857
986.842050	2539.584594
987.138586	2539.340098
987.435086	2538.949408
987.731549	2539.206507
988.027975	2543.735984
988.324366	2540.895294
988.620719	2541.724563
988.917037	2544.167002
989.213318	2541.147351
989.509563	2542.752959
989.805772	2538.946888
990.101944	2540.202135
990.398080	2541.941333
990.694180	2544.023330
990.990244	2539.259439
991.286271	2537.618544
991.582262	2543.022661
991.878217	2541.495191
992.174136	2545.177754
992.470019	2540.063503
992.765865	2540.655839
993.061676	2543.055428
993.357450	2542.016950
993.653188	2539.587114
993.948890	2542.818494
994.244556	2542.495860
994.540186	2543.257074
994.835780	2542.077444
995.131337	2543.158772
995.426859	2539.463606
995.722345	2541.406971
996.017795	2539.703061
996.313208	2544.282949
996.608586	2540.602907
996.903928	2543.181457
997.199234	2540.676003
997.494504	2539.279604
997.789738	2541.717002
998.084936	2544.086344
998.380099	2540.134079
998.675225	2541.112063
998.970316	2541.371683
999.265371	2541.807743
999.560390	2542.989893
999.855373	2542.009389
1000.150320	2542.470654
1000.445232	2544.688762
1000.740108	2540.670962
1001.034948	2543.257074
1001.329752	2540.423946
1001.624521	2545.296221
1001.919254	2536.564942
1002.213951	2538.039480
1002.508613	2542.417722
1002.803239	2542.354708
1003.097829	2536.383461
1003.392384	2543.378062
1003.686903	2541.273380
1003.981386	2543.854451
1004.275834	2542.175747
1004.570246	2542.407640
1004.864623	2541.454862
1005.158964	2544.033412
1005.453270	2541.026364
1005.747540	2542.097609
1006.041775	2541.142310
1006.335974	2543.476364
1006.630138	2542.881508
1006.924266	2541.699358
1007.218359	2542.105171
1007.512416	2540.766744
1007.806438	2540.413863
1008.100425	2543.980480
1008.394376	2540.618030
1008.688292	2541.275901
1008.982172	2541.331353
1009.276017	2543.935109
1009.569827	2539.403112
1009.863602	2544.565254
1010.157341	2541.142310
1010.451045	2539.602238
1010.744714	2540.250026
1011.038347	2543.347815
1011.331945	2543.534338
1011.625508	2543.546941
1011.919036	2542.304296
1012.212528	2539.025026
1012.505986	2539.594676
1012.799408	2543.791437
1013.092795	2543.098278
1013.386147	2541.016281
1013.679464	2542.228679
1013.972745	2541.822866
1014.265992	2542.319420
1014.559204	2541.306148
1014.852380	2542.246323
1015.145521	2543.196580
1015.438628	2542.473175
1015.731699	2539.193904
1016.024736	2541.984183
1016.317737	2540.431507
1016.610703	2542.082485
1016.903635	2538.495704
1017.196531	2536.229706
1017.489393	2536.922864
1017.782219	2538.004192
1018.075011	2540.474357
1018.367768	2541.533000
1018.660490	2541.041487
1018.953177	2541.041487
1019.245829	2541.041487
