Dividing Wavelength (nm)	Counts (n)	Blue Motor Position (mm): 46.500000	Red Motor Position (mm): 0.000000	
326.493990	2129.683333
326.888308	2129.683333
327.282561	2129.683333
327.676750	2098.629826
328.070874	2096.026070
328.464933	2099.249888
328.858929	2105.521083
329.252859	2115.429471
329.646726	2127.135030
330.040528	2138.157513
330.434265	2154.810965
330.827938	2172.490291
331.221547	2191.107272
331.615091	2210.719881
332.008571	2228.545401
332.401986	2251.162538
332.795338	2268.640218
333.188625	2287.552107
333.581847	2308.046918
333.975006	2327.404949
334.368100	2342.815756
334.761129	2361.067254
335.154095	2378.040819
335.546996	2399.178377
335.939833	2426.423293
336.332606	2441.052721
336.725315	2452.475976
337.117960	2460.440999
337.510540	2469.116825
337.903056	2481.432363
338.295508	2488.028713
338.687896	2498.259735
339.080220	2504.299037
339.472480	2513.665501
339.864676	2516.697755
340.256807	2520.876872
340.648875	2524.446009
341.040879	2524.998015
341.432818	2526.119672
341.824694	2528.597399
342.216506	2529.555218
342.608253	2530.518078
342.999937	2529.305681
343.391557	2529.683768
343.783113	2528.332738
344.174605	2526.472552
344.566033	2526.734692
344.957397	2524.940042
345.348697	2522.147243
345.739934	2523.122706
346.131106	2520.496265
346.522215	2518.217663
346.913260	2515.432426
347.304241	2513.650378
347.695159	2513.781448
348.086012	2512.730367
348.476802	2507.931189
348.867528	2506.076044
349.258191	2507.381703
349.648789	2505.229130
350.039324	2506.970849
350.429796	2505.214007
350.820203	2500.387102
351.210548	2502.673265
351.600828	2501.155878
351.991045	2501.044973
352.381198	2496.507934
352.771288	2496.288644
353.161314	2499.509941
353.551276	2497.896772
353.941175	2495.376195
354.331010	2496.225629
354.720782	2497.546412
355.110490	2499.608244
355.500135	2497.793428
355.889717	2497.095228
356.279235	2498.300064
356.668689	2495.673623
357.058080	2501.291989
357.447408	2497.889210
357.836672	2494.453664
358.225873	2499.535147
358.615010	2496.034066
359.004084	2501.738131
359.393095	2501.937257
359.782043	2503.207628
360.170927	2503.522700
360.559748	2504.538492
360.948505	2507.081754
361.337199	2506.837258
361.725830	2506.146620
362.114398	2506.176867
362.502903	2510.136693
362.891344	2507.679131
363.279722	2506.408760
363.668037	2510.698782
364.056289	2510.323216
364.444478	2511.228103
364.832603	2510.275325
365.220665	2510.683659
365.608665	2513.647857
365.996601	2511.878412
366.384474	2513.363032
366.772284	2513.612569
367.160031	2512.324554
367.547715	2514.456962
367.935336	2513.310100
368.322893	2515.984432
368.710388	2518.202540
369.097820	2517.501819
369.485189	2517.191788
369.872495	2520.130781
370.259738	2518.177334
370.646918	2518.401665
371.034035	2518.976357
371.421090	2520.929804
371.808081	2520.753363
372.195010	2524.173786
372.581875	2528.862059
372.968678	2533.951104
373.355418	2534.646783
373.742096	2543.935109
374.128710	2548.414175
374.515262	2555.557490
374.901751	2564.261042
375.288177	2569.178687
375.674540	2583.775348
376.060841	2594.994436
376.447079	2606.074892
376.833254	2622.614918
377.219367	2630.216978
377.605417	2649.537200
377.991404	2664.816937
378.377329	2681.402334
378.763191	2696.331711
379.148991	2723.301884
379.534727	2745.316603
379.920402	2768.309305
380.306013	2783.425205
380.691563	2827.139571
381.077049	2845.839731
381.462474	2868.114069
381.847835	2907.644277
382.233134	2933.613781
382.618371	2945.742797
383.003545	3002.899400
383.388657	3021.450846
383.773706	3059.249417
384.158693	3083.913263
384.543618	3116.282511
384.928480	3155.248110
385.313280	3208.712067
385.698017	3216.856051
386.082692	3274.670524
386.467305	3292.077628
386.851856	3335.088753
387.236344	3360.828884
387.620770	3401.263979
388.005133	3434.661624
388.389435	3471.782160
388.773674	3491.581292
389.157851	3541.279507
389.541965	3563.079977
389.926018	3538.388405
390.310008	3616.440590
390.693936	3639.302223
391.077802	3684.624717
391.461606	3680.543903
391.845348	3747.135024
392.229027	3749.847165
392.612645	3769.056482
392.996200	3848.903317
393.379694	3890.994432
393.763125	3957.996407
394.146494	3930.897685
394.529801	3990.937827
394.913047	4045.309192
395.296230	4008.269314
395.679351	4068.488417
396.062410	4093.512705
396.445408	4075.258687
396.828343	4108.890745
397.211217	4135.465187
397.594028	4057.672622
397.976778	4123.716778
398.359466	4150.366838
398.742092	4180.858257
399.124656	4097.006225
399.507158	4179.587886
399.889598	4206.747103
400.271977	4269.446454
400.654294	4237.619129
401.036549	4246.113473
401.418742	4219.115574
401.800874	4320.863702
402.182944	4343.067464
402.564952	4408.231940
402.946898	4392.843818
403.328783	4388.435328
403.710606	4304.076660
404.092367	4500.084283
404.474067	4457.221873
404.855705	4466.515240
405.237282	4397.597626
405.618797	4508.394625
406.000250	4543.745717
406.381642	4621.366883
406.762972	4583.452365
407.144240	4596.181278
407.525447	4592.176082
407.906593	4657.464065
408.287677	4696.119633
408.668700	4623.658087
409.049661	4676.474256
409.430560	4717.627716
409.811399	4646.129031
410.192176	4807.642559
410.572891	4744.000512
410.953545	4846.179659
411.334138	4726.905959
411.714669	4795.460611
412.095139	4691.101164
412.475547	4829.959747
412.855894	4814.412828
413.236180	4821.659487
413.616405	4776.634422
413.996568	4861.078790
414.376670	4807.667765
414.756711	4766.247124
415.136691	4790.784940
415.516609	4873.674112
415.896466	4910.691305
416.276262	4940.197179
416.655997	4922.069189
417.035670	5107.918888
417.415283	5191.788564
417.794834	5138.818640
418.174324	5091.467082
418.553753	5003.509030
418.933121	5184.486453
419.312428	5250.409622
419.691674	5194.246127
420.070859	5321.804963
420.449983	5230.376076
420.829045	5344.704404
421.208047	5250.439869
421.586988	5324.852341
421.965867	5333.182847
422.344686	5469.248631
422.723444	5324.323019
423.102141	5142.654958
423.480777	5443.538746
423.859352	5210.544177
424.237866	5468.769721
424.616319	5459.042815
424.994712	5567.319238
425.373044	5445.189724
425.751314	5587.289769
426.129524	5393.903545
426.507673	5584.905303
426.885762	5667.539897
427.263789	5599.748980
427.641756	5480.490404
428.019662	5604.739723
428.397508	5609.173417
428.775292	5557.534358
429.153016	5662.163506
429.530679	5586.291620
429.908282	5666.095606
430.285824	5538.814033
430.663305	5814.277803
431.040726	5550.567483
431.418086	5551.255601
431.795385	5652.872660
432.172624	5665.641902
432.549802	5660.109236
432.926920	5670.791441
433.303977	5678.958110
433.680974	5720.643411
434.057910	5738.844497
434.434786	5745.574438
434.811601	5712.524633
435.188355	5943.071722
435.565050	5819.623947
435.941683	5798.740967
436.318257	6020.702971
436.694770	6000.911401
437.071222	6037.376587
437.447614	5968.937882
437.823946	5880.566455
438.200218	6035.082862
438.576429	5898.092027
438.952580	6000.495505
439.328670	6045.195417
439.704700	5950.704029
440.080670	5935.033602
440.456580	6211.346806
440.832429	6090.399443
441.208218	5935.633499
441.583947	6092.347849
441.959616	6099.483602
442.335224	6026.046594
442.710773	6159.586759
443.086261	6187.368558
443.461689	5980.577907
443.837057	6128.510566
444.212365	6286.381861
444.587612	6177.008987
444.962800	6328.535989
445.337927	6314.461087
445.712995	5922.380306
446.088002	6501.024109
446.462949	6326.965670
446.837837	6261.715495
447.212664	6434.196053
447.587431	6577.334575
447.962139	7120.052596
448.336786	8049.429636
448.711374	7787.196375
449.085901	6863.707402
449.460369	6780.059536
449.834776	6712.127468
450.209124	7108.233610
450.583412	7260.799090
450.957640	7403.730925
451.331808	7163.532547
451.705917	6721.826647
452.079965	6640.669112
452.453954	6856.372523
452.827883	6733.239820
453.201752	6825.533264
453.575562	6626.218644
453.949311	6826.806156
454.323001	6718.496965
454.696632	6789.478932
455.070202	6927.745179
455.443713	7087.401042
455.817164	7192.919954
456.190556	7268.411233
456.563888	7343.718509
456.937160	7386.918677
457.310373	7042.212139
457.683526	7066.460089
458.056619	6955.942873
458.429653	6944.416275
458.802628	6877.489917
459.175542	6991.014181
459.548398	7348.094231
459.921194	7505.771441
460.293930	7507.762697
460.666607	8037.023357
461.039224	8347.903753
461.411782	8473.352866
461.784280	8490.054209
462.156719	8380.245275
462.529099	8258.400587
462.901419	7850.692228
463.273680	7745.964778
463.645882	7755.298474
464.018024	7626.249977
464.390106	7785.663864
464.762130	8181.268412
465.134094	8642.639853
465.505999	9667.236729
465.877845	10894.780375
466.249631	11537.716534
466.621358	11158.243678
466.993026	10530.998111
467.364634	10271.905488
467.736184	9912.856868
468.107674	9577.872194
468.479105	9612.784705
468.850477	9377.362821
469.221790	9150.790682
469.593043	8814.490267
469.964238	8676.544134
470.335373	8693.971402
470.706449	8745.779341
471.077467	8728.241166
471.448425	10043.841168
471.819324	11112.820362
472.190164	11139.362037
472.560945	9890.617817
472.931667	9094.722969
473.302330	8965.245973
473.672934	8604.657280
474.043479	8966.297054
474.413965	8904.051407
474.784393	8789.665105
475.154761	8944.305020
475.525070	9033.674596
475.895321	8864.959779
476.265513	9034.342548
476.635645	9210.072130
477.005719	9202.795225
477.375734	9323.059512
477.745691	9557.667250
478.115588	9697.322335
478.485427	9937.142626
478.855207	10474.408638
479.224928	11289.134717
479.594591	11916.430696
479.964194	11733.101575
480.333739	11676.625528
480.703226	11580.052144
481.072653	11673.368943
481.442022	11915.792990
481.811333	12102.083789
482.180584	11908.135477
482.549777	11617.293668
482.918912	11437.347161
483.287988	11463.485544
483.657005	11470.661626
484.025964	11158.977166
484.394864	11291.622527
484.763706	11259.631364
485.132489	11017.610609
485.501213	10982.350259
485.869879	11057.244161
486.238487	10902.246324
486.607036	11006.941007
486.975527	10786.635023
487.343959	10980.452264
487.712333	11024.060766
488.080648	10960.464089
488.448905	11002.734164
488.817104	10936.831160
489.185244	11215.135620
489.553326	11360.507373
489.921350	11896.976883
490.289315	12958.215385
490.657222	13308.220176
491.025070	13211.518243
491.392861	13086.739603
491.760593	12702.553268
492.128267	12352.326666
492.495883	12024.603775
492.863440	11691.360821
493.230939	11349.132010
493.598380	11285.910899
493.965763	11153.542802
494.333088	11054.461444
494.700354	10976.240380
495.067563	11038.680112
495.434713	10861.370128
495.801805	10981.069806
496.168839	10919.471947
496.535815	10851.859992
496.902733	10855.799653
497.269593	10784.668973
497.636395	10883.510876
498.003139	10872.445543
498.369825	10736.190717
498.736453	10895.443287
499.103023	10823.135497
499.469535	10859.048677
499.835989	10841.881027
500.202385	10804.576489
500.568723	10662.322689
500.935003	10881.983406
501.301226	10684.907058
501.667390	10941.806779
502.033497	11043.925433
502.399546	10902.659699
502.765537	10804.798300
503.131470	10875.361851
503.497345	11061.007382
503.863163	10662.645323
504.228923	10979.007974
504.594625	11037.881089
504.960269	10791.620724
505.325856	11012.307316
505.691385	10803.704369
506.056856	10958.803029
506.422270	10974.584361
506.787625	10868.909174
507.152924	10993.211425
507.518164	10968.915584
507.883347	10884.214117
508.248472	10805.342744
508.613540	11041.246059
508.978550	10931.721951
509.343503	10901.195244
509.708398	11024.925324
510.073236	11130.847528
510.438016	11137.950513
510.802738	11091.849162
511.167403	11145.524847
511.532010	11034.319514
511.896561	11269.209557
512.261053	11334.106851
512.625488	11212.889786
512.989866	11192.195849
513.354186	11184.815600
513.718449	11080.224261
514.082655	11271.437747
514.446803	11171.781697
514.810894	11288.416353
515.174927	11160.638226
515.538904	11182.784015
515.902822	11341.880310
516.266684	11220.176774
516.630488	11158.825932
516.994235	11224.028215
517.357925	11282.717328
517.721558	11371.696214
518.085133	11385.869418
518.448651	11390.958463
518.812112	11279.226329
519.175516	11294.001951
519.538863	11417.679099
519.902152	11325.015130
520.265385	11492.336067
520.628560	11397.506922
520.991678	11378.509334
521.354739	11441.516195
521.717743	11378.713501
522.080690	11355.264573
522.443580	11491.514359
522.806413	11449.365272
523.169189	11480.849798
523.531908	11536.118488
523.894569	11352.338184
524.257174	11363.756397
524.619722	11482.278965
524.982213	11425.744945
525.344647	11474.951648
525.707025	11427.199318
526.069345	11515.704336
526.431608	11436.590988
526.793815	11545.870600
527.155964	11331.734988
527.518057	11383.573173
527.880093	11330.704072
528.242072	11407.647203
528.603995	11318.159161
528.965860	11231.920142
529.327669	11283.050045
529.689421	11230.758156
530.051117	11206.293436
530.412755	11306.481328
530.774337	11193.509070
531.135862	11175.980978
531.497331	11201.000225
531.858743	11054.887422
532.220098	11216.675692
532.581396	11092.136507
532.942638	11067.795296
533.303824	11034.170800
533.664953	11046.771164
534.026025	10962.614142
534.387040	11063.419574
534.747999	11069.826881
535.108902	11128.652105
535.469748	10884.723273
535.830537	10981.916720
536.191270	10970.274175
536.551947	10988.313944
536.912567	10987.393933
537.273131	10915.857440
537.633638	10890.840714
537.994089	10880.909641
538.354483	10830.304018
538.714821	10974.072684
539.075103	10980.505197
539.435328	10950.107039
539.795497	10779.801738
540.155609	10928.402351
540.515665	11016.488953
540.875665	10759.952195
541.235609	10821.083747
541.595496	10813.643004
541.955328	10970.501027
542.315102	10858.559685
542.674821	10802.378546
543.034483	10802.822168
543.394090	10816.987810
543.753640	10745.726059
544.113134	10966.410130
544.472571	10810.940946
544.831953	10958.629109
545.191278	10760.662998
545.550548	10788.868254
545.909761	10932.684811
546.268918	10911.794270
546.628019	10989.344860
546.987064	10851.267656
547.346053	10770.788155
547.704986	10873.370595
548.063863	10864.793072
548.422684	10850.438386
548.781449	10770.523495
549.140158	10866.713751
549.498811	10749.343087
549.857408	10607.258166
550.215949	10829.522639
550.574434	10685.973262
550.932864	10784.651328
551.291237	10849.619199
551.649555	10786.461103
552.007817	10799.111878
552.366022	10767.342527
552.724173	10759.017061
553.082267	10749.370813
553.440305	10881.670855
553.798288	10686.144662
554.156215	10835.317445
554.514086	10811.308950
554.871902	10667.870479
555.229661	10700.000273
555.587365	10675.593527
555.945014	10565.088914
556.302606	10694.550786
556.660143	10587.373334
557.017625	10740.032076
557.375050	10638.467949
557.732421	10773.966603
558.089735	10683.422439
558.446994	10683.982007
558.804197	10720.744621
559.161345	10726.645292
559.518437	10573.071581
559.875474	10660.858234
560.232455	10693.310662
560.589381	10643.620008
560.946251	10637.101797
561.303065	10750.452141
561.659825	10679.843219
562.016528	10612.082550
562.373177	10495.427729
562.729770	10613.604978
563.086307	10526.173727
563.442789	10619.510690
563.799216	10493.648202
564.155587	10546.582838
564.511904	10497.350930
564.868164	10492.425722
565.224370	10504.690850
565.580520	10425.801833
565.936615	10438.286251
566.292654	10301.812134
566.648638	10432.912381
567.004567	10391.879909
567.360441	10377.391633
567.716260	10288.700092
568.072023	10378.286438
568.427732	10329.356998
568.783385	10238.419624
569.138982	10310.248505
569.494525	10328.888171
569.850013	10208.533143
570.205445	10281.481160
570.560823	10177.971148
570.916145	10098.895609
571.271412	10166.404221
571.626625	10108.176373
571.981782	10086.897663
572.336884	10065.008973
572.691931	10067.096011
573.046923	10012.114666
573.401860	9969.118665
573.756743	9901.877234
574.111570	9947.781981
574.466342	9933.137429
574.821059	9964.790834
575.175722	9851.143062
575.530330	9861.495072
575.884882	9858.114978
576.239380	9777.461558
576.593823	9759.729299
576.948211	9776.765878
577.302544	9654.096961
577.656823	9669.772429
578.011047	9676.325929
578.365216	9646.041197
578.719330	9569.171163
579.073389	9577.715919
579.427394	9531.763281
579.781344	9500.926543
580.135239	9455.231004
580.489080	9464.957910
580.842866	9371.305874
581.196597	9368.588693
581.550273	9414.228779
581.903895	9378.318119
582.257463	9442.728942
582.610975	9323.719903
582.964434	9349.177730
583.317837	9276.224672
583.671186	9251.384386
584.024481	9248.894056
584.377721	9164.469853
584.730906	9147.990321
585.084037	9172.886059
585.437113	9108.969269
585.790135	9133.088670
586.143103	9027.763843
586.496016	8998.207558
586.848874	9064.982682
587.201679	9050.333088
587.554428	8936.239174
587.907124	8981.294487
588.259765	8944.378117
588.612352	8948.126215
588.964884	8827.357813
589.317362	8843.912962
589.669786	8844.134773
590.022155	8894.092607
590.374470	8910.370493
590.726731	8845.992438
591.078937	8705.129997
591.431090	8810.434659
591.783188	8687.062501
592.135232	8677.118825
592.487222	8679.853651
592.839157	8720.578612
593.191038	8661.153491
593.542866	8611.016695
593.894639	8505.452413
594.246358	8559.423006
594.598022	8573.676869
594.949633	8470.146692
595.301190	8446.818753
595.652692	8475.197928
596.004141	8583.149197
596.355535	8366.601392
596.706876	8344.208587
597.058162	8279.722147
597.409395	8355.533539
597.760573	8410.877847
598.111698	8324.875762
598.462768	8312.426633
598.813785	8276.107640
599.164748	8244.832321
599.515657	8237.384016
599.866511	8143.452197
600.217312	8272.084799
600.568060	8128.021225
600.918753	8238.183039
601.269392	8204.114922
601.619978	8116.479503
601.970510	8180.572733
602.320988	8175.738267
602.671412	8230.200372
603.021783	8162.283427
603.372100	8138.912638
603.722363	8138.469016
604.072572	8116.804657
604.422728	8132.575907
604.772830	8057.805513
605.122878	8064.658962
605.472872	8058.344917
605.822813	8096.224147
606.172701	8034.510342
606.522534	8113.011189
606.872314	8109.799974
607.222041	8081.095644
607.571714	8134.080692
607.921333	8094.313550
608.270899	8099.793284
608.620411	8187.854680
608.969870	8093.229702
609.319276	8083.981705
609.668627	8101.280424
610.017926	8137.430538
610.367171	8185.218156
610.716362	8161.502048
611.065500	8154.605750
611.414585	8179.451076
611.763616	8171.249119
612.112594	8146.670973
612.461518	8165.655959
612.810389	8225.232315
613.159207	8168.282400
613.507971	8114.745346
613.856682	8235.987617
614.205340	8189.021707
614.553945	8265.813603
614.902496	8166.497832
615.250994	8218.343578
615.599439	8201.296917
615.947830	8211.822846
616.296169	8189.112448
616.644454	8199.028397
616.992686	8202.121145
617.340864	8262.463757
617.688990	8160.120772
618.037063	8251.290039
618.385082	8198.715846
618.733048	8278.492105
619.080961	8224.713076
619.428821	8245.021364
619.776628	8246.022033
620.124382	8195.981020
620.472083	8175.695417
620.819731	8205.198770
621.167326	8099.536185
621.514868	8111.093030
621.862357	7994.448292
622.209793	8016.704986
622.557176	7948.475489
622.904506	7917.048936
623.251783	7851.995367
623.599007	7801.795557
623.946179	7804.374107
624.293297	7766.038652
624.640363	7681.294336
624.987376	7669.114908
625.334336	7620.182948
625.681243	7563.739669
626.028097	7550.093266
626.374899	7532.522324
626.721647	7524.562342
627.068343	7450.001156
627.414987	7421.722803
627.761577	7379.677060
628.108115	7418.083090
628.454600	7306.199722
628.801032	7365.501335
629.147412	7319.906619
629.493739	7309.869682
629.840014	7245.479024
630.186236	7307.848179
630.532405	7190.008687
630.878521	7238.381079
631.224585	7191.243770
631.570597	7118.421782
631.916556	7155.479304
632.262462	7143.327603
632.608316	7106.635565
632.954117	7083.471463
633.299866	7074.150369
633.645562	7066.820532
633.991206	6984.861452
634.336797	6926.134531
634.682336	6884.154322
635.027823	6849.884558
635.373257	6846.348189
635.718639	6777.990143
636.063968	6784.470546
636.409245	6680.113620
636.754470	6681.857859
637.099642	6640.510315
637.444762	6581.697694
637.789829	6590.764209
638.134845	6528.291710
638.479808	6515.081367
638.824719	6518.118662
639.169577	6451.056192
639.514383	6471.641744
639.859137	6399.533079
640.203839	6404.357463
640.548489	6396.422687
640.893086	6371.259768
641.237632	6342.895716
641.582125	6364.310537
641.926566	6328.389796
642.270955	6349.776891
642.615292	6341.706003
642.959576	6355.856522
643.303809	6342.464697
643.647990	6355.559094
643.992118	6344.314801
644.336195	6286.260873
644.680219	6310.082845
645.024192	6302.715199
645.368112	6398.701289
645.711981	6421.247849
646.055797	6499.859602
646.399562	6457.408046
646.743274	6579.986222
647.086935	6636.477392
647.430544	6630.445652
647.774101	6652.677140
648.117606	6657.509086
648.461059	6651.134547
648.804460	6613.318332
649.147810	6516.906264
649.491108	6493.364076
649.834354	6469.932793
650.177548	6383.340893
650.520690	6296.055835
650.863781	6273.012721
651.206820	6296.582635
651.549807	6213.592640
651.892742	6155.964690
652.235626	6160.834445
652.578458	6149.083515
652.921238	6060.034053
653.263967	6098.432522
653.606644	6036.721237
653.949269	6037.227873
654.291843	5980.605633
654.634365	6031.511204
654.976836	5984.323484
655.319255	5979.395756
655.661622	5960.786337
656.003938	5956.466068
656.346203	5916.688843
656.688416	5950.290654
657.030577	5897.361059
657.372687	5866.158838
657.714746	5858.486202
658.056753	5900.703344
658.398708	5840.330486
658.740612	5832.574671
659.082465	5875.273244
659.424266	5869.493561
659.766016	5866.884764
660.107715	5849.959090
660.449362	5860.132138
660.790958	5853.029153
661.132503	5843.498851
661.473996	5879.603595
661.815438	5869.546493
662.156829	5864.225555
662.498168	5856.754565
662.839456	5830.336398
663.180693	5860.656418
663.521879	5868.175299
663.863013	5852.487228
664.204097	5873.987750
664.545129	5914.415283
664.886110	5913.129789
665.227040	5944.125323
665.567918	5909.774901
665.908746	5940.528460
666.249522	5941.967709
666.590248	5932.432367
666.930922	5958.074196
667.271545	5970.107430
667.612118	5973.926104
667.952639	5948.415345
668.293109	5964.872192
668.633528	5922.002219
668.973896	5931.898004
669.314213	5926.246871
669.654480	5899.347274
669.994695	5891.881325
670.334859	5886.424276
670.674973	5876.644438
671.015035	5886.754472
671.355047	5878.494541
671.695008	5869.428026
672.034918	5841.353840
672.374777	5851.809193
672.714585	5837.696483
673.054342	5837.330999
673.394049	5836.602553
673.733705	5865.639599
674.073310	5851.763823
674.412864	5807.759591
674.752368	5803.456966
675.091820	5808.024252
675.431223	5746.970837
675.770574	5748.273976
676.109875	5694.915883
676.449125	5697.141552
676.788324	5665.183157
677.127473	5607.764415
677.466571	5600.847952
677.805619	5594.594401
678.144616	5578.457667
678.483562	5557.357918
678.822458	5525.114698
679.161303	5518.331825
679.500098	5509.880331
679.838842	5491.255788
680.177535	5492.828628
680.516179	5513.933418
680.854771	5524.310634
681.193314	5606.115958
681.531805	5708.315270
681.870247	5866.731009
682.208638	5967.163396
682.546978	5976.078677
682.885268	5954.230316
683.223508	5871.111771
683.561697	5817.335263
683.899836	5787.141272
684.237925	5741.160907
684.575963	5706.833170
684.913951	5661.747611
685.251889	5730.922324
685.589776	5691.596283
685.927614	5665.651985
686.265401	5738.685701
686.603137	5720.172063
686.940824	5798.597294
687.278460	5822.993958
687.616046	5831.213559
687.953582	5898.008848
688.291068	5882.406477
688.628504	5950.756961
688.965889	5910.551238
689.303224	5851.191652
689.640510	5803.875382
689.977745	5730.781172
690.314930	5630.147138
690.652065	5573.381225
690.989150	5480.029138
691.326185	5401.863527
691.663170	5349.243963
692.000105	5277.432727
692.336990	5197.046488
692.673825	5171.321480
693.010610	5102.492086
693.347345	5033.887023
693.684030	5019.744066
694.020665	4977.022808
694.357251	4887.207090
694.693786	4897.057505
695.030272	4863.438050
695.366707	4831.048636
695.703093	4796.962874
696.039429	4818.206297
696.375716	4799.496054
696.711952	4773.871869
697.048139	4760.243110
697.384276	4740.461622
697.720363	4751.786574
698.056400	4759.345784
698.392388	4712.153023
698.728326	4694.922359
699.064214	4669.683822
699.400053	4665.454294
699.735842	4629.619252
700.071581	4605.830047
700.407270	4578.131427
700.742910	4556.993869
701.078501	4507.028473
701.414042	4503.605529
701.749533	4474.802897
702.084974	4411.508690
702.420366	4466.374088
702.755709	4410.349224
703.091002	4348.471581
703.426246	4400.153491
703.761440	4360.875340
704.096584	4322.393692
704.431679	4336.697967
704.766725	4323.885874
705.101721	4312.686951
705.436668	4345.419163
705.771565	4288.204587
706.106413	4317.929751
706.441212	4350.838403
706.775961	4358.866441
707.110661	4337.237370
707.445311	4367.506978
707.779913	4389.967839
708.114465	4401.948141
708.448967	4423.703241
708.783421	4488.666070
709.117825	4526.320968
709.452180	4532.546793
709.786485	4578.267538
710.120742	4663.962112
710.454949	4647.316222
710.789107	4715.555802
711.123216	4790.255619
711.457275	4778.948311
711.791286	4853.559909
712.125247	4872.348289
712.459159	4770.138895
712.793023	4845.688147
713.126837	4807.713135
713.460602	4803.231549
713.794318	4723.127615
714.127985	4731.188420
714.461602	4646.643228
714.795171	4614.367241
715.128691	4548.000451
715.462162	4493.984487
715.795584	4443.346097
716.128957	4421.744752
716.462281	4372.815313
716.795556	4346.119883
717.128782	4308.659069
717.461960	4240.172473
717.795088	4252.523300
718.128167	4212.375551
718.461198	4148.872136
718.794180	4144.662773
719.127113	4121.544041
719.459997	4102.306998
719.792833	4060.475503
720.125619	4049.309347
720.458357	4015.755427
720.791046	4018.124770
721.123686	3994.519567
721.456278	3952.783854
721.788821	3971.294971
722.121315	3943.429993
722.453761	3913.742638
722.786158	3929.244186
723.118506	3956.841983
723.450805	3904.444230
723.783056	3926.867282
724.115259	3940.455712
724.447412	3946.545426
724.779518	3936.117800
725.111574	3943.646763
725.443582	3974.337307
725.775542	3958.339206
726.107453	4009.612782
726.439315	4008.176053
726.771129	4025.850338
727.102895	4060.210843
727.434612	4109.397381
727.766281	4117.841313
728.097901	4121.445738
728.429473	4127.442191
728.760996	4132.891678
729.092471	4124.765338
729.423897	4115.600521
729.755276	4117.687558
730.086606	4115.837455
730.417887	4150.823063
730.749120	4220.370821
731.080305	4285.331129
731.411442	4311.892969
731.742530	4280.930202
732.073570	4285.399185
732.404562	4344.829348
732.735506	4333.718645
733.066401	4295.814209
733.397249	4230.553952
733.728048	4154.477899
734.058798	4068.906833
734.389501	4000.347141
734.720156	3934.176955
735.050762	3891.967374
735.381320	3881.254922
735.711831	3834.747757
736.042293	3803.094353
736.372707	3825.431705
736.703073	3798.302736
737.033391	3788.532980
737.363661	3806.091318
737.693883	3830.803055
738.024056	3842.221268
738.354182	3834.115093
738.684260	3900.214702
739.014290	3920.036519
739.344272	3917.130294
739.674207	3956.466417
740.004093	3965.414465
740.333931	3958.651757
740.663722	3962.722489
740.993464	3957.152014
741.323159	3929.851645
741.652806	3902.531112
741.982405	3872.127913
742.311956	3839.478880
742.641460	3834.316739
742.970915	3807.394457
743.300323	3769.338786
743.629683	3735.074064
743.958996	3724.084348
744.288260	3700.300184
744.617477	3665.939680
744.946647	3651.645488
745.275768	3624.740850
745.604842	3624.196405
745.933869	3579.284766
746.262847	3565.663568
746.591778	3608.455402
746.920662	3578.309302
747.249498	3543.011143
747.578286	3589.828339
747.907027	3609.783747
748.235720	3607.162347
748.564365	3634.077067
748.892963	3634.177890
749.221514	3616.715333
749.550017	3589.977053
749.878473	3591.320521
750.206881	3559.261303
750.535242	3559.369687
750.863555	3556.839028
751.191821	3554.688976
751.520039	3535.593085
751.848210	3513.356556
752.176334	3548.168244
752.504411	3552.347360
752.832440	3513.661546
753.160421	3490.439470
753.488356	3504.897500
753.816243	3517.195394
754.144082	3472.450113
754.471875	3458.334882
754.799620	3479.071668
755.127318	3470.741162
755.454969	3469.763178
755.782572	3477.224086
756.110129	3453.760035
756.437638	3441.832665
756.765100	3456.749439
757.092515	3465.573979
757.419882	3473.037407
757.747203	3445.157306
758.074477	3444.181843
758.401703	3463.192034
758.728882	3482.723984
759.056014	3492.176148
759.383099	3491.888802
759.710138	3490.210098
760.037129	3508.479239
760.364073	3538.968138
760.690970	3521.490457
761.017820	3502.790297
761.344623	3519.448790
761.671379	3566.452509
761.998088	3615.558388
762.324751	3745.254674
762.651366	3990.486644
762.977935	4465.512050
763.304456	4910.787087
763.630931	5007.713352
763.957359	4647.134741
764.283740	4303.000374
764.610074	4107.315384
764.936362	3908.086464
765.262602	3753.544851
765.588796	3638.079743
765.914943	3549.022719
766.241044	3459.554841
766.567097	3428.445881
766.893104	3380.779251
767.219064	3356.763194
767.544978	3326.143225
767.870845	3271.764299
768.196665	3251.738315
768.522438	3261.157711
768.848165	3256.237545
769.173846	3219.227914
769.499479	3205.032025
769.825066	3188.376052
770.150607	3166.812517
770.476101	3184.625434
770.801548	3177.472037
771.126949	3133.641725
771.452303	3117.988942
771.777611	3122.881382
772.102872	3129.533184
772.428087	3104.493773
772.753256	3093.161259
773.078378	3087.225301
773.403453	3054.057029
773.728482	3041.154196
774.053465	3059.728327
774.378401	3048.388251
774.703291	3018.126205
775.028135	3017.639733
775.352932	3010.907273
775.677683	3000.978720
776.002388	2995.917402
776.327046	2998.291785
776.651658	2989.925990
776.976224	2976.355204
777.300743	2974.379072
777.625216	2969.642908
777.949643	2959.837863
778.274024	2965.710808
778.598359	2951.719085
778.922647	2959.928604
779.246889	2955.416772
779.571086	2947.184567
779.895236	2937.659307
780.219339	2945.276491
780.543397	2961.385498
780.867409	2964.276599
781.191374	2954.733695
781.515294	2953.417954
781.839167	2953.284363
782.162995	2946.100719
782.486776	2952.205557
782.810511	2948.568364
783.134201	2939.945470
783.457844	2944.530400
783.781441	2934.685026
784.104993	2919.087696
784.428498	2915.019485
784.751958	2931.055396
785.075372	2925.787390
785.398739	2904.917013
785.722061	2927.168666
786.045337	2938.831375
786.368568	2922.654313
786.691752	2912.715678
787.014891	2960.798203
787.337983	2990.440188
787.661030	3018.012779
787.984031	3086.784200
788.306987	3132.436889
788.629897	3126.601753
788.952760	3108.640122
789.275579	3092.115220
789.598351	3033.814276
789.921078	2991.403048
790.243759	2980.894763
790.566395	2962.194603
790.888984	2941.094853
791.211529	2922.334199
791.534027	2914.543096
791.856480	2905.080850
792.178888	2886.257182
792.501249	2876.764689
792.823566	2878.917262
793.145836	2875.668238
793.468062	2870.128010
793.790241	2869.576004
794.112375	2874.967518
794.434464	2884.586039
794.756507	2893.029972
795.078505	2898.418966
795.400457	2911.021850
795.722364	2947.872685
796.044226	2971.591314
796.366042	2973.562405
796.687812	2964.248873
797.009538	2980.708240
797.331218	2970.215079
797.652852	2957.100517
797.974442	2938.521344
798.295986	2931.433482
798.617484	2930.112700
798.938938	2915.798343
799.260346	2899.553225
799.581709	2892.089797
799.903026	2886.408417
800.224299	2881.097561
800.545526	2875.637991
800.866708	2856.070753
801.187845	2846.890812
801.508936	2846.805112
801.829983	2852.882223
802.150984	2843.568691
802.471940	2826.781649
802.792851	2828.167966
803.113717	2826.655620
803.434538	2832.205930
803.755314	2829.884479
804.076045	2822.841987
804.396731	2818.705720
804.717372	2822.254693
805.037967	2815.754125
805.358518	2822.592450
805.679024	2835.031497
805.999485	2829.496310
806.319901	2833.269614
806.640272	2824.606391
806.960598	2832.397494
807.280879	2839.339163
807.601115	2847.341995
807.921306	2835.911178
808.241453	2827.943635
808.561554	2836.165757
808.881611	2838.893021
809.201623	2833.249449
809.521590	2830.562514
809.841513	2826.421206
810.161390	2831.137206
810.481223	2824.412307
810.801011	2818.612459
811.120755	2814.579536
811.440453	2815.020637
811.760107	2814.156079
812.079716	2816.467448
812.399281	2802.634522
812.718801	2797.424489
813.038276	2790.187913
813.357707	2799.509007
813.677093	2805.205510
813.996434	2798.362144
814.315731	2793.610857
814.634983	2790.036678
814.954191	2791.448202
815.273354	2806.135603
815.592473	2813.392344
815.911547	2819.025834
816.230577	2825.821309
816.549562	2831.926146
816.868502	2830.068481
817.187399	2839.243381
817.506250	2861.424458
817.825058	2850.843076
818.143821	2863.922350
818.462539	2883.096378
818.781213	2908.801222
819.099843	2945.286573
819.418429	3004.038700
819.736970	3067.027918
820.055466	3137.483084
820.373919	3243.790936
820.692327	3384.875188
821.010691	3558.608473
821.329011	4003.855784
821.647286	4909.957817
821.965517	6306.496064
822.283704	7062.407001
822.601847	7047.674229
822.919945	6408.413072
823.237999	5894.863168
823.556010	5303.639165
823.873976	4742.064709
824.191897	4329.839477
824.509775	4031.161194
824.827609	3757.736571
825.145398	3633.101604
825.463144	3622.966364
825.780845	3711.645301
826.098502	3816.339984
826.416116	4101.679374
826.733685	4423.874640
827.051210	4492.315865
827.368692	4373.659707
827.686129	4106.203810
828.003522	3773.144858
828.320872	3511.728263
828.638177	3316.229796
828.955439	3176.123528
829.272656	3096.213678
829.589830	3025.448481
829.906960	2974.658856
830.224046	2932.209820
830.541088	2893.589540
830.858086	2877.374669
831.175041	2856.879858
831.491952	2865.558204
831.808819	2873.011550
832.125642	2898.880231
832.442421	2942.776078
832.759157	3025.488810
833.075849	3208.268446
833.392497	3491.714882
833.709101	3699.329762
834.025662	3649.031650
834.342179	3489.400993
834.658653	3309.545226
834.975083	3158.207267
835.291469	3058.926783
835.607811	2973.519555
835.924110	2911.440266
836.240366	2862.762884
836.556578	2817.614311
836.872746	2795.360137
837.188871	2773.622682
837.504952	2754.352871
837.820990	2748.124525
838.136984	2734.231105
838.452935	2725.809858
838.768842	2725.835064
839.084706	2743.348032
839.400526	2819.913077
839.716303	2954.688325
840.032037	3038.326108
840.347727	3020.228366
840.663373	2961.914819
840.978977	2887.411606
841.294537	2811.154072
841.610054	2767.101949
841.925527	2742.349884
842.240957	2721.638303
842.556344	2697.544108
842.871687	2680.938547
843.186987	2670.130314
843.502244	2667.261897
843.817458	2662.220743
844.132629	2652.763539
844.447756	2640.122845
844.762840	2634.849798
845.077881	2638.050931
845.392879	2635.535395
845.707833	2633.279479
846.022745	2625.022069
846.337613	2627.398973
846.652438	2626.930146
846.967221	2627.036010
847.281960	2626.552059
847.596656	2624.185237
847.911309	2621.095010
848.225919	2615.897581
848.540485	2617.430091
848.855009	2617.364556
849.169490	2615.481685
849.483928	2617.598970
849.798323	2616.565533
850.112675	2613.558485
850.426984	2614.337343
850.741251	2611.529421
851.055474	2612.436828
851.369654	2613.472786
851.683792	2617.067128
851.997887	2612.383896
852.311938	2611.292487
852.625947	2611.552106
852.939914	2617.157869
853.253837	2619.217180
853.567718	2610.538834
853.881555	2612.963629
854.195350	2615.527056
854.509103	2614.470934
854.822812	2612.025974
855.136479	2613.160234
855.450103	2614.024792
855.763685	2618.576954
856.077224	2614.274329
856.390720	2612.333485
856.704173	2614.410440
857.017584	2618.130812
857.330953	2617.301542
857.644278	2621.631893
857.957561	2619.633076
858.270802	2617.495626
858.584000	2615.519494
858.897155	2618.760956
859.210268	2620.258179
859.523339	2614.075203
859.836367	2612.421705
860.149352	2612.058742
860.462295	2616.903291
860.775195	2608.872733
861.088054	2609.800305
861.400869	2607.970366
861.713642	2605.827876
862.026373	2606.616816
862.339062	2607.735952
862.651708	2614.622169
862.964312	2617.397324
863.276873	2616.628548
863.589392	2618.150976
863.901869	2622.866976
864.214303	2628.913840
864.526696	2629.952317
864.839045	2631.452061
865.151353	2631.721762
865.463619	2632.180507
865.775842	2633.907103
866.088023	2633.776033
866.400162	2636.072278
866.712258	2635.220323
867.024313	2632.810652
867.336325	2629.244035
867.648296	2632.767802
867.960224	2634.602782
868.272110	2633.271917
868.583954	2628.603809
868.895755	2629.901906
869.207515	2633.839047
869.519233	2641.819194
869.830909	2637.388019
870.142542	2632.621608
870.454134	2637.325005
870.765684	2640.682413
871.077191	2641.236940
871.388657	2648.738177
871.700081	2644.911942
872.011463	2646.086530
872.322803	2643.082003
872.634101	2650.260606
872.945357	2655.127840
873.256571	2660.988181
873.567744	2658.979281
873.878874	2659.740496
874.189963	2659.145639
874.501010	2664.398522
874.812015	2667.680313
875.122979	2671.841785
875.433900	2659.995074
875.744780	2658.288643
876.055618	2665.134530
876.366415	2670.185766
876.677169	2669.205262
876.987882	2663.198727
877.298554	2661.086484
877.609183	2672.560150
877.919771	2678.838907
878.230317	2687.418951
878.540822	2697.768440
878.851285	2711.233362
879.161707	2735.496435
879.472087	2776.400357
879.782425	2827.263079
880.092722	2939.587548
880.402977	3133.613998
880.713191	3398.670306
881.023363	3704.338149
881.333494	3898.626738
881.643583	4072.360023
881.953631	4076.476126
882.263637	3890.886047
882.573602	3669.985206
882.883526	3536.704660
883.193408	3415.515321
883.503248	3310.613951
883.813048	3192.260262
884.122806	3077.906728
884.432522	2989.991525
884.742197	2922.283788
885.051831	2883.310628
885.361424	2846.590863
885.670975	2811.199442
885.980485	2775.906324
886.289954	2759.925867
886.599382	2747.456572
886.908768	2735.294789
887.218113	2715.631768
887.527417	2700.800694
887.836680	2695.981351
888.145901	2685.677232
888.455082	2678.415450
888.764221	2669.976558
889.073319	2661.267965
889.382376	2659.914415
889.691392	2661.658655
890.000366	2662.707215
890.309300	2659.518685
890.618193	2663.208809
890.927044	2660.834426
891.235855	2665.177380
891.544625	2663.743172
891.853353	2662.634118
892.162041	2670.803308
892.470687	2691.787111
892.779293	2701.647607
893.087858	2712.470965
893.396381	2736.804614
893.704864	2780.070317
894.013306	2851.097654
894.321707	2947.779423
894.630068	3000.935870
894.938387	3023.351361
895.246665	3012.767458
895.554903	2966.454378
895.863100	2923.884354
896.171256	2865.785056
896.479371	2803.017650
896.787446	2766.154212
897.095480	2741.003896
897.403473	2734.848647
897.711425	2719.584033
898.019336	2700.573842
898.327207	2684.853003
898.635038	2685.563806
898.942827	2685.034485
899.250576	2671.599810
899.558284	2663.140754
899.865952	2655.531132
900.173579	2655.326965
900.481165	2652.975267
900.788711	2644.261633
901.096216	2636.626805
901.403681	2634.368368
901.711105	2632.830816
902.018489	2633.047586
902.325832	2634.542288
902.633135	2635.363996
902.940397	2652.052736
903.247619	2691.076308
903.554800	2762.020466
903.861941	2895.510220
904.169041	3024.805734
904.476101	3089.597163
904.783121	3081.985021
905.090100	3025.486289
905.397039	2945.704989
905.703938	2869.785212
906.010796	2802.589152
906.317614	2752.233066
906.624391	2716.045143
906.931129	2689.586647
907.237826	2663.662513
907.544483	2644.228865
907.851099	2632.427524
908.157675	2620.694238
908.464211	2611.899946
908.770707	2601.074068
909.077163	2597.804879
909.383578	2593.736668
909.689954	2596.093408
909.996289	2590.207861
910.302584	2591.579054
910.608839	2588.168714
910.915054	2587.352047
911.221229	2591.644589
911.527363	2592.799014
911.833458	2590.159970
912.139513	2594.255907
912.445527	2594.674323
912.751502	2600.552308
913.057436	2605.200252
913.363331	2612.260388
913.669186	2624.157511
913.975000	2634.701084
914.280775	2654.762356
914.586510	2675.700789
914.892205	2712.334854
915.197859	2779.046963
915.503475	2867.758668
915.809050	2933.132351
916.114585	2952.180351
916.420081	2968.876652
916.725536	2978.006182
917.030952	2950.355453
917.336328	2899.651528
917.641665	2849.373580
917.946961	2797.880714
918.252218	2761.748244
918.557435	2737.160016
918.862612	2712.866695
919.167750	2695.510003
919.472848	2677.974349
919.777906	2659.677481
920.082925	2645.695841
920.387904	2637.902217
920.692843	2632.979530
920.997743	2628.598768
921.302603	2619.794392
921.607423	2612.714092
921.912204	2607.587238
922.216946	2604.370982
922.521647	2599.314705
922.826310	2595.816144
923.130932	2592.123499
923.435516	2585.081007
923.740059	2586.071594
924.044564	2583.858527
924.349028	2582.000862
924.653454	2575.273442
924.957840	2571.853019
925.262186	2570.144068
925.566493	2573.801425
925.870761	2565.818758
926.174989	2567.053841
926.479178	2565.634756
926.783328	2563.832544
927.087438	2561.848850
927.391509	2563.315825
927.695541	2556.744681
927.999533	2559.933211
928.303486	2557.427758
928.607400	2555.149156
928.911275	2555.781821
929.215110	2554.443395
929.518906	2556.167469
929.822663	2555.776780
930.126381	2554.375339
930.430060	2555.557490
930.733699	2557.047151
931.037299	2557.407593
931.340861	2556.979095
931.644383	2557.989846
931.947866	2559.424055
932.251309	2559.681153
932.554714	2555.688560
932.858080	2557.458005
933.161407	2558.556976
933.464694	2557.957079
933.767943	2552.520194
934.071153	2554.811399
934.374323	2553.722510
934.677455	2554.559341
934.980548	2550.108002
935.283602	2554.824002
935.586617	2555.413817
935.889593	2553.752757
936.192530	2554.524053
936.495428	2553.132695
936.798287	2553.014228
937.101108	2557.306770
937.403890	2557.316852
937.706632	2560.626370
938.009336	2564.581155
938.312002	2568.256156
938.614628	2574.608010
938.917216	2577.108422
939.219765	2575.946436
939.522275	2580.425502
939.824747	2578.096488
940.127179	2574.179512
940.429573	2569.145920
940.731929	2569.455951
941.034246	2566.436300
941.336524	2568.964438
941.638763	2567.036197
941.940964	2567.931002
942.243126	2564.543346
942.545250	2565.670044
942.847335	2561.029662
943.149381	2562.647872
943.451389	2562.279868
943.753359	2559.978582
944.055290	2559.454302
944.357182	2557.110165
944.659036	2558.309960
944.960851	2560.674261
945.262628	2556.543035
945.564367	2557.977243
945.866067	2555.650751
946.167729	2556.172510
946.469352	2554.992880
946.770937	2558.085628
947.072484	2554.299722
947.373992	2556.429609
947.675462	2558.768705
947.976893	2556.137222
948.278286	2555.602860
948.579641	2553.225956
948.880958	2553.455328
949.182236	2552.673950
949.483476	2555.073539
949.784678	2554.801317
950.085841	2554.304763
950.386967	2554.329969
950.688054	2552.792417
950.989103	2553.911553
951.290114	2555.219732
951.591087	2555.688560
951.892021	2558.826678
952.192917	2560.064281
952.493776	2563.852708
952.794596	2561.821123
953.095378	2562.927657
953.396122	2563.088973
953.696828	2560.026472
953.997496	2558.183931
954.298126	2556.759805
954.598718	2557.894064
954.899272	2554.060267
955.199788	2553.936759
955.500266	2553.556152
955.800706	2550.329813
956.101108	2546.682538
956.401472	2546.463248
956.701798	2544.524924
957.002087	2542.039636
957.302337	2544.459389
957.602550	2543.836807
957.902724	2543.370500
958.202861	2541.792619
958.502960	2540.096271
958.803022	2543.751107
959.103045	2541.026364
959.403031	2541.931251
959.702979	2539.390509
960.002889	2540.129038
960.302762	2540.045859
960.602596	2541.628782
960.902393	2538.949408
961.202153	2538.256250
961.501875	2538.200797
961.801559	2539.340098
962.101205	2540.507125
962.400814	2537.323636
962.700385	2539.254398
962.999918	2538.543595
963.299414	2538.142824
963.598873	2541.129707
963.898293	2537.311033
964.197677	2539.287166
964.497022	2538.614172
964.796331	2537.237937
965.095601	2536.869932
965.394835	2540.875129
965.694030	2536.562422
965.993189	2537.646270
966.292309	2539.536703
966.591393	2536.819521
966.890439	2535.962525
967.189447	2535.201310
967.488419	2536.819521
967.787353	2537.293389
968.086249	2536.315405
968.385108	2537.391692
968.683930	2536.312885
968.982714	2537.963863
969.281462	2534.172915
969.580172	2538.178112
969.878844	2534.251053
970.177480	2538.422608
970.476078	2535.874304
970.774639	2538.195756
971.073162	2539.975283
971.371649	2533.600744
971.670098	2537.593338
971.968510	2534.281300
972.266885	2533.653676
972.565223	2538.725077
972.863524	2539.080478
973.161788	2540.222300
973.460014	2537.752134
973.758204	2536.774150
974.056356	2540.348328
974.354471	2537.484953
974.652550	2540.484440
974.950591	2537.981507
975.248595	2539.635005
975.546563	2534.576207
975.844493	2535.193749
976.142386	2537.137113
976.440243	2536.766589
976.738062	2539.183822
977.035845	2534.994623
977.333590	2535.854140
977.631299	2537.222813
977.928971	2535.488656
978.226606	2538.581404
978.524204	2535.556712
978.821765	2536.660724
979.119290	2536.428831
979.416777	2536.617875
979.714228	2536.980838
980.011642	2537.263142
980.309020	2537.684079
980.606360	2539.037628
980.903664	2537.857998
981.200931	2536.244829
981.498162	2538.737680
981.795356	2538.218441
982.092513	2544.456869
982.389633	2546.175902
982.686717	2550.690256
982.983764	2552.222766
983.280775	2553.815771
983.577749	2552.663867
983.874686	2550.546583
984.171587	2549.644216
984.468451	2548.797302
984.765279	2542.541230
985.062070	2541.782537
985.358824	2541.278421
985.655543	2538.936805
985.952224	2538.132741
986.248869	2536.882535
986.545478	2533.046217
986.842050	2534.220806
987.138586	2532.665610
987.435086	2531.027235
987.731549	2530.258459
988.027975	2535.884387
988.324366	2531.367513
988.620719	2534.117462
988.917037	2534.805580
989.213318	2533.840199
989.509563	2530.752492
989.805772	2533.812473
990.101944	2532.889941
990.398080	2531.896834
990.694180	2533.590662
990.990244	2532.791639
991.286271	2533.865405
991.582262	2535.944881
991.878217	2535.617206
992.174136	2533.048738
992.470019	2533.270548
992.765865	2533.179808
993.061676	2534.543440
993.357450	2533.073943
993.653188	2533.716691
993.948890	2532.995806
994.244556	2532.322812
994.540186	2533.363810
994.835780	2534.755168
995.131337	2535.723070
995.426859	2534.944212
995.722345	2535.985210
996.017795	2537.860519
996.313208	2536.632998
996.608586	2535.768440
996.903928	2539.027546
997.199234	2539.183822
997.494504	2535.476053
997.789738	2535.400436
998.084936	2537.237937
998.380099	2536.227185
998.675225	2536.411187
998.970316	2535.854140
999.265371	2535.632329
999.560390	2533.147040
999.855373	2537.283307
1000.150320	2533.913296
1000.445232	2533.164684
1000.740108	2531.294416
1001.034948	2533.890610
1001.329752	2531.304498
1001.624521	2533.343645
1001.919254	2527.122861
1002.213951	2531.440610
1002.508613	2527.473222
1002.803239	2529.177132
1003.097829	2527.251411
1003.392384	2529.643438
1003.686903	2530.981865
1003.981386	2533.472195
1004.275834	2532.390867
1004.570246	2535.155940
1004.864623	2532.312729
1005.158964	2532.935312
1005.453270	2531.614529
1005.747540	2531.748120
1006.041775	2532.209386
1006.335974	2530.742410
1006.630138	2531.269210
1006.924266	2530.742410
1007.218359	2529.535053
1007.512416	2530.949097
1007.806438	2530.674354
1008.100425	2530.510517
1008.394376	2532.849612
1008.688292	2531.133099
1008.982172	2530.878521
1009.276017	2529.169570
1009.569827	2530.901206
1009.863602	2530.117307
1010.157341	2530.926412
1010.451045	2528.738551
1010.744714	2531.985054
1011.038347	2534.868594
1011.331945	2532.025383
1011.625508	2531.455733
1011.919036	2530.646628
1012.212528	2530.361803
1012.505986	2532.201824
1012.799408	2533.658717
1013.092795	2532.705939
1013.386147	2531.435568
1013.679464	2532.496731
1013.972745	2530.187883
1014.265992	2531.075126
1014.559204	2531.039838
1014.852380	2533.356248
1015.145521	2530.931453
1015.438628	2534.898841
1015.731699	2531.082688
1016.024736	2531.254087
1016.317737	2530.266021
1016.610703	2531.231402
1016.903635	2526.817872
1017.196531	2527.067409
1017.489393	2528.673016
1017.782219	2524.529188
1018.075011	2528.007584
1018.367768	2528.504138
1018.660490	2529.489683
1018.953177	2529.489683
1019.245829	2529.489683
