Dividing Wavelength (nm)	Counts (n)	Blue Motor Position (mm): 21.700000	Red Motor Position (mm): 0.000000	
326.493990	2133.761627
326.888308	2133.761627
327.282561	2133.761627
327.676750	2101.359610
328.070874	2100.621081
328.464933	2101.594024
328.858929	2108.891094
329.252859	2117.980295
329.646726	2131.016718
330.040528	2145.993987
330.434265	2159.751295
330.827938	2176.828204
331.221547	2195.072140
331.615091	2212.670808
332.008571	2231.945660
332.401986	2251.868300
332.795338	2271.475868
333.188625	2294.980247
333.581847	2309.995324
333.975006	2329.313026
334.368100	2346.838597
334.761129	2364.560773
335.154095	2382.787065
335.546996	2401.935888
335.939833	2422.662592
336.332606	2441.287135
336.725315	2449.579833
337.117960	2461.630711
337.510540	2471.203862
337.903056	2480.451859
338.295508	2488.668940
338.687896	2498.647904
339.080220	2504.087309
339.472480	2510.850017
339.864676	2515.255985
340.256807	2520.302180
340.648875	2522.863086
341.040879	2526.104548
341.432818	2525.214785
341.824694	2529.817358
342.216506	2527.521113
342.608253	2530.593696
342.999937	2530.104704
343.391557	2526.636390
343.783113	2525.544980
344.174605	2526.956503
344.566033	2525.827285
344.957397	2524.314939
345.348697	2520.839063
345.739934	2519.956861
346.131106	2517.579957
346.522215	2516.917045
346.913260	2513.874709
347.304241	2513.277332
347.695159	2511.333968
348.086012	2509.229286
348.476802	2505.823986
348.867528	2504.104953
349.258191	2506.144100
349.648789	2502.464057
350.039324	2501.160919
350.429796	2500.676968
350.820203	2499.681340
351.210548	2497.488438
351.600828	2496.792759
351.991045	2495.378716
352.381198	2493.150526
352.771288	2492.999291
353.161314	2494.430979
353.551276	2497.357368
353.941175	2495.615650
354.331010	2495.706391
354.720782	2490.415700
355.110490	2492.235556
355.500135	2495.832419
355.889717	2493.579024
356.279235	2495.338386
356.668689	2494.950217
357.058080	2494.557007
357.447408	2493.435351
357.836672	2494.080618
358.225873	2492.530464
358.615010	2493.979795
359.004084	2496.573469
359.393095	2498.133706
359.782043	2497.183449
360.170927	2499.109169
360.559748	2498.398367
360.948505	2501.826351
361.337199	2500.959273
361.725830	2501.758296
362.114398	2504.745179
362.502903	2502.065806
362.891344	2502.050683
363.279722	2502.690909
363.668037	2502.940446
364.056289	2502.252329
364.444478	2505.198883
364.832603	2504.730056
365.220665	2506.441528
365.608665	2505.035046
365.996601	2507.406909
366.384474	2508.621827
366.772284	2507.656446
367.160031	2508.301713
367.547715	2506.580159
367.935336	2507.860613
368.322893	2507.311127
368.710388	2507.127125
369.097820	2513.320182
369.485189	2505.317350
369.872495	2510.489574
370.259738	2506.595283
370.646918	2509.824142
371.034035	2506.353308
371.421090	2512.052332
371.808081	2511.223062
372.195010	2508.616786
372.581875	2509.350273
372.968678	2510.915552
373.355418	2509.879595
373.742096	2513.272291
374.128710	2510.229955
374.515262	2513.599966
374.901751	2511.076869
375.288177	2510.998731
375.674540	2514.459483
376.060841	2512.410254
376.447079	2510.149296
376.833254	2513.441170
377.219367	2507.416991
377.605417	2511.785151
377.991404	2510.925634
378.377329	2508.558812
378.763191	2509.975377
379.148991	2510.847496
379.534727	2514.711541
379.920402	2512.458145
380.306013	2516.022241
380.691563	2517.027951
381.077049	2516.594412
381.462474	2516.806140
381.847835	2513.869668
382.233134	2516.735564
382.618371	2517.325379
383.003545	2518.711696
383.388657	2513.380676
383.773706	2516.869154
384.158693	2516.380162
384.543618	2517.937879
384.928480	2515.840759
385.313280	2517.365708
385.698017	2520.408044
386.082692	2518.961233
386.467305	2518.585667
386.851856	2516.516274
387.236344	2520.213960
387.620770	2520.508868
388.005133	2522.384177
388.389435	2520.070287
388.773674	2518.663805
389.157851	2517.484175
389.541965	2519.697242
389.926018	2521.335617
390.310008	2518.689011
390.693936	2519.961902
391.077802	2520.087931
391.461606	2522.132119
391.845348	2521.310411
392.229027	2522.605988
392.612645	2521.350740
392.996200	2522.497603
393.379694	2524.579599
393.763125	2523.236132
394.146494	2521.675895
394.529801	2521.620442
394.913047	2523.576410
395.296230	2523.999867
395.679351	2524.410721
396.062410	2522.389218
396.445408	2523.026924
396.828343	2522.232942
397.211217	2520.788652
397.594028	2520.960051
397.976778	2523.384846
398.359466	2525.512213
398.742092	2519.704803
399.124656	2524.526667
399.507158	2522.535411
399.889598	2523.344517
400.271977	2526.401976
400.654294	2525.655886
401.036549	2526.081863
401.418742	2527.657224
401.800874	2527.032121
402.182944	2527.684950
402.564952	2524.907274
402.946898	2525.870135
403.328783	2527.551359
403.710606	2527.795855
404.092367	2526.966586
404.474067	2525.610515
404.855705	2527.362316
405.237282	2529.046062
405.618797	2527.677388
406.000250	2528.052954
406.381642	2526.578417
406.762972	2530.240815
407.144240	2526.308715
407.525447	2531.286854
407.906593	2530.470187
408.287677	2531.344828
408.668700	2530.291227
409.049661	2529.661082
409.430560	2528.340300
409.811399	2531.748120
410.192176	2529.898017
410.572891	2532.221988
410.953545	2526.825433
411.334138	2529.885414
411.714669	2530.535723
412.095139	2528.340300
412.475547	2530.107224
412.855894	2531.480939
413.236180	2532.695857
413.616405	2532.103521
413.996568	2531.722914
414.376670	2532.791639
414.756711	2533.525127
415.136691	2533.494880
415.516609	2531.929602
415.896466	2532.811803
416.276262	2535.390354
416.655997	2531.788449
417.035670	2529.955990
417.415283	2531.463295
417.794834	2528.486493
418.174324	2529.802235
418.553753	2529.403983
418.933121	2532.403470
419.312428	2532.138809
419.691674	2534.185518
420.070859	2535.097967
420.449983	2535.294572
420.829045	2532.710980
421.208047	2533.580579
421.586988	2534.203162
421.965867	2535.725590
422.344686	2533.290713
422.723444	2537.404295
423.102141	2533.658717
423.480777	2537.220292
423.859352	2533.013450
424.237866	2535.339942
424.616319	2536.275076
424.994712	2532.917668
425.373044	2537.391692
425.751314	2535.861702
426.129524	2536.814480
426.507673	2538.011754
426.885762	2537.749614
427.263789	2538.115097
427.641756	2535.733152
428.019662	2538.117618
428.397508	2536.166691
428.775292	2538.684748
429.153016	2538.712474
429.530679	2538.881353
429.908282	2537.870601
430.285824	2538.432690
430.663305	2537.164840
431.040726	2538.301620
431.418086	2540.439069
431.795385	2541.666590
432.172624	2537.978986
432.549802	2537.260622
432.926920	2539.902186
433.303977	2539.934954
433.680974	2541.311189
434.057910	2537.363965
434.434786	2542.536189
434.811601	2540.318082
435.188355	2541.348998
435.565050	2538.780530
435.941683	2540.822197
436.318257	2539.365303
436.694770	2537.769778
437.071222	2538.384799
437.447614	2535.992772
437.823946	2535.813811
438.200218	2541.354039
438.576429	2539.640046
438.952580	2541.616179
439.328670	2540.910417
439.704700	2541.820345
440.080670	2543.725902
440.456580	2542.263967
440.832429	2541.843031
441.208218	2540.469316
441.583947	2543.579708
441.959616	2542.710109
442.335224	2543.143648
442.710773	2541.331353
443.086261	2542.878988
443.461689	2541.228010
443.837057	2542.682383
444.212365	2541.724563
444.587612	2542.705068
444.962800	2544.202291
445.337927	2543.506611
445.712995	2546.029709
446.088002	2547.169010
446.462949	2542.974770
446.837837	2544.676159
447.212664	2543.120963
447.587431	2546.019627
447.962139	2545.371838
448.336786	2548.814946
448.711374	2546.904349
449.085901	2546.591797
449.460369	2545.903680
449.834776	2546.740512
450.209124	2545.046684
450.583412	2544.529966
450.957640	2544.719009
451.331808	2547.549617
451.705917	2546.528783
452.079965	2547.794113
452.453954	2547.703372
452.827883	2548.232693
453.201752	2548.537683
453.575562	2544.308155
453.949311	2549.399720
454.323001	2547.539534
454.696632	2547.589946
455.070202	2547.373176
455.443713	2548.988866
455.817164	2546.710265
456.190556	2543.957795
456.563888	2545.981818
456.937160	2540.986034
457.310373	2546.614483
457.683526	2547.267312
458.056619	2548.285625
458.429653	2550.397869
458.802628	2549.883671
459.175542	2549.014072
459.548398	2551.844680
459.921194	2548.905687
460.293930	2549.195553
460.666607	2548.809905
461.039224	2551.176727
461.411782	2551.693445
461.784280	2552.600853
462.156719	2551.370811
462.529099	2550.022303
462.901419	2550.909546
463.273680	2553.016748
463.645882	2550.528939
464.018024	2552.258054
464.390106	2552.076573
464.762130	2553.800647
465.134094	2553.568754
465.505999	2555.678477
465.877845	2558.062943
466.249631	2558.617470
466.621358	2559.345917
466.993026	2559.908005
467.364634	2561.342214
467.736184	2558.798952
468.107674	2559.681153
468.479105	2555.219732
468.850477	2558.335165
469.221790	2559.804662
469.593043	2560.006308
469.964238	2563.305743
470.335373	2561.977399
470.706449	2562.219374
471.077467	2564.210630
471.448425	2567.860426
471.819324	2573.476271
472.190164	2570.769171
472.560945	2573.123390
472.931667	2575.706982
473.302330	2571.890828
473.672934	2573.163719
474.043479	2576.324523
474.413965	2577.962898
474.784393	2574.751683
475.154761	2583.077148
475.525070	2587.772983
475.895321	2588.892119
476.265513	2593.179621
476.635645	2602.271342
477.005719	2607.970366
477.375734	2614.743156
477.745691	2621.836060
478.115588	2628.145064
478.485427	2636.951960
478.855207	2650.653816
479.224928	2673.376817
479.594591	2690.030268
479.964194	2691.618232
480.333739	2696.094777
480.703226	2709.010213
481.072653	2722.946482
481.442022	2741.452558
481.811333	2758.731113
482.180584	2764.566249
482.549777	2772.652259
482.918912	2778.598300
483.287988	2797.263172
483.657005	2811.537200
484.025964	2816.376707
484.394864	2832.004284
484.763706	2851.664784
485.132489	2856.678212
485.501213	2877.750235
485.869879	2889.932183
486.238487	2911.851120
486.607036	2926.871238
486.975527	2942.206428
487.343959	2967.528144
487.712333	2994.994870
488.080648	3012.966584
488.448905	3041.683517
488.817104	3062.248904
489.185244	3100.085284
489.553326	3142.012561
489.921350	3218.252451
490.289315	3334.516582
490.657222	3389.500447
491.025070	3424.667536
491.392861	3445.326185
491.760593	3451.589818
492.128267	3453.543265
492.495883	3456.636013
492.863440	3459.491827
493.230939	3466.315029
493.598380	3499.324504
493.965763	3526.549255
494.333088	3548.425342
494.700354	3583.171495
495.067563	3623.810757
495.434713	3649.399654
495.801805	3710.029611
496.168839	3747.339191
496.535815	3791.527425
496.902733	3825.061180
497.269593	3873.791494
497.636395	3924.341664
498.003139	3985.384996
498.369825	4002.875279
498.736453	4088.544648
499.103023	4120.382055
499.469535	4186.889998
499.835989	4230.841298
500.202385	4281.078916
500.568723	4305.999860
500.935003	4400.566865
501.301226	4438.259573
501.667390	4534.830436
502.033497	4619.189105
502.399546	4645.191376
502.765537	4680.754196
503.131470	4763.348461
503.497345	4869.104307
503.863163	4829.906815
504.228923	4980.755782
504.594625	5054.097009
504.960269	5047.528385
505.325856	5170.676212
505.691385	5183.183315
506.056856	5293.261950
506.422270	5373.058374
506.787625	5389.308534
507.152924	5508.010063
507.518164	5560.778341
507.883347	5608.021514
508.248472	5638.545700
508.613540	5796.961439
508.978550	5827.604093
509.343503	5883.306323
509.708398	6002.217059
510.073236	6115.143947
510.438016	6186.622467
510.802738	6244.510037
511.167403	6331.963974
511.532010	6374.160952
511.896561	6524.488160
512.261053	6637.145345
512.625488	6657.748541
512.989866	6714.388425
513.354186	6785.503982
513.718449	6812.713610
514.082655	6964.749769
514.446803	6996.849316
514.810894	7131.329657
515.174927	7143.965309
515.538904	7214.917029
515.902822	7375.366873
516.266684	7382.810137
516.630488	7429.813855
516.994235	7517.101434
517.357925	7631.391954
517.721558	7747.925787
518.085133	7838.457348
518.448651	7907.614417
518.812112	7907.185919
519.175516	7993.823189
519.538863	8128.439641
519.902152	8137.569170
520.265385	8321.795617
520.628560	8315.002662
520.991678	8384.230307
521.354739	8480.735636
521.717743	8490.638983
522.080690	8546.381541
522.443580	8706.571767
522.806413	8749.300587
523.169189	8822.268768
523.531908	8928.647196
523.894569	8859.525415
524.257174	8930.262886
524.619722	9077.139424
524.982213	9079.327285
525.344647	9189.728554
525.707025	9209.245381
526.069345	9337.651131
526.431608	9336.274896
526.793815	9473.452254
527.155964	9361.939411
527.518057	9450.129356
527.880093	9467.632242
528.242072	9568.120082
528.603995	9548.333553
528.965860	9532.400987
529.327669	9619.985994
529.689421	9617.067166
530.051117	9640.110280
530.412755	9781.091188
530.774337	9723.997600
531.135862	9761.740719
531.497331	9818.557044
531.858743	9741.187935
532.220098	9918.134956
532.581396	9843.528399
532.942638	9869.699549
533.303824	9868.464467
533.664953	9923.070245
534.026025	9887.396520
534.387040	10004.356330
534.747999	10038.580724
535.108902	10124.335792
535.469748	9939.461557
535.830537	10069.324201
536.191270	10073.170601
536.551947	10126.425350
536.912567	10156.271502
537.273131	10113.756931
537.633638	10119.997879
537.994089	10141.511003
538.354483	10115.100398
538.714821	10268.797617
539.075103	10303.022011
539.435328	10295.442636
539.795497	10151.442076
540.155609	10324.971194
540.515665	10429.161762
540.875665	10204.406959
541.235609	10280.157857
541.595496	10297.038161
541.955328	10470.862187
542.315102	10374.107321
542.674821	10346.769144
543.034483	10357.791627
543.394090	10378.465398
543.753640	10327.879940
544.113134	10555.871164
544.472571	10423.485423
544.831953	10579.544423
545.191278	10407.124358
545.550548	10445.104411
545.909761	10596.026475
546.268918	10581.102139
546.628019	10670.832157
546.987064	10545.839268
547.346053	10488.407923
547.704986	10589.112532
548.063863	10587.789230
548.422684	10592.283418
548.781449	10522.523931
549.140158	10625.817174
549.498811	10514.500935
549.857408	10385.880936
550.215949	10616.571697
550.574434	10470.416045
550.932864	10578.460574
551.291237	10644.172015
551.649555	10595.366084
552.007817	10618.537747
552.366022	10585.180433
552.724173	10575.559390
553.082267	10571.145860
553.440305	10714.969979
553.798288	10516.514876
554.156215	10679.465133
554.514086	10659.983594
554.871902	10514.190904
555.229661	10553.204394
555.587365	10525.775476
555.945014	10435.538822
556.302606	10560.987935
556.660143	10459.118819
557.017625	10607.810172
557.375050	10518.788436
557.732421	10645.346604
558.089735	10566.646630
558.446994	10567.518750
558.804197	10601.760787
559.161345	10612.289237
559.518437	10463.565117
559.875474	10556.090454
560.232455	10585.717315
560.589381	10535.583040
560.946251	10534.337875
561.303065	10640.524740
561.659825	10577.170039
562.016528	10512.418938
562.373177	10395.194467
562.729770	10510.805769
563.086307	10422.610783
563.442789	10517.739876
563.799216	10400.268389
564.155587	10445.875708
564.511904	10411.089226
564.868164	10396.885775
565.224370	10412.881356
565.580520	10330.970167
565.936615	10334.352782
566.292654	10215.210152
566.648638	10347.880718
567.004567	10303.896651
567.360441	10290.194795
567.716260	10198.690291
568.072023	10292.332244
568.427732	10249.028732
568.783385	10159.991873
569.138982	10230.336134
569.494525	10244.050593
569.850013	10128.746802
570.205445	10209.029697
570.560823	10107.460529
570.916145	10019.913331
571.271412	10086.869937
571.626625	10032.677533
571.981782	10009.069809
572.336884	9982.608793
572.691931	9993.805195
573.046923	9941.024315
573.401860	9898.018231
573.756743	9839.986989
574.111570	9878.561898
574.466342	9860.514567
574.821059	9890.464062
575.175722	9786.666704
575.530330	9786.591087
575.884882	9787.561509
576.239380	9708.627122
576.593823	9693.672539
576.948211	9703.530516
577.302544	9592.683104
577.656823	9600.983364
578.011047	9607.488973
578.365216	9578.383872
578.719330	9506.360907
579.073389	9510.663531
579.427394	9462.071849
579.781344	9438.638046
580.135239	9383.795333
580.489080	9399.438033
580.842866	9293.866190
581.196597	9306.711050
581.550273	9352.784675
581.903895	9310.474271
582.257463	9380.929437
582.610975	9254.963605
582.964434	9285.417216
583.317837	9212.275115
583.671186	9197.013021
584.024481	9182.645733
584.377721	9100.885779
584.730906	9086.735260
585.084037	9110.975649
585.437113	9047.774703
585.790135	9071.412673
586.143103	8969.485584
586.496016	8944.942726
586.848874	9004.292230
587.201679	8987.220363
587.554428	8881.393941
587.907124	8923.676619
588.259765	8894.301815
588.612352	8902.163495
588.964884	8771.995861
589.317362	8786.844580
589.669786	8786.859703
590.022155	8832.517434
590.374470	8850.635341
590.726731	8791.028737
591.078937	8651.550093
591.431090	8760.827185
591.783188	8626.329200
592.135232	8618.916183
592.487222	8621.283005
592.839157	8671.021550
593.191038	8604.511086
593.542866	8547.576295
593.894639	8450.637427
594.246358	8509.258484
594.598022	8516.658898
594.949633	8411.881036
595.301190	8391.681133
595.652692	8423.720186
596.004141	8531.800004
596.355535	8312.691293
596.706876	8287.311604
597.058162	8227.576452
597.409395	8301.431876
597.760573	8364.375723
598.111698	8274.217207
598.462768	8263.051051
598.813785	8217.267292
599.164748	8187.670678
599.515657	8183.814195
599.866511	8096.302285
600.217312	8224.602171
600.568060	8077.579439
600.918753	8181.679266
601.269392	8152.579206
601.619978	8069.112822
601.970510	8129.526009
602.320988	8127.202037
602.671412	8182.437960
603.021783	8118.216181
603.372100	8090.129392
603.722363	8091.843384
604.072572	8066.274652
604.422728	8081.650171
604.772830	8010.171651
605.122878	8016.319338
605.472872	8009.899428
605.822813	8039.657360
606.172701	7983.990418
606.522534	8058.917088
606.872314	8054.785862
607.222041	8036.022688
607.571714	8084.032116
607.921333	8047.188843
608.270899	8048.991056
608.620411	8140.253585
608.969870	8039.864047
609.319276	8035.843727
609.668627	8056.260400
610.017926	8089.196778
610.367171	8139.084037
610.716362	8112.010520
611.065500	8106.054397
611.414585	8133.906772
611.763616	8115.761139
612.112594	8104.592462
612.461518	8116.348433
612.810389	8180.237496
613.159207	8113.137218
613.507971	8063.854898
613.856682	8182.684977
614.205340	8137.362483
614.553945	8214.867703
614.902496	8114.697455
615.250994	8170.344232
615.599439	8156.163466
615.947830	8165.073706
616.296169	8136.334087
616.644454	8150.996283
616.992686	8147.946385
617.340864	8201.722894
617.688990	8110.112526
618.037063	8196.318777
618.385082	8147.845562
618.733048	8229.517296
619.080961	8174.397320
619.428821	8188.008435
619.776628	8188.714197
620.124382	8142.305334
620.472083	8126.904609
620.819731	8157.524578
621.167326	8049.467445
621.514868	8052.812251
621.862357	7951.454811
622.209793	7967.669683
622.557176	7901.048314
622.904506	7868.547995
623.251783	7800.041235
623.599007	7764.521265
623.946179	7766.343642
624.293297	7721.081642
624.640363	7639.457800
624.987376	7620.082125
625.334336	7571.666883
625.681243	7516.675457
626.028097	7506.522573
626.374899	7480.946279
626.721647	7477.808161
627.068343	7407.168992
627.414987	7377.426185
627.761577	7336.053435
628.108115	7374.739250
628.454600	7266.001561
628.801032	7320.128430
629.147412	7275.718385
629.493739	7268.428877
629.840014	7204.927982
630.186236	7263.304544
630.532405	7143.713251
630.878521	7193.484563
631.224585	7153.334293
631.570597	7076.353353
631.916556	7110.124043
632.262462	7103.472241
632.608316	7067.301962
632.954117	7044.321862
633.299866	7033.337188
633.645562	7023.116248
633.991206	6941.870492
634.336797	6888.666155
634.682336	6843.691501
635.027823	6814.142777
635.373257	6803.518546
635.718639	6733.514563
636.063968	6749.051399
636.409245	6643.212374
636.754470	6639.187012
637.099642	6603.162927
637.444762	6543.775614
637.789829	6554.354476
638.134845	6497.701989
638.479808	6479.894113
638.824719	6485.880483
639.169577	6413.411376
639.514383	6437.780313
639.859137	6361.079158
640.203839	6373.190530
640.548489	6357.777202
640.893086	6334.741649
641.237632	6306.065046
641.582125	6328.684703
641.926566	6298.100023
642.270955	6308.555376
642.615292	6304.910622
642.959576	6322.037942
643.303809	6306.853986
643.647990	6318.531819
643.992118	6305.689480
644.336195	6250.105718
644.680219	6277.847187
645.024192	6272.440550
645.368112	6365.853130
645.711981	6386.506738
646.055797	6456.820752
646.399562	6418.291213
646.743274	6541.922990
647.086935	6595.049190
647.430544	6593.504076
647.774101	6610.744823
648.117606	6620.607840
648.461059	6607.841118
648.804460	6568.066414
649.147810	6480.685574
649.491108	6455.270597
649.834354	6423.937305
650.177548	6343.465366
650.520690	6255.650987
650.863781	6239.932669
651.206820	6255.109063
651.549807	6181.215830
651.892742	6119.295337
652.235626	6133.050125
652.578458	6110.501044
652.921238	6021.060892
653.263967	6063.164609
653.606644	5998.060628
653.949269	6005.829046
654.291843	5945.352844
654.634365	5991.139124
654.976836	5950.056241
655.319255	5946.862670
655.661622	5924.101860
656.003938	5923.204535
656.346203	5881.302464
656.688416	5916.580458
657.030577	5866.980546
657.372687	5840.406103
657.714746	5824.483619
658.056753	5867.847624
658.398708	5806.025434
658.740612	5798.178878
659.082465	5842.326783
659.424266	5837.451987
659.766016	5836.282439
660.107715	5814.671013
660.449362	5828.428322
660.790958	5822.094112
661.132503	5808.031813
661.473996	5848.255180
661.815438	5832.609959
662.156829	5828.637530
662.498168	5825.353218
662.839456	5797.405061
663.180693	5834.394527
663.521879	5839.009704
663.863013	5822.764585
664.204097	5843.246793
664.545129	5881.126023
664.886110	5881.259614
665.227040	5911.045272
665.567918	5882.361106
665.908746	5905.061422
666.249522	5909.048975
666.590248	5900.789044
666.930922	5926.319968
667.271545	5938.748933
667.612118	5942.078615
667.952639	5911.816568
668.293109	5933.455721
668.633528	5889.630450
668.973896	5895.079937
669.314213	5887.487960
669.654480	5867.456935
669.994695	5862.141038
670.334859	5851.547053
670.674973	5843.957596
671.015035	5848.267783
671.355047	5849.717114
671.695008	5836.789075
672.034918	5805.879241
672.374777	5814.550025
672.714585	5802.055525
673.054342	5804.818078
673.394049	5795.680986
673.733705	5830.623744
674.073310	5811.313604
674.412864	5776.108707
674.752368	5769.986225
675.091820	5767.884064
675.431223	5709.782245
675.770574	5706.686977
676.109875	5661.679555
676.449125	5665.354557
676.788324	5630.830214
677.127473	5575.039765
677.466571	5568.781172
677.805619	5558.736673
678.144616	5547.000867
678.483562	5519.287124
678.822458	5492.044728
679.161303	5486.312937
679.500098	5475.784487
679.838842	5459.347805
680.177535	5467.711079
680.516179	5479.212471
680.854771	5491.666642
681.193314	5570.621193
681.531805	5684.856260
681.870247	5828.624927
682.208638	5927.703764
682.546978	5935.217604
682.885268	5916.151960
683.223508	5836.242110
683.561697	5780.764212
683.899836	5753.630202
684.237925	5705.691349
684.575963	5671.759343
684.913951	5632.909690
685.251889	5689.259708
685.589776	5658.039842
685.927614	5629.925327
686.265401	5700.393096
686.603137	5684.750396
686.940824	5767.349702
687.278460	5787.083298
687.616046	5791.695954
687.953582	5859.610379
688.291068	5842.561197
688.628504	5904.758953
688.965889	5867.343509
689.303224	5811.747144
689.640510	5769.895484
689.977745	5687.825500
690.314930	5592.653556
690.652065	5541.291760
690.989150	5444.307522
691.326185	5373.280185
691.663170	5321.346218
692.000105	5243.883848
692.336990	5163.789996
692.673825	5140.411645
693.010610	5069.895985
693.347345	5005.144884
693.684030	4989.993696
694.020665	4948.701605
694.357251	4863.884192
694.693786	4869.303432
695.030272	4837.554245
695.366707	4801.520077
695.703093	4767.877937
696.039429	4788.536586
696.375716	4774.885141
696.711952	4749.414711
697.048139	4735.571703
697.384276	4715.870874
697.720363	4726.621134
698.056400	4736.988267
698.392388	4681.618754
698.728326	4667.995036
699.064214	4643.089215
699.400053	4636.366836
699.735842	4606.409780
700.071581	4584.609310
700.407270	4555.254671
700.742910	4534.840518
701.078501	4481.071572
701.414042	4482.321778
701.749533	4450.706181
702.084974	4387.336357
702.420366	4447.215182
702.755709	4383.202611
703.091002	4328.281760
703.426246	4379.212538
703.761440	4332.662523
704.096584	4297.903767
704.431679	4315.734328
704.766725	4301.407369
705.101721	4289.006131
705.436668	4318.111232
705.771565	4266.941000
706.106413	4295.559631
706.441212	4327.303776
706.775961	4336.987833
707.110661	4314.716015
707.445311	4344.141230
707.779913	4369.016804
708.114465	4378.746231
708.448967	4404.413266
708.783421	4463.334272
709.117825	4502.433461
709.452180	4507.613247
709.786485	4554.062438
710.120742	4640.102331
710.454949	4620.512407
710.789107	4690.680228
711.123216	4760.207822
711.457275	4757.437708
711.791286	4823.214683
712.125247	4841.877035
712.459159	4744.582765
712.793023	4821.538499
713.126837	4782.935864
713.460602	4770.670737
713.794318	4691.774158
714.127985	4707.656313
714.461602	4616.799598
714.795171	4585.509156
715.128691	4523.243344
715.462162	4468.340138
715.795584	4417.855502
716.128957	4398.736926
716.462281	4351.224051
716.795556	4323.659022
717.128782	4281.943474
717.461960	4218.755131
717.795088	4227.584712
718.128167	4189.337478
718.461198	4129.788848
718.794180	4123.540338
719.127113	4101.954117
719.459997	4082.782609
719.792833	4041.679561
720.125619	4029.588354
720.458357	4000.342100
720.791046	4002.373685
721.123686	3974.808655
721.456278	3932.341975
721.788821	3947.299079
722.121315	3920.981735
722.453761	3896.305287
722.786158	3907.894900
723.118506	3932.226029
723.450805	3886.250706
723.783056	3908.053696
724.115259	3919.177002
724.447412	3927.326027
724.779518	3917.210952
725.111574	3924.664298
725.443582	3955.425419
725.775542	3938.754323
726.107453	3988.530676
726.439315	3989.473372
726.771129	4004.564066
727.102895	4039.610167
727.434612	4090.825770
727.766281	4094.236111
728.097901	4099.864559
728.429473	4104.005867
728.760996	4107.764047
729.092471	4111.111373
729.423897	4090.545986
729.755276	4098.722738
730.086606	4094.619238
730.417887	4131.001246
730.749120	4195.654044
731.080305	4258.708796
731.411442	4285.719298
731.742530	4252.253598
732.073570	4259.096965
732.404562	4317.982683
732.735506	4308.109583
733.066401	4272.042648
733.397249	4206.817679
733.728048	4127.006131
734.058798	4043.491856
734.389501	3977.135148
734.720156	3915.907814
735.050762	3869.831668
735.381320	3866.345710
735.711831	3815.213286
736.042293	3784.714306
736.372707	3804.765495
736.703073	3779.423615
737.033391	3768.577572
737.363661	3789.649595
737.693883	3812.271773
738.024056	3818.835355
738.354182	3815.740087
738.684260	3876.193604
739.014290	3899.314856
739.344272	3892.032909
739.674207	3936.087553
740.004093	3941.174077
740.333931	3936.107717
740.663722	3937.375567
740.993464	3935.764919
741.323159	3910.881783
741.652806	3879.210734
741.982405	3852.263247
742.311956	3825.799709
742.641460	3815.397288
742.970915	3790.476344
743.300323	3751.619131
743.629683	3717.263667
743.958996	3705.053993
744.288260	3677.400743
744.617477	3648.038542
744.946647	3634.404742
745.275768	3610.784416
745.604842	3609.992954
745.933869	3560.229204
746.262847	3550.260323
746.591778	3589.795572
746.920662	3559.452867
747.249498	3529.198382
747.578286	3577.727049
747.907027	3595.101386
748.235720	3591.403700
748.564365	3612.677369
748.892963	3614.104015
749.221514	3596.071808
749.550017	3576.277717
749.878473	3570.465267
750.206881	3544.195814
750.535242	3539.227757
750.863555	3543.076678
751.191821	3535.134340
751.520039	3514.962163
751.848210	3493.691015
752.176334	3526.874410
752.504411	3535.015873
752.832440	3494.059019
753.160421	3479.041422
753.488356	3491.341837
753.816243	3500.277282
754.144082	3458.448308
754.471875	3442.503138
754.799620	3461.876293
755.127318	3455.063173
755.454969	3451.241979
755.782572	3459.254893
756.110129	3434.994340
756.437638	3426.885644
756.765100	3437.333435
757.092515	3449.245682
757.419882	3455.894964
757.747203	3427.977054
758.074477	3430.530398
758.401703	3447.607307
758.728882	3465.997436
759.056014	3474.597644
759.383099	3474.093529
759.710138	3473.148313
760.037129	3487.964264
760.364073	3518.606918
760.690970	3508.212058
761.017820	3482.774396
761.344623	3502.780215
761.671379	3545.519117
761.998088	3600.142540
762.324751	3723.590315
762.651366	3966.568889
762.977935	4434.496351
763.304456	4871.488772
763.630931	4960.659222
763.957359	4602.051702
764.283740	4266.182307
764.610074	4081.512238
764.936362	3885.121487
765.262602	3727.633321
765.588796	3619.598873
765.914943	3531.807179
766.241044	3447.007409
766.567097	3415.870723
766.893104	3371.979917
767.219064	3340.538240
767.544978	3312.617810
767.870845	3255.756115
768.196665	3235.924216
768.522438	3250.916607
768.848165	3244.186667
769.173846	3207.242571
769.499479	3191.425951
769.825066	3175.097653
770.150607	3158.119047
770.476101	3172.698064
770.801548	3168.723114
771.126949	3123.093110
771.452303	3107.331943
771.777611	3115.196143
772.102872	3118.475413
772.428087	3093.224274
772.753256	3085.092892
773.078378	3076.475040
773.403453	3040.687889
773.728482	3030.519882
774.053465	3052.350598
774.378401	3039.452806
774.703291	3010.350225
775.028135	3010.501460
775.352932	3005.152795
775.677683	2991.312308
776.002388	2991.677791
776.327046	2991.796258
776.651658	2981.091368
776.976224	2967.944039
777.300743	2969.247177
777.625216	2961.546815
777.949643	2954.481638
778.274024	2955.981381
778.598359	2948.598611
778.922647	2953.652368
779.246889	2951.086420
779.571086	2936.061261
779.895236	2930.878955
780.219339	2939.927826
780.543397	2953.604477
780.867409	2955.242852
781.191374	2947.499639
781.515294	2946.171295
781.839167	2947.850000
782.162995	2938.334822
782.486776	2947.350925
782.810511	2944.439659
783.134201	2931.441044
783.457844	2938.319698
783.781441	2929.341403
784.104993	2907.772827
784.428498	2910.550502
784.751958	2926.299067
785.075372	2916.511667
785.398739	2901.141189
785.722061	2918.628951
786.045337	2929.684202
786.368568	2912.486305
786.691752	2906.068917
787.014891	2953.493571
787.337983	2984.612614
787.661030	3009.150430
787.984031	3076.550657
788.306987	3119.849128
788.629897	3115.717902
788.952760	3097.806682
789.275579	3083.920824
789.598351	3021.072759
789.921078	2980.499033
790.243759	2972.851602
790.566395	2958.081021
790.888984	2933.981785
791.211529	2913.736512
791.534027	2904.574214
791.856480	2894.426372
792.178888	2882.433467
792.501249	2871.847044
792.823566	2869.780171
793.145836	2866.853781
793.468062	2865.711959
793.790241	2862.631814
794.112375	2867.549460
794.434464	2877.760317
794.756507	2886.731050
795.078505	2889.425547
795.400457	2903.434914
795.722364	2938.475974
796.044226	2962.154274
796.366042	2964.571507
796.687812	2953.246555
797.009538	2972.944863
797.331218	2961.282154
797.652852	2950.630196
797.974442	2930.526074
798.295986	2928.151691
798.617484	2924.277564
798.938938	2907.281314
799.260346	2894.139026
799.581709	2885.188457
799.903026	2879.880122
800.224299	2875.007847
800.545526	2868.406456
800.866708	2849.023220
801.187845	2837.746158
801.508936	2842.237827
801.829983	2847.790657
802.150984	2832.994871
802.471940	2821.967347
802.792851	2823.744354
803.113717	2822.385763
803.434538	2828.755261
803.755314	2821.357367
804.076045	2812.351346
804.396731	2814.443425
804.717372	2817.127839
805.037967	2809.921510
805.358518	2816.618683
805.679024	2827.172338
805.999485	2824.820640
806.319901	2828.077225
806.640272	2820.177737
806.960598	2823.497337
807.280879	2832.246260
807.601115	2841.380830
807.921306	2826.716114
808.241453	2823.371308
808.561554	2831.399346
808.881611	2829.970179
809.201623	2826.728717
809.521590	2825.475990
809.841513	2823.252841
810.161390	2825.165959
810.481223	2819.419044
810.801011	2809.019143
811.120755	2805.954122
811.440453	2810.186170
811.760107	2807.912610
812.079716	2808.325985
812.399281	2797.913481
812.718801	2792.206895
813.038276	2788.184054
813.357707	2793.469704
813.677093	2800.973462
813.996434	2792.504323
814.315731	2789.109106
814.634983	2782.711882
814.954191	2784.226749
815.273354	2800.292906
815.592473	2808.285655
815.911547	2810.102991
816.230577	2817.374856
816.549562	2825.849035
816.868502	2825.463387
817.187399	2833.708194
817.506250	2852.524301
817.825058	2845.048270
818.143821	2857.643593
818.462539	2871.085829
818.781213	2899.578431
819.099843	2934.110335
819.418429	2990.767863
819.736970	3047.606872
820.055466	3121.681587
820.373919	3226.189747
820.692327	3364.274513
821.010691	3526.463556
821.329011	3960.244762
821.647286	4847.258466
821.965517	6206.214912
822.283704	6926.522699
822.601847	6905.992600
822.919945	6276.034892
823.237999	5783.602382
823.556010	5212.301019
823.873976	4669.807330
824.191897	4274.147330
824.509775	3981.722598
824.827609	3719.983370
825.145398	3598.743620
825.463144	3588.066456
825.780845	3681.957946
826.098502	3780.570477
826.416116	4058.476686
826.733685	4367.333058
827.051210	4427.287501
827.368692	4309.707629
827.686129	4053.352353
828.003522	3736.157912
828.320872	3480.344560
828.638177	3290.303142
828.955439	3156.931855
829.272656	3076.477561
829.589830	3008.023732
829.906960	2961.667802
830.224046	2917.194743
830.541088	2883.020761
830.858086	2870.180942
831.175041	2849.474403
831.491952	2851.253930
831.808819	2866.798328
832.125642	2888.041750
832.442421	2934.196034
832.759157	3009.175636
833.075849	3187.403110
833.392497	3464.860656
833.709101	3662.015142
834.025662	3612.458079
834.342179	3454.803554
834.658653	3283.164868
834.975083	3134.632311
835.291469	3043.241233
835.607811	2956.631690
835.924110	2899.769995
836.240366	2851.957171
836.556578	2809.067034
836.872746	2787.989970
837.188871	2768.710077
837.504952	2751.630648
837.820990	2743.153948
838.136984	2728.088459
838.452935	2720.486399
838.768842	2721.567727
839.084706	2735.151116
839.400526	2811.496870
839.716303	2943.065945
840.032037	3023.389169
840.347727	3005.714884
840.663373	2945.949485
840.978977	2875.872405
841.294537	2804.358597
841.610054	2757.730444
841.925527	2735.481312
842.240957	2714.895760
842.556344	2694.116124
842.871687	2680.966274
843.186987	2667.261897
843.502244	2665.373985
843.817458	2659.947183
844.132629	2647.918990
844.447756	2640.790798
844.762840	2634.083543
845.077881	2634.275107
845.392879	2636.185704
845.707833	2629.107924
846.022745	2618.768518
846.337613	2628.313942
846.652438	2625.503499
846.967221	2622.756070
847.281960	2620.732047
847.596656	2620.532922
847.911309	2617.540997
848.225919	2620.762294
848.540485	2616.195009
848.855009	2615.930348
849.169490	2615.751387
849.483928	2613.757611
849.798323	2613.369442
850.112675	2610.551437
850.426984	2611.138731
850.741251	2612.187291
851.055474	2609.830552
851.369654	2616.820112
851.683792	2614.637292
851.997887	2615.277519
852.311938	2612.646036
852.625947	2611.549585
852.939914	2615.315327
853.253837	2616.658795
853.567718	2609.765017
853.881555	2612.653598
854.195350	2618.153497
854.509103	2614.251644
854.822812	2610.518669
855.136479	2610.319544
855.450103	2613.296345
855.763685	2617.268774
856.077224	2612.043618
856.390720	2608.839965
856.704173	2613.596294
857.017584	2615.448918
857.330953	2618.508898
857.644278	2621.442850
857.957561	2621.571399
858.270802	2616.988990
858.584000	2616.384052
858.897155	2620.096862
859.210268	2621.858745
859.523339	2617.193157
859.836367	2609.515480
860.149352	2611.862137
860.462295	2612.280553
860.775195	2608.897938
861.088054	2608.759307
861.400869	2607.960284
861.713642	2607.080602
862.026373	2605.343925
862.339062	2613.467744
862.651708	2616.066459
862.964312	2612.855244
863.276873	2612.905656
863.589392	2618.760956
863.901869	2621.815895
864.214303	2628.185393
864.526696	2629.362502
864.839045	2626.972996
865.151353	2633.642442
865.463619	2631.454581
865.775842	2632.548512
866.088023	2629.939715
866.400162	2632.719911
866.712258	2628.271093
867.024313	2631.285703
867.336325	2625.349744
867.648296	2630.728655
867.960224	2635.079171
868.272110	2631.416773
868.583954	2626.075670
868.895755	2626.176493
869.207515	2631.116824
869.519233	2638.920530
869.830909	2635.883235
870.142542	2633.450878
870.454134	2632.971969
870.765684	2638.708802
871.077191	2639.961528
871.388657	2646.015954
871.700081	2642.930768
872.011463	2640.871457
872.322803	2640.793319
872.634101	2645.189205
872.945357	2653.066008
873.256571	2657.459373
873.567744	2655.223622
873.878874	2653.980977
874.189963	2655.972233
874.501010	2657.139260
874.812015	2664.620332
875.122979	2664.272493
875.433900	2656.914929
875.744780	2653.759167
876.055618	2658.707059
876.366415	2666.901455
876.677169	2662.301402
876.987882	2657.222439
877.298554	2659.974909
877.609183	2670.841116
877.919771	2675.836900
878.230317	2682.153466
878.540822	2692.432378
878.851285	2705.972917
879.161707	2727.370095
879.472087	2765.299737
879.782425	2810.720533
880.092722	2921.555341
880.402977	3106.069134
880.713191	3355.283615
881.023363	3643.579642
881.333494	3826.271057
881.643583	3995.358919
881.953631	3993.770956
882.263637	3817.396106
882.573602	3603.091615
882.883526	3475.391626
883.193408	3366.401880
883.503248	3267.829678
883.813048	3159.354130
884.122806	3047.322047
884.432522	2963.331383
884.742197	2901.816703
885.051831	2865.520396
885.361424	2832.735252
885.670975	2798.309212
885.980485	2768.125303
886.289954	2748.610997
886.599382	2734.526013
886.908768	2725.454457
887.218113	2708.306972
887.527417	2693.375074
887.836680	2686.400638
888.145901	2681.321675
888.455082	2675.395799
888.764221	2662.825682
889.073319	2654.749753
889.382376	2654.081800
889.691392	2654.734630
890.000366	2659.014569
890.309300	2653.497027
890.618193	2657.204795
890.927044	2659.717810
891.235855	2657.255207
891.544625	2658.618839
891.853353	2661.237718
892.162041	2665.222750
892.470687	2684.830318
892.779293	2693.669982
893.087858	2701.531661
893.396381	2724.841956
893.704864	2764.591454
894.013306	2834.151816
894.321707	2923.586926
894.630068	2970.721715
894.938387	2992.922956
895.246665	2984.441215
895.554903	2939.922785
895.863100	2899.081877
896.171256	2844.879391
896.479371	2786.200360
896.787446	2746.707961
897.095480	2729.905795
897.403473	2723.034703
897.711425	2711.568598
898.019336	2691.106555
898.327207	2678.821263
898.635038	2679.426201
898.942827	2674.112825
899.250576	2664.131341
899.558284	2655.243786
899.865952	2649.350677
900.173579	2649.413692
900.481165	2645.756335
900.788711	2637.715694
901.096216	2635.946249
901.403681	2628.137502
901.711105	2631.552884
902.018489	2626.811679
902.325832	2634.343163
902.633135	2633.438275
902.940397	2646.043681
903.247619	2682.783610
903.554800	2750.619897
903.861941	2870.337218
904.169041	2990.871207
904.476101	3051.458314
904.783121	3044.143600
905.090100	2991.498830
905.397039	2917.406472
905.703938	2849.648323
906.010796	2786.724640
906.317614	2738.611868
906.624391	2706.000644
906.931129	2676.789678
907.237826	2654.333858
907.544483	2638.565129
907.851099	2626.075670
908.157675	2617.921604
908.464211	2609.933896
908.770707	2598.130034
909.077163	2593.613160
909.383578	2590.240628
909.689954	2590.699373
909.996289	2591.193406
910.302584	2589.670978
910.608839	2584.224011
910.915054	2585.751481
911.221229	2589.955803
911.527363	2591.115268
911.833458	2589.088724
912.139513	2592.688108
912.445527	2590.001173
912.751502	2600.058275
913.057436	2600.459047
913.363331	2609.679317
913.669186	2619.799434
913.975000	2631.946094
914.280775	2647.366983
914.586510	2666.200734
914.892205	2700.425128
915.197859	2767.737134
915.503475	2846.343846
915.809050	2908.710481
916.114585	2920.479055
916.420081	2931.093204
916.725536	2944.169957
917.030952	2920.279929
917.336328	2876.333671
917.641665	2826.058243
917.946961	2781.842283
918.252218	2748.124525
918.557435	2721.698797
918.862612	2700.878832
919.167750	2685.215967
919.472848	2668.217196
919.777906	2651.669608
920.082925	2641.249543
920.387904	2629.521299
920.692843	2626.809158
920.997743	2622.529218
921.302603	2614.894391
921.607423	2608.403905
921.912204	2604.393667
922.216946	2603.012391
922.521647	2600.983327
922.826310	2597.147009
923.130932	2592.390680
923.435516	2586.530339
923.740059	2585.322983
924.044564	2583.543455
924.349028	2581.683269
924.653454	2573.259501
924.957840	2570.290262
925.262186	2567.855384
925.566493	2569.700447
925.870761	2565.407904
926.174989	2568.175498
926.479178	2563.464539
926.783328	2561.508572
927.087438	2559.555125
927.391509	2560.807851
927.695541	2563.454457
927.999533	2559.850032
928.303486	2559.499672
928.607400	2557.979764
928.911275	2557.271482
929.215110	2558.113355
929.518906	2558.085628
929.822663	2561.198541
930.126381	2557.906667
930.430060	2555.827191
930.733699	2558.854404
931.037299	2557.425237
931.340861	2558.803993
931.644383	2559.993705
931.947866	2556.727037
932.251309	2558.894733
932.554714	2558.861966
932.858080	2558.257028
933.161407	2559.388767
933.464694	2557.112686
933.767943	2556.948848
934.071153	2556.343910
934.374323	2552.119423
934.677455	2554.314845
934.980548	2552.041285
935.283602	2553.697304
935.586617	2557.228632
935.889593	2554.483724
936.192530	2553.112530
936.495428	2553.878785
936.798287	2554.171172
937.101108	2554.125802
937.403890	2561.964796
937.706632	2562.904971
938.009336	2564.981927
938.312002	2565.569221
938.614628	2571.091805
938.917216	2574.466858
939.219765	2577.287383
939.522275	2576.178329
939.824747	2578.903073
940.127179	2572.278997
940.429573	2570.471743
940.731929	2569.879408
941.034246	2566.141392
941.336524	2568.475446
941.638763	2567.426886
941.940964	2565.196176
942.243126	2565.821279
942.545250	2566.670713
942.847335	2562.957903
943.149381	2560.379353
943.451389	2561.843808
943.753359	2560.754919
944.055290	2557.573951
944.357182	2561.009497
944.659036	2556.180072
944.960851	2558.375495
945.262628	2555.557490
945.564367	2559.124106
945.866067	2556.669064
946.167729	2560.749878
946.469352	2560.618808
946.770937	2560.359189
947.072484	2558.688046
947.373992	2559.257697
947.675462	2553.407438
947.976893	2555.749053
948.278286	2554.128322
948.579641	2556.129661
948.880958	2554.067829
949.182236	2554.403065
949.483476	2553.934238
949.784678	2555.393652
950.085841	2556.825340
950.386967	2552.749567
950.688054	2555.489434
950.989103	2559.058571
951.290114	2557.833571
951.591087	2560.588561
951.892021	2558.811554
952.192917	2559.756771
952.493776	2561.982440
952.794596	2561.445557
953.095378	2560.344065
953.396122	2561.884138
953.696828	2559.192162
953.997496	2559.948335
954.298126	2557.891544
954.598718	2556.817778
954.899272	2554.879454
955.199788	2554.922304
955.500266	2553.130174
955.800706	2550.957437
956.101108	2546.057435
956.401472	2547.204298
956.701798	2544.872764
957.002087	2548.262940
957.302337	2547.179092
957.602550	2545.167672
957.902724	2547.655481
958.202861	2548.225131
958.502960	2544.204811
958.803022	2547.126160
959.103045	2542.085006
959.403031	2545.916283
959.702979	2541.172557
960.002889	2546.697662
960.302762	2544.093906
960.602596	2543.441076
960.902393	2543.090716
961.202153	2539.219110
961.501875	2541.187681
961.801559	2542.354708
962.101205	2539.907227
962.400814	2539.864378
962.700385	2542.624409
962.999918	2541.071734
963.299414	2543.660367
963.598873	2540.980993
963.898293	2541.215407
964.197677	2539.181301
964.497022	2541.611138
964.796331	2539.524100
965.095601	2541.195242
965.394835	2543.937630
965.694030	2539.239275
965.993189	2540.950746
966.292309	2540.529810
966.591393	2541.326312
966.890439	2539.120808
967.189447	2539.435880
967.488419	2538.873791
967.787353	2540.101312
968.086249	2540.963349
968.385108	2540.484440
968.683930	2541.621220
968.982714	2544.146838
969.281462	2540.350849
969.580172	2540.081147
969.878844	2541.049049
970.177480	2544.986190
970.476078	2540.512166
970.774639	2542.795809
971.073162	2541.527958
971.371649	2537.825231
971.670098	2537.633667
971.968510	2538.097453
972.266885	2539.357742
972.565223	2539.761034
972.863524	2539.834131
973.161788	2543.141128
973.460014	2540.595345
973.758204	2542.475695
974.056356	2542.085006
974.354471	2542.962167
974.652550	2540.247505
974.950591	2543.425953
975.248595	2543.189019
975.546563	2543.098278
975.844493	2542.387475
976.142386	2539.907227
976.440243	2541.132228
976.738062	2542.715150
977.035845	2539.135931
977.333590	2540.602907
977.631299	2540.136600
977.928971	2540.181970
978.226606	2539.017464
978.524204	2543.219266
978.821765	2540.887732
979.119290	2538.583925
979.416777	2538.863709
979.714228	2538.778009
980.011642	2539.524100
980.309020	2543.095757
980.606360	2539.277083
980.903664	2539.231713
981.200931	2540.212217
981.498162	2539.163657
981.795356	2543.725902
982.092513	2546.954761
982.389633	2548.257899
982.686717	2550.138249
982.983764	2553.994732
983.280775	2556.036399
983.577749	2555.466749
983.874686	2552.880637
984.171587	2551.930379
984.468451	2548.502395
984.765279	2546.531304
985.062070	2545.956612
985.358824	2543.070552
985.655543	2542.258926
985.952224	2539.546785
986.248869	2541.419574
986.545478	2534.745086
986.842050	2537.522762
987.138586	2534.394726
987.435086	2535.196269
987.731549	2533.744417
988.027975	2538.117618
988.324366	2535.319777
988.620719	2536.620395
988.917037	2537.863040
989.213318	2538.422608
989.509563	2536.932947
989.805772	2535.549150
990.101944	2534.389685
990.398080	2537.994110
990.694180	2537.779861
990.990244	2537.492515
991.286271	2536.887576
991.582262	2538.352032
991.878217	2538.767927
992.174136	2537.663914
992.470019	2535.511341
992.765865	2537.205169
993.061676	2537.190046
993.357450	2538.162988
993.653188	2539.952598
993.948890	2536.887576
994.244556	2536.388502
994.540186	2538.737680
994.835780	2537.689120
995.131337	2538.435211
995.426859	2539.040149
995.722345	2537.835313
996.017795	2538.841023
996.313208	2540.928061
996.608586	2540.328164
996.903928	2542.226158
997.199234	2540.129038
997.494504	2542.296734
997.789738	2537.769778
998.084936	2538.571322
998.380099	2539.350180
998.675225	2537.767258
998.970316	2538.505787
999.265371	2539.148534
999.560390	2535.554191
999.855373	2538.266332
1000.150320	2538.231044
1000.445232	2536.249870
1000.740108	2536.930426
1001.034948	2538.780530
1001.329752	2535.216434
1001.624521	2536.592669
1001.919254	2531.092770
1002.213951	2532.191742
1002.508613	2534.417411
1002.803239	2534.034283
1003.097829	2530.470187
1003.392384	2535.768440
1003.686903	2537.996630
1003.981386	2536.050745
1004.275834	2534.651825
1004.570246	2536.224665
1004.864623	2536.605272
1005.158964	2534.946732
1005.453270	2533.643594
1005.747540	2535.962525
1006.041775	2535.135775
1006.335974	2535.052596
1006.630138	2534.182997
1006.924266	2538.059645
1007.218359	2534.344314
1007.512416	2535.624767
1007.806438	2536.320447
1008.100425	2534.389685
1008.394376	2536.552340
1008.688292	2533.774664
1008.982172	2535.707946
1009.276017	2535.118131
1009.569827	2534.603934
1009.863602	2537.419418
1010.157341	2533.315919
1010.451045	2534.954294
1010.744714	2535.471012
1011.038347	2535.017308
1011.331945	2533.320960
1011.625508	2536.217103
1011.919036	2535.166022
1012.212528	2534.871115
1012.505986	2534.009078
1012.799408	2534.079654
1013.092795	2535.387833
1013.386147	2532.680733
1013.679464	2536.640560
1013.972745	2536.915303
1014.265992	2533.452030
1014.559204	2534.908923
1014.852380	2534.737524
1015.145521	2533.215096
1015.438628	2535.400436
1015.731699	2533.414221
1016.024736	2531.816176
1016.317737	2535.420601
1016.610703	2537.104346
1016.903635	2535.960004
1017.196531	2528.730989
1017.489393	2532.350538
1017.782219	2531.017153
1018.075011	2533.043697
1018.367768	2537.023688
1018.660490	2536.015457
1018.953177	2536.015457
1019.245829	2536.015457
