Dividing Wavelength (nm)	Counts (n)	Blue Motor Position (mm): 34.900000	Red Motor Position (mm): 0.000000	
326.493990	2131.954373
326.888308	2131.954373
327.282561	2131.954373
327.676750	2097.004053
328.070874	2095.761409
328.464933	2099.764085
328.858929	2107.345981
329.252859	2116.883844
329.646726	2125.932715
330.040528	2142.200518
330.434265	2156.537560
330.827938	2176.891218
331.221547	2192.672551
331.615091	2211.317258
332.008571	2230.703015
332.401986	2251.298649
332.795338	2269.093922
333.188625	2289.724844
333.581847	2306.360652
333.975006	2326.263128
334.368100	2342.906497
334.761129	2362.912316
335.154095	2378.872609
335.546996	2396.740979
335.939833	2425.780546
336.332606	2440.372165
336.725315	2454.353806
337.117960	2460.481328
337.510540	2470.641774
337.903056	2482.012096
338.295508	2486.730616
338.687896	2497.125475
339.080220	2504.828358
339.472480	2510.880264
339.864676	2516.584329
340.256807	2521.587674
340.648875	2519.863600
341.040879	2527.657224
341.432818	2526.893489
341.824694	2528.264683
342.216506	2531.125538
342.608253	2529.537574
342.999937	2533.177287
343.391557	2527.947090
343.783113	2527.216123
344.174605	2524.408200
344.566033	2525.335772
344.957397	2526.170083
345.348697	2522.666481
345.739934	2520.972654
346.131106	2516.707838
346.522215	2518.134484
346.913260	2516.513753
347.304241	2513.456293
347.695159	2512.511077
348.086012	2510.164420
348.476802	2508.115191
348.867528	2508.092506
349.258191	2504.243585
349.648789	2506.040756
350.039324	2503.363903
350.429796	2500.682009
350.820203	2500.256032
351.210548	2499.346104
351.600828	2498.342914
351.991045	2497.687564
352.381198	2499.744355
352.771288	2498.847029
353.161314	2497.498521
353.551276	2496.356699
353.941175	2497.284272
354.331010	2497.853922
354.720782	2497.468274
355.110490	2495.582882
355.500135	2497.506082
355.889717	2498.335352
356.279235	2499.577997
356.668689	2496.649086
357.058080	2497.753099
357.447408	2494.506596
357.836672	2495.242604
358.225873	2494.234374
358.615010	2492.996770
359.004084	2499.734272
359.393095	2498.660507
359.782043	2499.953563
360.170927	2499.656135
360.559748	2503.736949
360.948505	2501.097905
361.337199	2502.433810
361.725830	2500.429952
362.114398	2505.781137
362.502903	2502.680827
362.891344	2502.174191
363.279722	2504.719974
363.668037	2506.368431
364.056289	2505.171157
364.444478	2505.085457
364.832603	2504.578821
365.220665	2507.016219
365.608665	2506.650736
365.996601	2508.236178
366.384474	2508.523524
366.772284	2508.130314
367.160031	2506.822135
367.547715	2508.165602
367.935336	2509.446055
368.322893	2509.229286
368.710388	2511.459996
369.097820	2511.613752
369.485189	2509.002434
369.872495	2510.272805
370.259738	2511.381858
370.646918	2510.136693
371.034035	2509.924965
371.421090	2513.030316
371.808081	2513.300018
372.195010	2511.732219
372.581875	2512.730367
372.968678	2513.738598
373.355418	2514.809843
373.742096	2516.407889
374.128710	2514.010820
374.515262	2514.948475
374.901751	2514.870337
375.288177	2514.177178
375.674540	2513.496623
376.060841	2515.480317
376.447079	2515.616428
376.833254	2515.558454
377.219367	2512.503515
377.605417	2515.066942
377.991404	2514.003258
378.377329	2510.779441
378.763191	2513.030316
379.148991	2516.559123
379.534727	2517.658095
379.920402	2517.002745
380.306013	2517.307735
380.691563	2519.208250
381.077049	2520.367715
381.462474	2517.118692
381.847835	2517.610204
382.233134	2518.905781
382.618371	2518.968795
383.003545	2518.683970
383.388657	2521.207067
383.773706	2521.196985
384.158693	2523.440298
384.543618	2521.403672
384.928480	2523.432737
385.313280	2522.643796
385.698017	2521.073477
386.082692	2522.421985
386.467305	2521.915349
386.851856	2522.074146
387.236344	2521.766635
387.620770	2525.481966
388.005133	2525.565145
388.389435	2523.339475
388.773674	2525.998684
389.157851	2522.318642
389.541965	2526.633869
389.926018	2525.383663
390.310008	2527.937008
390.693936	2528.168901
391.077802	2526.142357
391.461606	2529.943387
391.845348	2527.369878
392.229027	2528.874662
392.612645	2526.951462
392.996200	2530.971782
393.379694	2529.628315
393.763125	2530.311391
394.146494	2531.579241
394.529801	2530.873480
394.913047	2532.542102
395.296230	2529.391381
395.679351	2530.200486
396.062410	2533.262987
396.445408	2533.207534
396.828343	2531.904396
397.211217	2528.090763
397.594028	2529.333407
397.976778	2528.771319
398.359466	2532.957997
398.742092	2530.450023
399.124656	2535.178625
399.507158	2534.377082
399.889598	2536.678368
400.271977	2535.818852
400.654294	2537.590817
401.036549	2537.724408
401.418742	2540.733977
401.800874	2541.701878
402.182944	2540.108874
402.564952	2542.276570
402.946898	2543.957795
403.328783	2544.746735
403.710606	2546.952240
404.092367	2555.010524
404.474067	2556.525391
404.855705	2560.190310
405.237282	2561.606874
405.618797	2570.988462
406.000250	2575.840572
406.381642	2585.292736
406.762972	2596.408480
407.144240	2608.396344
407.525447	2614.019751
407.906593	2629.271762
408.287677	2642.585449
408.668700	2651.777993
409.049661	2668.648214
409.430560	2690.047912
409.811399	2699.497555
410.192176	2729.212637
410.572891	2743.370717
410.953545	2770.875253
411.334138	2781.706172
411.714669	2809.329174
412.095139	2818.163796
412.475547	2858.674509
412.855894	2884.686863
413.236180	2909.007909
413.616405	2930.591609
413.996568	2972.334884
414.376670	2993.172493
414.756711	3012.268384
415.136691	3048.947819
415.516609	3100.178545
415.896466	3145.672438
416.276262	3188.086186
416.655997	3211.935885
417.035670	3304.889721
417.415283	3373.893035
417.794834	3397.344482
418.174324	3418.235024
418.553753	3429.280192
418.933121	3536.739948
419.312428	3605.513889
419.691674	3635.423055
420.070859	3730.237077
420.449983	3737.045155
420.829045	3835.612315
421.208047	3837.137264
421.586988	3926.728651
421.965867	3979.139007
422.344686	4098.410186
422.723444	4064.498344
423.102141	4007.394674
423.480777	4218.651788
423.859352	4138.724293
424.237866	4340.967824
424.616319	4380.855954
424.994712	4498.650075
425.373044	4466.101865
425.751314	4606.555973
426.129524	4524.627141
426.507673	4699.282957
426.885762	4798.906239
427.263789	4801.202485
427.641756	4747.773816
428.019662	4883.471595
428.397508	4922.810239
428.775292	4928.879788
429.153016	5044.435637
429.530679	5021.803377
429.908282	5124.221979
430.285824	5045.771543
430.663305	5312.625022
431.040726	5115.959528
431.418086	5148.545547
431.795385	5266.775728
432.172624	5307.835926
432.549802	5326.710006
432.926920	5364.795923
433.303977	5392.786930
433.680974	5453.028718
434.057910	5483.588193
434.434786	5512.799159
434.811601	5505.532336
435.188355	5743.547894
435.565050	5637.701307
435.941683	5633.307942
436.318257	5856.701633
436.694770	5852.724163
437.071222	5897.759311
437.447614	5842.460373
437.823946	5767.821050
438.200218	5933.400268
438.576429	5814.522299
438.952580	5917.313946
439.328670	5971.050126
439.704700	5885.602568
440.080670	5877.612339
440.456580	6149.229708
440.832429	6045.760026
441.208218	5892.186315
441.583947	6046.402773
441.959616	6057.442900
442.335224	5988.878166
442.710773	6131.492409
443.086261	6157.754300
443.461689	5954.099246
443.837057	6101.321103
444.212365	6262.622902
444.587612	6157.391337
444.962800	6315.428989
445.337927	6289.396471
445.712995	5903.342388
446.088002	6479.405121
446.462949	6309.568648
446.837837	6243.902578
447.212664	6418.051758
447.587431	6560.691206
447.962139	7103.484843
448.336786	8027.258642
448.711374	7767.369517
449.085901	6844.288877
449.460369	6767.401199
449.834776	6700.295879
450.209124	7096.303720
450.583412	7246.015907
450.957640	7389.716518
451.331808	7153.011659
451.705917	6706.211673
452.079965	6633.084696
452.453954	6839.199833
452.827883	6719.361523
453.201752	6816.819630
453.575562	6611.165759
453.949311	6815.735782
454.323001	6709.934566
454.696632	6784.347038
455.070202	6919.235712
455.443713	7076.849907
455.817164	7178.489651
456.190556	7256.377998
456.563888	7336.471851
456.937160	7374.434260
457.310373	7033.876591
457.683526	7060.249387
458.056619	6947.897192
458.429653	6933.938237
458.802628	6871.977415
459.175542	6982.993705
459.548398	7337.177612
459.921194	7496.258784
460.293930	7496.568815
460.666607	8026.358796
461.039224	8334.179211
461.411782	8456.031462
461.784280	8474.182136
462.156719	8373.217907
462.529099	8244.547496
462.901419	7835.256215
463.273680	7734.234013
463.645882	7747.028461
464.018024	7615.661033
464.390106	7774.538038
464.762130	8163.127820
465.134094	8625.469683
465.505999	9647.694696
465.877845	10868.775583
466.249631	11518.189625
466.621358	11132.453135
466.993026	10507.644966
467.364634	10255.708261
467.736184	9889.042457
468.107674	9556.873268
468.479105	9596.519422
468.850477	9355.716106
469.221790	9127.674471
469.593043	8801.748751
469.964238	8657.271803
470.335373	8671.818052
470.706449	8731.643945
471.077467	8708.749545
471.448425	10021.085399
471.819324	11087.808677
472.190164	11110.085536
472.560945	9860.638075
472.931667	9070.585924
473.302330	8941.998692
473.672934	8588.906195
474.043479	8950.422460
474.413965	8890.221001
474.784393	8768.580479
475.154761	8929.216847
475.525070	9014.117439
475.895321	8836.905758
476.265513	9023.317545
476.635645	9186.633286
477.005719	9185.327627
477.375734	9301.906830
477.745691	9544.282986
478.115588	9669.530454
478.485427	9912.067927
478.855207	10450.526172
479.224928	11263.538259
479.594591	11887.058413
479.964194	11706.476721
480.333739	11639.487348
480.703226	11555.063144
481.072653	11644.984726
481.442022	11879.108514
481.811333	12069.691855
482.180584	11882.380223
482.549777	11589.279976
482.918912	11415.236660
483.287988	11435.678539
483.657005	11443.726741
484.025964	11131.767538
484.394864	11261.526838
484.763706	11226.778165
485.132489	10992.374593
485.501213	10955.410333
485.869879	11030.533607
486.238487	10865.697959
486.607036	10977.157870
486.975527	10757.464386
487.343959	10949.723911
487.712333	11002.179637
488.080648	10935.162538
488.448905	10974.722993
488.817104	10916.099415
489.185244	11176.590958
489.553326	11338.462408
489.921350	11870.614169
490.289315	12924.916044
490.657222	13273.012758
491.025070	13178.097913
491.392861	13049.742575
491.760593	12672.190398
492.128267	12327.380517
492.495883	12003.546876
492.863440	11662.696820
493.230939	11330.986377
493.598380	11262.847621
493.965763	11126.343257
494.333088	11027.032526
494.700354	10945.489342
495.067563	11014.381750
495.434713	10840.295585
495.801805	10969.059257
496.168839	10890.039170
496.535815	10831.801240
496.902733	10830.155304
497.269593	10762.593760
497.636395	10863.530263
498.003139	10849.639363
498.369825	10717.661956
498.736453	10878.802438
499.103023	10803.490120
499.469535	10826.828142
499.835989	10818.651391
500.202385	10785.954467
500.568723	10637.343772
500.935003	10855.930723
501.301226	10660.754890
501.667390	10918.768706
502.033497	11021.676300
502.399546	10880.249249
502.765537	10791.575353
503.131470	10867.449760
503.497345	11026.644357
503.863163	10643.582200
504.228923	10949.963366
504.594625	11016.332677
504.960269	10762.848338
505.325856	10986.962915
505.691385	10777.195462
506.056856	10928.833370
506.422270	10956.922679
506.787625	10838.488331
507.152924	10958.215735
507.518164	10945.590165
507.883347	10865.148473
508.248472	10784.280804
508.613540	11017.640856
508.978550	10900.854966
509.343503	10878.142047
509.708398	10996.387352
510.073236	11105.815678
510.438016	11113.311874
510.802738	11060.790613
511.167403	11111.880186
511.532010	11010.207675
511.896561	11243.214847
512.261053	11313.927112
512.625488	11186.796774
512.989866	11163.189050
513.354186	11151.296968
513.718449	11057.685262
514.082655	11255.293452
514.446803	11144.937553
514.810894	11266.900708
515.174927	11131.187806
515.538904	11158.210911
515.902822	11308.313787
516.266684	11196.443022
516.630488	11134.862807
516.994235	11194.350943
517.357925	11256.336970
517.721558	11343.296874
518.085133	11359.305058
518.448651	11368.759742
518.812112	11255.452248
519.175516	11257.929975
519.538863	11384.188194
519.902152	11302.912191
520.265385	11465.002931
520.628560	11377.967410
520.991678	11352.807011
521.354739	11414.384705
521.717743	11349.832730
522.080690	11337.134064
522.443580	11457.955398
522.806413	11414.203224
523.169189	11443.204982
523.531908	11508.586227
523.894569	11324.689975
524.257174	11332.430667
524.619722	11450.025663
524.982213	11399.790565
525.344647	11452.488267
525.707025	11400.546738
526.069345	11492.799853
526.431608	11414.785477
526.793815	11525.738752
527.155964	11314.358131
527.518057	11363.312776
527.880093	11311.429220
528.242072	11378.164015
528.603995	11286.714963
528.965860	11209.839888
529.327669	11258.570202
529.689421	11211.072450
530.051117	11181.127996
530.412755	11279.939653
530.774337	11168.988898
531.135862	11145.224898
531.497331	11176.880824
531.858743	11028.186950
532.220098	11190.680983
532.581396	11071.258569
532.942638	11047.681092
533.303824	11007.256079
533.664953	11022.553461
534.026025	10942.641090
534.387040	11037.737416
534.747999	11039.642972
535.108902	11096.517270
535.469748	10862.620334
535.830537	10966.788217
536.191270	10942.923395
536.551947	10963.382918
536.912567	10960.340581
537.273131	10892.529500
537.633638	10864.165448
537.994089	10850.188849
538.354483	10802.986005
538.714821	10953.227513
539.075103	10958.556013
539.435328	10921.627040
539.795497	10746.512479
540.155609	10910.307129
540.515665	10996.314255
540.875665	10726.360467
541.235609	10799.641199
541.595496	10792.392020
541.955328	10942.452047
542.315102	10837.031437
542.674821	10780.426842
543.034483	10782.221492
543.394090	10785.062183
543.753640	10719.413757
544.113134	10936.258989
544.472571	10793.967381
544.831953	10932.387383
545.191278	10737.433361
545.550548	10766.001580
545.909761	10910.022304
546.268918	10884.473736
546.628019	10965.487599
546.987064	10830.760242
547.346053	10752.234189
547.704986	10851.802018
548.063863	10838.838691
548.422684	10828.022896
548.781449	10742.887889
549.140158	10851.418891
549.498811	10718.781092
549.857408	10581.727242
550.215949	10809.262242
550.574434	10663.560293
550.932864	10765.381518
551.291237	10818.069137
551.649555	10768.570048
552.007817	10775.824268
552.366022	10742.025852
552.724173	10731.769625
553.082267	10721.498274
553.440305	10856.772596
553.798288	10665.092803
554.156215	10811.419855
554.514086	10791.640888
554.871902	10641.099432
555.229661	10676.372385
555.587365	10648.144444
555.945014	10548.909331
556.302606	10667.832670
556.660143	10565.189737
557.017625	10727.940868
557.375050	10620.677717
557.732421	10747.230843
558.089735	10666.569861
558.446994	10661.894191
558.804197	10703.887003
559.161345	10706.553773
559.518437	10552.322192
559.875474	10637.462239
560.232455	10675.885914
560.589381	10621.141503
560.946251	10615.704619
561.303065	10730.716023
561.659825	10658.277163
562.016528	10590.473644
562.373177	10469.014604
562.729770	10588.709240
563.086307	10498.172638
563.442789	10595.809705
563.799216	10467.807247
564.155587	10522.778510
564.511904	10470.232043
564.868164	10469.871600
565.224370	10482.030863
565.580520	10400.752340
565.936615	10411.691643
566.292654	10280.772878
566.648638	10407.129399
567.004567	10367.579027
567.360441	10352.107726
567.716260	10262.536504
568.072023	10354.587973
568.427732	10307.271703
568.783385	10215.706705
569.138982	10290.136821
569.494525	10307.261621
569.850013	10184.249905
570.205445	10263.017934
570.560823	10163.319035
570.916145	10081.851468
571.271412	10144.903700
571.626625	10090.146687
571.981782	10063.040402
572.336884	10035.513182
572.691931	10048.539523
573.046923	9986.248506
573.401860	9945.347104
573.756743	9881.886539
574.111570	9927.090565
574.466342	9910.399305
574.821059	9942.120766
575.175722	9831.553138
575.530330	9838.393984
575.884882	9832.649589
576.239380	9756.134956
576.593823	9740.746834
576.948211	9756.472713
577.302544	9631.951172
577.656823	9651.581425
578.011047	9649.406168
578.365216	9625.460687
578.719330	9551.058297
579.073389	9566.285102
579.427394	9503.437037
579.781344	9480.779571
580.135239	9435.429351
580.489080	9442.098798
580.842866	9343.329991
581.196597	9349.354170
581.550273	9388.420592
581.903895	9357.062094
582.257463	9424.903422
582.610975	9294.876941
582.964434	9329.595368
583.317837	9243.497501
583.671186	9231.237415
584.024481	9229.241118
584.377721	9146.972008
584.730906	9115.883212
585.084037	9158.969954
585.437113	9093.175334
585.790135	9110.441286
586.143103	9004.365327
586.496016	8988.273964
586.848874	9043.157006
587.201679	9028.139409
587.554428	8918.582533
587.907124	8965.089698
588.259765	8934.631046
588.612352	8936.430738
588.964884	8817.862799
589.317362	8829.308739
589.669786	8829.747320
590.022155	8875.594093
590.374470	8888.461638
590.726731	8831.751178
591.078937	8683.952109
591.431090	8795.114593
591.783188	8670.083895
592.135232	8660.109972
592.487222	8658.148963
592.839157	8714.493940
593.191038	8644.799988
593.542866	8593.541536
593.894639	8490.591092
594.246358	8542.633443
594.598022	8557.504847
594.949633	8455.159342
595.301190	8434.573790
595.652692	8461.657389
596.004141	8566.836023
596.355535	8343.086930
596.706876	8331.393974
597.058162	8260.401925
597.409395	8335.429418
597.760573	8400.735045
598.111698	8308.809605
598.462768	8298.991958
598.813785	8259.489476
599.164748	8227.273982
599.515657	8219.830719
599.866511	8133.037173
600.217312	8259.842357
600.568060	8115.372970
600.918753	8217.489103
601.269392	8187.554731
601.619978	8101.850075
601.970510	8167.140579
602.320988	8159.593971
602.671412	8219.563538
603.021783	8151.008886
603.372100	8124.273127
603.722363	8124.595761
604.072572	8097.418900
604.422728	8115.516643
604.772830	8041.222638
605.122878	8054.347282
605.472872	8044.920324
605.822813	8076.087258
606.172701	8021.015173
606.522534	8099.584076
606.872314	8095.105011
607.222041	8068.916217
607.571714	8119.418496
607.921333	8079.570695
608.270899	8089.126202
608.620411	8174.102412
608.969870	8080.488185
609.319276	8072.623985
609.668627	8088.347344
610.017926	8124.436964
610.367171	8170.497987
610.716362	8144.054615
611.065500	8140.145200
611.414585	8163.122779
611.763616	8153.907550
612.112594	8136.392061
612.461518	8155.188003
612.810389	8209.927372
613.159207	8150.940831
613.507971	8101.991227
613.856682	8217.816778
614.205340	8175.624841
614.553945	8252.915811
614.902496	8149.751118
615.250994	8207.792443
615.599439	8186.402827
615.947830	8201.554015
616.296169	8165.930702
616.644454	8183.395779
616.992686	8181.402003
617.340864	8239.241682
617.688990	8143.978997
618.037063	8235.596927
618.385082	8179.814039
618.733048	8268.621526
619.080961	8204.281280
619.428821	8228.350269
619.776628	8231.511072
620.124382	8182.054832
620.472083	8164.231833
620.819731	8187.469032
621.167326	8087.187879
621.514868	8096.077953
621.862357	7975.304510
622.209793	7993.114907
622.557176	7927.718538
622.904506	7899.175525
623.251783	7833.317892
623.599007	7789.878269
623.946179	7792.721480
624.293297	7751.079028
624.640363	7668.414188
624.987376	7652.267372
625.334336	7596.741583
625.681243	7548.863224
626.028097	7529.419494
626.374899	7512.508943
626.721647	7513.950713
627.068343	7433.781243
627.414987	7408.754435
627.761577	7368.654577
628.108115	7397.641212
628.454600	7294.461395
628.801032	7350.297215
629.147412	7300.581356
629.493739	7296.210676
629.840014	7231.847744
630.186236	7289.044675
630.532405	7173.196439
630.878521	7224.470015
631.224585	7178.920670
631.570597	7105.692869
631.916556	7136.486757
632.262462	7133.648587
632.608316	7097.574091
632.954117	7075.871923
633.299866	7055.916516
633.645562	7051.273613
633.991206	6977.778631
634.336797	6914.544918
634.682336	6871.760645
635.027823	6838.882240
635.373257	6833.137845
635.718639	6761.024139
636.063968	6775.729185
636.409245	6675.528691
636.754470	6674.061715
637.099642	6625.588500
637.444762	6573.546148
637.789829	6583.683909
638.134845	6521.448344
638.479808	6505.969481
638.824719	6514.289905
639.169577	6439.174192
639.514383	6459.396781
639.859137	6388.082098
640.203839	6394.761627
640.548489	6383.194700
640.893086	6357.946081
641.237632	6334.439180
641.582125	6353.439289
641.926566	6319.103990
642.270955	6338.159552
642.615292	6328.268808
642.959576	6343.130129
643.303809	6336.102761
643.647990	6343.412434
643.992118	6335.139901
644.336195	6277.121261
644.680219	6302.742925
645.024192	6295.483664
645.368112	6393.493777
645.711981	6411.692342
646.055797	6489.336194
646.399562	6445.450429
646.743274	6571.252423
647.086935	6627.441124
647.430544	6615.634742
647.774101	6646.085832
648.117606	6644.316387
648.461059	6638.846735
648.804460	6602.066476
649.147810	6510.309914
649.491108	6485.010884
649.834354	6450.544515
650.177548	6367.400765
650.520690	6289.222551
650.863781	6264.611638
651.206820	6280.496313
651.549807	6203.689293
651.892742	6146.613350
652.235626	6147.861035
652.578458	6139.376773
652.921238	6046.196086
653.263967	6084.657569
653.606644	6026.366707
653.949269	6025.855030
654.291843	5968.829498
654.634365	6018.434451
654.976836	5973.137163
655.319255	5972.388552
655.661622	5950.792249
656.003938	5947.409635
656.346203	5905.701648
656.688416	5940.956958
657.030577	5887.240943
657.372687	5860.306058
657.714746	5849.006312
658.056753	5890.880656
658.398708	5831.183312
658.740612	5823.248536
659.082465	5869.969950
659.424266	5863.834866
659.766016	5858.050142
660.107715	5835.496019
660.449362	5846.793245
660.790958	5846.153019
661.132503	5827.586449
661.473996	5873.100507
661.815438	5856.124421
662.156829	5853.336663
662.498168	5843.390466
662.839456	5822.673845
663.180693	5854.821283
663.521879	5858.488722
663.863013	5847.801476
664.204097	5865.286718
664.545129	5909.303553
664.886110	5899.485906
665.227040	5937.153407
665.567918	5902.016565
665.908746	5928.754845
666.249522	5931.656029
666.590248	5917.820582
666.930922	5944.009377
667.271545	5961.701306
667.612118	5965.129291
667.952639	5935.215084
668.293109	5959.117715
668.633528	5912.229943
668.973896	5915.604995
669.314213	5907.909674
669.654480	5889.212034
669.994695	5882.514861
670.334859	5874.756526
670.674973	5865.258992
671.015035	5871.260485
671.355047	5870.733685
671.695008	5859.242375
672.034918	5828.420760
672.374777	5841.590774
672.714585	5824.523948
673.054342	5827.838507
673.394049	5828.224155
673.733705	5850.100242
674.073310	5838.951730
674.412864	5806.038037
674.752368	5789.195542
675.091820	5797.682324
675.431223	5734.506584
675.770574	5730.256892
676.109875	5686.756775
676.449125	5687.833062
676.788324	5656.759389
677.127473	5600.888281
677.466571	5591.264718
677.805619	5580.096042
678.144616	5567.977108
678.483562	5547.676382
678.822458	5514.286299
679.161303	5511.601885
679.500098	5497.353063
679.838842	5480.213140
680.177535	5487.174974
680.516179	5508.990567
680.854771	5514.848388
681.193314	5596.136994
681.531805	5705.600608
681.870247	5851.912537
682.208638	5958.348939
682.546978	5964.020237
682.885268	5946.033400
683.223508	5859.401171
683.561697	5801.944620
683.899836	5775.586947
684.237925	5733.049691
684.575963	5696.072827
684.913951	5653.028935
685.251889	5721.026539
685.589776	5680.798131
685.927614	5655.854502
686.265401	5728.618517
686.603137	5711.400456
686.940824	5787.731087
687.278460	5813.398122
687.616046	5823.563608
687.953582	5887.792949
688.291068	5870.834508
688.628504	5937.155928
688.965889	5894.782509
689.303224	5841.671433
689.640510	5790.390295
689.977745	5719.597372
690.314930	5613.226505
690.652065	5563.563578
690.989150	5470.551769
691.326185	5391.811467
691.663170	5340.845401
692.000105	5265.729688
692.336990	5185.514848
692.673825	5161.808822
693.010610	5096.223411
693.347345	5025.680024
693.684030	5011.032952
694.020665	4966.985870
694.357251	4877.119741
694.693786	4889.568871
695.030272	4853.872460
695.366707	4818.042459
695.703093	4785.106081
696.039429	4812.774453
696.375716	4788.806287
696.711952	4763.653450
697.048139	4752.026029
697.384276	4730.497782
697.720363	4748.565277
698.056400	4753.767748
698.392388	4702.214388
698.728326	4681.454916
699.064214	4661.242410
699.400053	4656.735618
699.735842	4625.296462
700.071581	4596.297225
700.407270	4567.474428
700.742910	4553.437335
701.078501	4500.172503
701.414042	4497.261237
701.749533	4464.579437
702.084974	4399.851021
702.420366	4461.839570
702.755709	4402.812699
703.091002	4342.414635
703.426246	4394.371287
703.761440	4347.866643
704.096584	4315.023526
704.431679	4330.756967
704.766725	4317.619720
705.101721	4306.198986
705.436668	4337.885158
705.771565	4284.519504
706.106413	4310.446158
706.441212	4343.488401
706.775961	4350.931664
707.110661	4335.326773
707.445311	4360.643447
707.779913	4380.467785
708.114465	4393.479003
708.448967	4420.179474
708.783421	4482.215913
709.117825	4521.257129
709.452180	4526.449518
709.786485	4567.197164
710.120742	4653.446266
710.454949	4642.017970
710.789107	4705.077763
711.123216	4780.916882
711.457275	4769.942290
711.791286	4844.906768
712.125247	4865.212536
712.459159	4768.006487
712.793023	4841.251932
713.126837	4799.264161
713.460602	4794.785096
713.794318	4710.789391
714.127985	4722.089137
714.461602	4634.909943
714.795171	4605.305767
715.128691	4541.938463
715.462162	4484.088702
715.795584	4434.027524
716.128957	4415.009771
716.462281	4366.123182
716.795556	4337.658306
717.128782	4300.651196
717.461960	4229.845670
717.795088	4242.428390
718.128167	4198.303170
718.461198	4141.070950
718.794180	4135.656751
719.127113	4114.340232
719.459997	4097.084362
719.792833	4054.484092
720.125619	4044.724418
720.458357	4010.076568
720.791046	4014.432125
721.123686	3988.245851
721.456278	3943.956794
721.788821	3961.842808
722.121315	3934.547480
722.453761	3910.675096
722.786158	3923.167075
723.118506	3945.534675
723.450805	3897.812592
723.783056	3921.223711
724.115259	3933.786266
724.447412	3939.263480
724.779518	3930.809465
725.111574	3937.799024
725.443582	3967.869507
725.775542	3954.442394
726.107453	3999.081811
726.439315	4002.330835
726.771129	4016.037732
727.102895	4054.393351
727.434612	4100.567800
727.766281	4111.638174
728.097901	4114.272177
728.429473	4118.524390
728.760996	4125.962612
729.092471	4122.917755
729.423897	4107.174232
729.755276	4112.144810
730.086606	4110.592134
730.417887	4146.775016
730.749120	4212.441086
731.080305	4278.853247
731.411442	4304.028769
731.742530	4270.268162
732.073570	4278.359214
732.404562	4331.505578
732.735506	4325.045339
733.066401	4288.983445
733.397249	4224.040781
733.728048	4142.724449
734.058798	4063.323755
734.389501	3989.211232
734.720156	3925.823763
735.050762	3883.997310
735.381320	3878.018502
735.711831	3826.044205
736.042293	3797.357519
736.372707	3820.206549
736.703073	3795.759474
737.033391	3782.407978
737.363661	3800.490597
737.693883	3825.018331
738.024056	3834.036955
738.354182	3828.446315
738.684260	3891.054925
739.014290	3913.624171
739.344272	3907.393305
739.674207	3947.049542
740.004093	3951.533648
740.333931	3952.040284
740.663722	3952.534317
740.993464	3949.176909
741.323159	3928.558589
741.652806	3898.765370
741.982405	3870.108931
742.311956	3837.706915
742.641460	3827.264165
742.970915	3805.894713
743.300323	3764.544649
743.629683	3731.714135
743.958996	3720.893298
744.288260	3696.821788
744.617477	3661.077487
744.946647	3643.937564
745.275768	3618.507463
745.604842	3621.229686
745.933869	3573.570618
746.262847	3563.563927
746.591778	3599.593054
746.920662	3571.624733
747.249498	3540.291441
747.578286	3584.545210
747.907027	3602.166563
748.235720	3600.868466
748.564365	3625.991056
748.892963	3625.008031
749.221514	3610.552522
749.550017	3584.058738
749.878473	3583.738625
750.206881	3558.429512
750.535242	3548.982390
750.863555	3552.702762
751.191821	3547.023902
751.520039	3532.381870
751.848210	3502.528157
752.176334	3542.002912
752.504411	3545.710681
752.832440	3505.439424
753.160421	3489.670694
753.488356	3494.618587
753.816243	3512.726412
754.144082	3467.502220
754.471875	3450.546299
754.799620	3472.477839
755.127318	3461.924184
755.454969	3464.268320
755.782572	3469.758137
756.110129	3447.498922
756.437638	3432.577107
756.765100	3447.080506
757.092515	3461.006694
757.419882	3467.661017
757.747203	3438.318981
758.074477	3439.944753
758.401703	3457.845890
758.728882	3476.530927
759.056014	3483.200373
759.383099	3485.836897
759.710138	3486.033502
760.037129	3502.470184
760.364073	3534.347920
760.690970	3518.206146
761.017820	3496.158659
761.344623	3512.708768
761.671379	3554.600756
761.998088	3610.701237
762.324751	3738.814600
762.651366	3982.128411
762.977935	4455.303714
763.304456	4901.138319
763.630931	4995.034850
763.957359	4634.325169
764.283740	4290.710041
764.610074	4097.694342
764.936362	3901.913571
765.262602	3746.167123
765.588796	3631.284268
765.914943	3545.438459
766.241044	3456.066363
766.567097	3426.918411
766.893104	3378.994682
767.219064	3349.713140
767.544978	3323.547031
767.870845	3263.884975
768.196665	3245.756986
768.522438	3258.286774
768.848165	3252.297883
769.173846	3213.576781
769.499479	3198.097918
769.825066	3183.370187
770.150607	3166.321004
770.476101	3179.954805
770.801548	3176.443641
771.126949	3132.225160
771.452303	3112.373097
771.777611	3121.452215
772.102872	3126.430354
772.428087	3102.051334
772.753256	3088.566248
773.078378	3081.858992
773.403453	3049.683828
773.728482	3038.406767
774.053465	3059.340158
774.378401	3047.085113
774.703291	3013.931965
775.028135	3015.835000
775.352932	3008.996675
775.677683	2999.297495
776.002388	2995.662823
776.327046	2996.116527
776.651658	2987.818788
776.976224	2975.536017
777.300743	2975.152889
777.625216	2964.571507
777.949643	2960.926753
778.274024	2963.031434
778.598359	2951.822429
778.922647	2956.709828
779.246889	2954.532049
779.571086	2939.585028
779.895236	2934.533792
780.219339	2945.629371
780.543397	2956.535908
780.867409	2962.650827
781.191374	2957.221505
781.515294	2953.599436
781.839167	2950.254630
782.162995	2941.760286
782.486776	2950.005093
782.810511	2949.800926
783.134201	2936.948504
783.457844	2941.750203
783.781441	2934.001950
784.104993	2916.950247
784.428498	2913.991090
784.751958	2929.043975
785.075372	2925.058943
785.398739	2904.664955
785.722061	2923.672626
786.045337	2935.143771
786.368568	2917.945875
786.691752	2909.544792
787.014891	2957.327369
787.337983	2987.624703
787.661030	3016.019003
787.984031	3082.295052
788.306987	3130.493524
788.629897	3120.154117
788.952760	3105.880090
789.275579	3089.965168
789.598351	3033.045500
789.921078	2986.092193
790.243759	2976.188846
790.566395	2959.865590
790.888984	2938.881787
791.211529	2920.229518
791.534027	2910.573188
791.856480	2898.973493
792.178888	2882.902294
792.501249	2882.350288
792.823566	2872.220089
793.145836	2871.030377
793.468062	2866.382433
793.790241	2867.683051
794.112375	2869.618854
794.434464	2882.884650
794.756507	2889.967471
795.078505	2893.937380
795.400457	2905.148906
795.722364	2943.978393
796.044226	2968.611992
796.366042	2970.915799
796.687812	2960.616722
797.009538	2977.915441
797.331218	2965.718369
797.652852	2953.574230
797.974442	2934.611930
798.295986	2932.441713
798.617484	2927.095569
798.938938	2910.971439
799.260346	2895.656413
799.581709	2894.622977
799.903026	2885.017058
800.224299	2877.868702
800.545526	2870.168339
800.866708	2853.151925
801.187845	2844.476099
801.508936	2842.391582
801.829983	2851.208560
802.150984	2837.927640
802.471940	2825.060095
802.792851	2826.292657
803.113717	2825.672595
803.434538	2830.597802
803.755314	2822.247131
804.076045	2818.824187
804.396731	2819.189671
804.717372	2817.763025
805.037967	2813.125163
805.358518	2820.197902
805.679024	2831.361537
805.999485	2827.696618
806.319901	2828.954386
806.640272	2823.073880
806.960598	2832.883966
807.280879	2837.471416
807.601115	2846.699248
807.921306	2832.205930
808.241453	2826.459015
808.561554	2835.714573
808.881611	2836.624502
809.201623	2829.614777
809.521590	2829.377843
809.841513	2826.648058
810.161390	2827.447081
810.481223	2822.468942
810.801011	2816.117088
811.120755	2809.578711
811.440453	2814.748415
811.760107	2810.092909
812.079716	2809.296407
812.399281	2802.836168
812.718801	2793.633542
813.038276	2788.693211
813.357707	2796.191927
813.677093	2802.352217
813.996434	2797.427010
814.315731	2793.815023
814.634983	2787.790844
814.954191	2793.159673
815.273354	2803.468833
815.592473	2812.404278
815.911547	2813.904021
816.230577	2822.143787
816.549562	2828.389777
816.868502	2829.095538
817.187399	2841.053155
817.506250	2858.825743
817.825058	2849.239989
818.143821	2860.509489
818.462539	2877.987169
818.781213	2902.242681
819.099843	2938.695264
819.418429	2994.989829
819.736970	3062.874007
820.055466	3133.762712
820.373919	3240.468816
820.692327	3376.869836
821.010691	3547.785116
821.329011	3990.973115
821.647286	4888.646339
821.965517	6271.449963
822.283704	7013.041502
822.601847	6995.752865
822.919945	6360.938005
823.237999	5854.027301
823.556010	5272.895688
823.873976	4720.201225
824.191897	4308.361641
824.509775	4011.767875
824.827609	3744.558995
825.145398	3620.251703
825.463144	3605.811317
825.780845	3700.161553
826.098502	3806.108963
826.416116	4086.684462
826.733685	4402.232967
827.051210	4466.472390
827.368692	4349.210110
827.686129	4082.258329
828.003522	3757.562651
828.320872	3502.228209
828.638177	3305.610606
828.955439	3170.018691
829.272656	3087.618511
829.589830	3019.595701
829.906960	2967.114769
830.224046	2923.186154
830.541088	2891.184910
830.858086	2874.322250
831.175041	2859.501258
831.491952	2859.597040
831.808819	2869.472660
832.125642	2894.617936
832.442421	2941.626695
832.759157	3020.392203
833.075849	3201.621684
833.392497	3482.885301
833.709101	3684.957433
834.025662	3632.118579
834.342179	3472.011533
834.658653	3296.962506
834.975083	3148.525731
835.291469	3051.609549
835.607811	2966.182156
835.924110	2904.876684
836.240366	2855.042357
836.556578	2815.701193
836.872746	2789.509878
837.188871	2769.892228
837.504952	2753.319434
837.820990	2748.164855
838.136984	2729.729355
838.452935	2724.864642
838.768842	2722.797768
839.084706	2739.267218
839.400526	2817.631955
839.716303	2952.722275
840.032037	3029.630118
840.347727	3017.044877
840.663373	2958.199488
840.978977	2879.287787
841.294537	2809.893783
841.610054	2759.691453
841.925527	2739.559605
842.240957	2716.395503
842.556344	2695.237780
842.871687	2679.514422
843.186987	2671.385561
843.502244	2666.656959
843.817458	2659.662358
844.132629	2647.951757
844.447756	2639.424646
844.762840	2636.979686
845.077881	2636.856178
845.392879	2634.862401
845.707833	2631.880559
846.022745	2623.940742
846.337613	2629.566669
846.652438	2626.635238
846.967221	2624.366719
847.281960	2622.710700
847.596656	2623.000566
847.911309	2619.247427
848.225919	2620.583333
848.540485	2617.258692
848.855009	2615.368259
849.169490	2615.809360
849.483928	2615.524535
849.798323	2614.942282
850.112675	2612.388937
850.426984	2612.696448
850.741251	2611.841972
851.055474	2612.545213
851.369654	2618.662653
851.683792	2615.877416
851.997887	2614.191150
852.311938	2613.097220
852.625947	2612.535131
852.939914	2614.881788
853.253837	2615.282560
853.567718	2610.770727
853.881555	2610.775768
854.195350	2614.574278
854.509103	2613.329113
854.822812	2611.315172
855.136479	2609.956581
855.450103	2613.097220
855.763685	2613.790378
856.077224	2613.576129
856.390720	2609.911210
856.704173	2612.656119
857.017584	2616.442025
857.330953	2616.908332
857.644278	2619.938065
857.957561	2618.889505
858.270802	2617.162910
858.584000	2613.830707
858.897155	2620.621142
859.210268	2618.375308
859.523339	2613.974380
859.836367	2612.068824
860.149352	2608.240068
860.462295	2612.900615
860.775195	2610.105295
861.088054	2608.567743
861.400869	2608.839965
861.713642	2605.575818
862.026373	2606.432814
862.339062	2610.969853
862.651708	2617.246089
862.964312	2615.708537
863.276873	2613.334154
863.589392	2615.501850
863.901869	2620.197685
864.214303	2626.264713
864.526696	2628.969292
864.839045	2629.881741
865.151353	2633.904582
865.463619	2631.323511
865.775842	2635.553039
866.088023	2633.541619
866.400162	2633.778553
866.712258	2634.564973
867.024313	2632.422483
867.336325	2628.775208
867.648296	2631.016001
867.960224	2637.703092
868.272110	2636.420118
868.583954	2627.194806
868.895755	2629.957359
869.207515	2630.627832
869.519233	2639.714512
869.830909	2636.911630
870.142542	2631.351238
870.454134	2632.697226
870.765684	2639.555716
871.077191	2643.182826
871.388657	2648.362611
871.700081	2642.678710
872.011463	2642.550161
872.322803	2643.016468
872.634101	2648.445790
872.945357	2657.287974
873.256571	2661.078922
873.567744	2655.054743
873.878874	2653.960813
874.189963	2654.487613
874.501010	2661.260403
874.812015	2665.189983
875.122979	2666.722494
875.433900	2657.343427
875.744780	2653.796975
876.055618	2661.603202
876.366415	2665.512617
876.677169	2666.525889
876.987882	2661.555311
877.298554	2660.962975
877.609183	2671.793894
877.919771	2676.146931
878.230317	2684.633713
878.540822	2694.942873
878.851285	2708.347301
879.161707	2734.011815
879.472087	2769.761158
879.782425	2819.187151
880.092722	2933.674275
880.402977	3126.689973
880.713191	3383.592215
881.023363	3676.652132
881.333494	3869.221688
881.643583	4046.047721
881.953631	4038.019683
882.263637	3861.881768
882.573602	3641.916061
882.883526	3514.221114
883.193408	3398.556880
883.503248	3294.429327
883.813048	3179.478416
884.122806	3063.350396
884.432522	2976.030050
884.742197	2914.722057
885.051831	2876.419370
885.361424	2840.816221
885.670975	2806.312044
885.980485	2775.261057
886.289954	2756.853283
886.599382	2740.315778
886.908768	2732.141547
887.218113	2710.280583
887.527417	2698.728779
887.836680	2691.086390
888.145901	2684.893333
888.455082	2675.640295
888.764221	2663.002122
889.073319	2656.476348
889.382376	2657.396359
889.691392	2659.937101
890.000366	2659.024652
890.309300	2652.619866
890.618193	2656.168838
890.927044	2659.243942
891.235855	2660.902482
891.544625	2662.097235
891.853353	2660.463901
892.162041	2669.386743
892.470687	2687.156811
892.779293	2699.172401
893.087858	2707.676828
893.396381	2732.161712
893.704864	2774.769544
894.013306	2845.764114
894.321707	2936.721653
894.630068	2988.340547
894.938387	3007.985924
895.246665	3000.661127
895.554903	2958.935497
895.863100	2913.388672
896.171256	2854.518077
896.479371	2794.931639
896.787446	2757.130547
897.095480	2734.904099
897.403473	2732.060889
897.711425	2715.898949
898.019336	2694.310208
898.327207	2682.760925
898.635038	2680.497447
898.942827	2676.701458
899.250576	2670.556291
899.558284	2655.626914
899.865952	2652.869403
900.173579	2651.210863
900.481165	2649.917807
900.788711	2641.453710
901.096216	2634.426342
901.403681	2628.676906
901.711105	2631.429376
902.018489	2631.086577
902.325832	2633.428193
902.633135	2634.799387
902.940397	2649.398568
903.247619	2687.136646
903.554800	2756.777666
903.861941	2887.076369
904.169041	3009.636902
904.476101	3074.660225
904.783121	3069.475398
905.090100	3012.943899
905.397039	2933.323915
905.703938	2858.001515
906.010796	2796.146557
906.317614	2743.035481
906.624391	2707.465099
906.931129	2683.696059
907.237826	2659.044816
907.544483	2644.571664
907.851099	2628.087091
908.157675	2618.135853
908.464211	2609.177722
908.770707	2600.254880
909.077163	2595.047368
909.383578	2591.049733
909.689954	2591.090062
909.996289	2589.071080
910.302584	2588.342634
910.608839	2586.764752
910.915054	2584.828949
911.221229	2589.386152
911.527363	2593.708942
911.833458	2590.356575
912.139513	2591.135433
912.445527	2594.265989
912.751502	2599.387802
913.057436	2603.695468
913.363331	2610.755604
913.669186	2620.958899
913.975000	2634.501959
914.280775	2649.847231
914.586510	2670.072340
914.892205	2707.397043
915.197859	2772.952208
915.503475	2860.068388
915.809050	2923.087852
916.114585	2939.038063
916.420081	2952.956688
916.725536	2962.875159
917.030952	2936.915737
917.336328	2888.651730
917.641665	2838.535099
917.946961	2789.688839
918.252218	2755.693818
918.557435	2728.708521
918.862612	2707.996941
919.167750	2688.344002
919.472848	2673.386899
919.777906	2658.374343
920.082925	2644.659884
920.387904	2633.776033
920.692843	2631.462143
920.997743	2626.171452
921.302603	2617.737602
921.607423	2609.956581
921.912204	2605.142279
922.216946	2603.680344
922.521647	2596.889910
922.826310	2595.634663
923.130932	2591.087542
923.435516	2585.156624
923.740059	2583.077148
924.044564	2583.445153
924.349028	2581.368197
924.653454	2574.255129
924.957840	2572.447876
925.262186	2568.644325
925.566493	2571.406877
925.870761	2564.525702
926.174989	2566.547205
926.479178	2564.891186
926.783328	2562.647873
927.087438	2560.591082
927.391509	2562.143757
927.695541	2558.251986
927.999533	2558.942624
928.303486	2558.395659
928.607400	2556.729558
928.911275	2556.114537
929.215110	2555.335679
929.518906	2558.234342
929.822663	2556.651420
930.126381	2556.790052
930.430060	2556.016235
930.733699	2556.389280
931.037299	2555.479352
931.340861	2557.296688
931.644383	2560.727193
931.947866	2558.138560
932.251309	2555.088662
932.554714	2558.756102
932.858080	2558.839281
933.161407	2554.617314
933.464694	2555.786862
933.767943	2553.689742
934.071153	2554.151008
934.374323	2551.827036
934.677455	2552.472303
934.980548	2552.641182
935.283602	2553.757798
935.586617	2552.305945
935.889593	2552.260575
936.192530	2552.278219
936.495428	2552.621018
936.798287	2552.726882
937.101108	2556.142263
937.403890	2559.166956
937.706632	2563.068809
938.009336	2564.833213
938.312002	2568.485529
938.614628	2572.336970
938.917216	2575.827969
939.219765	2575.434759
939.522275	2576.977352
939.824747	2575.311251
940.127179	2572.001733
940.429573	2565.728018
940.731929	2569.226578
941.034246	2564.230795
941.336524	2565.717935
941.638763	2568.122566
941.940964	2566.123748
942.243126	2565.659962
942.545250	2563.378840
942.847335	2562.189127
943.149381	2559.310629
943.451389	2560.283571
943.753359	2558.942624
944.055290	2558.796431
944.357182	2558.846843
944.659036	2555.320555
944.960851	2555.746533
945.262628	2556.885834
945.564367	2556.923642
945.866067	2555.958261
946.167729	2555.595298
946.469352	2555.675957
946.770937	2558.410783
947.072484	2555.035730
947.373992	2557.024465
947.675462	2557.309291
947.976893	2555.567572
948.278286	2552.815102
948.579641	2555.025648
948.880958	2553.341903
949.182236	2555.975905
949.483476	2554.728220
949.784678	2553.679660
950.085841	2554.055226
950.386967	2554.892057
950.688054	2553.551110
950.989103	2552.613456
951.290114	2556.497665
951.591087	2558.572100
951.892021	2559.368602
952.192917	2556.127140
952.493776	2559.771894
952.794596	2560.638973
953.095378	2562.194169
953.396122	2563.247770
953.696828	2557.921791
953.997496	2558.483879
954.298126	2555.252500
954.598718	2556.845504
954.899272	2553.369629
955.199788	2555.295350
955.500266	2554.415668
955.800706	2548.000800
956.101108	2544.966025
956.401472	2544.431663
956.701798	2542.435366
957.002087	2542.584080
957.302337	2545.760007
957.602550	2543.519214
957.902724	2542.952084
958.202861	2543.196580
958.502960	2542.727753
958.803022	2540.305479
959.103045	2540.807073
959.403031	2541.860675
959.702979	2540.683565
960.002889	2540.572660
960.302762	2539.198945
960.602596	2542.425284
960.902393	2539.360262
961.202153	2542.180788
961.501875	2538.687268
961.801559	2536.716177
962.101205	2537.580735
962.400814	2539.496373
962.700385	2538.896476
962.999918	2539.861857
963.299414	2538.936805
963.598873	2541.641384
963.898293	2539.710622
964.197677	2538.483102
964.497022	2539.380427
964.796331	2534.805580
965.095601	2536.401105
965.394835	2537.963863
965.694030	2535.070240
965.993189	2538.911600
966.292309	2537.414377
966.591393	2538.052083
966.890439	2537.091743
967.189447	2538.888914
967.488419	2538.541075
967.787353	2537.588297
968.086249	2537.366486
968.385108	2541.071734
968.683930	2539.851775
968.982714	2539.221631
969.281462	2534.961856
969.580172	2538.631816
969.878844	2537.963863
970.177480	2536.822041
970.476078	2538.256250
970.774639	2536.935467
971.073162	2536.817000
971.371649	2536.053265
971.670098	2532.101001
971.968510	2536.980838
972.266885	2534.427493
972.565223	2538.236085
972.863524	2537.127031
973.161788	2541.570808
973.460014	2539.698020
973.758204	2537.316074
974.056356	2539.345139
974.354471	2538.732639
974.652550	2538.291538
974.950591	2539.571991
975.248595	2537.439583
975.546563	2539.733308
975.844493	2539.098122
976.142386	2536.355735
976.440243	2537.845396
976.738062	2538.513348
977.035845	2536.756506
977.333590	2541.674152
977.631299	2537.671476
977.928971	2539.022505
978.226606	2537.505118
978.524204	2539.614841
978.821765	2536.388502
979.119290	2538.911600
979.416777	2535.589479
979.714228	2536.138965
980.011642	2538.513348
980.309020	2539.670293
980.606360	2535.712988
980.903664	2538.853626
981.200931	2538.500746
981.498162	2538.291538
981.795356	2539.060314
982.092513	2543.680531
982.389633	2545.112219
982.686717	2546.735470
982.983764	2551.637993
983.280775	2554.226625
983.577749	2553.513302
983.874686	2553.911553
984.171587	2547.471479
984.468451	2546.813608
984.765279	2545.878474
985.062070	2544.756817
985.358824	2541.848072
985.655543	2540.439069
985.952224	2540.098791
986.248869	2537.452186
986.545478	2531.491021
986.842050	2534.256094
987.138586	2533.363810
987.435086	2533.716691
987.731549	2532.237112
988.027975	2534.845909
988.324366	2533.920857
988.620719	2537.089223
988.917037	2532.917668
989.213318	2535.163502
989.509563	2535.294572
989.805772	2535.302133
990.101944	2535.773481
990.398080	2533.910775
990.694180	2535.201310
990.990244	2533.593182
991.286271	2533.762061
991.582262	2533.615867
991.878217	2534.848430
992.174136	2532.448840
992.470019	2533.668800
992.765865	2534.117462
993.061676	2534.263656
993.357450	2533.688964
993.653188	2534.384643
993.948890	2530.727286
994.244556	2536.151568
994.540186	2538.241126
994.835780	2534.054448
995.131337	2537.089223
995.426859	2534.931609
995.722345	2534.709798
996.017795	2538.145344
996.313208	2538.357073
996.608586	2537.202648
996.903928	2539.221631
997.199234	2539.526620
997.494504	2537.411856
997.789738	2536.408667
998.084936	2535.203831
998.380099	2533.477236
998.675225	2533.787267
998.970316	2534.457740
999.265371	2535.443286
999.560390	2532.297606
999.855373	2536.471681
1000.150320	2533.356248
1000.445232	2533.303316
1000.740108	2533.671320
1001.034948	2532.912627
1001.329752	2532.978162
1001.624521	2531.677544
1001.919254	2527.596730
1002.213951	2533.477236
1002.508613	2528.191586
1002.803239	2533.353727
1003.097829	2528.705784
1003.392384	2534.230888
1003.686903	2533.452030
1003.981386	2535.309695
1004.275834	2531.551515
1004.570246	2533.469674
1004.864623	2531.609488
1005.158964	2536.350693
1005.453270	2531.813655
1005.747540	2534.949253
1006.041775	2529.179652
1006.335974	2531.841381
1006.630138	2532.937832
1006.924266	2530.298788
1007.218359	2531.705270
1007.512416	2532.801721
1007.806438	2531.296937
1008.100425	2531.619571
1008.394376	2532.753830
1008.688292	2530.447502
1008.982172	2531.130579
1009.276017	2533.058820
1009.569827	2533.157123
1009.863602	2532.413552
1010.157341	2530.036648
1010.451045	2532.075795
1010.744714	2533.005888
1011.038347	2533.399098
1011.331945	2529.197296
1011.625508	2531.445651
1011.919036	2532.219468
1012.212528	2530.762574
1012.505986	2531.624612
1012.799408	2532.355579
1013.092795	2529.046062
1013.386147	2532.826927
1013.679464	2530.407173
1013.972745	2529.444313
1014.265992	2530.618902
1014.559204	2532.101001
1014.852380	2529.986237
1015.145521	2533.031094
1015.438628	2530.916330
1015.731699	2532.970600
1016.024736	2531.004550
1016.317737	2530.656710
1016.610703	2532.708460
1016.903635	2529.351051
1017.196531	2524.723272
1017.489393	2529.081350
1017.782219	2527.392563
1018.075011	2529.104035
1018.367768	2530.649148
1018.660490	2532.103521
1018.953177	2532.103521
1019.245829	2532.103521
