Dividing Wavelength (nm)	Counts (n)	Blue Motor Position (mm): 23.100000	Red Motor Position (mm): 0.000000	
326.493990	2131.956894
326.888308	2131.956894
327.282561	2131.956894
327.676750	2102.292224
328.070874	2100.185022
328.464933	2105.069900
328.858929	2110.146342
329.252859	2118.151694
329.646726	2131.364558
330.040528	2141.552730
330.434265	2161.596358
330.827938	2178.821980
331.221547	2193.320339
331.615091	2213.610983
332.008571	2233.881463
332.401986	2256.780904
332.795338	2271.554005
333.188625	2292.752057
333.581847	2311.154789
333.975006	2329.875114
334.368100	2347.176354
334.761129	2365.316946
335.154095	2383.175234
335.546996	2403.289438
335.939833	2424.116965
336.332606	2440.561209
336.725315	2453.194340
337.117960	2460.536781
337.510540	2470.225878
337.903056	2480.827425
338.295508	2486.221460
338.687896	2496.026504
339.080220	2504.914058
339.472480	2512.506036
339.864676	2518.111799
340.256807	2520.153466
340.648875	2523.808303
341.040879	2526.734692
341.432818	2525.431554
341.824694	2527.886596
342.216506	2530.482790
342.608253	2530.815507
342.999937	2528.466329
343.391557	2528.582275
343.783113	2530.583613
344.174605	2525.839888
344.566033	2526.107069
344.957397	2524.551873
345.348697	2522.802592
345.739934	2522.283354
346.131106	2518.295801
346.522215	2519.697242
346.913260	2514.638444
347.304241	2514.225069
347.695159	2512.425377
348.086012	2511.638957
348.476802	2506.743997
348.867528	2505.821466
349.258191	2503.013543
349.648789	2505.385406
350.039324	2501.385250
350.429796	2502.453975
350.820203	2498.836947
351.210548	2501.012205
351.600828	2497.367451
351.991045	2501.087822
352.381198	2496.596154
352.771288	2498.925167
353.161314	2497.967348
353.551276	2492.147336
353.941175	2495.197234
354.331010	2498.655466
354.720782	2494.811586
355.110490	2496.152533
355.500135	2495.645897
355.889717	2496.608757
356.279235	2498.105980
356.668689	2497.785867
357.058080	2497.090187
357.447408	2496.122286
357.836672	2494.201606
358.225873	2497.223778
358.615010	2492.588437
359.004084	2500.750065
359.393095	2499.227637
359.782043	2497.468274
360.170927	2500.931547
360.559748	2501.695281
360.948505	2500.084633
361.337199	2501.612102
361.725830	2502.141423
362.114398	2501.271824
362.502903	2502.804335
362.891344	2504.508245
363.279722	2505.612258
363.668037	2505.692916
364.056289	2504.818276
364.444478	2506.494460
364.832603	2504.916579
365.220665	2506.050838
365.608665	2507.008657
365.996601	2509.267094
366.384474	2504.919099
366.772284	2508.067300
367.160031	2507.238030
367.547715	2509.703154
367.935336	2507.860613
368.322893	2509.546878
368.710388	2510.252640
369.097820	2514.207425
369.485189	2507.086795
369.872495	2511.618793
370.259738	2511.202897
370.646918	2512.740449
371.034035	2509.388082
371.421090	2511.575943
371.808081	2512.132990
372.195010	2510.797085
372.581875	2510.668535
372.968678	2513.105933
373.355418	2513.131139
373.742096	2513.405882
374.128710	2513.514267
374.515262	2514.850172
374.901751	2512.150634
375.288177	2514.013341
375.674540	2514.288084
376.060841	2513.085768
376.447079	2516.211284
376.833254	2514.814884
377.219367	2511.533093
377.605417	2514.209946
377.991404	2510.781961
378.377329	2509.859430
378.763191	2509.793895
379.148991	2515.850841
379.534727	2515.835718
379.920402	2515.606345
380.306013	2514.998886
380.691563	2515.008969
381.077049	2516.377642
381.462474	2517.027951
381.847835	2516.584329
382.233134	2516.352436
382.618371	2515.732374
383.003545	2517.461490
383.388657	2516.861593
383.773706	2521.257479
384.158693	2517.690863
384.543618	2518.825122
384.928480	2519.296470
385.313280	2519.540966
385.698017	2517.849659
386.082692	2520.108096
386.467305	2521.191944
386.851856	2519.472910
387.236344	2521.489372
387.620770	2519.954341
388.005133	2522.923580
388.389435	2520.839063
388.773674	2519.432581
389.157851	2516.901922
389.541965	2521.272602
389.926018	2520.559279
390.310008	2519.782941
390.693936	2524.907274
391.077802	2522.280833
391.461606	2523.646986
391.845348	2523.778056
392.229027	2523.863755
392.612645	2523.286543
392.996200	2522.928621
393.379694	2522.442150
393.763125	2525.592871
394.146494	2524.864424
394.529801	2525.078673
394.913047	2524.198992
395.296230	2525.154291
395.679351	2526.026410
396.062410	2525.993643
396.445408	2525.928108
396.828343	2525.048427
397.211217	2523.135309
397.594028	2524.269568
397.976778	2520.022396
398.359466	2526.321318
398.742092	2522.217819
399.124656	2526.888448
399.507158	2528.221833
399.889598	2527.944569
400.271977	2526.404497
400.654294	2529.610671
401.036549	2527.158149
401.418742	2526.477594
401.800874	2527.231246
402.182944	2526.694363
402.564952	2527.453057
402.946898	2529.928263
403.328783	2528.418438
403.710606	2527.460619
404.092367	2530.099663
404.474067	2528.526823
404.855705	2527.843746
405.237282	2529.746782
405.618797	2527.422810
406.000250	2527.911802
406.381642	2528.678057
406.762972	2531.107893
407.144240	2528.577234
407.525447	2535.539068
407.906593	2528.778880
408.287677	2530.775177
408.668700	2530.266021
409.049661	2531.780888
409.430560	2531.667462
409.811399	2531.952287
410.192176	2530.991947
410.572891	2533.094108
410.953545	2532.365661
411.334138	2533.981351
411.714669	2531.753161
412.095139	2532.456402
412.475547	2532.705939
412.855894	2534.901362
413.236180	2534.046886
413.616405	2535.629808
413.996568	2534.198121
414.376670	2535.460930
414.756711	2535.624767
415.136691	2533.860363
415.516609	2537.268183
415.896466	2535.085364
416.276262	2534.581248
416.655997	2533.104190
417.035670	2530.119827
417.415283	2533.192411
417.794834	2529.852646
418.174324	2534.729963
418.553753	2536.711136
418.933121	2534.041845
419.312428	2534.939170
419.691674	2537.011085
420.070859	2535.705426
420.449983	2534.248532
420.829045	2536.128883
421.208047	2532.915147
421.586988	2536.721218
421.965867	2535.508821
422.344686	2538.031918
422.723444	2537.941178
423.102141	2538.079809
423.480777	2536.965714
423.859352	2538.203317
424.237866	2540.015612
424.616319	2538.720036
424.994712	2538.044521
425.373044	2540.247505
425.751314	2537.482432
426.129524	2539.345139
426.507673	2538.561239
426.885762	2537.565612
427.263789	2540.000489
427.641756	2538.964532
428.019662	2542.135418
428.397508	2541.754810
428.775292	2537.837834
429.153016	2540.807073
429.530679	2540.774306
429.908282	2539.221631
430.285824	2540.197094
430.663305	2538.271373
431.040726	2540.620551
431.418086	2540.549975
431.795385	2540.769265
432.172624	2543.131045
432.549802	2541.885880
432.926920	2540.192053
433.303977	2542.417722
433.680974	2539.829090
434.057910	2542.397558
434.434786	2542.062321
434.811601	2543.637681
435.188355	2540.154244
435.565050	2542.889070
435.941683	2543.030222
436.318257	2539.251878
436.694770	2537.495035
437.071222	2540.179450
437.447614	2540.234902
437.823946	2541.016281
438.200218	2541.545602
438.576429	2542.455531
438.952580	2540.784388
439.328670	2542.266487
439.704700	2542.702547
440.080670	2542.972249
440.456580	2544.870243
440.832429	2547.905018
441.208218	2542.437887
441.583947	2543.753628
441.959616	2544.507280
442.335224	2544.550130
442.710773	2546.400234
443.086261	2547.499205
443.461689	2543.559543
443.837057	2545.601211
444.212365	2547.715975
444.587612	2545.893598
444.962800	2545.087013
445.337927	2547.206818
445.712995	2544.542568
446.088002	2548.865358
446.462949	2546.266643
446.837837	2548.265461
447.212664	2546.831252
447.587431	2547.451314
447.962139	2546.846376
448.336786	2549.664381
448.711374	2547.383259
449.085901	2549.225800
449.460369	2550.410472
449.834776	2551.905174
450.209124	2549.417364
450.583412	2548.988866
450.957640	2548.479710
451.331808	2551.128836
451.705917	2550.145811
452.079965	2550.846531
452.453954	2550.410472
452.827883	2550.082797
453.201752	2551.610266
453.575562	2550.294525
453.949311	2550.743188
454.323001	2553.654454
454.696632	2550.191181
455.070202	2550.932231
455.443713	2550.412992
455.817164	2550.420554
456.190556	2552.374001
456.563888	2550.854093
456.937160	2549.233362
457.310373	2554.962633
457.683526	2553.062118
458.056619	2554.382901
458.429653	2555.749053
458.802628	2556.469938
459.175542	2558.801472
459.548398	2558.211657
459.921194	2559.900444
460.293930	2559.587892
460.666607	2563.272976
461.039224	2565.047462
461.411782	2567.910837
461.784280	2567.792370
462.156719	2570.348235
462.529099	2567.996537
462.901419	2571.106929
463.273680	2572.326888
463.645882	2573.635067
464.018024	2576.369893
464.390106	2579.215625
464.762130	2584.773497
465.134094	2594.689446
465.505999	2609.374327
465.877845	2625.488376
466.249631	2632.871146
466.621358	2637.733338
466.993026	2637.940026
467.364634	2639.172588
467.736184	2640.548823
468.107674	2645.111067
468.479105	2652.191368
468.850477	2657.842501
469.221790	2660.302584
469.593043	2664.874911
469.964238	2667.710560
470.335373	2678.417971
470.706449	2690.473890
471.077467	2698.476722
471.448425	2748.444639
471.819324	2788.466359
472.190164	2798.833492
472.560945	2774.225099
472.931667	2765.761002
473.302330	2771.787702
473.672934	2775.157713
474.043479	2802.445479
474.413965	2813.916624
474.784393	2822.736123
475.154761	2849.345853
475.525070	2867.952752
475.895321	2877.800646
476.265513	2901.675551
476.635645	2937.382044
477.005719	2959.779890
477.375734	2990.112513
477.745691	3029.123482
478.115588	3064.378791
478.485427	3108.993003
478.855207	3183.624765
479.224928	3295.407310
479.594591	3383.012482
479.964194	3400.860687
480.333739	3410.645567
480.703226	3448.870116
481.072653	3500.299967
481.442022	3587.844645
481.811333	3652.482320
482.180584	3669.647448
482.549777	3689.640665
482.918912	3711.307544
483.287988	3767.161008
483.657005	3816.193791
484.025964	3826.875996
484.394864	3888.622569
484.763706	3942.462092
485.132489	3947.853606
485.501213	3999.590968
485.869879	4058.010379
486.238487	4100.807255
486.607036	4161.331348
486.975527	4191.013662
487.343959	4278.409625
487.712333	4359.970453
488.080648	4399.311618
488.448905	4479.723063
488.817104	4530.308521
489.185244	4656.123118
489.553326	4766.695787
489.921350	4982.197552
490.289315	5346.627605
490.657222	5506.487634
491.025070	5580.406073
491.392861	5614.456547
491.760593	5593.986942
492.128267	5573.630762
492.495883	5551.570673
492.863440	5522.712588
493.230939	5496.738043
493.598380	5549.314757
493.965763	5585.568215
494.333088	5616.752792
494.700354	5671.403941
495.067563	5755.326550
495.434713	5782.362258
495.801805	5903.274333
496.168839	5951.548422
496.535815	6009.599829
496.902733	6076.120375
497.269593	6135.921062
497.636395	6242.259162
498.003139	6327.873077
498.369825	6335.366752
498.736453	6489.167315
499.103023	6518.852150
499.469535	6617.252952
499.835989	6685.573190
500.202385	6743.213743
500.568723	6745.212560
500.935003	6922.388953
501.301226	6924.675117
501.667390	7114.890454
502.033497	7249.988336
502.399546	7245.136225
502.765537	7272.663446
503.131470	7390.676857
503.497345	7568.347284
503.863163	7409.404744
504.228923	7673.372162
504.594625	7782.082124
504.960269	7698.588014
505.325856	7909.260354
505.691385	7854.485697
506.056856	8024.617077
506.422270	8113.951364
506.787625	8102.190352
507.152924	8258.226667
507.518164	8307.680386
507.883347	8328.679313
508.248472	8336.238523
508.613540	8561.628511
508.978550	8550.898415
509.343503	8592.666895
509.708398	8741.648115
510.073236	8886.006597
510.438016	8947.634702
510.802738	8973.364752
511.167403	9074.349145
511.532010	9060.180983
511.896561	9279.715671
512.261053	9397.872755
512.625488	9354.188637
512.989866	9399.223784
513.354186	9439.830279
513.718449	9422.680273
514.082655	9621.669739
514.446803	9596.083363
514.810894	9740.746834
515.174927	9687.819760
515.538904	9750.763607
515.902822	9929.222973
516.266684	9877.430159
516.630488	9874.833965
516.994235	9953.854051
517.357925	10063.020238
517.721558	10181.099184
518.085133	10235.430220
518.448651	10283.167426
518.812112	10218.590245
519.175516	10273.180900
519.538863	10416.090050
519.902152	10379.110666
520.265385	10563.957175
520.628560	10510.248722
520.991678	10531.915601
521.354739	10616.286872
521.717743	10581.071892
522.080690	10595.597977
522.443580	10755.510939
522.806413	10740.354710
523.169189	10798.161621
523.531908	10875.807993
523.894569	10734.171734
524.257174	10771.728331
524.619722	10903.110882
524.982213	10872.634587
525.344647	10946.144692
525.707025	10921.523697
526.069345	11027.400530
526.431608	10975.766512
526.793815	11091.854203
527.155964	10912.714280
527.518057	10978.738272
527.880093	10945.166708
528.242072	11031.211642
528.603995	10953.555188
528.965860	10887.891639
529.327669	10959.506270
529.689421	10922.511763
530.051117	10896.365818
530.412755	11009.978302
530.774337	10919.010681
531.135862	10908.104145
531.497331	10944.788622
531.858743	10810.459516
532.220098	10979.968314
532.581396	10862.703513
532.942638	10856.147493
533.303824	10822.442338
533.664953	10851.428973
534.026025	10764.690880
534.387040	10874.953517
534.747999	10880.811338
535.108902	10943.775350
535.469748	10712.691378
535.830537	10824.889818
536.191270	10805.083125
536.551947	10833.099338
536.912567	10829.520118
537.273131	10758.618810
537.633638	10747.256049
537.994089	10747.356872
538.354483	10696.567247
538.714821	10839.743578
539.075103	10850.657676
539.435328	10822.865795
539.795497	10643.287292
540.155609	10808.382560
540.515665	10896.257433
540.875665	10636.123813
541.235609	10716.560463
541.595496	10703.561848
541.955328	10862.663184
542.315102	10747.077088
542.674821	10693.847545
543.034483	10700.557321
543.394090	10706.223578
543.753640	10641.200255
544.113134	10859.411640
544.472571	10719.025588
544.831953	10860.795437
545.191278	10665.901908
545.550548	10696.277381
545.909761	10836.774339
546.268918	10811.863477
546.628019	10889.555219
546.987064	10759.614438
547.346053	10685.277583
547.704986	10783.373396
548.063863	10769.764801
548.422684	10757.789540
548.781449	10677.728455
549.140158	10785.339446
549.498811	10664.346713
549.857408	10527.512153
550.215949	10744.395194
550.574434	10598.915056
550.932864	10699.473473
551.291237	10758.160065
551.649555	10707.614936
552.007817	10724.255785
552.366022	10686.164826
552.724173	10683.155257
553.082267	10662.221866
553.440305	10799.570623
553.798288	10599.151990
554.156215	10758.578481
554.514086	10733.352547
554.871902	10585.939126
555.229661	10623.709971
555.587365	10595.562689
555.945014	10491.107461
556.302606	10613.554567
556.660143	10519.937819
557.017625	10669.382825
557.375050	10564.862062
557.732421	10697.157062
558.089735	10607.248083
558.446994	10614.519948
558.804197	10648.038580
559.161345	10650.896914
559.518437	10501.759419
559.875474	10582.748076
560.232455	10620.614703
560.589381	10573.018649
560.946251	10571.770963
561.303065	10671.608495
561.659825	10610.184556
562.016528	10543.296006
562.373177	10419.649105
562.729770	10534.615139
563.086307	10449.462489
563.442789	10544.052179
563.799216	10418.111553
564.155587	10465.609304
564.511904	10428.894581
564.868164	10413.546788
565.224370	10426.613459
565.580520	10353.851965
565.936615	10358.600732
566.292654	10234.608512
566.648638	10365.033244
567.004567	10317.117077
567.360441	10306.124841
567.716260	10217.075379
568.072023	10311.080295
568.427732	10256.003169
568.783385	10169.496969
569.138982	10244.095963
569.494525	10249.580739
569.850013	10134.178645
570.205445	10212.477846
570.560823	10110.081929
570.916145	10032.281802
571.271412	10101.053223
571.626625	10040.443430
571.981782	10017.322178
572.336884	9994.518519
572.691931	9997.593622
573.046923	9942.493811
573.401860	9896.672243
573.756743	9839.266104
574.111570	9887.550275
574.466342	9864.514723
574.821059	9897.115865
575.175722	9784.236868
575.530330	9796.418817
575.884882	9791.556624
576.239380	9719.427794
576.593823	9697.279485
576.948211	9711.901352
577.302544	9588.193957
577.656823	9606.735321
578.011047	9609.427297
578.365216	9579.271115
578.719330	9504.949383
579.073389	9519.946816
579.427394	9462.865831
579.781344	9443.948901
580.135239	9392.319924
580.489080	9401.061285
580.842866	9302.428589
581.196597	9306.219537
581.550273	9349.833080
581.903895	9318.895518
582.257463	9379.202842
582.610975	9259.104913
582.964434	9291.451477
583.317837	9210.848468
583.671186	9194.794914
584.024481	9186.182102
584.377721	9104.404505
584.730906	9085.051515
585.084037	9103.570194
585.437113	9053.700579
585.790135	9065.524606
586.143103	8967.436355
586.496016	8945.351060
586.848874	9005.250050
587.201679	8990.918049
587.554428	8873.970842
587.907124	8926.900437
588.259765	8893.235611
588.612352	8896.809789
588.964884	8772.336139
589.317362	8784.034137
589.669786	8786.441287
590.022155	8835.738731
590.374470	8846.315072
590.726731	8792.215929
591.078937	8644.258064
591.431090	8756.403572
591.783188	8624.511864
592.135232	8622.011452
592.487222	8624.332903
592.839157	8668.710181
593.191038	8607.266077
593.542866	8551.705000
593.894639	8452.535421
594.246358	8510.052466
594.598022	8518.982870
594.949633	8418.227849
595.301190	8396.613902
595.652692	8417.859845
596.004141	8525.730455
596.355535	8311.378073
596.706876	8290.910988
597.058162	8227.883962
597.409395	8304.103688
597.760573	8360.748613
598.111698	8273.982793
598.462768	8258.299764
598.813785	8221.332982
599.164748	8190.350051
599.515657	8182.241355
599.866511	8093.461595
600.217312	8215.500367
600.568060	8083.094462
600.918753	8184.958537
601.269392	8156.218919
601.619978	8062.544198
601.970510	8132.500290
602.320988	8123.380843
602.671412	8176.738936
603.021783	8119.516798
603.372100	8085.458763
603.722363	8092.433199
604.072572	8066.113335
604.422728	8078.123884
604.772830	8010.307762
605.122878	8016.871344
605.472872	8005.642174
605.822813	8038.697020
606.172701	7983.584605
606.522534	8061.699805
606.872314	8066.834220
607.222041	8028.281996
607.571714	8081.128412
607.921333	8046.150366
608.270899	8051.098258
608.620411	8134.249570
608.969870	8043.486116
609.319276	8042.815642
609.668627	8050.445429
610.017926	8086.358609
610.367171	8131.776884
610.716362	8111.844162
611.065500	8101.681196
611.414585	8127.592727
611.763616	8116.179554
612.112594	8100.393181
612.461518	8118.561500
612.810389	8173.308430
613.159207	8111.574460
613.507971	8060.868014
613.856682	8179.987959
614.205340	8138.312740
614.553945	8215.273516
614.902496	8115.957744
615.250994	8169.895569
615.599439	8151.747415
615.947830	8159.747727
616.296169	8128.580793
616.644454	8146.739029
616.992686	8143.222824
617.340864	8206.136424
617.688990	8108.506918
618.037063	8195.449178
618.385082	8145.035119
618.733048	8236.113646
619.080961	8166.694437
619.428821	8189.556069
619.776628	8195.900361
620.124382	8138.002709
620.472083	8124.900751
620.819731	8155.155235
621.167326	8046.294039
621.514868	8059.852222
621.862357	7940.361752
622.209793	7961.645504
622.557176	7898.603354
622.904506	7867.103705
623.251783	7807.091289
623.599007	7761.393229
623.946179	7761.181501
624.293297	7717.600726
624.640363	7640.413098
624.987376	7621.491128
625.334336	7562.270173
625.681243	7516.380549
626.028097	7504.032243
626.374899	7483.708831
626.721647	7479.010476
627.068343	7406.591780
627.414987	7378.031123
627.761577	7333.676531
628.108115	7373.219342
628.454600	7261.653566
628.801032	7317.436454
629.147412	7276.192254
629.493739	7267.967611
629.840014	7199.284411
630.186236	7262.772702
630.532405	7145.240721
630.878521	7191.425252
631.224585	7148.880434
631.570597	7075.624907
631.916556	7108.314269
632.262462	7101.344874
632.608316	7063.740387
632.954117	7045.877058
633.299866	7030.972887
633.645562	7025.558687
633.991206	6942.606501
634.336797	6888.383850
634.682336	6842.746284
635.027823	6810.114895
635.373257	6798.406816
635.718639	6732.813842
636.063968	6749.719352
636.409245	6643.179606
636.754470	6638.559389
637.099642	6598.363749
637.444762	6541.242434
637.789829	6553.827675
638.134845	6499.726012
638.479808	6477.262630
638.824719	6483.450647
639.169577	6414.185193
639.514383	6439.385921
639.859137	6364.721391
640.203839	6368.366146
640.548489	6360.043201
640.893086	6338.048646
641.237632	6308.414223
641.582125	6322.184135
641.926566	6298.276463
642.270955	6310.138298
642.615292	6303.509181
642.959576	6320.722201
643.303809	6311.267517
643.647990	6316.391849
643.992118	6306.599408
644.336195	6256.404639
644.680219	6279.593947
645.024192	6271.296208
645.368112	6364.280290
645.711981	6385.027159
646.055797	6459.994158
646.399562	6415.127889
646.743274	6547.367436
647.086935	6599.603873
647.430544	6595.371824
647.774101	6610.051664
648.117606	6613.923270
648.461059	6608.851869
648.804460	6573.334420
649.147810	6479.541232
649.491108	6453.647345
649.834354	6431.393172
650.177548	6345.302867
650.520690	6259.658704
650.863781	6238.241362
651.206820	6253.689978
651.549807	6179.796745
651.892742	6122.002437
652.235626	6124.223065
652.578458	6115.872393
652.921238	6019.808166
653.263967	6061.687551
653.606644	6000.679508
653.949269	6007.565724
654.291843	5944.291681
654.634365	5994.562067
654.976836	5949.289985
655.319255	5946.356034
655.661622	5924.174957
656.003938	5926.400626
656.346203	5882.867742
656.688416	5913.233132
657.030577	5867.456935
657.372687	5836.327810
657.714746	5822.525131
658.056753	5864.132294
658.398708	5807.540301
658.740612	5800.482685
659.082465	5849.089491
659.424266	5839.118088
659.766016	5835.105330
660.107715	5817.030273
660.449362	5826.333722
660.790958	5824.518907
661.132503	5807.169776
661.473996	5845.845508
661.815438	5832.158776
662.156829	5828.685421
662.498168	5820.733000
662.839456	5797.994876
663.180693	5832.819167
663.521879	5834.200443
663.863013	5826.868085
664.204097	5844.786866
664.545129	5882.797166
664.886110	5880.032093
665.227040	5915.690695
665.567918	5876.611670
665.908746	5904.564868
666.249522	5908.718779
666.590248	5893.703702
666.930922	5923.219658
667.271545	5934.632830
667.612118	5940.241114
667.952639	5910.445374
668.293109	5929.863899
668.633528	5887.563577
668.973896	5894.180091
669.314213	5887.107353
669.654480	5870.776535
669.994695	5861.165575
670.334859	5849.694429
670.674973	5841.558007
671.015035	5847.176373
671.355047	5844.428944
671.695008	5832.468807
672.034918	5805.962420
672.374777	5814.844933
672.714585	5800.875895
673.054342	5806.668181
673.394049	5801.367408
673.733705	5830.966543
674.073310	5817.458771
674.412864	5777.149705
674.752368	5766.165031
675.091820	5767.843735
675.431223	5708.990784
675.770574	5706.974323
676.109875	5659.650491
676.449125	5666.390514
676.788324	5629.716119
677.127473	5573.348458
677.466571	5567.621707
677.805619	5560.521242
678.144616	5546.711001
678.483562	5521.021281
678.822458	5495.601262
679.161303	5484.906455
679.500098	5476.742306
679.838842	5461.966684
680.177535	5462.402744
680.516179	5477.490917
680.854771	5489.037680
681.193314	5574.039096
681.531805	5681.478687
681.870247	5830.381769
682.208638	5927.492036
682.546978	5943.953924
682.885268	5920.066416
683.223508	5837.734292
683.561697	5784.477022
683.899836	5751.485191
684.237925	5708.151432
684.575963	5670.312531
684.913951	5635.367253
685.251889	5692.667528
685.589776	5660.857847
685.927614	5631.503208
686.265401	5704.831832
686.603137	5683.477505
686.940824	5765.131594
687.278460	5786.296878
687.616046	5797.851203
687.953582	5864.820411
688.291068	5846.573955
688.628504	5906.886320
688.965889	5870.441298
689.303224	5814.101363
689.640510	5769.714003
689.977745	5690.870357
690.314930	5590.223720
690.652065	5536.764804
690.989150	5442.318787
691.326185	5373.804465
691.663170	5322.097350
692.000105	5237.227004
692.336990	5164.934338
692.673825	5143.239732
693.010610	5067.970264
693.347345	5001.532898
693.684030	4988.428418
694.020665	4953.110094
694.357251	4859.654664
694.693786	4867.511302
695.030272	4835.590716
695.366707	4806.256242
695.703093	4766.441208
696.039429	4790.013644
696.375716	4774.265079
696.711952	4747.998147
697.048139	4735.264192
697.384276	4715.923806
697.720363	4725.683480
698.056400	4736.388370
698.392388	4684.388868
698.728326	4664.688039
699.064214	4648.306809
699.400053	4639.699039
699.735842	4603.526240
700.071581	4582.970935
700.407270	4555.070669
700.742910	4538.840674
701.078501	4484.285307
701.414042	4479.183659
701.749533	4452.498312
702.084974	4388.153024
702.420366	4444.316519
702.755709	4390.781986
703.091002	4334.086649
703.426246	4380.006519
703.761440	4336.980271
704.096584	4298.730516
704.431679	4320.236079
704.766725	4305.246208
705.101721	4293.613745
705.436668	4323.278415
705.771565	4269.290178
706.106413	4297.031648
706.441212	4326.053570
706.775961	4336.496320
707.110661	4316.571160
707.445311	4344.670551
707.779913	4368.414386
708.114465	4379.908217
708.448967	4407.173297
708.783421	4464.196309
709.117825	4504.197865
709.452180	4510.887476
709.786485	4556.111667
710.120742	4639.421776
710.454949	4625.929127
710.789107	4691.721226
711.123216	4762.718316
711.457275	4754.712964
711.791286	4830.249613
712.125247	4843.843085
712.459159	4750.848920
712.793023	4821.926668
713.126837	4781.965442
713.460602	4778.081233
713.794318	4692.832801
714.127985	4701.584244
714.461602	4620.847644
714.795171	4590.454528
715.128691	4523.016492
715.462162	4464.995332
715.795584	4419.566974
716.128957	4400.060229
716.462281	4351.473588
716.795556	4321.425791
717.128782	4285.832724
717.461960	4222.334350
717.795088	4231.219384
718.128167	4186.453938
718.461198	4127.273312
718.794180	4124.019247
719.127113	4106.203810
719.459997	4085.600614
719.792833	4040.935991
720.125619	4028.910318
720.458357	3995.863034
720.791046	4001.451153
721.123686	3970.871514
721.456278	3934.000515
721.788821	3952.854430
722.121315	3922.166406
722.453761	3900.068508
722.786158	3911.864808
723.118506	3929.395421
723.450805	3884.367835
723.783056	3907.852050
724.115259	3926.781583
724.447412	3927.895678
724.779518	3922.199174
725.111574	3926.519443
725.443582	3955.891726
725.775542	3940.110393
726.107453	3987.507322
726.439315	3990.663084
726.771129	4002.189682
727.102895	4039.844581
727.434612	4088.922734
727.766281	4100.066205
728.097901	4100.285495
728.429473	4104.628449
728.760996	4109.001650
729.092471	4107.557360
729.423897	4090.097323
729.755276	4099.950258
730.086606	4098.226184
730.417887	4137.269920
730.749120	4199.964230
731.080305	4266.817492
731.411442	4289.026295
731.742530	4257.040174
732.073570	4260.697531
732.404562	4316.427487
732.735506	4308.394408
733.066401	4268.758336
733.397249	4208.365313
733.728048	4128.334475
734.058798	4047.751631
734.389501	3975.494252
734.720156	3914.554264
735.050762	3871.775032
735.381320	3866.436451
735.711831	3816.221517
736.042293	3788.802681
736.372707	3809.763799
736.703073	3781.185498
737.033391	3771.516565
737.363661	3791.678660
737.693883	3811.331598
738.024056	3821.923062
738.354182	3820.514060
738.684260	3882.608472
739.014290	3902.306781
739.344272	3898.505751
739.674207	3941.131227
740.004093	3943.014098
740.333931	3937.685598
740.663722	3939.323973
740.993464	3939.081998
741.323159	3913.914037
741.652806	3882.928585
741.982405	3856.548227
742.311956	3826.578568
742.641460	3820.682938
742.970915	3794.063125
743.300323	3749.741301
743.629683	3719.630489
743.958996	3710.652194
744.288260	3683.319058
744.617477	3650.906959
744.946647	3636.532109
745.275768	3611.790126
745.604842	3609.420783
745.933869	3560.546797
746.262847	3554.015982
746.591778	3588.066456
746.920662	3561.398752
747.249498	3529.578989
747.578286	3576.905341
747.907027	3595.096345
748.235720	3590.723144
748.564365	3614.933285
748.892963	3619.150210
749.221514	3597.690018
749.550017	3578.500866
749.878473	3574.840989
750.206881	3544.520969
750.535242	3543.180022
750.863555	3541.740772
751.191821	3537.836399
751.520039	3514.505939
751.848210	3495.619256
752.176334	3530.753578
752.504411	3539.555432
752.832440	3497.635718
753.160421	3478.567553
753.488356	3492.619769
753.816243	3500.743589
754.144082	3458.075263
754.471875	3444.280145
754.799620	3464.986685
755.127318	3456.444449
755.454969	3458.166003
755.782572	3460.709266
756.110129	3439.954835
756.437638	3429.990995
756.765100	3440.738735
757.092515	3453.626444
757.419882	3459.527115
757.747203	3432.347734
758.074477	3433.872683
758.401703	3447.317440
758.728882	3468.364258
759.056014	3475.552943
759.383099	3477.776092
759.710138	3476.425063
760.037129	3491.830829
760.364073	3523.020448
760.690970	3508.227182
761.017820	3487.568533
761.344623	3503.233919
761.671379	3549.052966
761.998088	3602.161522
762.324751	3725.702559
762.651366	3972.567862
762.977935	4438.597330
763.304456	4877.291140
763.630931	4968.646930
763.957359	4607.954893
764.283740	4275.422742
764.610074	4083.909307
764.936362	3888.425964
765.262602	3726.746078
765.588796	3621.000314
765.914943	3534.224412
766.241044	3447.695527
766.567097	3415.411978
766.893104	3372.264742
767.219064	3338.917509
767.544978	3314.790547
767.870845	3259.022782
768.196665	3238.792632
768.522438	3248.529621
768.848165	3245.845206
769.173846	3209.483364
769.499479	3192.837474
769.825066	3178.132428
770.150607	3161.768842
770.476101	3176.388189
770.801548	3171.962056
771.126949	3125.717031
771.452303	3109.197170
771.777611	3115.942233
772.102872	3123.231742
772.428087	3094.756784
772.753256	3087.898295
773.078378	3078.587283
773.403453	3044.234341
773.728482	3032.667413
774.053465	3052.703479
774.378401	3045.073693
774.703291	3012.180164
775.028135	3013.548837
775.352932	3006.481139
775.677683	2995.050323
776.002388	2991.264417
776.327046	2992.988491
776.651658	2984.310145
776.976224	2969.809266
777.300743	2973.383444
777.625216	2963.911116
777.949643	2956.324179
778.274024	2959.074129
778.598359	2946.798919
778.922647	2953.911987
779.246889	2953.213787
779.571086	2936.318360
779.895236	2932.968513
780.219339	2940.333639
780.543397	2956.848459
780.867409	2958.446505
781.191374	2949.107768
781.515294	2947.550051
781.839167	2948.550720
782.162995	2940.081582
782.486776	2948.966615
782.810511	2946.020061
783.134201	2932.658483
783.457844	2939.075871
783.781441	2931.463729
784.104993	2911.362128
784.428498	2912.829104
784.751958	2923.231525
785.075372	2919.135587
785.398739	2902.845099
785.722061	2920.479055
786.045337	2930.531116
786.368568	2915.034609
786.691752	2905.998340
787.014891	2956.276288
787.337983	2982.336533
787.661030	3012.318796
787.984031	3078.390678
788.306987	3122.856176
788.629897	3116.438787
788.952760	3100.748196
789.275579	3085.450814
789.598351	3024.934283
789.921078	2980.935092
790.243759	2973.128866
790.566395	2953.939713
790.888984	2934.841302
791.211529	2918.674322
791.534027	2905.557239
791.856480	2897.977865
792.178888	2881.967160
792.501249	2872.789739
792.823566	2871.421066
793.145836	2869.603730
793.468062	2867.080633
793.790241	2863.221629
794.112375	2866.848740
794.434464	2882.922459
794.756507	2884.908673
795.078505	2890.272461
795.400457	2903.460119
795.722364	2940.439503
796.044226	2969.416056
796.366042	2966.562763
796.687812	2955.943572
797.009538	2976.488795
797.331218	2964.778194
797.652852	2952.785289
797.974442	2934.206117
798.295986	2925.195054
798.617484	2923.009714
798.938938	2909.171747
799.260346	2894.315466
799.581709	2888.802965
799.903026	2880.343908
800.224299	2873.833258
800.545526	2865.490149
800.866708	2850.321317
801.187845	2839.810511
801.508936	2844.891994
801.829983	2849.134125
802.150984	2835.989316
802.471940	2822.935248
802.792851	2825.201247
803.113717	2821.248982
803.434538	2831.633759
803.755314	2821.511122
804.076045	2815.907880
804.396731	2814.435863
804.717372	2815.295380
805.037967	2812.401757
805.358518	2814.733291
805.679024	2829.420693
805.999485	2823.923315
806.319901	2829.697956
806.640272	2820.523056
806.960598	2824.661844
807.280879	2834.222392
807.601115	2844.614731
807.921306	2830.368430
808.241453	2823.807368
808.561554	2831.248111
808.881611	2834.406394
809.201623	2829.398008
809.521590	2826.804334
809.841513	2821.254024
810.161390	2827.290805
810.481223	2822.650423
810.801011	2811.698517
811.120755	2809.498053
811.440453	2810.400419
811.760107	2810.271870
812.079716	2807.637867
812.399281	2798.893986
812.718801	2792.910136
813.038276	2787.841256
813.357707	2793.426854
813.677093	2800.794501
813.996434	2794.742596
814.315731	2789.736730
814.634983	2786.533077
814.954191	2787.077521
815.273354	2799.690488
815.592473	2806.816159
815.911547	2812.116932
816.230577	2819.613128
816.549562	2828.926660
816.868502	2827.885662
817.187399	2840.221365
817.506250	2853.449353
817.825058	2844.161027
818.143821	2858.992101
818.462539	2873.175388
818.781213	2898.723955
819.099843	2937.026642
819.418429	2992.275168
819.736970	3055.564334
820.055466	3122.984725
820.373919	3227.576065
820.692327	3364.198896
821.010691	3529.276520
821.329011	3966.324393
821.647286	4856.652657
821.965517	6215.916612
822.283704	6940.194309
822.601847	6909.181130
822.919945	6291.304547
823.237999	5800.674249
823.556010	5222.000199
823.873976	4675.438299
824.191897	4276.027680
824.509775	3986.935151
824.827609	3721.674677
825.145398	3598.554576
825.463144	3592.805140
825.780845	3682.363759
826.098502	3785.384779
826.416116	4063.182603
826.733685	4373.609295
827.051210	4432.726906
827.368692	4318.731294
827.686129	4055.704051
828.003522	3738.494487
828.320872	3484.800940
828.638177	3295.896302
828.955439	3158.850014
829.272656	3077.581573
829.589830	3013.387520
829.906960	2963.999336
830.224046	2918.936462
830.541088	2885.543859
830.858086	2872.520038
831.175041	2853.640917
831.491952	2856.224508
831.808819	2867.128524
832.125642	2888.140053
832.442421	2932.018256
832.759157	3014.524300
833.075849	3191.080632
833.392497	3468.916264
833.709101	3667.779701
834.025662	3617.826908
834.342179	3459.327989
834.658653	3284.417595
834.975083	3139.408805
835.291469	3042.333826
835.607811	2963.966568
835.924110	2902.467012
836.240366	2852.315093
836.556578	2809.745069
836.872746	2790.601288
837.188871	2769.625047
837.504952	2749.989752
837.820990	2744.557909
838.136984	2728.884962
838.452935	2721.693756
838.768842	2720.521687
839.084706	2736.849985
839.400526	2818.388128
839.716303	2949.621965
840.032037	3024.987215
840.347727	3007.043228
840.663373	2949.067438
840.978977	2874.745707
841.294537	2804.131745
841.610054	2759.227667
841.925527	2737.470047
842.240957	2715.215873
842.556344	2695.872966
842.871687	2681.659432
843.186987	2671.128462
843.502244	2666.591424
843.817458	2660.441216
844.132629	2648.319762
844.447756	2641.804070
844.762840	2634.227216
845.077881	2636.934316
845.392879	2635.868112
845.707833	2631.038686
846.022745	2623.366050
846.337613	2627.015845
846.652438	2627.777060
846.967221	2626.889817
847.281960	2624.762450
847.596656	2621.067284
847.911309	2621.894033
848.225919	2619.590226
848.540485	2614.589401
848.855009	2616.631068
849.169490	2616.958743
849.483928	2618.135853
849.798323	2613.929010
850.112675	2612.686366
850.426984	2614.541510
850.741251	2612.870368
851.055474	2615.010337
851.369654	2620.139712
851.683792	2616.923455
851.997887	2616.628548
852.311938	2612.948506
852.625947	2615.156531
852.939914	2616.028651
853.253837	2617.966974
853.567718	2612.189812
853.881555	2612.840121
854.195350	2616.293311
854.509103	2617.815740
854.822812	2614.216356
855.136479	2609.714605
855.450103	2614.110492
855.763685	2615.249792
856.077224	2613.248454
856.390720	2611.088320
856.704173	2614.352467
857.017584	2618.493775
857.330953	2618.067797
857.644278	2621.833539
857.957561	2619.166769
858.270802	2617.218363
858.584000	2617.195678
858.897155	2621.586523
859.210268	2619.446553
859.523339	2613.447580
859.836367	2609.034050
860.149352	2612.605707
860.462295	2614.072683
860.775195	2612.051180
861.088054	2609.003803
861.400869	2609.311313
861.713642	2607.672938
862.026373	2609.160078
862.339062	2610.536313
862.651708	2617.790534
862.964312	2617.170472
863.276873	2613.629061
863.589392	2616.988990
863.901869	2621.977212
864.214303	2626.363016
864.526696	2629.082718
864.839045	2631.273100
865.151353	2632.256125
865.463619	2634.189407
865.775842	2634.396095
866.088023	2631.457102
866.400162	2632.120014
866.712258	2631.300826
867.024313	2632.132617
867.336325	2627.272944
867.648296	2628.550877
867.960224	2639.530510
868.272110	2634.040693
868.583954	2625.062398
868.895755	2630.232102
869.207515	2632.656897
869.519233	2641.393216
869.830909	2635.147227
870.142542	2632.417442
870.454134	2634.688482
870.765684	2639.525469
871.077191	2641.136117
871.388657	2645.738691
871.700081	2643.263484
872.011463	2645.809267
872.322803	2642.809780
872.634101	2646.583084
872.945357	2655.813437
873.256571	2660.799138
873.567744	2657.131698
873.878874	2654.293529
874.189963	2656.589774
874.501010	2661.595640
874.812015	2665.840292
875.122979	2665.936074
875.433900	2657.686225
875.744780	2654.356543
876.055618	2660.678150
876.366415	2664.615291
876.677169	2666.498162
876.987882	2660.365599
877.298554	2658.775115
877.609183	2668.562515
877.919771	2678.564164
878.230317	2683.189423
878.540822	2693.828778
878.851285	2707.392002
879.161707	2730.535940
879.472087	2766.113883
879.782425	2810.541572
880.092722	2921.704055
880.402977	3108.423352
880.713191	3363.888865
881.023363	3645.273470
881.333494	3835.574507
881.643583	4006.767050
881.953631	4001.995598
882.263637	3825.819874
882.573602	3608.044548
882.883526	3484.848831
883.193408	3371.218703
883.503248	3276.334105
883.813048	3159.492762
884.122806	3051.332285
884.432522	2968.647280
884.742197	2903.820562
885.051831	2867.307485
885.361424	2835.129800
885.670975	2797.691671
885.980485	2771.268463
886.289954	2750.267016
886.599382	2736.184552
886.908768	2728.905126
887.218113	2707.649101
887.527417	2694.920188
887.836680	2690.194106
888.145901	2682.801254
888.455082	2674.135510
888.764221	2662.319046
889.073319	2655.810916
889.382376	2656.614980
889.691392	2659.047337
890.000366	2659.798469
890.309300	2655.092552
890.618193	2658.175217
890.927044	2660.700835
891.235855	2658.235711
891.544625	2660.050527
891.853353	2657.744199
892.162041	2667.150992
892.470687	2688.434743
892.779293	2699.689119
893.087858	2706.182125
893.396381	2730.535940
893.704864	2768.795777
894.013306	2839.792867
894.321707	2927.375353
894.630068	2975.767910
894.938387	2994.183245
895.246665	2987.942296
895.554903	2947.792026
895.863100	2903.891138
896.171256	2847.699917
896.479371	2785.262706
896.787446	2747.968250
897.095480	2731.176166
897.403473	2729.598285
897.711425	2712.055070
898.019336	2693.269210
898.327207	2679.000224
898.635038	2679.400996
898.942827	2675.741118
899.250576	2667.720642
899.558284	2657.053561
899.865952	2651.437715
900.173579	2648.231541
900.481165	2649.103661
900.788711	2640.022022
901.096216	2634.247381
901.403681	2628.883593
901.711105	2633.040024
902.018489	2629.357461
902.325832	2632.114972
902.633135	2635.732000
902.940397	2646.769607
903.247619	2684.578261
903.554800	2752.656523
903.861941	2873.808053
904.169041	2997.701970
904.476101	3056.396124
904.783121	3049.225083
905.090100	2997.384377
905.397039	2921.058788
905.703938	2851.816019
906.010796	2790.684467
906.317614	2740.774523
906.624391	2705.390664
906.931129	2682.040040
907.237826	2656.980464
907.544483	2640.206024
907.851099	2629.425517
908.157675	2616.706686
908.464211	2610.148145
908.770707	2599.728080
909.077163	2597.570466
909.383578	2590.956472
909.689954	2591.168200
909.996289	2590.064188
910.302584	2590.205340
910.608839	2585.688466
910.915054	2588.539239
911.221229	2587.820874
911.527363	2591.460587
911.833458	2590.593509
912.139513	2590.711976
912.445527	2594.240784
912.751502	2599.302102
913.057436	2601.560539
913.363331	2609.477671
913.669186	2619.441512
913.975000	2634.053296
914.280775	2649.703558
914.586510	2665.580672
914.892205	2701.221630
915.197859	2765.216557
915.503475	2844.208918
915.809050	2912.698034
916.114585	2922.861000
916.420081	2936.860284
916.725536	2945.919238
917.030952	2921.767070
917.336328	2878.019937
917.641665	2829.420693
917.946961	2780.826490
918.252218	2747.020513
918.557435	2724.020248
918.862612	2702.282793
919.167750	2688.651513
919.472848	2669.323729
919.777906	2651.299083
920.082925	2640.800881
920.387904	2633.634880
920.692843	2628.828140
920.997743	2623.197171
921.302603	2614.627210
921.607423	2611.529421
921.912204	2606.720160
922.216946	2602.485591
922.521647	2603.362752
922.826310	2595.838829
923.130932	2592.514188
923.435516	2586.852973
923.740059	2587.145360
924.044564	2583.717375
924.349028	2581.526994
924.653454	2572.843606
924.957840	2575.228072
925.262186	2568.916547
925.566493	2570.517114
925.870761	2565.914540
926.174989	2569.410580
926.479178	2564.629046
926.783328	2567.832699
927.087438	2564.104766
927.391509	2564.230795
927.695541	2562.055537
927.999533	2561.725341
928.303486	2561.377502
928.607400	2558.962789
928.911275	2558.650238
929.215110	2557.705021
929.518906	2558.635114
929.822663	2557.190823
930.126381	2558.017573
930.430060	2557.379867
930.733699	2558.814075
931.037299	2558.065464
931.340861	2558.667882
931.644383	2559.308108
931.947866	2561.170814
932.251309	2561.488407
932.554714	2559.320711
932.858080	2560.109652
933.161407	2557.069836
933.464694	2557.657130
933.767943	2556.134702
934.071153	2556.313663
934.374323	2553.752757
934.677455	2554.120761
934.980548	2553.031872
935.283602	2554.924825
935.586617	2555.602860
935.889593	2556.905998
936.192530	2556.676626
936.495428	2554.037582
936.798287	2557.165618
937.101108	2557.604198
937.403890	2561.566545
937.706632	2563.267934
938.009336	2566.191804
938.312002	2568.735066
938.614628	2574.557598
938.917216	2574.081209
939.219765	2577.927610
939.522275	2577.574729
939.824747	2578.008268
940.127179	2573.181363
940.429573	2568.596434
940.731929	2572.515931
941.034246	2567.079047
941.336524	2569.614747
941.638763	2569.324881
941.940964	2566.494273
942.243126	2566.395970
942.545250	2564.588717
942.847335	2564.225754
943.149381	2562.935218
943.451389	2562.768860
943.753359	2562.872204
944.055290	2559.648386
944.357182	2561.221226
944.659036	2557.606719
944.960851	2558.975392
945.262628	2556.275854
945.564367	2554.398024
945.866067	2556.981616
946.167729	2558.372974
946.469352	2557.780638
946.770937	2562.103428
947.072484	2554.634958
947.373992	2559.613098
947.675462	2556.638817
947.976893	2557.422717
948.278286	2557.568910
948.579641	2556.197716
948.880958	2556.054043
949.182236	2555.887685
949.483476	2556.348951
949.784678	2556.119578
950.085841	2555.078580
950.386967	2557.369784
950.688054	2556.157387
950.989103	2557.432799
951.290114	2557.500854
951.591087	2560.273489
951.892021	2562.867163
952.192917	2558.917419
952.493776	2559.860114
952.794596	2563.754406
953.095378	2561.576627
953.396122	2563.532595
953.696828	2562.794066
953.997496	2562.612584
954.298126	2559.454302
954.598718	2557.145453
954.899272	2556.240566
955.199788	2554.753426
955.500266	2555.237376
955.800706	2548.653629
956.101108	2548.121788
956.401472	2547.022816
956.701798	2545.946530
957.002087	2546.203629
957.302337	2546.798485
957.602550	2548.162117
957.902724	2546.801005
958.202861	2545.155069
958.502960	2545.666746
958.803022	2543.141128
959.103045	2544.819832
959.403031	2545.157589
959.702979	2543.178936
960.002889	2544.454348
960.302762	2542.034594
960.602596	2544.802188
960.902393	2540.817156
961.202153	2542.861344
961.501875	2543.337733
961.801559	2544.408978
962.101205	2542.231199
962.400814	2540.660880
962.700385	2541.585932
962.999918	2542.059800
963.299414	2539.869419
963.598873	2541.384286
963.898293	2541.107022
964.197677	2543.577187
964.497022	2541.873278
964.796331	2543.811601
965.095601	2539.955118
965.394835	2544.522404
965.694030	2540.456713
965.993189	2541.583411
966.292309	2538.042001
966.591393	2541.711961
966.890439	2538.354552
967.189447	2539.269522
967.488419	2538.762886
967.787353	2541.744728
968.086249	2542.432846
968.385108	2540.814635
968.683930	2541.114584
968.982714	2540.333205
969.281462	2543.509132
969.580172	2539.824048
969.878844	2541.558205
970.177480	2542.062321
970.476078	2540.796991
970.774639	2541.449821
971.073162	2540.852444
971.371649	2539.700540
971.670098	2537.794984
971.968510	2538.102494
972.266885	2536.731301
972.565223	2543.302445
972.863524	2540.925541
973.161788	2542.531148
973.460014	2539.821528
973.758204	2543.007537
974.056356	2543.463762
974.354471	2540.572660
974.652550	2543.688093
974.950591	2541.669111
975.248595	2545.278577
975.546563	2541.449821
975.844493	2540.381096
976.142386	2540.207176
976.440243	2542.384955
976.738062	2542.102650
977.035845	2541.936292
977.333590	2543.662887
977.631299	2540.116435
977.928971	2540.844882
978.226606	2541.638864
978.524204	2536.771630
978.821765	2541.790098
979.119290	2540.118956
979.416777	2539.677855
979.714228	2540.098791
980.011642	2538.863709
980.309020	2541.855633
980.606360	2540.822197
980.903664	2540.479398
981.200931	2538.089892
981.498162	2539.980324
981.795356	2543.047866
982.092513	2548.641027
982.389633	2546.823691
982.686717	2552.946172
982.983764	2551.360729
983.280775	2555.887685
983.577749	2555.880123
983.874686	2553.800647
984.171587	2551.186809
984.468451	2549.077086
984.765279	2546.798485
985.062070	2544.998793
985.358824	2543.289842
985.655543	2541.933771
985.952224	2541.575849
986.248869	2540.955788
986.545478	2536.038142
986.842050	2537.595858
987.138586	2538.142824
987.435086	2533.625950
987.731549	2534.475384
988.027975	2539.042670
988.324366	2538.858668
988.620719	2538.735159
988.917037	2537.749614
989.213318	2537.411856
989.509563	2536.020498
989.805772	2538.432690
990.101944	2537.989068
990.398080	2538.745242
990.694180	2536.242309
990.990244	2540.809594
991.286271	2539.955118
991.582262	2535.138296
991.878217	2536.285158
992.174136	2537.797505
992.470019	2539.521579
992.765865	2537.404295
993.061676	2537.684079
993.357450	2534.422452
993.653188	2538.624254
993.948890	2539.362783
994.244556	2537.510159
994.540186	2538.959491
994.835780	2538.614172
995.131337	2542.299255
995.426859	2538.727597
995.722345	2539.057793
996.017795	2541.575849
996.313208	2543.365459
996.608586	2542.684903
996.903928	2541.772454
997.199234	2542.589121
997.494504	2539.236754
997.789738	2540.565098
998.084936	2542.979811
998.380099	2536.746424
998.675225	2540.423946
998.970316	2539.755993
999.265371	2539.425797
999.560390	2538.798174
999.855373	2538.893956
1000.150320	2539.244316
1000.445232	2537.898328
1000.740108	2534.190559
1001.034948	2536.796836
1001.329752	2537.240457
1001.624521	2538.064686
1001.919254	2533.880528
1002.213951	2532.383305
1002.508613	2533.469674
1002.803239	2534.389685
1003.097829	2528.786442
1003.392384	2535.407998
1003.686903	2537.177443
1003.981386	2536.123842
1004.275834	2536.262473
1004.570246	2537.104346
1004.864623	2538.538554
1005.158964	2536.138965
1005.453270	2536.166691
1005.747540	2536.448996
1006.041775	2535.954963
1006.335974	2534.883718
1006.630138	2535.433203
1006.924266	2535.092926
1007.218359	2535.357586
1007.512416	2534.745086
1007.806438	2534.719880
1008.100425	2535.037473
1008.394376	2536.988399
1008.688292	2538.611651
1008.982172	2532.310209
1009.276017	2533.900693
1009.569827	2531.145702
1009.863602	2537.013605
1010.157341	2533.981351
1010.451045	2534.987061
1010.744714	2536.690971
1011.038347	2533.792308
1011.331945	2534.777853
1011.625508	2538.132741
1011.919036	2537.242978
1012.212528	2534.170394
1012.505986	2535.002185
1012.799408	2534.956814
1013.092795	2535.506300
1013.386147	2537.177443
1013.679464	2531.748120
1013.972745	2533.338604
1014.265992	2536.673327
1014.559204	2536.635519
1014.852380	2535.312216
1015.145521	2537.076620
1015.438628	2535.150899
1015.731699	2535.677699
1016.024736	2532.998326
1016.317737	2535.523944
1016.610703	2536.774150
1016.903635	2533.557894
1017.196531	2530.079498
1017.489393	2531.382636
1017.782219	2530.283665
1018.075011	2534.853471
1018.367768	2536.937988
1018.660490	2532.481608
1018.953177	2532.481608
1019.245829	2532.481608
