Dividing Wavelength (nm)	Counts (n)	Blue Motor Position (mm): 20.300000	Red Motor Position (mm): 0.000000	
326.493990	2134.464868
326.888308	2134.464868
327.282561	2134.464868
327.676750	2102.176277
328.070874	2101.324322
328.464933	2103.383634
328.858929	2110.481578
329.252859	2118.378546
329.646726	2130.988992
330.040528	2143.987607
330.434265	2161.823210
330.827938	2177.309634
331.221547	2198.038859
331.615091	2216.058463
332.008571	2233.231154
332.401986	2253.826788
332.795338	2272.325302
333.188625	2291.154012
333.581847	2311.106898
333.975006	2330.404435
334.368100	2347.501509
334.761129	2365.500948
335.154095	2381.862013
335.546996	2402.734911
335.939833	2420.845256
336.332606	2437.448296
336.725315	2450.262909
337.117960	2459.019393
337.510540	2469.119345
337.903056	2480.938330
338.295508	2485.051912
338.687896	2494.194044
339.080220	2506.275170
339.472480	2511.717095
339.864676	2512.319513
340.256807	2521.471728
340.648875	2521.343178
341.040879	2525.681091
341.432818	2528.680578
341.824694	2530.114786
342.216506	2526.946421
342.608253	2530.775177
342.999937	2527.299302
343.391557	2529.101514
343.783113	2527.576565
344.174605	2527.621936
344.566033	2524.894671
344.957397	2524.269568
345.348697	2520.183713
345.739934	2520.266892
346.131106	2517.695904
346.522215	2515.051818
346.913260	2512.526200
347.304241	2515.525687
347.695159	2510.701303
348.086012	2510.537465
348.476802	2507.674090
348.867528	2507.200221
349.258191	2502.874911
349.648789	2505.087978
350.039324	2503.452123
350.429796	2499.318377
350.820203	2499.746875
351.210548	2500.283758
351.600828	2497.218737
351.991045	2496.376864
352.381198	2494.506596
352.771288	2494.362923
353.161314	2495.439209
353.551276	2494.413335
353.941175	2495.126658
354.331010	2495.431648
354.720782	2497.629591
355.110490	2494.967862
355.500135	2493.150526
355.889717	2491.789414
356.279235	2494.125989
356.668689	2496.613798
357.058080	2494.567090
357.447408	2494.688077
357.836672	2492.084322
358.225873	2494.015083
358.615010	2494.728407
359.004084	2497.853922
359.393095	2499.003305
359.782043	2498.841988
360.170927	2499.411639
360.559748	2499.920795
360.948505	2499.893069
361.337199	2499.527585
361.725830	2501.153357
362.114398	2502.073368
362.502903	2500.682009
362.891344	2502.123779
363.279722	2501.869201
363.668037	2503.293327
364.056289	2507.346415
364.444478	2505.617299
364.832603	2504.077227
365.220665	2504.863647
365.608665	2505.458503
365.996601	2505.546723
366.384474	2507.613596
366.772284	2505.869357
367.160031	2506.643174
367.547715	2507.865654
367.935336	2506.892711
368.322893	2508.629388
368.710388	2506.537310
369.097820	2509.728360
369.485189	2509.352794
369.872495	2508.548730
370.259738	2509.110819
370.646918	2511.021416
371.034035	2507.848010
371.421090	2511.313803
371.808081	2509.670387
372.195010	2511.467558
372.581875	2510.998731
372.968678	2511.328926
373.355418	2511.278515
373.742096	2512.382528
374.128710	2511.999400
374.515262	2513.148783
374.901751	2512.584174
375.288177	2512.564009
375.674540	2513.340347
376.060841	2511.275994
376.447079	2511.170130
376.833254	2511.447393
377.219367	2510.275325
377.605417	2507.815242
377.991404	2511.011334
378.377329	2508.820952
378.763191	2508.757938
379.148991	2512.783299
379.534727	2512.853875
379.920402	2514.330933
380.306013	2513.408402
380.691563	2516.231448
381.077049	2513.415964
381.462474	2515.923938
381.847835	2513.950326
382.233134	2516.203722
382.618371	2515.359329
383.003545	2518.268075
383.388657	2518.384021
383.773706	2517.441325
384.158693	2517.592560
384.543618	2517.705986
384.928480	2516.697755
385.313280	2519.546007
385.698017	2515.815553
386.082692	2517.887468
386.467305	2517.731192
386.851856	2519.908970
387.236344	2521.660771
387.620770	2517.272447
388.005133	2519.266223
388.389435	2520.513909
388.773674	2520.385359
389.157851	2519.422499
389.541965	2521.139012
389.926018	2519.810668
390.310008	2521.905267
390.693936	2520.415606
391.077802	2522.704290
391.461606	2519.818229
391.845348	2520.433250
392.229027	2521.721265
392.612645	2523.959537
392.996200	2521.290246
393.379694	2521.431399
393.763125	2520.574402
394.146494	2520.092972
394.529801	2522.850483
394.913047	2521.358302
395.296230	2524.745957
395.679351	2525.993643
396.062410	2524.307377
396.445408	2520.357633
396.828343	2523.442819
397.211217	2521.507016
397.594028	2521.721265
397.976778	2520.682787
398.359466	2523.979702
398.742092	2519.803106
399.124656	2524.914836
399.507158	2524.357788
399.889598	2525.214785
400.271977	2524.531708
400.654294	2527.236287
401.036549	2525.292923
401.418742	2524.761081
401.800874	2525.429034
402.182944	2525.403828
402.564952	2525.398787
402.946898	2528.489014
403.328783	2528.635207
403.710606	2525.981040
404.092367	2524.824095
404.474067	2528.652852
404.855705	2524.924918
405.237282	2526.550690
405.618797	2529.542615
406.000250	2526.553211
406.381642	2527.188396
406.762972	2529.104035
407.144240	2527.914322
407.525447	2528.499096
407.906593	2528.098325
408.287677	2528.922553
408.668700	2528.557070
409.049661	2530.865918
409.430560	2531.780888
409.811399	2532.108563
410.192176	2533.827596
410.572891	2528.335259
410.953545	2530.626463
411.334138	2532.181659
411.714669	2528.814168
412.095139	2532.375744
412.475547	2530.785260
412.855894	2531.246525
413.236180	2528.352903
413.616405	2531.216278
413.996568	2531.705270
414.376670	2529.852646
414.756711	2529.527492
415.136691	2533.194931
415.516609	2532.020342
415.896466	2533.371372
416.276262	2532.869777
416.655997	2527.700073
417.035670	2531.281813
417.415283	2532.358100
417.794834	2528.158818
418.174324	2532.829447
418.553753	2531.075126
418.933121	2532.164015
419.312428	2533.890610
419.691674	2534.533357
420.070859	2533.920857
420.449983	2535.438245
420.829045	2533.053779
421.208047	2536.771630
421.586988	2532.726104
421.965867	2533.968748
422.344686	2534.853471
422.723444	2534.447658
423.102141	2535.327339
423.480777	2536.590148
423.859352	2534.470343
424.237866	2533.525127
424.616319	2534.145189
424.994712	2536.033101
425.373044	2535.798687
425.751314	2534.079654
426.129524	2534.213244
426.507673	2537.207690
426.885762	2536.771630
427.263789	2539.176260
427.641756	2534.679551
428.019662	2537.222813
428.397508	2537.220293
428.775292	2533.895652
429.153016	2536.126362
429.530679	2536.605272
429.908282	2537.137113
430.285824	2537.190046
430.663305	2536.806918
431.040726	2535.793646
431.418086	2538.067206
431.795385	2537.099305
432.172624	2537.593338
432.549802	2537.492515
432.926920	2535.725590
433.303977	2537.116949
433.680974	2539.067875
434.057910	2536.789274
434.434786	2539.934954
434.811601	2541.631302
435.188355	2539.269522
435.565050	2538.591486
435.941683	2538.843544
436.318257	2535.067720
436.694770	2535.947401
437.071222	2537.235416
437.447614	2536.922864
437.823946	2537.449665
438.200218	2541.412012
438.576429	2537.439583
438.952580	2539.803884
439.328670	2538.979655
439.704700	2541.527958
440.080670	2540.857485
440.456580	2538.346990
440.832429	2540.383617
441.208218	2539.120807
441.583947	2540.854964
441.959616	2540.900335
442.335224	2540.161806
442.710773	2541.306148
443.086261	2541.520397
443.461689	2537.051414
443.837057	2541.807743
444.212365	2539.662732
444.587612	2542.034594
444.962800	2543.183977
445.337927	2545.097095
445.712995	2540.686086
446.088002	2544.885367
446.462949	2542.150541
446.837837	2542.382434
447.212664	2540.282793
447.587431	2543.002496
447.962139	2542.732794
448.336786	2543.957795
448.711374	2544.051056
449.085901	2544.875285
449.460369	2544.076262
449.834776	2543.506611
450.209124	2542.382434
450.583412	2544.237579
450.957640	2545.931406
451.331808	2544.915614
451.705917	2544.174564
452.079965	2543.950233
452.453954	2547.347971
452.827883	2545.371838
453.201752	2543.262115
453.575562	2543.680531
453.949311	2545.276056
454.323001	2544.202291
454.696632	2547.408464
455.070202	2548.391489
455.443713	2545.278577
455.817164	2543.529297
456.190556	2541.848072
456.563888	2543.463762
456.937160	2541.200283
457.310373	2544.174564
457.683526	2548.386448
458.056619	2546.100285
458.429653	2546.012065
458.802628	2547.975594
459.175542	2546.644730
459.548398	2548.436860
459.921194	2547.781510
460.293930	2547.496685
460.666607	2547.211859
461.039224	2549.087169
461.411782	2547.499205
461.784280	2548.083979
462.156719	2549.361912
462.529099	2547.448794
462.901419	2549.651778
463.273680	2550.113043
463.645882	2548.053732
464.018024	2548.658671
464.390106	2549.014072
464.762130	2550.385266
465.134094	2549.467776
465.505999	2552.011038
465.877845	2550.644885
466.249631	2553.772921
466.621358	2554.193857
466.993026	2554.556821
467.364634	2551.731254
467.736184	2553.349464
468.107674	2552.580688
468.479105	2551.307797
468.850477	2551.489278
469.221790	2553.006666
469.593043	2549.974412
469.964238	2551.857283
470.335373	2551.728733
470.706449	2553.157900
471.077467	2552.235369
471.448425	2553.258723
471.819324	2554.508930
472.190164	2554.781152
472.560945	2555.587737
472.931667	2557.052192
473.302330	2554.254351
473.672934	2552.797458
474.043479	2552.983981
474.413965	2553.152859
474.784393	2550.662529
475.154761	2552.719320
475.525070	2551.085986
475.895321	2554.269475
476.265513	2549.069525
476.635645	2555.678477
477.005719	2556.454815
477.375734	2557.813406
477.745691	2558.181410
478.115588	2559.308108
478.485427	2556.245607
478.855207	2559.789538
479.224928	2558.249466
479.594591	2562.269786
479.964194	2562.967986
480.333739	2564.969324
480.703226	2566.038048
481.072653	2565.385219
481.442022	2566.993347
481.811333	2571.651373
482.180584	2568.992165
482.549777	2572.241188
482.918912	2572.226065
483.287988	2574.696230
483.657005	2573.564491
484.025964	2576.828638
484.394864	2579.351736
484.763706	2583.878692
485.132489	2582.323496
485.501213	2586.280802
485.869879	2587.248703
486.238487	2590.890937
486.607036	2594.066864
486.975527	2599.798656
487.343959	2604.890221
487.712333	2605.520365
488.080648	2609.031529
488.448905	2613.878598
488.817104	2619.517129
489.185244	2626.514251
489.553326	2632.992133
489.921350	2644.480923
490.289315	2664.706032
490.657222	2676.056190
491.025070	2683.607838
491.392861	2690.667974
491.760593	2694.963037
492.128267	2695.842719
492.495883	2699.918492
492.863440	2704.705067
493.230939	2707.306303
493.598380	2717.033209
493.965763	2721.852552
494.333088	2729.414283
494.700354	2736.119017
495.067563	2750.239289
495.434713	2759.673809
495.801805	2777.998403
496.168839	2787.437964
496.535815	2800.602937
496.902733	2809.251036
497.269593	2824.432471
497.636395	2835.283555
498.003139	2862.205837
498.369825	2867.872094
498.736453	2891.825136
499.103023	2903.389543
499.469535	2925.870569
499.835989	2940.976386
500.202385	2958.723768
500.568723	2975.193218
500.935003	3001.414780
501.301226	3022.857328
501.667390	3052.020403
502.033497	3084.568613
502.399546	3094.892896
502.765537	3112.604990
503.131470	3142.408291
503.497345	3184.317924
503.863163	3181.439425
504.228923	3231.843402
504.594625	3260.860283
504.960269	3271.509721
505.325856	3319.980415
505.691385	3334.806448
506.056856	3373.961090
506.422270	3416.233686
506.787625	3433.459308
507.152924	3481.861947
507.518164	3508.325484
507.883347	3539.782284
508.248472	3564.148701
508.613540	3630.518012
508.978550	3656.031292
509.343503	3687.619162
509.708398	3748.657453
510.073236	3800.883807
510.438016	3844.028522
510.802738	3881.174264
511.167403	3934.164352
511.532010	3969.712049
511.896561	4036.000701
512.261053	4102.627111
512.625488	4126.796923
512.989866	4173.046989
513.354186	4217.638516
513.718449	4259.102006
514.082655	4338.679140
514.446803	4378.274883
514.810894	4455.807829
515.174927	4487.942664
515.538904	4537.149367
515.902822	4629.886433
516.266684	4657.375845
516.630488	4707.731931
516.994235	4765.861476
517.357925	4850.202500
517.721558	4923.558850
518.085133	4994.331609
518.448651	5044.503693
518.812112	5075.257252
519.175516	5147.413808
519.538863	5240.937294
519.902152	5266.294298
520.265385	5396.532507
520.628560	5411.323253
520.991678	5483.472246
521.354739	5555.933792
521.717743	5592.575418
522.080690	5649.767309
522.443580	5769.640906
522.806413	5820.647301
523.169189	5888.813783
523.531908	5977.152442
523.894569	5976.189582
524.257174	6046.838833
524.619722	6159.881667
524.982213	6194.761410
525.344647	6299.473737
525.707025	6335.066804
526.069345	6438.869203
526.431608	6481.169525
526.793815	6588.470484
527.155964	6563.564664
527.518057	6644.719679
527.880093	6692.784560
528.242072	6779.263034
528.603995	6813.532798
528.965860	6835.875192
529.327669	6922.477173
529.689421	6961.160468
530.051117	7009.510174
530.412755	7142.521018
530.774337	7131.745552
531.135862	7205.719443
531.497331	7260.872187
531.858743	7251.999756
532.220098	7404.088847
532.581396	7397.794967
532.942638	7448.887061
533.303824	7486.368040
533.664953	7558.166673
534.026025	7567.356697
534.387040	7684.167793
534.747999	7746.226918
535.108902	7845.877926
535.469748	7751.298318
535.830537	7870.609827
536.191270	7917.411899
536.551947	7997.427614
536.912567	8042.785396
537.273131	8055.345430
537.633638	8092.012263
537.994089	8147.727095
538.354483	8157.572469
538.714821	8313.122312
539.075103	8370.102474
539.435328	8397.942246
539.795497	8326.405752
540.155609	8498.941763
540.515665	8605.421015
540.875665	8464.283830
541.235609	8565.744613
541.595496	8609.148948
541.955328	8783.598077
542.315102	8733.350376
542.674821	8743.382272
543.034483	8788.588819
543.394090	8841.672169
543.753640	8825.283378
544.113134	9050.524652
544.472571	8973.057241
544.831953	9133.950707
545.191278	9023.309983
545.550548	9087.690559
545.909761	9239.764527
546.268918	9259.669523
546.628019	9363.247590
546.987064	9298.257035
547.346053	9269.424155
547.704986	9389.880006
548.063863	9421.672043
548.422684	9443.371689
548.781449	9413.817925
549.140158	9535.556749
549.498811	9467.349937
549.857408	9376.170588
550.215949	9603.304816
550.574434	9512.735446
550.932864	9628.336665
551.291237	9705.846926
551.649555	9699.046409
552.007817	9739.415969
552.366022	9725.341068
552.724173	9752.976673
553.082267	9760.871120
553.440305	9918.830635
553.798288	9761.090410
554.156215	9926.475545
554.514086	9933.233211
554.871902	9817.798350
555.229661	9876.003512
555.587365	9874.334890
555.945014	9796.315473
556.302606	9941.798132
556.660143	9865.192758
557.017625	10026.078662
557.375050	9957.284556
557.732421	10102.114386
558.089735	10040.093070
558.446994	10057.454804
558.804197	10113.323391
559.161345	10140.074274
559.518437	10008.137196
559.875474	10109.804666
560.232455	10153.266974
560.589381	10120.701120
560.946251	10137.291557
561.303065	10252.199618
561.659825	10207.945849
562.016528	10156.052211
562.373177	10050.981962
562.729770	10183.463485
563.086307	10108.945149
563.442789	10205.556342
563.799216	10102.565569
564.155587	10166.124437
564.511904	10132.177307
564.868164	10137.863728
565.224370	10160.778293
565.580520	10098.759498
565.936615	10114.702147
566.292654	9997.986833
566.648638	10128.204878
567.004567	10101.378377
567.360441	10091.270864
567.716260	10012.311271
568.072023	10109.776940
568.427732	10072.916023
568.783385	9987.723043
569.138982	10069.392256
569.494525	10090.023178
569.850013	9979.939502
570.205445	10060.877747
570.560823	9969.085898
570.916145	9891.966326
571.271412	9962.991143
571.626625	9917.020861
571.981782	9899.825485
572.336884	9879.053410
572.691931	9888.974401
573.046923	9840.027318
573.401860	9801.802769
573.756743	9743.151464
574.111570	9782.991703
574.466342	9774.343604
574.821059	9804.116658
575.175722	9698.849804
575.530330	9723.193536
575.884882	9715.740190
576.239380	9644.256629
576.593823	9623.741653
576.948211	9642.870312
577.302544	9524.002424
577.656823	9545.868429
578.011047	9542.929437
578.365216	9521.665850
578.719330	9447.555847
579.073389	9461.366088
579.427394	9408.461699
579.781344	9393.983505
580.135239	9337.943518
580.489080	9353.021609
580.842866	9252.382535
581.196597	9258.457125
581.550273	9303.855236
581.903895	9270.878528
582.257463	9341.600875
582.610975	9224.910767
582.964434	9244.291483
583.317837	9173.511162
583.671186	9155.476434
584.024481	9154.032144
584.377721	9067.725069
584.730906	9051.845435
585.084037	9083.718130
585.437113	9008.483950
585.790135	9035.527220
586.143103	8938.679092
586.496016	8911.736646
586.848874	8972.963980
587.201679	8964.512485
587.554428	8853.783541
587.907124	8895.645283
588.259765	8871.480512
588.612352	8871.498156
588.964884	8751.334692
589.317362	8761.878265
589.669786	8761.217874
590.022155	8819.352460
590.374470	8828.870159
590.726731	8759.952545
591.078937	8622.719734
591.431090	8733.650324
591.783188	8608.433104
592.135232	8601.733411
592.487222	8598.771733
592.839157	8652.313828
593.191038	8583.232376
593.542866	8535.318729
593.894639	8433.079088
594.246358	8488.156214
594.598022	8503.153647
594.949633	8406.081189
595.301190	8379.481540
595.652692	8406.434069
596.004141	8517.253754
596.355535	8294.704456
596.706876	8272.924151
597.058162	8212.662198
597.409395	8292.733365
597.760573	8350.815019
598.111698	8253.054443
598.462768	8244.802074
598.813785	8210.998617
599.164748	8177.994183
599.515657	8166.389447
599.866511	8085.173938
600.217312	8203.704068
600.568060	8064.825320
600.918753	8165.182090
601.269392	8136.467678
601.619978	8053.197899
601.970510	8119.922611
602.320988	8110.876261
602.671412	8168.380703
603.021783	8106.359387
603.372100	8078.232269
603.722363	8078.202022
604.072572	8059.534629
604.422728	8066.325063
604.772830	7998.718149
605.122878	8008.286259
605.472872	8005.473295
605.822813	8030.651338
606.172701	7974.192936
606.522534	8050.349647
606.872314	8051.254534
607.222041	8019.822940
607.571714	8078.118843
607.921333	8033.320629
608.270899	8038.059314
608.620411	8129.037017
608.969870	8029.728807
609.319276	8028.483642
609.668627	8034.424642
610.017926	8073.233965
610.367171	8122.576779
610.716362	8100.834282
611.065500	8092.395391
611.414585	8117.495296
611.763616	8103.238912
612.112594	8087.271058
612.461518	8102.495342
612.810389	8163.306781
613.159207	8108.080941
613.507971	8051.138587
613.856682	8173.555447
614.205340	8128.361503
614.553945	8207.063997
614.902496	8100.047862
615.250994	8160.148498
615.599439	8142.559912
615.947830	8148.957137
616.296169	8126.508879
616.644454	8140.477916
616.992686	8136.429869
617.340864	8191.169238
617.688990	8094.384126
618.037063	8193.316770
618.385082	8137.619582
618.733048	8227.188283
619.080961	8162.404415
619.428821	8181.681787
619.776628	8183.685646
620.124382	8130.808983
620.472083	8116.673587
620.819731	8143.414388
621.167326	8039.261629
621.514868	8043.397896
621.862357	7931.388498
622.209793	7953.304915
622.557176	7884.457877
622.904506	7858.284206
623.251783	7792.592930
623.599007	7747.865293
623.946179	7751.494923
624.293297	7707.284004
624.640363	7630.426573
624.987376	7612.205322
625.334336	7557.624749
625.681243	7508.977615
626.028097	7497.125862
626.374899	7476.802450
626.721647	7467.930020
627.068343	7398.601551
627.414987	7370.945781
627.761577	7326.160171
628.108115	7364.377158
628.454600	7256.708194
628.801032	7309.390772
629.147412	7270.717561
629.493739	7256.907320
629.840014	7194.684358
630.186236	7256.143585
630.532405	7134.172867
630.878521	7184.279416
631.224585	7140.378528
631.570597	7068.284987
631.916556	7103.119360
632.262462	7101.412929
632.608316	7057.779222
632.954117	7030.768720
633.299866	7019.103490
633.645562	7012.542428
633.991206	6936.554596
634.336797	6883.017542
634.682336	6838.481468
635.027823	6803.644574
635.373257	6798.547968
635.718639	6727.162709
636.063968	6742.109730
636.409245	6633.576208
636.754470	6632.343646
637.099642	6592.773109
637.444762	6532.261619
637.789829	6548.322735
638.134845	6487.297047
638.479808	6471.903884
638.824719	6475.624255
639.169577	6408.017341
639.514383	6430.236227
639.859137	6357.613364
640.203839	6368.197267
640.548489	6351.919381
640.893086	6329.690413
641.237632	6301.223017
641.582125	6318.209185
641.926566	6286.520492
642.270955	6302.168234
642.615292	6297.807636
642.959576	6317.311860
643.303809	6300.343336
643.647990	6309.636703
643.992118	6297.379138
644.336195	6248.953814
644.680219	6276.203771
645.024192	6262.169199
645.368112	6364.134097
645.711981	6375.406117
646.055797	6453.221368
646.399562	6413.754174
646.743274	6535.803029
647.086935	6590.761689
647.430544	6589.516524
647.774101	6602.202587
648.117606	6607.790706
648.461059	6606.139728
648.804460	6567.279994
649.147810	6474.454708
649.491108	6443.353309
649.834354	6417.890441
650.177548	6333.559499
650.520690	6247.219657
650.863781	6230.568726
651.206820	6252.379278
651.549807	6172.343399
651.892742	6114.234018
652.235626	6125.339680
652.578458	6104.638182
652.921238	6010.003122
653.263967	6053.445265
653.606644	5997.639692
653.949269	5996.482747
654.291843	5941.440909
654.634365	5989.130224
654.976836	5945.685560
655.319255	5936.883706
655.661622	5926.279638
656.003938	5916.688843
656.346203	5877.403131
656.688416	5912.378657
657.030577	5858.695409
657.372687	5830.462427
657.714746	5821.322815
658.056753	5861.059711
658.398708	5800.742305
658.740612	5795.610410
659.082465	5841.028686
659.424266	5833.219938
659.766016	5831.175751
660.107715	5806.101051
660.449362	5818.903062
660.790958	5817.171425
661.132503	5802.378159
661.473996	5840.181772
661.815438	5825.501932
662.156829	5823.036808
662.498168	5817.640253
662.839456	5788.882990
663.180693	5828.125853
663.521879	5829.428991
663.863013	5816.266538
664.204097	5838.591288
664.545129	5877.032607
664.886110	5874.055805
665.227040	5904.741309
665.567918	5872.324169
665.908746	5896.055401
666.249522	5902.467748
666.590248	5891.513321
666.930922	5921.644298
667.271545	5932.908756
667.612118	5931.156955
667.952639	5905.671402
668.293109	5927.585297
668.633528	5890.671448
668.973896	5891.994751
669.314213	5881.441096
669.654480	5860.512745
669.994695	5855.927816
670.334859	5845.384243
670.674973	5836.383263
671.015035	5840.829560
671.355047	5843.004818
671.695008	5826.968908
672.034918	5800.129805
672.374777	5813.975334
672.714585	5795.229803
673.054342	5798.188960
673.394049	5791.948012
673.733705	5821.181663
674.073310	5815.028935
674.412864	5773.386483
674.752368	5763.437766
675.091820	5765.900370
675.431223	5705.419127
675.770574	5703.526173
676.109875	5657.737373
676.449125	5661.603938
676.788324	5624.342249
677.127473	5571.243776
677.466571	5565.285132
677.805619	5551.053955
678.144616	5538.168766
678.483562	5521.706878
678.822458	5489.821580
679.161303	5485.181197
679.500098	5474.060412
679.838842	5454.036949
680.177535	5463.799143
680.516179	5476.815403
680.854771	5484.767823
681.193314	5570.873251
681.531805	5675.338562
681.870247	5826.086706
682.208638	5925.586480
682.546978	5938.527122
682.885268	5912.121558
683.223508	5831.130380
683.561697	5775.276916
683.899836	5746.474284
684.237925	5704.405855
684.575963	5670.730947
684.913951	5631.193177
685.251889	5690.600655
685.589776	5656.124204
685.927614	5635.831039
686.265401	5700.267067
686.603137	5680.533471
686.940824	5760.029946
687.278460	5781.873266
687.616046	5788.154544
687.953582	5857.334298
688.291068	5841.255538
688.628504	5910.601650
688.965889	5868.056832
689.303224	5810.512061
689.640510	5766.477582
689.977745	5690.882960
690.314930	5587.491415
690.652065	5534.944948
690.989150	5438.041368
691.326185	5365.773907
691.663170	5317.676258
692.000105	5237.574844
692.336990	5161.566847
692.673825	5136.897961
693.010610	5066.805758
693.347345	4997.774717
693.684030	4985.169312
694.020665	4944.348569
694.357251	4856.274570
694.693786	4864.138770
695.030272	4835.184903
695.366707	4802.974450
695.703093	4762.819139
696.039429	4789.718736
696.375716	4772.026807
696.711952	4743.451026
697.048139	4731.448039
697.384276	4715.079412
697.720363	4726.474941
698.056400	4733.232607
698.392388	4682.700081
698.728326	4668.166435
699.064214	4641.037465
699.400053	4636.278616
699.735842	4603.460705
700.071581	4575.530192
700.407270	4555.584867
700.742910	4539.039800
701.078501	4481.686592
701.414042	4481.900841
701.749533	4451.600986
702.084974	4381.949884
702.420366	4445.720480
702.755709	4383.222775
703.091002	4329.148839
703.426246	4375.454357
703.761440	4334.066484
704.096584	4296.928304
704.431679	4319.210204
704.766725	4302.218995
705.101721	4291.446049
705.436668	4322.275225
705.771565	4267.760188
706.106413	4294.657264
706.441212	4329.058098
706.775961	4336.665199
707.110661	4315.084019
707.445311	4342.538143
707.779913	4364.595712
708.114465	4379.598186
708.448967	4397.632914
708.783421	4464.382832
709.117825	4501.135364
709.452180	4505.715252
709.786485	4552.726532
710.120742	4637.690139
710.454949	4621.210607
710.789107	4689.152758
711.123216	4761.319396
711.457275	4755.443931
711.791286	4826.476310
712.125247	4840.941901
712.459159	4743.209051
712.793023	4821.031863
713.126837	4781.899907
713.460602	4770.247280
713.794318	4695.146690
714.127985	4699.240107
714.461602	4616.945791
714.795171	4589.244651
715.128691	4525.295094
715.462162	4465.915342
715.795584	4415.778547
716.128957	4398.641144
716.462281	4350.903938
716.795556	4321.125842
717.128782	4284.867343
717.461960	4215.014595
717.795088	4226.142942
718.128167	4186.610214
718.461198	4128.311790
718.794180	4120.182929
719.127113	4102.130557
719.459997	4085.187239
719.792833	4039.259807
720.125619	4029.721944
720.458357	3993.208867
720.791046	4002.940814
721.123686	3973.253459
721.456278	3932.397428
721.788821	3951.291673
722.121315	3920.351591
722.453761	3895.647417
722.786158	3912.033687
723.118506	3932.326852
723.450805	3880.891959
723.783056	3905.389446
724.115259	3918.408226
724.447412	3927.598250
724.779518	3918.887136
725.111574	3922.756221
725.443582	3949.895273
725.775542	3942.106690
726.107453	3990.022858
726.439315	3990.037981
726.771129	4005.834437
727.102895	4042.483625
727.434612	4086.266046
727.766281	4098.606791
728.097901	4096.161831
728.429473	4103.063171
728.760996	4110.687916
729.092471	4103.547122
729.423897	4091.213939
729.755276	4098.382460
730.086606	4095.057819
730.417887	4132.584168
730.749120	4195.868293
731.080305	4263.450001
731.411442	4289.623672
731.742530	4258.449177
732.073570	4259.575874
732.404562	4315.154596
732.735506	4307.403822
733.066401	4272.937453
733.397249	4206.966393
733.728048	4125.922283
734.058798	4045.825910
734.389501	3977.901403
734.720156	3915.779264
735.050762	3872.236298
735.381320	3866.232284
735.711831	3815.195642
736.042293	3784.552989
736.372707	3810.078871
736.703073	3781.019140
737.033391	3770.440278
737.363661	3788.890902
737.693883	3813.070796
738.024056	3823.024554
738.354182	3817.552382
738.684260	3882.810118
739.014290	3898.072212
739.344272	3895.216398
739.674207	3939.165177
740.004093	3943.790436
740.333931	3938.630815
740.663722	3936.158129
740.993464	3935.815330
741.323159	3908.252822
741.652806	3883.548647
741.982405	3854.655274
742.311956	3825.214936
742.641460	3817.693534
742.970915	3792.901139
743.300323	3751.553596
743.629683	3716.449521
743.958996	3707.085577
744.288260	3685.433822
744.617477	3651.877381
744.946647	3635.629742
745.275768	3610.983541
745.604842	3605.420628
745.933869	3561.146694
746.262847	3555.132598
746.591778	3591.842280
746.920662	3564.972930
747.249498	3529.770553
747.578286	3579.410795
747.907027	3595.852518
748.235720	3589.861107
748.564365	3615.530662
748.892963	3619.044346
749.221514	3599.179679
749.550017	3576.522213
749.878473	3574.563725
750.206881	3542.756565
750.535242	3541.375289
750.863555	3544.684806
751.191821	3536.097201
751.520039	3517.334026
751.848210	3495.611694
752.176334	3534.259700
752.504411	3538.695916
752.832440	3494.374091
753.160421	3477.957573
753.488356	3492.092969
753.816243	3503.594361
754.144082	3458.105510
754.471875	3444.736370
754.799620	3464.164977
755.127318	3455.385807
755.454969	3454.874130
755.782572	3460.772280
756.110129	3436.834361
756.437638	3425.103596
756.765100	3442.724949
757.092515	3449.986731
757.419882	3457.336734
757.747203	3430.540480
758.074477	3434.825461
758.401703	3446.127728
758.728882	3470.723518
759.056014	3474.219558
759.383099	3476.205772
759.710138	3475.943632
760.037129	3494.323679
760.364073	3523.068339
760.690970	3506.462778
761.017820	3484.485868
761.344623	3502.709639
761.671379	3549.662946
761.998088	3597.954679
762.324751	3725.057291
762.651366	3973.099704
762.977935	4441.034728
763.304456	4875.723342
763.630931	4964.772804
763.957359	4603.818627
764.283740	4268.526443
764.610074	4080.289758
764.936362	3883.508318
765.262602	3730.486614
765.588796	3620.055097
765.914943	3531.842467
766.241044	3447.057821
766.567097	3419.795261
766.893104	3369.171994
767.219064	3340.540761
767.544978	3314.079744
767.870845	3257.976743
768.196665	3238.706932
768.522438	3249.207656
768.848165	3244.600041
769.173846	3208.157540
769.499479	3194.546425
769.825066	3175.175791
770.150607	3156.485713
770.476101	3174.522962
770.801548	3169.476767
771.126949	3121.573202
771.452303	3107.614247
771.777611	3112.980556
772.102872	3118.866103
772.428087	3093.854418
772.753256	3084.835794
773.078378	3075.925554
773.403453	3041.746531
773.728482	3032.687578
774.053465	3052.153993
774.378401	3038.558001
774.703291	3008.169926
775.028135	3012.727129
775.352932	3004.499966
775.677683	2994.402535
776.002388	2992.799448
776.327046	2991.229128
776.651658	2980.753611
776.976224	2968.586786
777.300743	2970.247846
777.625216	2959.419448
777.949643	2956.619087
778.274024	2959.215281
778.598359	2947.262705
778.922647	2954.887450
779.246889	2952.114816
779.571086	2937.447579
779.895236	2930.397525
780.219339	2941.220882
780.543397	2955.716720
780.867409	2957.597071
781.191374	2948.916204
781.515294	2949.697583
781.839167	2947.640792
782.162995	2939.315326
782.486776	2949.856379
782.810511	2948.283539
783.134201	2931.214192
783.457844	2940.366407
783.781441	2929.507761
784.104993	2911.568815
784.428498	2911.533527
784.751958	2924.822009
785.075372	2921.509971
785.398739	2902.572876
785.722061	2919.007038
786.045337	2931.791404
786.368568	2916.310021
786.691752	2907.364493
787.014891	2955.729323
787.337983	2981.998776
787.661030	3010.652694
787.984031	3077.289186
788.306987	3126.001856
788.629897	3115.412912
788.952760	3100.758278
789.275579	3086.065835
789.598351	3024.180631
789.921078	2982.449959
790.243759	2974.502580
790.566395	2954.642954
790.888984	2934.150664
791.211529	2916.937644
791.534027	2908.108063
791.856480	2897.415776
792.178888	2881.866337
792.501249	2876.469782
792.823566	2873.581201
793.145836	2869.084491
793.468062	2865.901003
793.790241	2863.408152
794.112375	2869.613812
794.434464	2878.314844
794.756507	2883.429095
795.078505	2892.908984
795.400457	2903.379461
795.722364	2940.283228
796.044226	2965.824234
796.366042	2966.340952
796.687812	2957.818881
797.009538	2977.302941
797.331218	2961.337607
797.652852	2946.191460
797.974442	2930.155550
798.295986	2927.745878
798.617484	2922.674477
798.938938	2906.084040
799.260346	2893.425703
799.581709	2888.021586
799.903026	2877.052035
800.224299	2873.671941
800.545526	2863.665251
800.866708	2850.752335
801.187845	2838.709019
801.508936	2841.181705
801.829983	2851.647140
802.150984	2835.825479
802.471940	2823.383911
802.792851	2823.393993
803.113717	2822.305104
803.434538	2830.655776
803.755314	2822.428612
804.076045	2814.990390
804.396731	2812.633651
804.717372	2814.887046
805.037967	2808.998979
805.358518	2815.517191
805.679024	2829.614777
805.999485	2822.733602
806.319901	2828.863645
806.640272	2819.839980
806.960598	2823.227635
807.280879	2834.421517
807.601115	2842.416787
807.921306	2828.425065
808.241453	2824.016576
808.561554	2830.859942
808.881611	2832.072340
809.201623	2829.917247
809.521590	2825.327276
809.841513	2822.337872
810.161390	2826.544715
810.481223	2820.906184
810.801011	2810.425625
811.120755	2809.646767
811.440453	2812.021150
811.760107	2809.137610
812.079716	2806.780871
812.399281	2798.384829
812.718801	2793.038686
813.038276	2787.876544
813.357707	2793.860394
813.677093	2798.667134
813.996434	2793.535239
814.315731	2791.314611
814.634983	2787.826132
814.954191	2786.714558
815.273354	2799.892134
815.592473	2811.605255
815.911547	2812.537869
816.230577	2819.882830
816.549562	2825.458346
816.868502	2827.326093
817.187399	2836.874039
817.506250	2852.738550
817.825058	2845.585153
818.143821	2858.359437
818.462539	2872.310830
818.781213	2897.254459
819.099843	2935.582352
819.418429	2991.471104
819.736970	3051.665001
820.055466	3123.665281
820.373919	3224.929459
820.692327	3368.158722
821.010691	3531.214843
821.329011	3966.304229
821.647286	4852.884394
821.965517	6209.537032
822.283704	6922.585558
822.601847	6902.730974
822.919945	6281.144102
823.237999	5787.020284
823.556010	5211.721287
823.873976	4674.805634
824.191897	4273.247484
824.509775	3983.532372
824.827609	3721.304152
825.145398	3598.511727
825.463144	3586.385231
825.780845	3677.982996
826.098502	3784.895787
826.416116	4062.582706
826.733685	4367.706104
827.051210	4429.477883
827.368692	4312.583607
827.686129	4053.531314
828.003522	3735.406780
828.320872	3480.248778
828.638177	3293.224491
828.955439	3158.497134
829.272656	3075.252560
829.589830	3010.614886
829.906960	2960.485652
830.224046	2919.765732
830.541088	2887.361195
830.858086	2869.208000
831.175041	2854.659230
831.491952	2855.664940
831.808819	2864.441589
832.125642	2890.433778
832.442421	2933.901127
832.759157	3016.049249
833.075849	3184.786751
833.392497	3468.454998
833.709101	3661.216119
834.025662	3610.696195
834.342179	3456.295735
834.658653	3283.510187
834.975083	3136.227837
835.291469	3040.919782
835.607811	2961.607308
835.924110	2902.832496
836.240366	2853.368694
836.556578	2808.953608
836.872746	2789.038530
837.188871	2765.080446
837.504952	2750.763569
837.820990	2744.376427
838.136984	2730.364540
838.452935	2721.171996
838.768842	2719.856255
839.084706	2737.142372
839.400526	2815.693631
839.716303	2946.055349
840.032037	3026.260107
840.347727	3006.972652
840.663373	2950.521811
840.978977	2875.779144
841.294537	2806.334729
841.610054	2756.283633
841.925527	2736.101373
842.240957	2716.839125
842.556344	2692.495393
842.871687	2678.380162
843.186987	2671.907320
843.502244	2665.300888
843.817458	2660.121103
844.132629	2645.035450
844.447756	2640.818525
844.762840	2631.283182
845.077881	2635.704274
845.392879	2632.863584
845.707833	2630.358130
846.022745	2622.340175
846.337613	2626.930146
846.652438	2625.158180
846.967221	2627.199847
847.281960	2625.793366
847.596656	2621.636934
847.911309	2620.585854
848.225919	2620.623662
848.540485	2614.571757
848.855009	2616.557972
849.169490	2615.027982
849.483928	2614.067642
849.798323	2613.228290
850.112675	2613.268619
850.426984	2614.929679
850.741251	2613.087137
851.055474	2613.603856
851.369654	2616.436984
851.683792	2615.368259
851.997887	2614.675101
852.311938	2613.853393
852.625947	2613.296345
852.939914	2618.067797
853.253837	2617.079731
853.567718	2611.415995
853.881555	2608.655963
854.195350	2615.443877
854.509103	2612.812394
854.822812	2609.759976
855.136479	2610.397682
855.450103	2613.003958
855.763685	2614.135697
856.077224	2613.470265
856.390720	2607.667897
856.704173	2614.425564
857.017584	2618.682818
857.330953	2618.103085
857.644278	2620.396810
857.957561	2617.712396
858.270802	2615.058228
858.584000	2616.709206
858.897155	2618.282046
859.210268	2621.528549
859.523339	2614.826335
859.836367	2610.339708
860.149352	2614.786006
860.462295	2615.269957
860.775195	2610.032198
861.088054	2608.310644
861.400869	2608.217383
861.713642	2604.386106
862.026373	2606.498349
862.339062	2608.716457
862.651708	2614.710389
862.964312	2615.393465
863.276873	2613.891201
863.589392	2619.073508
863.901869	2622.619959
864.214303	2625.846298
864.526696	2626.806637
864.839045	2629.014663
865.151353	2633.952473
865.463619	2632.220837
865.775842	2632.253604
866.088023	2632.064561
866.400162	2633.571866
866.712258	2634.746455
867.024313	2631.041207
867.336325	2629.354941
867.648296	2631.688995
867.960224	2635.714356
868.272110	2634.945580
868.583954	2625.125413
868.895755	2630.516927
869.207515	2633.382823
869.519233	2637.839203
869.830909	2636.641929
870.142542	2631.686474
870.454134	2631.923409
870.765684	2640.155613
871.077191	2639.762403
871.388657	2644.433032
871.700081	2642.161992
872.011463	2644.221303
872.322803	2643.450007
872.634101	2646.396561
872.945357	2652.803868
873.256571	2658.775115
873.567744	2654.532984
873.878874	2656.007521
874.189963	2655.389980
874.501010	2662.513130
874.812015	2665.207627
875.122979	2664.985816
875.433900	2655.458035
875.744780	2653.814619
876.055618	2662.581186
876.366415	2666.654438
876.677169	2666.271310
876.987882	2658.520536
877.298554	2658.878458
877.609183	2669.457320
877.919771	2675.778927
878.230317	2682.501305
878.540822	2692.157635
878.851285	2706.245140
879.161707	2729.305898
879.472087	2764.916609
879.782425	2809.740028
880.092722	2921.288160
880.402977	3105.754062
880.713191	3356.185982
881.023363	3638.525885
881.333494	3825.434226
881.643583	3991.762056
881.953631	3987.736694
882.263637	3816.675221
882.573602	3602.539608
882.883526	3476.616627
883.193408	3367.495810
883.503248	3268.598454
883.813048	3158.587874
884.122806	3044.859444
884.432522	2961.703090
884.742197	2902.386354
885.051831	2863.819006
885.361424	2830.355827
885.670975	2797.691671
885.980485	2767.162443
886.289954	2750.887078
886.599382	2735.314953
886.908768	2727.687688
887.218113	2707.059286
887.527417	2695.827595
887.836680	2687.537418
888.145901	2682.201357
888.455082	2673.921261
888.764221	2659.496000
889.073319	2656.176400
889.382376	2653.567603
889.691392	2655.899136
890.000366	2656.241935
890.309300	2654.676657
890.618193	2655.294198
890.927044	2657.537511
891.235855	2657.968530
891.544625	2659.430465
891.853353	2658.213026
892.162041	2666.069664
892.470687	2685.921728
892.779293	2696.974458
893.087858	2704.800849
893.396381	2726.913871
893.704864	2766.799480
894.013306	2837.015191
894.321707	2924.786721
894.630068	2971.994606
894.938387	2989.787358
895.246665	2984.305104
895.554903	2942.634926
895.863100	2901.080695
896.171256	2842.885615
896.479371	2783.878909
896.787446	2747.832138
897.095480	2729.966289
897.403473	2724.753736
897.711425	2708.788402
898.019336	2694.239632
898.327207	2676.890501
898.635038	2679.559792
898.942827	2678.475944
899.250576	2666.725014
899.558284	2656.395690
899.865952	2651.525935
900.173579	2648.614669
900.481165	2646.182312
900.788711	2639.719553
901.096216	2634.449027
901.403681	2630.232102
901.711105	2630.645476
902.018489	2626.937707
902.325832	2630.393418
902.633135	2634.872484
902.940397	2646.288177
903.247619	2682.327385
903.554800	2750.975298
903.861941	2872.688916
904.169041	2995.199037
904.476101	3049.121739
904.783121	3044.070503
905.090100	2991.524036
905.397039	2919.725402
905.703938	2847.147910
906.010796	2789.509878
906.317614	2736.141703
906.624391	2702.779347
906.931129	2677.379493
907.237826	2657.232522
907.544483	2639.316261
907.851099	2624.737244
908.157675	2615.547220
908.464211	2608.721498
908.770707	2597.822523
909.077163	2595.876638
909.383578	2592.582244
909.689954	2592.436051
909.996289	2590.175093
910.302584	2588.153590
910.608839	2585.272571
910.915054	2588.372881
911.221229	2587.657037
911.527363	2591.261462
911.833458	2587.150401
912.139513	2589.988570
912.445527	2592.519230
912.751502	2596.063161
913.057436	2604.532299
913.363331	2609.089502
913.669186	2618.203908
913.975000	2631.517596
914.280775	2649.943013
914.586510	2667.312309
914.892205	2699.689119
915.197859	2764.135230
915.503475	2845.691017
915.809050	2908.977662
916.114585	2922.450146
916.420081	2933.213009
916.725536	2944.225410
917.030952	2920.262285
917.336328	2871.305120
917.641665	2824.520691
917.946961	2776.055038
918.252218	2744.283166
918.557435	2720.340206
918.862612	2699.227854
919.167750	2684.114474
919.472848	2667.783657
919.777906	2651.888898
920.082925	2638.998668
920.387904	2630.272431
920.692843	2626.431072
920.997743	2621.183230
921.302603	2616.789865
921.607423	2608.045983
921.912204	2602.097422
922.216946	2601.389140
922.521647	2600.257401
922.826310	2594.412183
923.130932	2593.792121
923.435516	2584.609659
923.740059	2584.075297
924.044564	2584.385328
924.349028	2580.286870
924.653454	2571.865622
924.957840	2571.064079
925.262186	2569.884449
925.566493	2571.321178
925.870761	2564.654252
926.174989	2566.605178
926.479178	2562.526885
926.783328	2565.042421
927.087438	2563.804817
927.391509	2563.567883
927.695541	2560.281051
927.999533	2561.634601
928.303486	2560.523026
928.607400	2559.096380
928.911275	2560.492779
929.215110	2558.380536
929.518906	2559.149312
929.822663	2560.044117
930.126381	2557.195865
930.430060	2558.050340
930.733699	2559.565207
931.037299	2558.559497
931.340861	2558.546894
931.644383	2559.330793
931.947866	2559.013201
932.251309	2557.553787
932.554714	2556.734599
932.858080	2556.961451
933.161407	2557.878941
933.464694	2556.888354
933.767943	2555.161759
934.071153	2554.829043
934.374323	2553.956923
934.677455	2558.579661
934.980548	2553.788045
935.283602	2554.977757
935.586617	2555.711245
935.889593	2554.750905
936.192530	2553.357026
936.495428	2556.212840
936.798287	2554.957592
937.101108	2556.454815
937.403890	2561.692574
937.706632	2562.965465
938.009336	2563.388922
938.312002	2570.164233
938.614628	2573.514080
938.917216	2574.426528
939.219765	2575.948957
939.522275	2577.748649
939.824747	2577.020202
940.127179	2572.609192
940.429573	2568.276321
940.731929	2568.372103
941.034246	2564.351782
941.336524	2566.486711
941.638763	2568.546022
941.940964	2566.781619
942.243126	2563.663665
942.545250	2565.387740
942.847335	2561.705177
943.149381	2560.903633
943.451389	2559.933211
943.753359	2560.802810
944.055290	2557.689898
944.357182	2558.483879
944.659036	2557.445402
944.960851	2555.917932
945.262628	2555.771739
945.564367	2560.404559
945.866067	2557.309291
946.167729	2557.135371
946.469352	2559.189641
946.770937	2558.609908
947.072484	2555.617983
947.373992	2556.785011
947.675462	2557.276523
947.976893	2555.880123
948.278286	2554.244269
948.579641	2554.786193
948.880958	2552.421892
949.182236	2553.689742
949.483476	2557.135371
949.784678	2554.587068
950.085841	2555.280226
950.386967	2553.213353
950.688054	2556.658982
950.989103	2557.379867
951.290114	2557.589075
951.591087	2562.279868
951.892021	2557.468087
952.192917	2561.238870
952.493776	2560.669220
952.794596	2560.515464
953.095378	2564.238357
953.396122	2561.652245
953.696828	2563.028480
953.997496	2558.178890
954.298126	2558.095711
954.598718	2560.704508
954.899272	2554.302242
955.199788	2555.623025
955.500266	2552.472303
955.800706	2551.811912
956.101108	2545.545758
956.401472	2547.080789
956.701798	2543.385624
957.002087	2546.357384
957.302337	2545.888557
957.602550	2548.431819
957.902724	2545.737322
958.202861	2546.291849
958.502960	2546.279246
958.803022	2543.342774
959.103045	2544.237579
959.403031	2543.501570
959.702979	2543.887218
960.002889	2545.434853
960.302762	2544.792106
960.602596	2539.627443
960.902393	2544.383772
961.202153	2541.976621
961.501875	2543.191539
961.801559	2543.330171
962.101205	2543.594832
962.400814	2543.710778
962.700385	2542.400078
962.999918	2545.649102
963.299414	2541.091899
963.598873	2541.351518
963.898293	2542.110212
964.197677	2539.718184
964.497022	2541.820345
964.796331	2542.626930
965.095601	2541.724563
965.394835	2543.383103
965.694030	2542.553833
965.993189	2541.790098
966.292309	2539.032587
966.591393	2540.179450
966.890439	2543.115922
967.189447	2541.926210
967.488419	2538.853626
967.787353	2540.285314
968.086249	2537.706764
968.385108	2539.375386
968.683930	2542.561395
968.982714	2540.988555
969.281462	2540.744059
969.580172	2541.036446
969.878844	2541.167516
970.177480	2542.848741
970.476078	2541.608617
970.774639	2542.921837
971.073162	2541.371683
971.371649	2538.369676
971.670098	2536.199459
971.968510	2543.423432
972.266885	2538.168029
972.565223	2542.954605
972.863524	2540.645757
973.161788	2541.780016
973.460014	2540.262629
973.758204	2543.529297
974.056356	2543.408309
974.354471	2544.131714
974.652550	2541.401930
974.950591	2542.871426
975.248595	2544.545089
975.546563	2539.692978
975.844493	2540.502084
976.142386	2539.514017
976.440243	2539.629964
976.738062	2539.387989
977.035845	2540.905376
977.333590	2539.808925
977.631299	2540.025695
977.928971	2542.044677
978.226606	2542.251364
978.524204	2540.887732
978.821765	2541.457382
979.119290	2540.907897
979.416777	2541.205325
979.714228	2538.823379
980.011642	2541.235572
980.309020	2541.180119
980.606360	2540.474357
980.903664	2541.565767
981.200931	2542.546272
981.498162	2541.520397
981.795356	2542.425284
982.092513	2547.663043
982.389633	2548.131870
982.686717	2553.737633
982.983764	2554.279557
983.280775	2556.429609
983.577749	2557.044630
983.874686	2554.481203
984.171587	2550.806202
984.468451	2547.012734
984.765279	2548.613300
985.062070	2544.925696
985.358824	2544.993752
985.655543	2541.853113
985.952224	2542.042156
986.248869	2541.101981
986.545478	2537.878163
986.842050	2537.671476
987.138586	2535.813811
987.435086	2534.533357
987.731549	2533.089067
988.027975	2537.931095
988.324366	2536.625436
988.620719	2537.812628
988.917037	2536.277597
989.213318	2535.720549
989.509563	2538.470499
989.805772	2539.657690
990.101944	2537.973945
990.398080	2536.794315
990.694180	2535.178625
990.990244	2537.106867
991.286271	2536.713657
991.582262	2536.731301
991.878217	2536.045704
992.174136	2537.132072
992.470019	2539.914789
992.765865	2537.374048
993.061676	2535.995292
993.357450	2537.616023
993.653188	2538.331867
993.948890	2537.094264
994.244556	2539.748431
994.540186	2537.711805
994.835780	2536.653163
995.131337	2538.962011
995.426859	2542.884029
995.722345	2539.544264
996.017795	2542.160623
996.313208	2542.251364
996.608586	2541.275901
996.903928	2544.071221
997.199234	2538.082330
997.494504	2538.372196
997.789738	2541.044008
998.084936	2540.217258
998.380099	2538.289017
998.675225	2537.666435
998.970316	2540.371014
999.265371	2540.068544
999.560390	2536.842206
999.855373	2536.960673
1000.150320	2537.389171
1000.445232	2535.160981
1000.740108	2536.184335
1001.034948	2535.851619
1001.329752	2536.343132
1001.624521	2538.241126
1001.919254	2531.601927
1002.213951	2538.208359
1002.508613	2533.998995
1002.803239	2536.696012
1003.097829	2531.609488
1003.392384	2535.821372
1003.686903	2536.199459
1003.981386	2535.947401
1004.275834	2536.035621
1004.570246	2540.164326
1004.864623	2536.983358
1005.158964	2536.391023
1005.453270	2535.355066
1005.747540	2537.706764
1006.041775	2536.857329
1006.335974	2534.039324
1006.630138	2534.976979
1006.924266	2537.845396
1007.218359	2536.340611
1007.512416	2533.749458
1007.806438	2532.940353
1008.100425	2534.354397
1008.394376	2537.520241
1008.688292	2536.396064
1008.982172	2537.421939
1009.276017	2535.491177
1009.569827	2535.231557
1009.863602	2536.388502
1010.157341	2533.651156
1010.451045	2534.150230
1010.744714	2536.610313
1011.038347	2535.692823
1011.331945	2535.571835
1011.625508	2536.060827
1011.919036	2535.246681
1012.212528	2535.067720
1012.505986	2536.907741
1012.799408	2537.530323
1013.092795	2535.723070
1013.386147	2535.171063
1013.679464	2536.055786
1013.972745	2536.418749
1014.265992	2532.902544
1014.559204	2537.721887
1014.852380	2533.441948
1015.145521	2536.086033
1015.438628	2533.827596
1015.731699	2536.917823
1016.024736	2536.743903
1016.317737	2536.612833
1016.610703	2534.818183
1016.903635	2533.535209
1017.196531	2533.562935
1017.489393	2532.116124
1017.782219	2530.966741
1018.075011	2531.672503
1018.367768	2534.387164
1018.660490	2536.234747
1018.953177	2536.234747
1019.245829	2536.234747
