Dividing Wavelength (nm)	Counts (n)	Blue Motor Position (mm): 31.300000	Red Motor Position (mm): 0.000000	
326.493990	2132.045114
326.888308	2132.045114
327.282561	2132.045114
327.676750	2101.021853
328.070874	2096.497418
328.464933	2101.142841
328.858929	2107.701382
329.252859	2115.973915
329.646726	2127.608898
330.040528	2140.693213
330.434265	2157.195430
330.827938	2173.712771
331.221547	2191.089628
331.615091	2210.639223
332.008571	2232.348952
332.401986	2252.793351
332.795338	2269.948398
333.188625	2289.656789
333.581847	2310.416260
333.975006	2327.490648
334.368100	2344.854903
334.761129	2362.960207
335.154095	2379.008720
335.546996	2400.403377
335.939833	2424.323652
336.332606	2439.595828
336.725315	2451.934052
337.117960	2460.045268
337.510540	2472.393575
337.903056	2480.623258
338.295508	2486.740698
338.687896	2497.995074
339.080220	2504.838441
339.472480	2509.902280
339.864676	2516.428053
340.256807	2519.747653
340.648875	2522.585823
341.040879	2526.691843
341.432818	2526.782583
341.824694	2529.464477
342.216506	2531.977492
342.608253	2532.632842
342.999937	2530.742410
343.391557	2529.338448
343.783113	2525.413910
344.174605	2527.402645
344.566033	2525.978519
344.957397	2525.413910
345.348697	2524.418282
345.739934	2521.822088
346.131106	2522.038858
346.522215	2518.842766
346.913260	2515.659277
347.304241	2514.509894
347.695159	2507.764831
348.086012	2513.612569
348.476802	2509.292300
348.867528	2509.675428
349.258191	2505.418173
349.648789	2504.440190
350.039324	2502.340549
350.429796	2504.966990
350.820203	2500.152688
351.210548	2499.608244
351.600828	2498.857112
351.991045	2499.416680
352.381198	2497.654797
352.771288	2496.664210
353.161314	2498.156391
353.551276	2497.009529
353.941175	2497.790908
354.331010	2494.748571
354.720782	2495.197234
355.110490	2499.076402
355.500135	2497.380054
355.889717	2498.166474
356.279235	2496.215547
356.668689	2498.552122
357.058080	2501.692761
357.447408	2492.492655
357.836672	2492.762357
358.225873	2495.766884
358.615010	2494.846874
359.004084	2501.055055
359.393095	2500.187976
359.782043	2500.306443
360.170927	2500.971876
360.559748	2501.284427
360.948505	2501.614623
361.337199	2503.331136
361.725830	2503.099243
362.114398	2504.198214
362.502903	2505.496311
362.891344	2501.939777
363.279722	2504.518328
363.668037	2506.149141
364.056289	2508.614265
364.444478	2506.648215
364.832603	2506.252484
365.220665	2508.137876
365.608665	2508.163082
365.996601	2507.724501
366.384474	2506.907834
366.772284	2509.539317
367.160031	2508.725170
367.547715	2509.536796
367.935336	2510.353463
368.322893	2510.570233
368.710388	2510.910511
369.097820	2512.800943
369.485189	2511.283556
369.872495	2511.628875
370.259738	2509.193998
370.646918	2510.597959
371.034035	2507.653925
371.421090	2512.964781
371.808081	2511.409585
372.195010	2512.347239
372.581875	2513.226921
372.968678	2511.974194
373.355418	2514.792199
373.742096	2511.817918
374.128710	2512.594256
374.515262	2514.860255
374.901751	2513.841942
375.288177	2516.216325
375.674540	2514.746829
376.060841	2513.521828
376.447079	2513.612569
376.833254	2513.978053
377.219367	2509.730881
377.605417	2511.066786
377.991404	2510.219872
378.377329	2513.083248
378.763191	2511.459996
379.148991	2516.382683
379.534727	2515.820594
379.920402	2515.566016
380.306013	2517.930317
380.691563	2518.792355
381.077049	2518.323527
381.462474	2519.084742
381.847835	2514.628362
382.233134	2516.516274
382.618371	2519.987108
383.003545	2517.368229
383.388657	2518.804957
383.773706	2518.583147
384.158693	2520.211439
384.543618	2519.147756
384.928480	2520.236645
385.313280	2522.525329
385.698017	2521.625483
386.082692	2523.677233
386.467305	2520.826460
386.851856	2523.813344
387.236344	2520.632376
387.620770	2522.938704
388.005133	2524.080525
388.389435	2524.188910
388.773674	2521.867458
389.157851	2521.794362
389.541965	2523.258817
389.926018	2526.646472
390.310008	2524.745957
390.693936	2525.539939
391.077802	2523.490710
391.461606	2523.271420
391.845348	2524.085566
392.229027	2526.366688
392.612645	2525.950793
392.996200	2523.561286
393.379694	2526.162522
393.763125	2529.524971
394.146494	2528.519261
394.529801	2527.753006
394.913047	2528.083201
395.296230	2527.266534
395.679351	2528.073119
396.062410	2530.003881
396.445408	2528.254600
396.828343	2530.727286
397.211217	2525.504651
397.594028	2525.701256
397.976778	2527.964734
398.359466	2528.461288
398.742092	2527.269055
399.124656	2528.398273
399.507158	2530.770136
399.889598	2530.868439
400.271977	2530.389529
400.654294	2532.542102
401.036549	2531.473377
401.418742	2534.107380
401.800874	2530.656710
402.182944	2532.776515
402.564952	2533.706608
402.946898	2532.037986
403.328783	2531.833820
403.710606	2535.168543
404.092367	2531.110414
404.474067	2533.573018
404.855705	2534.944212
405.237282	2535.924716
405.618797	2536.368337
406.000250	2535.355066
406.381642	2537.363965
406.762972	2533.903213
407.144240	2537.096784
407.525447	2539.234233
407.906593	2538.503266
408.287677	2540.166847
408.668700	2537.343801
409.049661	2539.675334
409.430560	2538.639377
409.811399	2537.663914
410.192176	2538.745242
410.572891	2537.966383
410.953545	2535.828934
411.334138	2541.361600
411.714669	2538.649460
412.095139	2539.884542
412.475547	2541.724563
412.855894	2541.744728
413.236180	2542.407640
413.616405	2544.230017
413.996568	2544.005686
414.376670	2541.974101
414.756711	2544.696324
415.136691	2543.993083
415.516609	2544.071221
415.896466	2546.705223
416.276262	2549.198074
416.655997	2548.615821
417.035670	2546.695141
417.415283	2553.281409
417.794834	2551.327962
418.174324	2557.193344
418.553753	2561.004456
418.933121	2563.419169
419.312428	2569.491239
419.691674	2575.530541
420.070859	2583.840883
420.449983	2588.382963
420.829045	2596.839498
421.208047	2603.801332
421.586988	2615.494288
421.965867	2625.725310
422.344686	2638.577732
422.723444	2644.241468
423.102141	2647.661891
423.480777	2670.069820
423.859352	2672.537465
424.237866	2699.227854
424.616319	2713.403578
424.994712	2735.403174
425.373044	2746.854155
425.751314	2771.782660
426.129524	2774.656118
426.507673	2809.724905
426.885762	2831.832885
427.263789	2850.119671
427.641756	2859.319776
428.019662	2896.997360
428.397508	2922.331679
428.775292	2944.595935
429.153016	2979.972232
429.530679	2997.936384
429.908282	3037.844678
430.285824	3048.874723
430.663305	3123.471197
431.040726	3112.179012
431.418086	3139.638177
431.795385	3198.768391
432.172624	3234.500090
432.549802	3271.119031
432.926920	3313.258036
433.303977	3352.984849
433.680974	3397.432703
434.057910	3447.037656
434.434786	3491.626662
434.811601	3521.621527
435.188355	3636.632932
435.565050	3639.977737
435.941683	3679.265970
436.318257	3806.487049
436.694770	3848.066486
437.071222	3909.581166
437.447614	3935.989250
437.823946	3947.034418
438.200218	4061.372829
438.576429	4056.394689
438.952580	4155.367663
439.328670	4224.474320
439.704700	4231.642841
440.080670	4269.370836
440.456580	4465.249910
440.832429	4464.150939
441.208218	4426.385135
441.583947	4560.991504
441.959616	4616.933188
442.335224	4622.337305
442.710773	4756.222790
443.086261	4830.070652
443.461689	4747.171398
443.837057	4892.550713
444.212365	5041.529412
444.587612	5013.823231
444.962800	5169.617570
445.337927	5203.529412
445.712995	4977.221933
446.088002	5437.010452
446.462949	5354.670766
446.837837	5350.975600
447.212664	5515.937277
447.587431	5680.210837
447.962139	6147.785418
448.336786	6910.159114
448.711374	6755.302430
449.085901	6067.023613
449.460369	6049.543412
449.834776	6033.983890
450.209124	6402.588018
450.583412	6571.948103
450.957640	6726.383851
451.331808	6565.465179
451.705917	6213.484255
452.079965	6172.575292
452.453954	6393.440845
452.827883	6308.898174
453.201752	6421.935967
453.575562	6260.772799
453.949311	6478.298587
454.323001	6396.105095
454.696632	6482.608774
455.070202	6640.391848
455.443713	6800.508977
455.817164	6912.256234
456.190556	7011.715679
456.563888	7100.001406
456.937160	7161.004409
457.310373	6845.188723
457.683526	6890.536423
458.056619	6795.329191
458.429653	6794.099150
458.802628	6746.666933
459.175542	6862.989038
459.548398	7224.122176
459.921194	7382.565641
460.293930	7387.561424
460.666607	7916.501971
461.039224	8221.380873
461.411782	8353.398610
461.784280	8382.017241
462.156719	8288.818909
462.529099	8175.098040
462.901419	7768.912110
463.273680	7672.303438
463.645882	7687.671395
464.018024	7565.436017
464.390106	7728.262766
464.762130	8114.510932
465.134094	8582.672808
465.505999	9599.458415
465.877845	10812.735597
466.249631	11459.813063
466.621358	11076.476163
466.993026	10461.236103
467.364634	10208.197907
467.736184	9844.045118
468.107674	9517.257361
468.479105	9557.084997
468.850477	9319.618924
469.221790	9098.892003
469.593043	8774.105584
469.964238	8632.744068
470.335373	8641.407291
470.706449	8707.448927
471.077467	8689.431843
471.448425	10000.209981
471.819324	11063.777496
472.190164	11079.493293
472.560945	9837.925157
472.931667	9054.486999
473.302330	8924.372298
473.672934	8574.191067
474.043479	8926.671064
474.413965	8865.884831
474.784393	8749.668591
475.154761	8905.299092
475.525070	8995.578596
475.895321	8822.417482
476.265513	8992.190941
476.635645	9163.766612
477.005719	9168.396912
477.375734	9279.801370
477.745691	9515.603862
478.115588	9649.930447
478.485427	9893.133353
478.855207	10427.830897
479.224928	11240.845505
479.594591	11862.979342
479.964194	11678.485714
480.333739	11618.453133
480.703226	11532.007427
481.072653	11626.597118
481.442022	11863.052439
481.811333	12050.598485
482.180584	11854.104391
482.549777	11559.446428
482.918912	11391.399564
483.287988	11414.152812
483.657005	11421.843092
484.025964	11112.880855
484.394864	11233.371994
484.763706	11218.084695
485.132489	10963.723195
485.501213	10934.542476
485.869879	11011.321770
486.238487	10850.345125
486.607036	10953.882863
486.975527	10736.467980
487.343959	10931.406879
487.712333	10973.805503
488.080648	10906.576675
488.448905	10956.257247
488.817104	10891.957329
489.185244	11151.430559
489.553326	11312.558439
489.921350	11856.574556
490.289315	12905.626068
490.657222	13249.223553
491.025070	13154.102021
491.392861	13025.545036
491.760593	12648.244918
492.128267	12301.317751
492.495883	11971.933800
492.863440	11637.014662
493.230939	11306.108282
493.598380	11239.983467
493.965763	11112.633839
494.333088	11008.420586
494.700354	10934.885275
495.067563	10990.214459
495.434713	10822.268418
495.801805	10944.687798
496.168839	10866.227280
496.535815	10814.295834
496.902733	10804.820985
497.269593	10740.566438
497.636395	10841.331542
498.003139	10827.604480
498.369825	10696.365601
498.736453	10862.370797
499.103023	10787.887749
499.469535	10814.172325
499.835989	10802.872579
500.202385	10770.841087
500.568723	10615.787798
500.935003	10840.678712
501.301226	10646.559001
501.667390	10909.258569
502.033497	11005.766418
502.399546	10858.330313
502.765537	10769.212795
503.131470	10839.060502
503.497345	11017.025836
503.863163	10625.459252
504.228923	10936.011973
504.594625	10999.200316
504.960269	10751.692265
505.325856	10969.207971
505.691385	10765.192475
506.056856	10919.792060
506.422270	10947.762902
506.787625	10827.715385
507.152924	10943.228384
507.518164	10926.947978
507.883347	10847.128869
508.248472	10768.673391
508.613540	10997.342650
508.978550	10886.797708
509.343503	10864.969512
509.708398	10982.773716
510.073236	11096.360994
510.438016	11095.204049
510.802738	11049.042204
511.167403	11101.124885
511.532010	10995.336271
511.896561	11227.400747
512.261053	11300.230297
512.625488	11165.601242
512.989866	11150.112297
513.354186	11138.474793
513.718449	11041.803107
514.082655	11231.189174
514.446803	11133.675615
514.810894	11243.035886
515.174927	11119.877977
515.538904	11145.597944
515.902822	11291.282249
516.266684	11179.061123
516.630488	11119.681372
516.994235	11178.128510
517.357925	11239.111348
517.721558	11330.446973
518.085133	11336.377891
518.448651	11353.041425
518.812112	11242.461194
519.175516	11248.568552
519.538863	11367.416275
519.902152	11283.899479
520.265385	11443.832605
520.628560	11359.781447
520.991678	11336.856800
521.354739	11403.014383
521.717743	11331.079638
522.080690	11321.967752
522.443580	11449.473657
522.806413	11399.117571
523.169189	11432.280801
523.531908	11489.162661
523.894569	11309.296812
524.257174	11316.790487
524.619722	11430.962540
524.982213	11381.039993
525.344647	11428.633527
525.707025	11390.976107
526.069345	11474.001391
526.431608	11397.393496
526.793815	11503.567758
527.155964	11289.026332
527.518057	11340.783859
527.880093	11288.993565
528.242072	11364.096675
528.603995	11266.457087
528.965860	11186.305261
529.327669	11238.324928
529.689421	11189.493791
530.051117	11159.655201
530.412755	11264.906932
530.774337	11149.734211
531.135862	11136.808692
531.497331	11158.195787
531.858743	11004.483445
532.220098	11178.902327
532.581396	11049.518593
532.942638	11033.797754
533.303824	10995.598411
533.664953	11008.085349
534.026025	10920.765003
534.387040	11016.040290
534.747999	11025.293328
535.108902	11074.200082
535.469748	10844.295740
535.830537	10943.283837
536.191270	10918.168809
536.551947	10940.715369
536.912567	10942.021028
537.273131	10866.101251
537.633638	10844.741882
537.994089	10843.337921
538.354483	10786.254415
538.714821	10928.062073
539.075103	10939.152612
539.435328	10907.766388
539.795497	10729.581764
540.155609	10884.319981
540.515665	10974.269289
540.875665	10708.988650
541.235609	10783.469178
541.595496	10778.319639
541.955328	10932.533577
542.315102	10816.783643
542.674821	10764.030489
543.034483	10766.021744
543.394090	10769.404359
543.753640	10697.545231
544.113134	10919.066134
544.472571	10775.292426
544.831953	10914.125803
545.191278	10721.710002
545.550548	10755.236196
545.909761	10879.205731
546.268918	10857.001968
546.628019	10941.874835
546.987064	10801.839143
547.346053	10730.831970
547.704986	10829.104223
548.063863	10818.164919
548.422684	10809.625205
548.781449	10723.875178
549.140158	10823.627009
549.498811	10700.700993
549.857408	10558.691690
550.215949	10789.130394
550.574434	10645.638991
550.932864	10741.118444
551.291237	10796.908894
551.649555	10743.341593
552.007817	10760.605025
552.366022	10720.235465
552.724173	10719.754034
553.082267	10702.309122
553.440305	10835.085552
553.798288	10634.268668
554.156215	10780.303333
554.514086	10757.897925
554.871902	10613.494073
555.229661	10652.467233
555.587365	10630.639037
555.945014	10522.347491
556.302606	10645.999433
556.660143	10539.787363
557.017625	10694.704541
557.375050	10594.680487
557.732421	10730.544624
558.089735	10638.296550
558.446994	10648.683848
558.804197	10673.834164
559.161345	10673.488845
559.518437	10528.101968
559.875474	10620.680238
560.232455	10647.176543
560.589381	10600.256003
560.946251	10596.812895
561.303065	10704.076046
561.659825	10634.286312
562.016528	10563.669829
562.373177	10448.282859
562.729770	10559.488192
563.086307	10481.967849
563.442789	10573.336242
563.799216	10449.739752
564.155587	10495.152987
564.511904	10456.038674
564.868164	10437.426734
565.224370	10459.330547
565.580520	10378.480522
565.936615	10382.803311
566.292654	10263.428788
566.648638	10389.417305
567.004567	10351.127221
567.360441	10323.529424
567.716260	10233.915353
568.072023	10332.447226
568.427732	10284.856213
568.783385	10197.520743
569.138982	10266.324931
569.494525	10281.778588
569.850013	10158.255196
570.205445	10237.156815
570.560823	10132.096648
570.916145	10053.860461
571.271412	10125.502819
571.626625	10065.039220
571.981782	10045.494666
572.336884	10016.439976
572.691931	10023.671511
573.046923	9963.578437
573.401860	9927.554352
573.756743	9863.509012
574.111570	9905.471577
574.466342	9887.262929
574.821059	9916.375593
575.175722	9809.959356
575.530330	9822.695831
575.884882	9808.963728
576.239380	9741.084591
576.593823	9718.626251
576.948211	9731.960103
577.302544	9610.906876
577.656823	9631.442016
578.011047	9633.428230
578.365216	9605.288510
578.719330	9529.623311
579.073389	9540.925578
579.427394	9488.777362
579.781344	9464.375657
580.135239	9411.438500
580.489080	9423.812012
580.842866	9327.281478
581.196597	9336.363117
581.550273	9371.101708
581.903895	9336.789094
582.257463	9402.243436
582.610975	9281.822873
582.964434	9306.254825
583.317837	9223.930262
583.671186	9209.915855
584.024481	9212.136483
584.377721	9126.167166
584.730906	9104.434752
585.084037	9129.741344
585.437113	9068.070388
585.790135	9090.175848
586.143103	8990.199685
586.496016	8963.315211
586.848874	9018.314200
587.201679	9007.861367
587.554428	8899.224502
587.907124	8942.366697
588.259765	8907.643229
588.612352	8916.162779
588.964884	8796.503431
589.317362	8807.576325
589.669786	8807.122621
590.022155	8855.757153
590.374470	8869.159060
590.726731	8807.409967
591.078937	8662.454109
591.431090	8779.991131
591.783188	8645.311665
592.135232	8640.174729
592.487222	8635.310016
592.839157	8692.166669
593.191038	8622.548335
593.542866	8571.834327
593.894639	8468.858678
594.246358	8523.038478
594.598022	8535.585910
594.949633	8437.628729
595.301190	8408.682424
595.652692	8439.120911
596.004141	8547.331799
596.355535	8324.275865
596.706876	8308.449162
597.058162	8240.446517
597.409395	8323.111358
597.760573	8376.552630
598.111698	8288.529043
598.462768	8274.549923
598.813785	8239.927278
599.164748	8211.243113
599.515657	8198.675517
599.866511	8113.109492
600.217312	8239.498780
600.568060	8090.459587
600.918753	8198.456226
601.269392	8171.264243
601.619978	8079.260664
601.970510	8145.287177
602.320988	8145.065366
602.671412	8196.003705
603.021783	8132.578428
603.372100	8104.131197
603.722363	8104.247143
604.072572	8080.704955
604.422728	8100.796473
604.772830	8025.653034
605.122878	8026.353755
605.472872	8030.268211
605.822813	8062.861791
606.172701	8001.415167
606.522534	8075.394099
606.872314	8076.956857
607.222041	8048.791930
607.571714	8099.972245
607.921333	8056.716624
608.270899	8070.380672
608.620411	8154.252869
608.969870	8060.232829
609.319276	8051.657826
609.668627	8069.647184
610.017926	8104.375693
610.367171	8149.937641
610.716362	8129.047100
611.065500	8117.512940
611.414585	8146.184502
611.763616	8136.316443
612.112594	8118.281716
612.461518	8129.281513
612.810389	8194.675361
613.159207	8131.212275
613.507971	8081.524142
613.856682	8197.263993
614.205340	8157.002818
614.553945	8234.578614
614.902496	8128.638766
615.250994	8185.797889
615.599439	8165.393819
615.947830	8185.848301
616.296169	8153.489134
616.644454	8165.482039
616.992686	8165.923140
617.340864	8224.748364
617.688990	8123.630380
618.037063	8222.240390
618.385082	8166.296185
618.733048	8251.587467
619.080961	8191.484311
619.428821	8208.475520
619.776628	8210.514666
620.124382	8161.688571
620.472083	8142.025550
620.819731	8170.586207
621.167326	8064.653921
621.514868	8073.632216
621.862357	7970.205383
622.209793	7982.334399
622.557176	7918.205881
622.904506	7886.406283
623.251783	7823.522930
623.599007	7770.996627
623.946179	7781.656147
624.293297	7730.571614
624.640363	7650.064388
624.987376	7636.544013
625.334336	7581.976043
625.681243	7532.993672
626.028097	7526.346910
626.374899	7500.115266
626.721647	7493.518917
627.068343	7424.525685
627.414987	7398.188177
627.761577	7349.914087
628.108115	7388.967906
628.454600	7285.437730
628.801032	7334.251222
629.147412	7293.092722
629.493739	7281.119982
629.840014	7218.990281
630.186236	7279.731144
630.532405	7158.680437
630.878521	7210.064918
631.224585	7167.338619
631.570597	7087.832061
631.916556	7122.648790
632.262462	7119.107379
632.608316	7082.944662
632.954117	7062.291055
633.299866	7049.604991
633.645562	7038.224586
633.991206	6958.665096
634.336797	6902.330202
634.682336	6862.638677
635.027823	6828.701630
635.373257	6821.162584
635.718639	6752.562563
636.063968	6767.118894
636.409245	6656.369785
636.754470	6652.984651
637.099642	6609.040913
637.444762	6564.792185
637.789829	6565.339150
638.134845	6508.119533
638.479808	6495.776268
638.824719	6499.771382
639.169577	6425.157264
639.514383	6450.451254
639.859137	6375.393514
640.203839	6386.045472
640.548489	6370.662391
640.893086	6345.940573
641.237632	6317.977292
641.582125	6340.067628
641.926566	6312.242980
642.270955	6324.039280
642.615292	6317.304298
642.959576	6336.352298
643.303809	6327.835269
643.647990	6330.721329
643.992118	6319.945863
644.336195	6269.370487
644.680219	6290.651718
645.024192	6281.363392
645.368112	6378.496344
645.711981	6401.552061
646.055797	6479.997456
646.399562	6438.659995
646.743274	6559.115845
647.086935	6616.605164
647.430544	6605.300376
647.774101	6626.735363
648.117606	6632.935982
648.461059	6626.498428
648.804460	6588.185659
649.147810	6497.124777
649.491108	6470.983873
649.834354	6441.629234
650.177548	6361.227872
650.520690	6274.031034
650.863781	6248.469863
651.206820	6277.917763
651.549807	6196.679569
651.892742	6139.890971
652.235626	6140.722761
652.578458	6131.648684
652.921238	6038.974633
653.263967	6074.252627
653.606644	6019.719946
653.949269	6022.910996
654.291843	5959.256346
654.634365	6010.303070
654.976836	5964.012675
655.319255	5964.806657
655.661622	5942.933090
656.003938	5936.876144
656.346203	5901.542697
656.688416	5930.723416
657.030577	5881.801538
657.372687	5854.392785
657.714746	5836.206822
658.056753	5882.804728
658.398708	5824.960008
658.740612	5812.919212
659.082465	5859.801943
659.424266	5861.352098
659.766016	5854.196180
660.107715	5826.873126
660.449362	5844.928018
660.790958	5835.465772
661.132503	5819.578576
661.473996	5862.289752
661.815438	5850.216189
662.156829	5845.243090
662.498168	5840.476679
662.839456	5817.431045
663.180693	5848.776939
663.521879	5849.291137
663.863013	5838.767728
664.204097	5859.842272
664.545129	5900.388272
664.886110	5896.662860
665.227040	5926.985400
665.567918	5895.911728
665.908746	5918.397794
666.249522	5924.951294
666.590248	5913.288585
666.930922	5940.268840
667.271545	5953.532116
667.612118	5955.961952
667.952639	5929.596718
668.293109	5954.169822
668.633528	5911.761115
668.973896	5912.718935
669.314213	5906.356998
669.654480	5886.862857
669.994695	5881.236929
670.334859	5869.428026
670.674973	5862.630030
671.015035	5863.817222
671.355047	5865.097675
671.695008	5849.023956
672.034918	5820.405325
672.374777	5834.084496
672.714585	5819.326518
673.054342	5823.934133
673.394049	5816.480787
673.733705	5844.292833
674.073310	5840.625393
674.412864	5797.077386
674.752368	5781.434686
675.091820	5790.980110
675.431223	5723.736159
675.770574	5726.556685
676.109875	5682.086146
676.449125	5684.546229
676.788324	5651.922402
677.127473	5596.114308
677.466571	5586.667186
677.805619	5576.637811
678.144616	5560.483433
678.483562	5544.082039
678.822458	5512.577348
679.161303	5502.389176
679.500098	5496.090254
679.838842	5479.462008
680.177535	5485.133307
680.516179	5498.779710
680.854771	5510.913767
681.193314	5588.771868
681.531805	5701.282860
681.870247	5849.492783
682.208638	5948.501045
682.546978	5961.955884
682.885268	5941.093069
683.223508	5855.133834
683.561697	5806.496782
683.899836	5768.436070
684.237925	5727.839658
684.575963	5691.049318
684.913951	5652.136651
685.251889	5715.146033
685.589776	5679.923491
685.927614	5656.035984
686.265401	5724.409153
686.603137	5710.760229
686.940824	5784.315705
687.278460	5804.525691
687.616046	5817.773843
687.953582	5884.833792
688.291068	5869.158324
688.628504	5931.898004
688.965889	5892.004833
689.303224	5838.301422
689.640510	5791.385923
689.977745	5710.472883
690.314930	5616.780519
690.652065	5555.714502
690.989150	5465.276202
691.326185	5390.473040
691.663170	5337.906408
692.000105	5256.915231
692.336990	5184.856978
692.673825	5160.266229
693.010610	5089.448100
693.347345	5020.094426
693.684030	5009.180328
694.020665	4964.704748
694.357251	4873.507754
694.693786	4883.539651
695.030272	4854.323643
695.366707	4817.843334
695.703093	4784.987613
696.039429	4806.808248
696.375716	4788.392913
696.711952	4759.807050
697.048139	4749.422273
697.384276	4730.003748
697.720363	4743.950101
698.056400	4751.758848
698.392388	4698.869582
698.728326	4682.183363
699.064214	4661.812060
699.400053	4652.289321
699.735842	4622.836379
700.071581	4597.910394
700.407270	4569.115323
700.742910	4555.058066
701.078501	4498.970188
701.414042	4497.399869
701.749533	4466.205209
702.084974	4398.129467
702.420366	4456.677428
702.755709	4399.288933
703.091002	4344.418494
703.426246	4393.267274
703.761440	4351.040049
704.096584	4312.308864
704.431679	4334.497503
704.766725	4317.140810
705.101721	4305.641938
705.436668	4333.590095
705.771565	4282.666880
706.106413	4310.602434
706.441212	4346.707178
706.775961	4349.663814
707.110661	4329.174044
707.445311	4358.929455
707.779913	4383.545409
708.114465	4397.912698
708.448967	4416.164195
708.783421	4475.848936
709.117825	4523.460114
709.452180	4524.604456
709.786485	4569.977361
710.120742	4653.690762
710.454949	4641.080315
710.789107	4708.687229
711.123216	4781.226913
711.457275	4771.283237
711.791286	4847.432386
712.125247	4863.496023
712.459159	4769.322228
712.793023	4842.466850
713.126837	4800.063184
713.460602	4793.245023
713.794318	4713.332653
714.127985	4719.019074
714.461602	4635.582937
714.795171	4605.625880
715.128691	4542.825706
715.462162	4486.498374
715.795584	4437.735293
716.128957	4418.016819
716.462281	4366.019838
716.795556	4339.480683
717.128782	4303.627997
717.461960	4234.299529
717.795088	4244.217999
718.128167	4201.844581
718.461198	4142.210251
718.794180	4138.389057
719.127113	4116.139924
719.459997	4098.233746
719.792833	4057.145821
720.125619	4044.628636
720.458357	4013.912886
720.791046	4014.676621
721.123686	3989.579236
721.456278	3947.089871
721.788821	3961.167293
722.121315	3936.468160
722.453761	3912.056372
722.786158	3922.100871
723.118506	3942.948563
723.450805	3899.498858
723.783056	3920.233124
724.115259	3939.099642
724.447412	3938.925722
724.779518	3930.849794
725.111574	3936.843726
725.443582	3966.715083
725.775542	3960.438846
726.107453	4006.371320
726.439315	4005.242101
726.771129	4018.472609
727.102895	4060.084814
727.434612	4103.612657
727.766281	4112.908544
728.097901	4114.743524
728.429473	4118.451293
728.760996	4124.432622
729.092471	4120.848362
729.423897	4105.079633
729.755276	4112.122124
730.086606	4108.774798
730.417887	4149.638391
730.749120	4216.693299
731.080305	4278.752424
731.411442	4306.509017
731.742530	4275.059778
732.073570	4281.018422
732.404562	4330.736802
732.735506	4324.284125
733.066401	4289.132159
733.397249	4224.607911
733.728048	4144.360303
734.058798	4062.459197
734.389501	3990.834483
734.720156	3931.386677
735.050762	3889.880337
735.381320	3880.329871
735.711831	3829.948579
736.042293	3802.159218
736.372707	3823.029595
736.703073	3795.169659
737.033391	3782.423101
737.363661	3800.934218
737.693883	3825.686283
738.024056	3834.052078
738.354182	3828.463959
738.684260	3894.316552
739.014290	3915.020571
739.344272	3909.583686
739.674207	3953.182105
740.004093	3960.741316
740.333931	3954.848207
740.663722	3954.207980
740.993464	3949.648257
741.323159	3925.851490
741.652806	3895.884351
741.982405	3871.258314
742.311956	3839.231864
742.641460	3828.874813
742.970915	3808.632060
743.300323	3762.697066
743.629683	3732.175400
743.958996	3721.369687
744.288260	3696.365564
744.617477	3664.505472
744.946647	3645.114673
745.275768	3622.686580
745.604842	3622.295890
745.933869	3574.541040
746.262847	3563.982343
746.591778	3599.900564
746.920662	3571.052562
747.249498	3541.241698
747.578286	3587.456476
747.907027	3606.020525
748.235720	3606.267542
748.564365	3629.449288
748.892963	3630.384422
749.221514	3610.630660
749.550017	3587.398503
749.878473	3586.793564
750.206881	3556.075293
750.535242	3551.795354
750.863555	3552.647309
751.191821	3549.063048
751.520039	3532.018907
751.848210	3509.371524
752.176334	3541.539126
752.504411	3550.905590
752.832440	3507.382788
753.160421	3489.287567
753.488356	3499.700070
753.816243	3510.268849
754.144082	3472.669403
754.471875	3452.419088
754.799620	3474.164105
755.127318	3463.476859
755.454969	3463.600367
755.782572	3470.607571
756.110129	3448.118984
756.437638	3441.845268
756.765100	3451.534366
757.092515	3461.956951
757.419882	3468.328970
757.747203	3437.404011
758.074477	3441.436934
758.401703	3461.331848
758.728882	3479.414467
759.056014	3486.363698
759.383099	3489.973164
759.710138	3488.682628
760.037129	3504.668127
760.364073	3535.169628
760.690970	3520.199922
761.017820	3498.694360
761.344623	3515.113398
761.671379	3564.166345
761.998088	3611.280969
762.324751	3737.634970
762.651366	3988.979339
762.977935	4462.890650
763.304456	4907.132251
763.630931	4998.528370
763.957359	4640.056961
764.283740	4292.396307
764.610074	4104.167184
764.936362	3905.679313
765.262602	3747.429932
765.588796	3635.191162
765.914943	3547.603634
766.241044	3456.739357
766.567097	3431.324380
766.893104	3382.510887
767.219064	3351.152390
767.544978	3326.574244
767.870845	3268.351438
768.196665	3250.767893
768.522438	3258.705190
768.848165	3253.669077
769.173846	3217.377811
769.499479	3199.186807
769.825066	3184.179292
770.150607	3165.151457
770.476101	3181.633509
770.801548	3177.149403
771.126949	3134.065182
771.452303	3115.909466
771.777611	3121.200157
772.102872	3126.309366
772.428087	3105.060903
772.753256	3091.984150
773.078378	3085.476020
773.403453	3050.873540
773.728482	3040.483722
774.053465	3060.192113
774.378401	3048.279867
774.703291	3018.436236
775.028135	3017.692666
775.352932	3012.588497
775.677683	3000.126765
776.002388	2996.474449
776.327046	2998.012001
776.651658	2986.266113
776.976224	2980.317551
777.300743	2978.510297
777.625216	2963.427165
777.949643	2960.767956
778.274024	2963.021352
778.598359	2953.503654
778.922647	2961.690488
779.246889	2957.062708
779.571086	2943.338167
779.895236	2937.447579
780.219339	2947.471913
780.543397	2957.937348
780.867409	2961.839202
781.191374	2956.059519
781.515294	2951.351081
781.839167	2952.041719
782.162995	2945.200873
782.486776	2954.665640
782.810511	2952.709672
783.134201	2939.254832
783.457844	2945.760441
783.781441	2933.313833
784.104993	2914.820360
784.428498	2914.893456
784.751958	2930.939449
785.075372	2923.717996
785.398739	2907.593866
785.722061	2922.671957
786.045337	2934.501024
786.368568	2921.197419
786.691752	2911.213414
787.014891	2959.782411
787.337983	2990.727534
787.661030	3014.786440
787.984031	3082.733633
788.306987	3130.715335
788.629897	3123.153604
788.952760	3105.766664
789.275579	3092.460539
789.598351	3032.614481
789.921078	2990.183089
790.243759	2978.664053
790.566395	2962.970941
790.888984	2937.568566
791.211529	2921.767070
791.534027	2913.227355
791.856480	2901.088257
792.178888	2886.776421
792.501249	2879.728888
792.823566	2876.391644
793.145836	2874.082795
793.468062	2870.158257
793.790241	2869.369317
794.112375	2869.933926
794.434464	2884.661657
794.756507	2890.519478
795.078505	2896.639438
795.400457	2910.747107
795.722364	2946.627520
796.044226	2969.214410
796.366042	2972.160964
796.687812	2960.790642
797.009538	2984.322748
797.331218	2969.080819
797.652852	2956.248562
797.974442	2935.489090
798.295986	2932.960952
798.617484	2929.250663
798.938938	2908.496232
799.260346	2894.806979
799.581709	2894.771691
799.903026	2884.679301
800.224299	2879.038250
800.545526	2870.435521
800.866708	2857.633510
801.187845	2845.065914
801.508936	2847.883919
801.829983	2855.720392
802.150984	2840.813701
802.471940	2827.197544
802.792851	2827.205106
803.113717	2826.451453
803.434538	2833.660303
803.755314	2822.998263
804.076045	2818.272181
804.396731	2817.178251
804.717372	2822.022800
805.037967	2814.854279
805.358518	2821.322079
805.679024	2834.819769
805.999485	2829.471104
806.319901	2832.924295
806.640272	2824.934066
806.960598	2830.101249
807.280879	2837.675582
807.601115	2846.752180
807.921306	2832.886486
808.241453	2829.458502
808.561554	2834.673575
808.881611	2837.199193
809.201623	2832.652072
809.521590	2830.050837
809.841513	2829.047647
810.161390	2830.234839
810.481223	2825.687718
810.801011	2816.384269
811.120755	2808.252888
811.440453	2814.433342
811.760107	2812.144659
812.079716	2812.580718
812.399281	2804.015798
812.718801	2797.111938
813.038276	2792.927780
813.357707	2796.416259
813.677093	2803.451189
813.996434	2799.009932
814.315731	2790.538273
814.634983	2791.085238
814.954191	2790.225722
815.273354	2803.758699
815.592473	2811.774134
815.911547	2813.873774
816.230577	2823.300732
816.549562	2835.749862
816.868502	2831.782473
817.187399	2841.353104
817.506250	2856.894981
817.825058	2849.003055
818.143821	2863.176259
818.462539	2875.819473
818.781213	2907.424987
819.099843	2941.939247
819.418429	2997.129799
819.736970	3060.479459
820.055466	3135.091056
820.373919	3241.227509
820.692327	3383.614900
821.010691	3549.060528
821.329011	3994.302797
821.647286	4892.757400
821.965517	6280.871879
822.283704	7022.965014
822.601847	7003.080182
822.919945	6365.011258
823.237999	5863.716399
823.556010	5275.592706
823.873976	4723.200711
824.191897	4311.638391
824.509775	4015.095036
824.827609	3743.717122
825.145398	3623.712455
825.463144	3610.262656
825.780845	3703.745813
826.098502	3807.230619
826.416116	4089.938527
826.733685	4412.829472
827.051210	4473.474553
827.368692	4358.924414
827.686129	4092.325513
828.003522	3766.770318
828.320872	3506.130062
828.638177	3311.939774
828.955439	3172.841737
829.272656	3087.956268
829.589830	3020.246010
829.906960	2972.080306
830.224046	2923.571803
830.541088	2892.770353
830.858086	2877.437683
831.175041	2860.479242
831.491952	2862.626773
831.808819	2871.000130
832.125642	2896.309243
832.442421	2940.366407
832.759157	3024.404962
833.075849	3202.892055
833.392497	3483.028974
833.709101	3687.049512
834.025662	3640.005464
834.342179	3479.570743
834.658653	3301.302940
834.975083	3150.146462
835.291469	3053.852862
835.607811	2971.926550
835.924110	2909.345667
836.240366	2859.629807
836.556578	2814.947540
836.872746	2793.426854
837.188871	2769.133534
837.504952	2757.959817
837.820990	2747.443970
838.136984	2730.760271
838.452935	2726.273644
838.768842	2720.589743
839.084706	2741.341653
839.400526	2818.307469
839.716303	2952.530711
840.032037	3036.165974
840.347727	3020.843387
840.663373	2957.912143
840.978977	2881.095040
841.294537	2809.309010
841.610054	2761.536515
841.925527	2742.276787
842.240957	2719.538662
842.556344	2694.161494
842.871687	2679.252282
843.186987	2670.649552
843.502244	2669.137206
843.817458	2666.223419
844.132629	2649.340595
844.447756	2639.414563
844.762840	2635.558081
845.077881	2637.466157
845.392879	2636.762916
845.707833	2634.234778
846.022745	2623.492079
846.337613	2628.424848
846.652438	2624.936369
846.967221	2627.078860
847.281960	2624.250772
847.596656	2621.609208
847.911309	2621.077366
848.225919	2617.641820
848.540485	2617.132663
848.855009	2614.846500
849.169490	2618.040071
849.483928	2615.567385
849.798323	2613.707199
850.112675	2612.643516
850.426984	2614.412961
850.741251	2612.646036
851.055474	2610.027157
851.369654	2617.261213
851.683792	2616.394134
851.997887	2614.163424
852.311938	2612.830038
852.625947	2615.675770
852.939914	2617.281377
853.253837	2618.849176
853.567718	2613.190481
853.881555	2614.314658
854.195350	2614.604525
854.509103	2616.731892
854.822812	2612.096551
855.136479	2613.661829
855.450103	2614.080245
855.763685	2618.501337
856.077224	2614.337343
856.390720	2608.981117
856.704173	2617.225925
857.017584	2618.846656
857.330953	2618.587036
857.644278	2621.145422
857.957561	2621.087448
858.270802	2616.414299
858.584000	2619.244907
858.897155	2619.683487
859.210268	2622.267078
859.523339	2613.750049
859.836367	2609.782661
860.149352	2613.087137
860.462295	2612.653598
860.775195	2610.286776
861.088054	2610.863988
861.400869	2610.639657
861.713642	2607.163782
862.026373	2608.217383
862.339062	2609.754935
862.651708	2616.159721
862.964312	2617.024278
863.276873	2615.615276
863.589392	2618.365225
863.901869	2623.353447
864.214303	2626.499127
864.526696	2630.884931
864.839045	2632.573717
865.151353	2635.122021
865.463619	2634.496918
865.775842	2631.762092
866.088023	2632.903913
866.400162	2633.448358
866.712258	2633.186218
867.024313	2633.574387
867.336325	2628.465177
867.648296	2630.574900
867.960224	2638.459265
868.272110	2632.084726
868.583954	2628.515589
868.895755	2630.171608
869.207515	2634.015488
869.519233	2641.572177
869.830909	2637.940026
870.142542	2632.750158
870.454134	2635.880714
870.765684	2637.579583
871.077191	2641.957825
871.388657	2641.688124
871.700081	2644.382620
872.011463	2643.200470
872.322803	2645.216931
872.634101	2646.958650
872.945357	2656.410813
873.256571	2663.498676
873.567744	2660.194199
873.878874	2655.422747
874.189963	2657.038437
874.501010	2662.697132
874.812015	2667.944973
875.122979	2665.898265
875.433900	2661.025990
875.744780	2656.582213
876.055618	2661.759478
876.366415	2669.779953
876.677169	2669.190138
876.987882	2661.794766
877.298554	2662.833243
877.609183	2672.454286
877.919771	2676.547702
878.230317	2683.885102
878.540822	2696.172914
878.851285	2710.444421
879.161707	2735.577093
879.472087	2771.913730
879.782425	2819.731595
880.092722	2933.984306
880.402977	3121.646299
880.713191	3385.427195
881.023363	3679.606248
881.333494	3869.168756
881.643583	4044.285838
881.953631	4041.908934
882.263637	3863.154659
882.573602	3638.982110
882.883526	3508.582583
883.193408	3397.347003
883.503248	3294.716672
883.813048	3180.257274
884.122806	3066.226374
884.432522	2979.510966
884.742197	2915.054773
885.051831	2879.552447
885.361424	2842.197497
885.670975	2805.018988
885.980485	2774.076385
886.289954	2756.848242
886.599382	2742.357445
886.908768	2731.476115
887.218113	2713.937941
887.527417	2697.362627
887.836680	2690.211750
888.145901	2684.943744
888.455082	2678.561643
888.764221	2668.146620
889.073319	2660.655465
889.382376	2659.198572
889.691392	2659.095228
890.000366	2658.593633
890.309300	2656.471307
890.618193	2660.111020
890.927044	2661.832574
891.235855	2661.222595
891.544625	2659.432985
891.853353	2660.796617
892.162041	2669.681651
892.470687	2689.049764
892.779293	2697.929757
893.087858	2712.778475
893.396381	2731.816393
893.704864	2773.347939
894.013306	2845.035667
894.321707	2940.225254
894.630068	2987.894405
894.938387	3008.900893
895.246665	3001.964266
895.554903	2958.108748
895.863100	2915.521080
896.171256	2853.716534
896.479371	2794.193110
896.787446	2756.054260
897.095480	2739.236971
897.403473	2728.673233
897.711425	2715.122612
898.019336	2695.457071
898.327207	2682.692869
898.635038	2682.672704
898.942827	2681.606500
899.250576	2669.497649
899.558284	2659.717810
899.865952	2653.607932
900.173579	2652.219094
900.481165	2650.505102
900.788711	2642.519914
901.096216	2637.292237
901.403681	2634.310395
901.711105	2633.682771
902.018489	2631.472225
902.325832	2632.971969
902.633135	2634.968266
902.940397	2649.950575
903.247619	2687.779393
903.554800	2758.610125
903.861941	2886.993190
904.169041	3012.522962
904.476101	3074.037642
904.783121	3069.223340
905.090100	3011.096316
905.397039	2933.316353
905.703938	2862.485621
906.010796	2796.305353
906.317614	2745.233424
906.624391	2709.383258
906.931129	2682.244206
907.237826	2658.747388
907.544483	2641.587301
907.851099	2628.951648
908.157675	2616.472272
908.464211	2613.717282
908.770707	2600.632967
909.077163	2596.423603
909.383578	2591.677357
909.689954	2594.225660
909.996289	2589.040833
910.302584	2591.725248
910.608839	2588.866914
910.915054	2588.614856
911.221229	2588.569486
911.527363	2592.017635
911.833458	2590.154928
912.139513	2591.382449
912.445527	2593.290526
912.751502	2601.666403
913.057436	2601.908379
913.363331	2610.034719
913.669186	2621.067284
913.975000	2634.239819
914.280775	2652.531646
914.586510	2669.757268
914.892205	2708.183463
915.197859	2775.097219
915.503475	2856.602594
915.809050	2922.795465
916.114585	2938.412960
916.420081	2950.778910
916.725536	2964.170735
917.030952	2935.783998
917.336328	2889.856566
917.641665	2840.057527
917.946961	2791.483490
918.252218	2755.903026
918.557435	2726.828171
918.862612	2706.096426
919.167750	2687.860052
919.472848	2671.229285
919.777906	2656.607418
920.082925	2643.397075
920.387904	2635.885756
920.692843	2631.893162
920.997743	2624.923767
921.302603	2616.855400
921.607423	2611.594956
921.912204	2604.975921
922.216946	2603.660180
922.521647	2599.007195
922.826310	2597.719180
923.130932	2590.323807
923.435516	2585.766604
923.740059	2584.586974
924.044564	2584.770976
924.349028	2584.372725
924.653454	2573.798905
924.957840	2572.737742
925.262186	2569.859243
925.566493	2572.778071
925.870761	2564.981927
926.174989	2568.432597
926.479178	2562.912533
926.783328	2560.543191
927.087438	2561.838767
927.391509	2563.913202
927.695541	2562.915054
927.999533	2561.662327
928.303486	2558.448591
928.607400	2558.637635
928.911275	2555.045813
929.215110	2557.528581
929.518906	2557.435319
929.822663	2554.884496
930.126381	2556.064126
930.430060	2555.381049
930.733699	2555.922973
931.037299	2556.790052
931.340861	2559.005639
931.644383	2558.899775
931.947866	2557.498334
932.251309	2557.974723
932.554714	2558.317521
932.858080	2555.159238
933.161407	2557.422717
933.464694	2555.953220
933.767943	2556.379198
934.071153	2557.052192
934.374323	2556.043961
934.677455	2554.387942
934.980548	2552.537838
935.283602	2551.764021
935.586617	2553.437684
935.889593	2554.738302
936.192530	2552.747046
936.495428	2552.608415
936.798287	2552.585729
937.101108	2553.472973
937.403890	2560.321380
937.706632	2561.430434
938.009336	2563.557801
938.312002	2570.189439
938.614628	2572.619275
938.917216	2576.127918
939.219765	2577.131108
939.522275	2578.474575
939.824747	2575.810325
940.127179	2570.534758
940.429573	2568.770354
940.731929	2569.181208
941.034246	2566.179201
941.336524	2568.190621
941.638763	2566.912689
941.940964	2568.649366
942.243126	2565.395301
942.545250	2561.528736
942.847335	2564.702143
943.149381	2560.586041
943.451389	2561.319528
943.753359	2559.056050
944.055290	2559.731565
944.357182	2557.203426
944.659036	2556.139743
944.960851	2558.821637
945.262628	2556.437171
945.564367	2558.040258
945.866067	2558.219219
946.167729	2555.257541
946.469352	2559.156873
946.770937	2559.048489
947.072484	2556.162428
947.373992	2554.569423
947.675462	2556.006152
947.976893	2557.508416
948.278286	2553.883827
948.579641	2555.028168
948.880958	2554.466080
949.182236	2555.244938
949.483476	2553.152859
949.784678	2552.608415
950.085841	2557.994888
950.386967	2556.364074
950.688054	2553.094886
950.989103	2557.026986
951.290114	2557.823488
951.591087	2557.047151
951.892021	2556.752243
952.192917	2560.265927
952.493776	2560.999415
952.794596	2560.331462
953.095378	2562.350444
953.396122	2562.874724
953.696828	2561.977399
953.997496	2558.642676
954.298126	2555.691080
954.598718	2556.651420
954.899272	2557.281564
955.199788	2554.110678
955.500266	2554.471121
955.800706	2548.716644
956.101108	2543.549461
956.401472	2546.969884
956.701798	2541.162475
957.002087	2543.579708
957.302337	2546.853938
957.602550	2544.633309
957.902724	2543.814122
958.202861	2543.620037
958.502960	2539.695499
958.803022	2545.578526
959.103045	2541.865716
959.403031	2543.932589
959.702979	2539.866898
960.002889	2542.637012
960.302762	2539.151054
960.602596	2542.866385
960.902393	2541.175078
961.202153	2542.987372
961.501875	2541.013761
961.801559	2540.542413
962.101205	2540.169367
962.400814	2542.289173
962.700385	2538.987217
962.999918	2540.282793
963.299414	2539.791281
963.598873	2538.236085
963.898293	2539.768596
964.197677	2539.035108
964.497022	2536.277597
964.796331	2537.855478
965.095601	2538.042001
965.394835	2540.348328
965.694030	2538.301620
965.993189	2537.542926
966.292309	2536.370858
966.591393	2536.426311
966.890439	2537.810107
967.189447	2533.920857
967.488419	2538.770447
967.787353	2539.607279
968.086249	2536.645601
968.385108	2539.892104
968.683930	2537.641229
968.982714	2540.247505
969.281462	2539.735828
969.580172	2536.418749
969.878844	2539.619882
970.177480	2539.703061
970.476078	2537.157278
970.774639	2542.364790
971.073162	2541.636343
971.371649	2538.606610
971.670098	2533.366330
971.968510	2538.142824
972.266885	2534.422452
972.565223	2542.112732
972.863524	2537.686599
973.161788	2537.953780
973.460014	2540.701209
973.758204	2537.096784
974.056356	2539.718184
974.354471	2539.599717
974.652550	2542.095088
974.950591	2540.144162
975.248595	2541.522917
975.546563	2536.605272
975.844493	2541.527958
976.142386	2539.040149
976.440243	2541.656508
976.738062	2539.352701
977.035845	2536.302802
977.333590	2539.594676
977.631299	2538.420087
977.928971	2536.665766
978.226606	2539.249357
978.524204	2535.675179
978.821765	2537.444624
979.119290	2540.272711
979.416777	2540.118956
979.714228	2538.268853
980.011642	2535.281969
980.309020	2541.981662
980.606360	2536.920344
980.903664	2538.339429
981.200931	2537.200128
981.498162	2541.641384
981.795356	2541.807743
982.092513	2544.628268
982.389633	2547.050542
982.686717	2552.000956
982.983764	2553.041954
983.280775	2555.832233
983.577749	2555.204609
983.874686	2551.630431
984.171587	2550.349978
984.468451	2549.160265
984.765279	2546.007024
985.062070	2544.222455
985.358824	2542.316899
985.655543	2540.620551
985.952224	2538.898997
986.248869	2540.229861
986.545478	2531.475898
986.842050	2535.218954
987.138586	2531.458254
987.435086	2534.916485
987.731549	2533.424304
988.027975	2536.973276
988.324366	2535.150899
988.620719	2538.490663
988.917037	2535.508821
989.213318	2534.545960
989.509563	2534.722401
989.805772	2536.335570
990.101944	2532.723583
990.398080	2536.668286
990.694180	2536.761547
990.990244	2535.276928
991.286271	2535.405477
991.582262	2536.353214
991.878217	2537.432021
992.174136	2537.376568
992.470019	2535.317257
992.765865	2540.555016
993.061676	2534.117462
993.357450	2535.478574
993.653188	2533.487318
993.948890	2534.719880
994.244556	2535.750796
994.540186	2534.959335
994.835780	2534.346835
995.131337	2538.427649
995.426859	2536.796836
995.722345	2538.447813
996.017795	2540.784388
996.313208	2538.967052
996.608586	2540.209697
996.903928	2542.253885
997.199234	2536.701054
997.494504	2540.698689
997.789738	2538.591486
998.084936	2538.483102
998.380099	2537.966383
998.675225	2539.546785
998.970316	2535.430683
999.265371	2537.406815
999.560390	2533.126876
999.855373	2533.946063
1000.150320	2532.171577
1000.445232	2534.850950
1000.740108	2532.831968
1001.034948	2534.455220
1001.329752	2533.986392
1001.624521	2531.022194
1001.919254	2528.610002
1002.213951	2532.733666
1002.508613	2528.126051
1002.803239	2531.070085
1003.097829	2528.030269
1003.392384	2532.093439
1003.686903	2533.489839
1003.981386	2533.381454
1004.275834	2534.195600
1004.570246	2533.061341
1004.864623	2533.865405
1005.158964	2533.630991
1005.453270	2534.145189
1005.747540	2532.383305
1006.041775	2531.982534
1006.335974	2535.889428
1006.630138	2530.273583
1006.924266	2533.240302
1007.218359	2533.502442
1007.512416	2531.415404
1007.806438	2531.604447
1008.100425	2537.152237
1008.394376	2534.548481
1008.688292	2532.955476
1008.982172	2532.053110
1009.276017	2533.754499
1009.569827	2533.043697
1009.863602	2533.154602
1010.157341	2531.995137
1010.451045	2532.849612
1010.744714	2531.566638
1011.038347	2533.789787
1011.331945	2533.467153
1011.625508	2533.482277
1011.919036	2532.317770
1012.212528	2530.654190
1012.505986	2531.657379
1012.799408	2531.249046
1013.092795	2530.243336
1013.386147	2533.358769
1013.679464	2533.827596
1013.972745	2530.525640
1014.265992	2534.825744
1014.559204	2533.502442
1014.852380	2532.915147
1015.145521	2533.300795
1015.438628	2531.841381
1015.731699	2530.767616
1016.024736	2533.600744
1016.317737	2532.083357
1016.610703	2532.388347
1016.903635	2529.900537
1017.196531	2527.649662
1017.489393	2531.612009
1017.782219	2524.647655
1018.075011	2532.277441
1018.367768	2534.263656
1018.660490	2534.404808
1018.953177	2534.404808
1019.245829	2534.404808
