Dividing Wavelength (nm)	Counts (n)	Blue Motor Position (mm): 8.200000	Red Motor Position (mm): 0.000000	
326.493990	2140.773872
326.888308	2140.773872
327.282561	2140.773872
327.676750	2109.778337
328.070874	2107.570312
328.464933	2109.738008
328.858929	2118.461725
329.252859	2125.680657
329.646726	2134.427059
330.040528	2148.617907
330.434265	2165.692295
330.827938	2183.585871
331.221547	2204.068079
331.615091	2221.492827
332.008571	2242.373286
332.401986	2260.034969
332.795338	2280.013062
333.188625	2301.473253
333.581847	2319.608804
333.975006	2336.400888
334.368100	2354.269258
334.761129	2373.896990
335.154095	2389.549773
335.546996	2405.948646
335.939833	2422.289547
336.332606	2436.583738
336.725315	2449.831891
337.117960	2455.495627
337.510540	2466.477781
337.903056	2479.045377
338.295508	2486.052581
338.687896	2493.949548
339.080220	2504.954387
339.472480	2509.660304
339.864676	2514.640964
340.256807	2517.350585
340.648875	2520.347551
341.040879	2522.749660
341.432818	2524.289733
341.824694	2524.057840
342.216506	2526.044054
342.608253	2524.884589
342.999937	2524.478776
343.391557	2526.414579
343.783113	2527.876514
344.174605	2526.407017
344.566033	2522.979033
344.957397	2523.631862
345.348697	2519.311593
345.739934	2519.094824
346.131106	2514.572909
346.522215	2513.801612
346.913260	2511.878412
347.304241	2511.712054
347.695159	2508.410098
348.086012	2506.809532
348.476802	2506.751559
348.867528	2500.750065
349.258191	2505.352638
349.648789	2498.453819
350.039324	2498.075733
350.429796	2501.899448
350.820203	2499.971207
351.210548	2495.078767
351.600828	2496.583551
351.991045	2494.602378
352.381198	2493.463077
352.771288	2494.264621
353.161314	2494.622542
353.551276	2492.507778
353.941175	2494.466267
354.331010	2492.233036
354.720782	2494.312512
355.110490	2491.706235
355.500135	2491.345792
355.889717	2493.095073
356.279235	2493.427789
356.668689	2493.054744
357.058080	2493.798314
357.447408	2492.646410
357.836672	2490.657675
358.225873	2492.472490
358.615010	2488.578199
359.004084	2498.698315
359.393095	2495.940804
359.782043	2496.044148
360.170927	2496.195383
360.559748	2498.239570
360.948505	2497.163284
361.337199	2495.451812
361.725830	2500.513131
362.114398	2501.886845
362.502903	2501.349962
362.891344	2500.175373
363.279722	2503.764675
363.668037	2502.184273
364.056289	2501.133193
364.444478	2501.801146
364.832603	2500.465240
365.220665	2504.677124
365.608665	2504.846003
365.996601	2503.668893
366.384474	2504.402381
366.772284	2505.236692
367.160031	2505.256857
367.547715	2505.927330
367.935336	2503.442041
368.322893	2507.636281
368.710388	2506.524707
369.097820	2509.284738
369.485189	2509.284738
369.872495	2507.356497
370.259738	2508.452948
370.646918	2507.953874
371.034035	2509.178874
371.421090	2507.333812
371.808081	2509.650222
372.195010	2510.371107
372.581875	2508.447907
372.968678	2507.956394
373.355418	2508.190808
373.742096	2509.667866
374.128710	2507.117042
374.515262	2510.991169
374.901751	2511.041581
375.288177	2509.947650
375.674540	2511.225583
376.060841	2509.972856
376.447079	2511.250788
376.833254	2510.242558
377.219367	2506.781806
377.605417	2509.718278
377.991404	2506.139058
378.377329	2508.513442
378.763191	2507.611075
379.148991	2511.190295
379.534727	2514.555265
379.920402	2514.633403
380.306013	2515.014010
380.691563	2513.199194
381.077049	2512.848834
381.462474	2515.374452
381.847835	2511.802795
382.233134	2513.131139
382.618371	2513.864627
383.003545	2514.928310
383.388657	2514.797240
383.773706	2515.034174
384.158693	2516.092817
384.543618	2514.870337
384.928480	2514.852693
385.313280	2514.456962
385.698017	2518.691532
386.082692	2516.836387
386.467305	2514.966119
386.851856	2517.196829
387.236344	2515.646675
387.620770	2518.217663
388.005133	2516.990142
388.389435	2517.527025
388.773674	2517.045595
389.157851	2517.653054
389.541965	2514.840090
389.926018	2518.149608
390.310008	2513.907477
390.693936	2519.598939
391.077802	2516.486027
391.461606	2519.377128
391.845348	2517.388393
392.229027	2518.237828
392.612645	2520.466018
392.996200	2519.742612
393.379694	2520.864269
393.763125	2519.989629
394.146494	2522.709331
394.529801	2523.972140
394.913047	2521.711183
395.296230	2523.548683
395.679351	2522.013652
396.062410	2521.640607
396.445408	2520.506347
396.828343	2522.255627
397.211217	2517.408558
397.594028	2519.908970
397.976778	2519.125071
398.359466	2521.605318
398.742092	2520.763446
399.124656	2522.336286
399.507158	2524.735875
399.889598	2525.698735
400.271977	2523.800741
400.654294	2526.785104
401.036549	2526.323838
401.418742	2522.714372
401.800874	2522.003570
402.182944	2527.758047
402.564952	2523.432737
402.946898	2523.982222
403.328783	2525.171935
403.710606	2524.728313
404.092367	2524.778725
404.474067	2525.436595
404.855705	2526.185207
405.237282	2526.555732
405.618797	2525.983561
406.000250	2524.924918
406.381642	2525.986081
406.762972	2525.499610
407.144240	2526.628828
407.525447	2528.068078
407.906593	2531.092770
408.287677	2527.347193
408.668700	2525.277799
409.049661	2528.534384
409.430560	2526.026410
409.811399	2527.349713
410.192176	2523.684794
410.572891	2530.444982
410.953545	2529.330887
411.334138	2529.840043
411.714669	2528.622605
412.095139	2528.637728
412.475547	2529.328366
412.855894	2525.565145
413.236180	2529.797193
413.616405	2533.691485
413.996568	2530.722245
414.376670	2529.635877
414.756711	2528.163860
415.136691	2529.918181
415.516609	2530.507996
415.896466	2531.188552
416.276262	2531.584283
416.655997	2528.529343
417.035670	2524.264527
417.415283	2527.314425
417.794834	2526.223015
418.174324	2530.250897
418.553753	2529.580424
418.933121	2533.187369
419.312428	2531.889272
419.691674	2534.288862
420.070859	2529.986237
420.449983	2531.801052
420.829045	2529.562780
421.208047	2531.705270
421.586988	2531.702750
421.965867	2533.066382
422.344686	2531.985054
422.723444	2532.605116
423.102141	2534.225847
423.480777	2532.773995
423.859352	2532.690816
424.237866	2534.137627
424.616319	2532.274921
424.994712	2531.579241
425.373044	2535.813811
425.751314	2533.820034
426.129524	2533.394057
426.507673	2533.101670
426.885762	2534.795497
427.263789	2534.019160
427.641756	2531.586803
428.019662	2534.702236
428.397508	2533.210055
428.775292	2535.561753
429.153016	2533.010929
429.530679	2536.370858
429.908282	2534.966897
430.285824	2534.798018
430.663305	2532.814324
431.040726	2534.233409
431.418086	2532.690816
431.795385	2534.109901
432.172624	2536.038142
432.549802	2536.393543
432.926920	2535.160981
433.303977	2536.882535
433.680974	2534.059489
434.057910	2534.190559
434.434786	2534.243491
434.811601	2536.577545
435.188355	2532.305168
435.565050	2536.229706
435.941683	2536.943029
436.318257	2532.476567
436.694770	2531.065044
437.071222	2531.669982
437.447614	2532.627801
437.823946	2534.712318
438.200218	2533.668800
438.576429	2535.672658
438.952580	2536.917823
439.328670	2536.519572
439.704700	2536.295241
440.080670	2540.817156
440.456580	2535.599562
440.832429	2537.931095
441.208218	2537.421939
441.583947	2535.612164
441.959616	2539.335057
442.335224	2537.215251
442.710773	2539.917310
443.086261	2538.571322
443.461689	2534.722401
443.837057	2535.927237
444.212365	2538.354552
444.587612	2537.888245
444.962800	2539.619882
445.337927	2539.330015
445.712995	2538.977135
446.088002	2538.596527
446.462949	2540.759182
446.837837	2538.462937
447.212664	2537.038811
447.587431	2535.617206
447.962139	2537.452186
448.336786	2541.192722
448.711374	2538.798174
449.085901	2540.108874
449.460369	2536.937988
449.834776	2541.076775
450.209124	2539.604758
450.583412	2540.333205
450.957640	2539.763555
451.331808	2538.601569
451.705917	2540.612989
452.079965	2539.292207
452.453954	2540.081147
452.827883	2540.615510
453.201752	2536.771630
453.575562	2540.325643
453.949311	2537.686599
454.323001	2540.807073
454.696632	2541.530479
455.070202	2543.151210
455.443713	2542.233720
455.817164	2540.872608
456.190556	2535.455889
456.563888	2537.706764
456.937160	2537.116949
457.310373	2539.506456
457.683526	2539.768596
458.056619	2542.349667
458.429653	2542.263967
458.802628	2541.994265
459.175542	2542.226158
459.548398	2543.438556
459.921194	2544.776982
460.293930	2542.987372
460.666607	2541.636343
461.039224	2542.362269
461.411782	2541.260777
461.784280	2543.441076
462.156719	2545.318906
462.529099	2542.316899
462.901419	2540.212217
463.273680	2542.505942
463.645882	2543.373021
464.018024	2542.453010
464.390106	2545.341591
464.762130	2545.066848
465.134094	2542.052238
465.505999	2542.664739
465.877845	2544.708927
466.249631	2540.640715
466.621358	2546.674977
466.993026	2544.600542
467.364634	2546.778320
467.736184	2542.833617
468.107674	2542.884029
468.479105	2543.126004
468.850477	2543.637681
469.221790	2542.833617
469.593043	2545.170192
469.964238	2542.077444
470.335373	2541.187681
470.706449	2544.499719
471.077467	2543.768751
471.448425	2545.328988
471.819324	2543.148689
472.190164	2544.303114
472.560945	2545.160110
472.931667	2541.885880
473.302330	2546.213711
473.672934	2543.882177
474.043479	2545.429812
474.413965	2542.001827
474.784393	2539.413194
475.154761	2543.113401
475.525070	2539.317412
475.895321	2541.563247
476.265513	2541.757331
476.635645	2546.425439
477.005719	2543.375541
477.375734	2545.202960
477.745691	2544.681200
478.115588	2543.783875
478.485427	2544.741694
478.855207	2544.381252
479.224928	2543.128525
479.594591	2545.321427
479.964194	2544.048535
480.333739	2544.991231
480.703226	2542.795809
481.072653	2544.328319
481.442022	2545.858310
481.811333	2545.336550
482.180584	2547.542055
482.549777	2544.993752
482.918912	2545.865871
483.287988	2545.578526
483.657005	2544.787064
484.025964	2545.371838
484.394864	2543.942671
484.763706	2546.856458
485.132489	2545.104657
485.501213	2547.947868
485.869879	2546.579195
486.238487	2542.470654
486.607036	2547.484082
486.975527	2547.232024
487.343959	2546.014585
487.712333	2547.602549
488.080648	2546.322096
488.448905	2549.364432
488.817104	2545.732281
489.185244	2547.927703
489.553326	2547.950388
489.921350	2546.342260
490.289315	2547.710934
490.657222	2543.531817
491.025070	2545.127342
491.392861	2548.245296
491.760593	2547.012734
492.128267	2547.920142
492.495883	2548.719164
492.863440	2547.988197
493.230939	2548.358722
493.598380	2544.837476
493.965763	2541.588452
494.333088	2545.331509
494.700354	2543.831766
495.067563	2545.749925
495.434713	2542.072403
495.801805	2547.105995
496.168839	2547.428629
496.535815	2546.112888
496.902733	2545.666746
497.269593	2548.310831
497.636395	2547.484082
498.003139	2547.879812
498.369825	2547.763866
498.736453	2550.498692
499.103023	2548.278063
499.469535	2549.301418
499.835989	2546.097764
500.202385	2550.228990
500.568723	2546.387631
500.935003	2551.204453
501.301226	2548.081458
501.667390	2546.775800
502.033497	2550.211346
502.399546	2546.586756
502.765537	2545.331509
503.131470	2546.344781
503.497345	2548.275543
503.863163	2549.329144
504.228923	2547.269833
504.594625	2548.381407
504.960269	2548.593136
505.325856	2548.066335
505.691385	2547.592467
506.056856	2547.905018
506.422270	2547.665563
506.787625	2548.721685
507.152924	2548.797302
507.518164	2547.572302
507.883347	2548.454504
508.248472	2545.974256
508.613540	2548.101623
508.978550	2547.526932
509.343503	2546.463248
509.708398	2552.008517
510.073236	2547.320244
510.438016	2549.359391
510.802738	2548.779658
511.167403	2549.437529
511.532010	2548.262940
511.896561	2550.108002
512.261053	2549.374514
512.625488	2546.140614
512.989866	2544.451828
513.354186	2547.002652
513.718449	2543.748587
514.082655	2548.265461
514.446803	2547.655481
514.810894	2550.460883
515.174927	2550.143290
515.538904	2551.244782
515.902822	2547.365615
516.266684	2548.767055
516.630488	2549.271171
516.994235	2548.489792
517.357925	2549.387117
517.721558	2549.009031
518.085133	2544.431663
518.448651	2550.221428
518.812112	2550.155893
519.175516	2547.244627
519.538863	2549.132539
519.902152	2549.571119
520.265385	2549.319062
520.628560	2549.553475
520.991678	2547.980635
521.354739	2549.455173
521.717743	2548.638506
522.080690	2552.056408
522.443580	2549.470296
522.806413	2548.517518
523.169189	2551.411141
523.531908	2549.331665
523.894569	2547.683207
524.257174	2551.867365
524.619722	2548.648588
524.982213	2551.292673
525.344647	2550.652447
525.707025	2549.860986
526.069345	2551.771583
526.431608	2552.242931
526.793815	2547.221942
527.155964	2550.002138
527.518057	2550.486089
527.880093	2549.659340
528.242072	2550.216387
528.603995	2549.707231
528.965860	2551.501881
529.327669	2550.813764
529.689421	2549.954247
530.051117	2552.716799
530.412755	2548.802343
530.774337	2550.899463
531.135862	2550.612118
531.497331	2550.695297
531.858743	2546.440563
532.220098	2549.218239
532.581396	2544.151879
532.942638	2548.222611
533.303824	2550.531459
533.664953	2552.227807
534.026025	2546.680018
534.387040	2552.414330
534.747999	2548.073897
535.108902	2552.482386
535.469748	2550.261757
535.830537	2551.784186
536.191270	2550.987684
536.551947	2550.816284
536.912567	2551.194371
537.273131	2549.424926
537.633638	2551.020451
537.994089	2552.658826
538.354483	2551.443908
538.714821	2553.341902
539.075103	2551.360729
539.435328	2551.844680
539.795497	2552.782334
540.155609	2552.358878
540.515665	2554.806358
540.875665	2554.224104
541.235609	2551.905174
541.595496	2554.428271
541.955328	2554.876934
542.315102	2554.259392
542.674821	2554.125802
543.034483	2554.216543
543.394090	2556.696790
543.753640	2555.139074
544.113134	2555.242418
544.472571	2554.156049
544.831953	2555.557490
545.191278	2554.045143
545.550548	2555.640669
545.909761	2554.002294
546.268918	2555.388611
546.628019	2558.186451
546.987064	2553.135215
547.346053	2557.485731
547.704986	2553.097407
548.063863	2555.189485
548.422684	2555.388611
548.781449	2560.069322
549.140158	2555.844835
549.498811	2555.113868
549.857408	2556.119578
550.215949	2554.100596
550.574434	2548.938455
550.932864	2552.663867
551.291237	2552.515153
551.649555	2554.413148
552.007817	2554.909701
552.366022	2555.895247
552.724173	2555.164280
553.082267	2554.224104
553.440305	2557.163097
553.798288	2557.047151
554.156215	2558.035217
554.514086	2557.856256
554.871902	2556.762325
555.229661	2557.074877
555.587365	2555.907850
555.945014	2554.723179
556.302606	2557.911708
556.660143	2558.365412
557.017625	2559.066133
557.375050	2556.543035
557.732421	2557.435319
558.089735	2555.340720
558.446994	2558.672923
558.804197	2560.384394
559.161345	2556.749723
559.518437	2560.134857
559.875474	2557.097562
560.232455	2557.011862
560.589381	2555.103786
560.946251	2559.212326
561.303065	2556.820299
561.659825	2556.926163
562.016528	2557.775597
562.373177	2557.284085
562.729770	2555.383570
563.086307	2560.480176
563.442789	2557.889023
563.799216	2558.710731
564.155587	2554.312325
564.511904	2557.349620
564.868164	2556.260731
565.224370	2557.364743
565.580520	2557.188303
565.936615	2558.062943
566.292654	2558.947666
566.648638	2556.480021
567.004567	2558.206616
567.360441	2556.071687
567.716260	2555.789383
568.072023	2553.707386
568.427732	2553.818292
568.783385	2551.280071
569.138982	2552.860472
569.494525	2556.144784
569.850013	2550.813764
570.205445	2558.042778
570.560823	2554.508930
570.916145	2555.600339
571.271412	2555.688560
571.626625	2557.372305
571.981782	2555.378529
572.336884	2553.878785
572.691931	2553.530946
573.046923	2555.408776
573.401860	2555.900288
573.756743	2556.326266
574.111570	2556.238045
574.466342	2557.949517
574.821059	2555.338199
575.175722	2555.696121
575.530330	2556.696790
575.884882	2555.595298
576.239380	2556.701832
576.593823	2558.746019
576.948211	2554.735782
577.302544	2555.595298
577.656823	2556.018755
578.011047	2558.315001
578.365216	2555.040771
578.719330	2555.615463
579.073389	2555.819630
579.427394	2552.724361
579.781344	2553.616645
580.135239	2555.572613
580.489080	2556.338868
580.842866	2555.068498
581.196597	2560.507903
581.550273	2556.346430
581.903895	2555.655792
582.257463	2559.154353
582.610975	2555.713765
582.964434	2556.648899
583.317837	2555.065977
583.671186	2553.878785
584.024481	2555.348282
584.377721	2559.340876
584.730906	2553.790565
585.084037	2554.471121
585.437113	2554.110678
585.790135	2555.325597
586.143103	2556.631255
586.496016	2554.246790
586.848874	2553.334341
587.201679	2551.814433
587.554428	2551.743857
587.907124	2551.201933
588.259765	2549.210677
588.612352	2554.302242
588.964884	2554.730740
589.317362	2554.652602
589.669786	2552.711758
590.022155	2556.290977
590.374470	2552.782334
590.726731	2552.855431
591.078937	2553.223435
591.431090	2553.248641
591.783188	2554.987839
592.135232	2554.634958
592.487222	2554.047664
592.839157	2553.440205
593.191038	2549.883671
593.542866	2553.336861
593.894639	2551.532128
594.246358	2550.259237
594.598022	2554.060267
594.949633	2554.566903
595.301190	2553.291491
595.652692	2554.322407
596.004141	2553.372149
596.355535	2552.439536
596.706876	2555.234856
597.058162	2553.225956
597.409395	2550.055070
597.760573	2553.840977
598.111698	2552.174875
598.462768	2553.649413
598.813785	2555.640669
599.164748	2555.292829
599.515657	2552.588250
599.866511	2554.317366
600.217312	2552.615976
600.568060	2554.519012
600.918753	2557.425237
601.269392	2551.983312
601.619978	2554.380380
601.970510	2553.059598
602.320988	2552.893240
602.671412	2554.539177
603.021783	2551.708569
603.372100	2552.613456
603.722363	2552.179917
604.072572	2554.458518
604.422728	2555.335679
604.772830	2549.649257
605.122878	2550.188661
605.472872	2550.392828
605.822813	2548.966181
606.172701	2556.233004
606.522534	2554.287119
606.872314	2552.983981
607.222041	2552.676470
607.571714	2552.666388
607.921333	2554.191337
608.270899	2552.905843
608.620411	2554.455998
608.969870	2554.279557
609.319276	2556.729558
609.668627	2557.689898
610.017926	2561.080074
610.367171	2561.337173
610.716362	2560.437327
611.065500	2559.592933
611.414585	2557.170659
611.763616	2559.471946
612.112594	2559.197203
612.461518	2557.538663
612.810389	2558.163766
613.159207	2555.212171
613.507971	2558.372974
613.856682	2556.076728
614.205340	2554.435833
614.553945	2556.414486
614.902496	2553.992211
615.250994	2557.374826
615.599439	2555.615463
615.947830	2555.045812
616.296169	2551.504402
616.644454	2555.181924
616.992686	2554.798796
617.340864	2554.385421
617.688990	2554.655123
618.037063	2553.490617
618.385082	2556.384239
618.733048	2554.831563
619.080961	2555.408776
619.428821	2554.208981
619.776628	2557.642007
620.124382	2554.786193
620.472083	2556.159907
620.819731	2556.265772
621.167326	2556.573282
621.514868	2556.555638
621.862357	2552.663867
622.209793	2554.042623
622.557176	2556.941286
622.904506	2554.715617
623.251783	2549.072045
623.599007	2553.954403
623.946179	2553.578837
624.293297	2554.806358
624.640363	2555.663354
624.987376	2553.694783
625.334336	2555.665874
625.681243	2555.106306
626.028097	2554.360216
626.374899	2556.061605
626.721647	2556.316183
627.068343	2556.684187
627.414987	2556.946327
627.761577	2554.849208
628.108115	2555.602860
628.454600	2557.488252
628.801032	2556.835422
629.147412	2557.268961
629.493739	2555.267623
629.840014	2556.031358
630.186236	2557.732747
630.532405	2553.243600
630.878521	2558.819116
631.224585	2557.309291
631.570597	2554.193857
631.916556	2555.267623
632.262462	2554.352654
632.608316	2555.910370
632.954117	2555.141594
633.299866	2557.314332
633.645562	2554.534135
633.991206	2557.284085
634.336797	2555.189485
634.682336	2557.826009
635.027823	2557.757953
635.373257	2554.221584
635.718639	2554.592109
636.063968	2554.214022
636.409245	2554.796275
636.754470	2557.037068
637.099642	2557.047151
637.444762	2558.499003
637.789829	2556.449774
638.134845	2555.454146
638.479808	2557.442881
638.824719	2556.948848
639.169577	2558.619991
639.514383	2555.620504
639.859137	2554.672767
640.203839	2554.476162
640.548489	2552.920966
640.893086	2553.236038
641.237632	2553.369629
641.582125	2554.418189
641.926566	2550.982642
642.270955	2556.928683
642.615292	2557.155535
642.959576	2557.331976
643.303809	2559.406411
643.647990	2558.204095
643.992118	2555.345761
644.336195	2558.496482
644.680219	2557.790721
645.024192	2557.591595
645.368112	2557.853735
645.711981	2559.161915
646.055797	2554.370298
646.399562	2556.974054
646.743274	2558.930022
647.086935	2561.836247
647.430544	2559.940773
647.774101	2560.225598
648.117606	2560.328942
648.461059	2563.703994
648.804460	2560.394477
649.147810	2560.583520
649.491108	2560.880948
649.834354	2559.560166
650.177548	2561.253993
650.520690	2560.671740
650.863781	2559.552604
651.206820	2562.826833
651.549807	2561.909343
651.892742	2561.125444
652.235626	2563.678788
652.578458	2562.910013
652.921238	2563.998902
653.263967	2562.665517
653.606644	2561.964796
653.949269	2563.918243
654.291843	2561.853891
654.634365	2562.756257
654.976836	2559.628221
655.319255	2564.888665
655.661622	2564.324056
656.003938	2564.770198
656.346203	2566.630384
656.688416	2565.612071
657.030577	2562.731052
657.372687	2564.054354
657.714746	2563.305743
658.056753	2564.245918
658.398708	2559.779456
658.740612	2563.683830
659.082465	2564.326577
659.424266	2561.359858
659.766016	2562.625187
660.107715	2568.278841
660.449362	2567.454613
660.790958	2570.585169
661.132503	2569.060220
661.473996	2572.919223
661.815438	2569.128276
662.156829	2573.766137
662.498168	2571.643812
662.839456	2571.890828
663.180693	2573.680438
663.521879	2572.712536
663.863013	2572.039542
664.204097	2574.313103
664.545129	2573.592217
664.886110	2577.294945
665.227040	2576.385017
665.567918	2578.164544
665.908746	2577.995665
666.249522	2580.702765
666.590248	2582.068918
666.930922	2582.202508
667.271545	2581.196798
667.612118	2584.891964
667.952639	2582.598239
668.293109	2584.886923
668.633528	2584.554207
668.973896	2583.329206
669.314213	2584.589495
669.654480	2587.495720
669.994695	2587.019331
670.334859	2585.557396
670.674973	2587.105030
671.015035	2587.926738
671.355047	2591.548807
671.695008	2591.110227
672.034918	2589.461770
672.374777	2593.252717
672.714585	2593.966041
673.054342	2594.646597
673.394049	2594.540732
673.733705	2599.140785
674.073310	2600.411156
674.412864	2598.979468
674.752368	2602.742690
675.091820	2601.830241
675.431223	2599.644901
675.770574	2605.202773
676.109875	2599.985178
676.449125	2601.396702
676.788324	2600.010384
677.127473	2600.532144
677.466571	2598.699684
677.805619	2608.247630
678.144616	2606.364759
678.483562	2608.469440
678.822458	2604.872577
679.161303	2611.153855
679.500098	2610.982456
679.838842	2611.342898
680.177535	2613.140069
680.516179	2614.375152
680.854771	2616.623507
681.193314	2618.004783
681.531805	2621.049640
681.870247	2632.503141
682.208638	2635.845426
682.546978	2635.633698
682.885268	2636.523462
683.223508	2638.555047
683.561697	2636.135293
683.899836	2634.398615
684.237925	2637.778709
684.575963	2638.854995
684.913951	2637.773668
685.251889	2646.555358
685.589776	2643.888587
685.927614	2641.680562
686.265401	2653.882675
686.603137	2652.907212
686.940824	2661.600681
687.278460	2663.470949
687.616046	2665.338697
687.953582	2671.801456
688.291068	2670.377330
688.628504	2683.023065
688.965889	2678.566685
689.303224	2679.872343
689.640510	2678.566685
689.977745	2677.099709
690.314930	2674.022084
690.652065	2673.321364
690.989150	2667.463543
691.326185	2668.083605
691.663170	2664.522030
692.000105	2662.664365
692.336990	2659.513644
692.673825	2663.579334
693.010610	2660.542039
693.347345	2648.597025
693.684030	2657.915598
694.020665	2659.813592
694.357251	2649.073414
694.693786	2655.301760
695.030272	2655.725217
695.366707	2656.171359
695.703093	2654.182623
696.039429	2658.386946
696.375716	2660.736123
696.711952	2659.639672
697.048139	2658.316370
697.384276	2659.884168
697.720363	2664.590086
698.056400	2668.552432
698.392388	2665.512617
698.728326	2667.405570
699.064214	2660.582368
699.400053	2663.654952
699.735842	2669.260715
700.071581	2662.485404
700.407270	2663.513799
700.742910	2667.050169
701.078501	2661.882986
701.414042	2664.610250
701.749533	2664.605209
702.084974	2658.137409
702.420366	2667.647545
702.755709	2665.459685
703.091002	2660.978099
703.426246	2667.571928
703.761440	2658.974240
704.096584	2657.572799
704.431679	2665.888183
704.766725	2668.292813
705.101721	2667.849192
705.436668	2670.911692
705.771565	2663.591937
706.106413	2665.724345
706.441212	2674.352280
706.775961	2680.394103
707.110661	2675.804132
707.445311	2678.034843
707.779913	2688.956503
708.114465	2688.999352
708.448967	2688.908612
708.783421	2699.782381
709.117825	2704.901672
709.452180	2705.178936
709.786485	2707.918803
710.120742	2719.054712
710.454949	2717.905329
710.789107	2721.976060
711.123216	2733.104407
711.457275	2732.020559
711.791286	2744.837693
712.125247	2752.341451
712.459159	2735.624984
712.793023	2741.462641
713.126837	2757.352357
713.460602	2756.263468
713.794318	2740.681262
714.127985	2747.484299
714.461602	2742.632188
714.795171	2731.788666
715.128691	2732.000395
715.462162	2729.817575
715.795584	2728.378326
716.128957	2729.787328
716.462281	2715.626727
716.795556	2717.486913
717.128782	2721.693756
717.461960	2715.036912
717.795088	2719.059753
718.128167	2715.520863
718.461198	2704.352187
718.794180	2704.468133
719.127113	2709.917620
719.459997	2713.300235
719.792833	2703.979141
720.125619	2700.599047
720.458357	2701.846733
720.791046	2707.729760
721.123686	2701.730787
721.456278	2699.318594
721.788821	2704.412680
722.121315	2700.218440
722.453761	2695.210054
722.786158	2703.167515
723.118506	2709.042980
723.450805	2697.153419
723.783056	2701.075437
724.115259	2713.186809
724.447412	2713.862323
724.779518	2709.600028
725.111574	2714.212683
725.443582	2718.827860
725.775542	2719.306769
726.107453	2727.937225
726.439315	2732.756568
726.771129	2730.954355
727.102895	2734.115159
727.434612	2749.876326
727.766281	2751.245000
728.097901	2744.600759
728.429473	2748.832807
728.760996	2753.022006
729.092471	2747.277612
729.423897	2752.792634
729.755276	2762.315373
730.086606	2757.526277
730.417887	2758.658016
730.749120	2772.697630
731.080305	2791.720424
731.411442	2791.291926
731.742530	2782.477468
732.073570	2784.935031
732.404562	2799.461116
732.735506	2799.151085
733.066401	2797.711835
733.397249	2786.797737
733.728048	2771.379368
734.058798	2773.015222
734.389501	2762.000301
734.720156	2746.355080
735.050762	2742.644791
735.381320	2750.503950
735.711831	2737.094481
736.042293	2736.769326
736.372707	2745.074627
736.703073	2739.219327
737.033391	2730.064592
737.363661	2739.363000
737.693883	2749.417581
738.024056	2749.397417
738.354182	2742.337281
738.684260	2759.091556
739.014290	2763.011053
739.344272	2754.743560
739.674207	2768.896600
740.004093	2770.363576
740.333931	2769.551950
740.663722	2774.978752
740.993464	2776.400357
741.323159	2772.211158
741.652806	2769.524223
741.982405	2769.196548
742.311956	2766.638163
742.641460	2765.231681
742.970915	2760.193048
743.300323	2752.190216
743.629683	2748.069073
743.958996	2747.784247
744.288260	2747.343147
744.617477	2741.883577
744.946647	2734.946949
745.275768	2735.133472
745.604842	2738.032135
745.933869	2721.592933
746.262847	2724.816751
746.591778	2744.222672
746.920662	2737.875860
747.249498	2725.532594
747.578286	2743.882394
747.907027	2745.283835
748.235720	2733.558111
748.564365	2749.785586
748.892963	2757.017121
749.221514	2747.892632
749.550017	2744.290728
749.878473	2744.991448
750.206881	2739.267218
750.535242	2745.079668
750.863555	2743.322826
751.191821	2743.907600
751.520039	2737.071796
751.848210	2726.976885
752.176334	2745.959350
752.504411	2751.865062
752.832440	2735.304871
753.160421	2733.711867
753.488356	2739.128586
753.816243	2747.509505
754.144082	2731.609705
754.471875	2728.514437
754.799620	2738.886611
755.127318	2733.225395
755.454969	2735.889645
755.782572	2743.375758
756.110129	2730.684654
756.437638	2726.747512
756.765100	2736.565160
757.092515	2745.505646
757.419882	2750.841707
757.747203	2737.278483
758.074477	2735.940057
758.401703	2741.840727
758.728882	2750.834146
759.056014	2755.098962
759.383099	2750.594691
759.710138	2744.951119
760.037129	2747.151583
760.364073	2767.404418
760.690970	2763.074067
761.017820	2754.441091
761.344623	2755.918149
761.671379	2773.584873
761.998088	2785.204732
762.324751	2812.104329
762.651366	2856.106041
762.977935	2943.784309
763.304456	3048.405895
763.630931	3095.810386
763.957359	3015.456914
764.283740	2940.525203
764.610074	2912.140986
764.936362	2872.507435
765.262602	2828.916577
765.588796	2811.015440
765.914943	2785.857562
766.241044	2764.888882
766.567097	2761.087852
766.893104	2747.459093
767.219064	2740.645974
767.544978	2740.913155
767.870845	2717.817108
768.196665	2717.509598
768.522438	2725.013356
768.848165	2726.719786
769.173846	2716.755946
769.499479	2708.634647
769.825066	2706.845037
770.150607	2700.984696
770.476101	2713.327961
770.801548	2712.410471
771.126949	2694.569827
771.452303	2689.334589
771.777611	2698.176773
772.102872	2703.517876
772.428087	2693.934642
772.753256	2693.085208
773.078378	2690.647810
773.403453	2683.093641
773.728482	2680.946109
774.053465	2690.695701
774.378401	2682.725637
774.703291	2671.650222
775.028135	2676.393947
775.352932	2673.921261
775.677683	2669.205262
776.002388	2670.621826
776.327046	2671.032680
776.651658	2670.334480
776.976224	2665.910868
777.300743	2670.755417
777.625216	2665.525220
777.949643	2662.122441
778.274024	2664.832061
778.598359	2663.591937
778.922647	2663.959941
779.246889	2665.686537
779.571086	2657.850063
779.895236	2656.945176
780.219339	2663.206289
780.543397	2668.940601
780.867409	2670.168122
781.191374	2666.974551
781.515294	2665.948677
781.839167	2666.115035
782.162995	2663.937256
782.486776	2669.812721
782.810511	2666.407422
783.134201	2664.935405
783.457844	2667.163595
783.781441	2662.480363
784.104993	2655.853766
784.428498	2656.728406
784.751958	2664.688388
785.075372	2663.355003
785.398739	2656.572130
785.722061	2665.174859
786.045337	2670.493277
786.368568	2663.486073
786.691752	2658.427275
787.014891	2677.318999
787.337983	2682.302180
787.661030	2685.694876
787.984031	2704.664738
788.306987	2722.316338
788.629897	2717.123950
788.952760	2717.030688
789.275579	2718.147304
789.598351	2698.708615
789.921078	2683.940555
790.243759	2687.555062
790.566395	2682.224042
790.888984	2675.506704
791.211529	2672.277845
791.534027	2667.410611
791.856480	2666.210817
792.178888	2660.075732
792.501249	2654.384270
792.823566	2655.616832
793.145836	2657.030875
793.468062	2658.207985
793.790241	2654.175062
794.112375	2658.820485
794.434464	2662.866011
794.756507	2658.573468
795.078505	2663.667554
795.400457	2664.564880
795.722364	2674.506035
796.044226	2684.550534
796.366042	2682.917200
796.687812	2681.893846
797.009538	2692.636545
797.331218	2690.612522
797.652852	2688.961544
797.974442	2678.223886
798.295986	2677.898732
798.617484	2680.721778
798.938938	2675.163906
799.260346	2666.949346
799.581709	2668.181908
799.903026	2664.156546
800.224299	2664.138902
800.545526	2661.560352
800.866708	2655.654640
801.187845	2648.813795
801.508936	2654.303611
801.829983	2656.766215
802.150984	2651.346974
802.471940	2646.802374
802.792851	2643.850779
803.113717	2649.501912
803.434538	2651.165493
803.755314	2645.993269
804.076045	2644.327168
804.396731	2645.443783
804.717372	2644.579225
805.037967	2641.791467
805.358518	2643.959163
805.679024	2650.686583
805.999485	2649.922848
806.319901	2650.038795
806.640272	2646.502426
806.960598	2647.243475
807.280879	2653.585247
807.601115	2654.971564
807.921306	2650.268167
808.241453	2647.840852
808.561554	2652.516522
808.881611	2654.633807
809.201623	2651.034423
809.521590	2654.212870
809.841513	2650.724392
810.161390	2653.219763
810.481223	2649.562406
810.801011	2648.400420
811.120755	2646.457055
811.440453	2647.987045
811.760107	2649.753970
812.079716	2652.236738
812.399281	2644.667446
812.718801	2641.451189
813.038276	2637.335087
813.357707	2645.385810
813.677093	2650.850421
813.996434	2647.898825
814.315731	2644.420429
814.634983	2642.351035
814.954191	2644.382620
815.273354	2651.851090
815.592473	2656.557007
815.911547	2656.642707
816.230577	2661.061278
816.549562	2662.225784
816.868502	2658.656647
817.187399	2668.653256
817.506250	2675.821776
817.825058	2673.480160
818.143821	2677.722291
818.462539	2683.212108
818.781213	2694.156453
819.099843	2712.430636
819.418429	2725.729199
819.736970	2750.876995
820.055466	2776.743156
820.373919	2828.699808
820.692327	2890.988305
821.010691	2945.044598
821.329011	3082.214394
821.647286	3318.964622
821.965517	3703.198848
822.283704	3912.711722
822.601847	3932.226029
822.919945	3809.332780
823.237999	3744.009509
823.556010	3580.361052
823.873976	3404.001326
824.191897	3259.932711
824.509775	3154.839777
824.827609	3044.370452
825.145398	2997.354130
825.463144	2993.779952
825.780845	3030.734131
826.098502	3059.693039
826.416116	3154.668377
826.733685	3250.442739
827.051210	3270.647683
827.368692	3253.984149
827.686129	3184.806916
828.003522	3059.635066
828.320872	2955.946093
828.638177	2873.621530
828.955439	2817.117757
829.272656	2784.418312
829.589830	2753.548807
829.906960	2739.360479
830.224046	2716.461038
830.541088	2703.608616
830.858086	2698.537216
831.175041	2689.294260
831.491952	2690.662933
831.808819	2700.157947
832.125642	2710.653629
832.442421	2728.025445
832.759157	2757.853952
833.075849	2823.202430
833.392497	2937.530758
833.709101	3029.345293
834.025662	3007.670852
834.342179	2951.898046
834.658653	2880.575802
834.975083	2822.647903
835.291469	2785.812192
835.607811	2746.768455
835.924110	2719.831049
836.240366	2695.068902
836.556578	2675.393278
836.872746	2665.825168
837.188871	2656.181441
837.504952	2646.699031
837.820990	2646.641057
838.136984	2638.207207
838.452935	2632.818213
838.768842	2633.849129
839.084706	2642.628299
839.400526	2675.453772
839.716303	2726.286247
840.032037	2755.414034
840.347727	2754.299939
840.663373	2740.260325
840.978977	2710.807384
841.294537	2674.432938
841.610054	2655.377377
841.925527	2645.060656
842.240957	2632.999695
842.556344	2623.381173
842.871687	2612.056221
843.186987	2611.330295
843.502244	2610.054883
843.817458	2605.903493
844.132629	2600.171701
844.447756	2596.557194
844.762840	2588.876996
845.077881	2593.429158
845.392879	2591.508478
845.707833	2588.393045
846.022745	2587.427664
846.337613	2587.641913
846.652438	2586.295925
846.967221	2585.385997
847.281960	2587.657037
847.596656	2586.157293
847.911309	2585.222159
848.225919	2587.558734
848.540485	2582.925914
848.855009	2584.014803
849.169490	2579.210583
849.483928	2584.876840
849.798323	2584.856676
850.112675	2580.488516
850.426984	2582.414237
850.741251	2581.370718
851.055474	2582.031109
851.369654	2585.075966
851.683792	2583.387179
851.997887	2582.802406
852.311938	2580.564133
852.625947	2585.254927
852.939914	2581.990780
853.253837	2583.490523
853.567718	2583.172930
853.881555	2581.161510
854.195350	2583.480441
854.509103	2585.706110
854.822812	2581.935327
855.136479	2581.864751
855.450103	2582.966243
855.763685	2586.426995
856.077224	2584.009762
856.390720	2580.581777
856.704173	2581.504308
857.017584	2586.719382
857.330953	2584.097982
857.644278	2587.651996
857.957561	2587.357088
858.270802	2584.821388
858.584000	2585.950606
858.897155	2587.725092
859.210268	2589.156780
859.523339	2587.974629
859.836367	2582.895667
860.149352	2583.921542
860.462295	2582.537745
860.775195	2579.157651
861.088054	2579.155131
861.400869	2579.409709
861.713642	2581.456417
862.026373	2578.240161
862.339062	2581.935327
862.651708	2586.711820
862.964312	2586.306007
863.276873	2586.737026
863.589392	2582.867941
863.901869	2587.364650
864.214303	2593.126689
864.526696	2591.518561
864.839045	2595.601895
865.151353	2593.358582
865.463619	2594.301277
865.775842	2596.975610
866.088023	2595.730445
866.400162	2598.540888
866.712258	2597.666248
867.024313	2593.993767
867.336325	2592.194075
867.648296	2594.754981
867.960224	2597.356217
868.272110	2598.172884
868.583954	2591.974785
868.895755	2595.828747
869.207515	2594.797831
869.519233	2602.210848
869.830909	2599.914602
870.142542	2595.334714
870.454134	2594.613829
870.765684	2601.653800
871.077191	2601.520210
871.388657	2602.747731
871.700081	2601.033738
872.011463	2600.907710
872.322803	2600.680858
872.634101	2604.554984
872.945357	2609.606221
873.256571	2608.968515
873.567744	2609.094543
873.878874	2607.025150
874.189963	2610.127980
874.501010	2614.531428
874.812015	2615.496809
875.122979	2615.849690
875.433900	2610.377517
875.744780	2610.299379
876.055618	2612.943464
876.366415	2619.935545
876.677169	2617.445215
876.987882	2615.998404
877.298554	2614.337343
877.609183	2620.986625
877.919771	2623.638272
878.230317	2630.789149
878.540822	2635.737042
878.851285	2647.339257
879.161707	2661.446926
879.472087	2684.391738
879.782425	2709.511807
880.092722	2770.880294
880.402977	2861.679036
880.713191	2959.837863
881.023363	3052.015362
881.333494	3104.823969
881.643583	3196.083977
881.953631	3230.447002
882.263637	3170.200172
882.573602	3081.611976
882.883526	3037.101108
883.193408	2991.934890
883.503248	2951.426698
883.813048	2892.830847
884.122806	2835.207937
884.432522	2791.294446
884.742197	2756.475197
885.051831	2739.456261
885.361424	2720.776266
885.670975	2697.155939
885.980485	2684.079186
886.289954	2674.657270
886.599382	2664.491783
886.908768	2659.127995
887.218113	2645.844555
887.527417	2640.261477
887.836680	2633.730662
888.145901	2631.053810
888.455082	2626.494086
888.764221	2618.017386
889.073319	2616.668877
889.382376	2614.465893
889.691392	2614.501181
890.000366	2615.789196
890.309300	2612.353649
890.618193	2617.364556
890.927044	2617.309104
891.235855	2616.303393
891.544625	2617.041922
891.853353	2619.514608
892.162041	2619.244907
892.470687	2632.777884
892.779293	2639.689306
893.087858	2644.576705
893.396381	2652.375370
893.704864	2677.666839
894.013306	2714.361397
894.321707	2767.227978
894.630068	2792.138840
894.938387	2806.813638
895.246665	2807.050573
895.554903	2785.701286
895.863100	2766.255035
896.171256	2733.308574
896.479371	2693.642255
896.787446	2673.240706
897.095480	2661.809889
897.403473	2661.300733
897.711425	2653.933086
898.019336	2639.091929
898.327207	2631.426855
898.635038	2629.453243
898.942827	2631.893162
899.250576	2622.204064
899.558284	2617.402365
899.865952	2612.875409
900.173579	2613.543362
900.481165	2611.778958
900.788711	2606.014398
901.096216	2602.420056
901.403681	2598.651793
901.711105	2601.530292
902.018489	2600.567432
902.325832	2602.772937
902.633135	2604.136569
902.940397	2610.173350
903.247619	2637.322484
903.554800	2675.249605
903.861941	2737.810325
904.169041	2804.129224
904.476101	2834.499655
904.783121	2837.289934
905.090100	2811.441418
905.397039	2775.079575
905.703938	2734.941908
906.010796	2699.585776
906.317614	2669.192659
906.624391	2645.327837
906.931129	2630.257307
907.237826	2619.365894
907.544483	2604.940633
907.851099	2593.751792
908.157675	2591.022007
908.464211	2588.201481
908.770707	2577.252095
909.077163	2576.289235
909.383578	2577.380645
909.689954	2572.710016
909.996289	2573.158678
910.302584	2572.155489
910.608839	2570.756568
910.915054	2573.251940
911.221229	2573.413257
911.527363	2575.114646
911.833458	2572.069789
912.139513	2574.870150
912.445527	2576.037177
912.751502	2579.616396
913.057436	2580.685121
913.363331	2585.307859
913.669186	2591.145515
913.975000	2600.877463
914.280775	2611.753752
914.586510	2621.508385
914.892205	2640.165695
915.197859	2680.691531
915.503475	2729.931001
915.809050	2765.443409
916.114585	2768.331991
916.420081	2774.177208
916.725536	2785.262706
917.030952	2776.110491
917.336328	2749.110071
917.641665	2723.299363
917.946961	2692.271061
918.252218	2673.880932
918.557435	2657.910557
918.862612	2645.461427
919.167750	2632.515744
919.472848	2623.234980
919.777906	2615.579988
920.082925	2607.632609
920.387904	2597.474684
920.692843	2597.159612
920.997743	2595.427975
921.302603	2589.625607
921.607423	2588.393045
921.912204	2582.870461
922.216946	2580.564133
922.521647	2580.123032
922.826310	2579.941551
923.130932	2574.875191
923.435516	2570.315467
923.740059	2570.010478
924.044564	2569.897052
924.349028	2568.515776
924.653454	2563.048644
924.957840	2561.657286
925.262186	2559.751730
925.566493	2560.782646
925.870761	2557.697459
926.174989	2559.315670
926.479178	2555.554969
926.783328	2555.381049
927.087438	2556.580844
927.391509	2556.611091
927.695541	2555.396173
927.999533	2553.606563
928.303486	2550.828887
928.607400	2552.381563
928.911275	2551.416182
929.215110	2554.027499
929.518906	2551.806871
929.822663	2552.868034
930.126381	2553.241079
930.430060	2554.367777
930.733699	2552.958775
931.037299	2552.038764
931.340861	2554.045143
931.644383	2556.830381
931.947866	2553.538507
932.251309	2550.806202
932.554714	2552.137067
932.858080	2555.585216
933.161407	2551.968188
933.464694	2552.565565
933.767943	2552.005997
934.071153	2550.624721
934.374323	2550.067673
934.677455	2552.305945
934.980548	2548.807385
935.283602	2552.003476
935.586617	2550.160934
935.889593	2551.859803
936.192530	2550.707900
936.495428	2550.067673
936.798287	2552.900802
937.101108	2552.477345
937.403890	2552.512633
937.706632	2554.103117
938.009336	2560.684343
938.312002	2558.723334
938.614628	2563.106617
938.917216	2565.601989
939.219765	2562.942780
939.522275	2565.473439
939.824747	2567.946125
940.127179	2560.291133
940.429573	2560.598643
940.731929	2560.056719
941.034246	2557.475649
941.336524	2560.591082
941.638763	2559.592933
941.940964	2559.610577
942.243126	2557.067315
942.545250	2559.547563
942.847335	2554.861810
943.149381	2556.054043
943.451389	2556.109496
943.753359	2557.110165
944.055290	2554.912222
944.357182	2553.568754
944.659036	2555.461708
944.960851	2552.361398
945.262628	2554.907181
945.564367	2553.820812
945.866067	2554.120761
946.167729	2554.113199
946.469352	2554.367777
946.770937	2553.248641
947.072484	2552.563044
947.373992	2552.552962
947.675462	2553.185627
947.976893	2552.893240
948.278286	2554.640000
948.579641	2552.500030
948.880958	2547.869730
949.182236	2551.358208
949.483476	2551.091027
949.784678	2550.123126
950.085841	2552.900802
950.386967	2550.208825
950.688054	2549.218239
950.989103	2550.773435
951.290114	2553.646892
951.591087	2554.513971
951.892021	2554.067829
952.192917	2558.146122
952.493776	2555.396173
952.794596	2554.405586
953.095378	2557.883982
953.396122	2556.212840
953.696828	2555.055895
953.997496	2553.349464
954.298126	2552.822664
954.598718	2553.563713
954.899272	2551.902653
955.199788	2550.808723
955.500266	2548.320913
955.800706	2550.334854
956.101108	2545.321427
956.401472	2544.764379
956.701798	2542.344625
957.002087	2545.369318
957.302337	2545.321427
957.602550	2547.799154
957.902724	2545.339071
958.202861	2544.716488
958.502960	2542.947043
958.803022	2546.369987
959.103045	2545.303783
959.403031	2544.164482
959.702979	2543.352856
960.002889	2545.258412
960.302762	2542.410160
960.602596	2546.264123
960.902393	2544.721529
961.202153	2541.885880
961.501875	2544.245140
961.801559	2542.044677
962.101205	2540.469316
962.400814	2541.754810
962.700385	2544.560212
962.999918	2542.090047
963.299414	2543.569626
963.598873	2544.262784
963.898293	2541.590973
964.197677	2545.152548
964.497022	2544.431663
964.796331	2542.243802
965.095601	2540.668442
965.394835	2543.330171
965.694030	2543.078113
965.993189	2543.612476
966.292309	2539.095602
966.591393	2542.833617
966.890439	2541.835469
967.189447	2544.217414
967.488419	2541.404450
967.787353	2543.005017
968.086249	2540.925541
968.385108	2543.413350
968.683930	2543.236910
968.982714	2543.478885
969.281462	2542.304296
969.580172	2541.081816
969.878844	2542.526107
970.177480	2543.070552
970.476078	2541.911086
970.774639	2543.166333
971.073162	2541.283463
971.371649	2543.935109
971.670098	2538.188194
971.968510	2541.626261
972.266885	2539.433359
972.565223	2543.816642
972.863524	2544.537527
973.161788	2545.008875
973.460014	2542.261446
973.758204	2540.398740
974.056356	2543.325130
974.354471	2543.252033
974.652550	2541.089378
974.950591	2543.723381
975.248595	2544.013247
975.546563	2544.550130
975.844493	2544.124153
976.142386	2542.906714
976.440243	2541.709440
976.738062	2541.109543
977.035845	2541.001158
977.333590	2542.304296
977.631299	2543.113401
977.928971	2542.669780
978.226606	2543.703216
978.524204	2543.035263
978.821765	2541.911086
979.119290	2542.962167
979.416777	2540.970911
979.714228	2538.745242
980.011642	2542.130376
980.309020	2541.376724
980.606360	2539.939995
980.903664	2542.876467
981.200931	2540.751621
981.498162	2541.931251
981.795356	2544.325799
982.092513	2546.319575
982.389633	2548.875440
982.686717	2549.540872
982.983764	2550.468445
983.280775	2549.956768
983.577749	2551.484237
983.874686	2553.072201
984.171587	2549.949206
984.468451	2549.966850
984.765279	2547.700851
985.062070	2543.551982
985.358824	2544.862682
985.655543	2545.949050
985.952224	2543.899821
986.248869	2542.188350
986.545478	2537.686599
986.842050	2538.929244
987.138586	2538.473019
987.435086	2539.350180
987.731549	2536.738862
988.027975	2541.613658
988.324366	2539.574511
988.620719	2540.481919
988.917037	2540.345808
989.213318	2542.100129
989.509563	2539.360262
989.805772	2540.108874
990.101944	2541.081816
990.398080	2541.454862
990.694180	2539.564429
990.990244	2540.655839
991.286271	2539.367824
991.582262	2541.709440
991.878217	2536.353214
992.174136	2542.906714
992.470019	2542.904193
992.765865	2542.135417
993.061676	2539.985365
993.357450	2541.245654
993.653188	2540.988555
993.948890	2539.461085
994.244556	2540.315561
994.540186	2543.035263
994.835780	2540.451672
995.131337	2543.582229
995.426859	2542.069883
995.722345	2540.081147
996.017795	2542.019471
996.313208	2544.345963
996.608586	2541.099460
996.903928	2544.398896
997.199234	2543.216745
997.494504	2544.212373
997.789738	2543.211704
998.084936	2545.023999
998.380099	2540.623071
998.675225	2542.132897
998.970316	2537.802546
999.265371	2542.445448
999.560390	2538.374717
999.855373	2539.723225
1000.150320	2539.589635
1000.445232	2540.141641
1000.740108	2539.498894
1001.034948	2538.876312
1001.329752	2538.440252
1001.624521	2540.807073
1001.919254	2535.037473
1002.213951	2538.818338
1002.508613	2537.046373
1002.803239	2538.778009
1003.097829	2533.623429
1003.392384	2541.291024
1003.686903	2537.268183
1003.981386	2541.747249
1004.275834	2539.750952
1004.570246	2541.086858
1004.864623	2538.851106
1005.158964	2540.076106
1005.453270	2538.505787
1005.747540	2540.355890
1006.041775	2541.696837
1006.335974	2540.166847
1006.630138	2539.070396
1006.924266	2539.519059
1007.218359	2541.091899
1007.512416	2539.554347
1007.806438	2539.660211
1008.100425	2541.782537
1008.394376	2539.261960
1008.688292	2538.594007
1008.982172	2540.000489
1009.276017	2537.369007
1009.569827	2541.107022
1009.863602	2539.309851
1010.157341	2539.176260
1010.451045	2541.056611
1010.744714	2539.957639
1011.038347	2539.473688
1011.331945	2540.895294
1011.625508	2540.003009
1011.919036	2538.634336
1012.212528	2540.628112
1012.505986	2538.828421
1012.799408	2536.907741
1013.092795	2537.132072
1013.386147	2539.345139
1013.679464	2538.193235
1013.972745	2539.435880
1014.265992	2535.861702
1014.559204	2540.383617
1014.852380	2537.308513
1015.145521	2541.641384
1015.438628	2538.268852
1015.731699	2539.917310
1016.024736	2539.887063
1016.317737	2538.331867
1016.610703	2538.813297
1016.903635	2536.748945
1017.196531	2536.146527
1017.489393	2538.160468
1017.782219	2533.189890
1018.075011	2537.545447
1018.367768	2538.122659
1018.660490	2540.746580
1018.953177	2540.746580
1019.245829	2540.746580
