Dividing Wavelength (nm)	Counts (n)	Blue Motor Position (mm): 7.900000	Red Motor Position (mm): 0.000000	
326.493990	2141.492236
326.888308	2141.492236
327.282561	2141.492236
327.676750	2105.412698
328.070874	2104.457399
328.464933	2112.188009
328.858929	2115.139604
329.252859	2123.228136
329.646726	2137.355969
330.040528	2149.421971
330.434265	2166.670279
330.827938	2183.149811
331.221547	2203.100177
331.615091	2220.172045
332.008571	2242.020406
332.401986	2261.885072
332.795338	2280.497012
333.188625	2297.520989
333.581847	2317.597384
333.975006	2338.818121
334.368100	2355.436285
334.761129	2371.366331
335.154095	2390.000956
335.546996	2404.592576
335.939833	2424.260638
336.332606	2437.942329
336.725315	2451.742488
337.117960	2459.770525
337.510540	2467.133131
337.903056	2479.660398
338.295508	2483.683239
338.687896	2497.178407
339.080220	2502.537154
339.472480	2508.987310
339.864676	2511.659122
340.256807	2515.697086
340.648875	2520.702952
341.040879	2522.553055
341.432818	2522.369053
341.824694	2524.410721
342.216506	2524.990453
342.608253	2527.377440
342.999937	2526.921215
343.391557	2526.656555
343.783113	2524.740916
344.174605	2524.448529
344.566033	2522.893333
344.957397	2521.675895
345.348697	2520.627335
345.739934	2517.920235
346.131106	2512.327075
346.522215	2514.784637
346.913260	2513.642816
347.304241	2509.829183
347.695159	2509.128463
348.086012	2506.907834
348.476802	2505.657628
348.867528	2504.009171
349.258191	2502.393481
349.648789	2502.181753
350.039324	2500.066989
350.429796	2498.998264
350.820203	2495.681185
351.210548	2496.734786
351.600828	2493.490803
351.991045	2497.737976
352.381198	2494.362923
352.771288	2494.995588
353.161314	2491.789414
353.551276	2493.334528
353.941175	2493.279075
354.331010	2494.183962
354.720782	2494.214209
355.110490	2492.674137
355.500135	2493.765546
355.889717	2494.360402
356.279235	2493.899137
356.668689	2495.285454
357.058080	2493.266472
357.447408	2493.926863
357.836672	2489.752788
358.225873	2492.767398
358.615010	2489.871255
359.004084	2496.185300
359.393095	2495.792090
359.782043	2496.989364
360.170927	2496.704539
360.559748	2496.621360
360.948505	2498.312667
361.337199	2497.672441
361.725830	2497.317039
362.114398	2498.738645
362.502903	2500.883656
362.891344	2498.693274
363.279722	2499.814931
363.668037	2502.373317
364.056289	2503.794922
364.444478	2503.608399
364.832603	2502.504387
365.220665	2504.230982
365.608665	2502.358193
365.996601	2507.941271
366.384474	2502.819459
366.772284	2504.828358
367.160031	2507.175016
367.547715	2504.001609
367.935336	2506.633092
368.322893	2506.602845
368.710388	2507.273318
369.097820	2506.030674
369.485189	2506.660818
369.872495	2508.044615
370.259738	2505.927330
370.646918	2506.141579
371.034035	2508.619306
371.421090	2508.831035
371.808081	2507.754748
372.195010	2507.986641
372.581875	2507.369100
372.968678	2507.422032
373.355418	2511.386900
373.742096	2510.179543
374.128710	2508.578977
374.515262	2510.834893
374.901751	2510.308093
375.288177	2509.617455
375.674540	2511.840603
376.060841	2509.544358
376.447079	2508.397495
376.833254	2510.976046
377.219367	2507.036384
377.605417	2511.580984
377.991404	2506.771723
378.377329	2512.077538
378.763191	2503.978924
379.148991	2511.694410
379.534727	2512.107785
379.920402	2514.497292
380.306013	2516.216325
380.691563	2514.595594
381.077049	2514.134328
381.462474	2513.942765
381.847835	2512.155676
382.233134	2515.724813
382.618371	2511.167609
383.003545	2514.580471
383.388657	2514.469565
383.773706	2516.302025
384.158693	2514.877899
384.543618	2516.082734
384.928480	2515.248423
385.313280	2514.121726
385.698017	2519.767818
386.082692	2515.921417
386.467305	2516.029802
386.851856	2516.055008
387.236344	2517.219515
387.620770	2519.258661
388.005133	2518.066428
388.389435	2519.006604
388.773674	2518.731861
389.157851	2517.045595
389.541965	2517.834535
389.926018	2520.128260
390.310008	2522.361492
390.693936	2515.800430
391.077802	2519.712365
391.461606	2519.835873
391.845348	2520.183713
392.229027	2520.670184
392.612645	2520.178672
392.996200	2520.561800
393.379694	2518.862931
393.763125	2519.840915
394.146494	2518.479803
394.529801	2518.683970
394.913047	2521.365864
395.296230	2520.529032
395.679351	2519.853517
396.062410	2523.997346
396.445408	2523.465504
396.828343	2522.379136
397.211217	2519.641789
397.594028	2521.416275
397.976778	2517.947961
398.359466	2520.259330
398.742092	2518.905781
399.124656	2523.891482
399.507158	2524.919877
399.889598	2521.408713
400.271977	2521.451563
400.654294	2523.757891
401.036549	2523.273940
401.418742	2525.234949
401.800874	2524.894671
402.182944	2525.638242
402.564952	2524.297295
402.946898	2523.306708
403.328783	2522.464835
403.710606	2523.523477
404.092367	2524.433406
404.474067	2526.817872
404.855705	2524.864424
405.237282	2522.734537
405.618797	2525.673530
406.000250	2524.390556
406.381642	2526.832995
406.762972	2527.016997
407.144240	2523.989784
407.525447	2531.173428
407.906593	2527.838705
408.287677	2526.558252
408.668700	2528.476411
409.049661	2524.647655
409.430560	2525.643283
409.811399	2526.684281
410.192176	2527.989940
410.572891	2527.427851
410.953545	2526.621267
411.334138	2528.541946
411.714669	2527.092614
412.095139	2530.586134
412.475547	2527.601771
412.855894	2528.862059
413.236180	2527.276617
413.616405	2533.124355
413.996568	2527.805938
414.376670	2530.704601
414.756711	2527.483304
415.136691	2530.238294
415.516609	2528.050434
415.896466	2533.326001
416.276262	2528.536905
416.655997	2527.087573
417.035670	2525.950793
417.415283	2527.715197
417.794834	2524.435926
418.174324	2528.690660
418.553753	2530.079498
418.933121	2531.238963
419.312428	2530.928932
419.691674	2531.720394
420.070859	2531.428007
420.449983	2528.025228
420.829045	2530.076977
421.208047	2533.134437
421.586988	2529.426669
421.965867	2531.775846
422.344686	2528.010104
422.723444	2530.407173
423.102141	2530.971782
423.480777	2532.446320
423.859352	2532.849612
424.237866	2533.210055
424.616319	2532.295085
424.994712	2532.615198
425.373044	2532.539581
425.751314	2533.820034
426.129524	2532.292565
426.507673	2534.966897
426.885762	2532.867256
427.263789	2534.195600
427.641756	2533.885569
428.019662	2531.130579
428.397508	2533.187369
428.775292	2533.089067
429.153016	2533.966228
429.530679	2534.256094
429.908282	2535.453368
430.285824	2533.139478
430.663305	2532.562266
431.040726	2533.298275
431.418086	2533.872966
431.795385	2532.963038
432.172624	2534.356917
432.549802	2534.702236
432.926920	2532.892462
433.303977	2536.988399
433.680974	2536.486805
434.057910	2535.465971
434.434786	2534.500590
434.811601	2536.817000
435.188355	2534.303985
435.565050	2536.706095
435.941683	2535.113090
436.318257	2532.884900
436.694770	2532.630322
437.071222	2535.634850
437.447614	2533.504962
437.823946	2535.145858
438.200218	2536.537216
438.576429	2536.083512
438.952580	2537.772299
439.328670	2536.696012
439.704700	2537.240457
440.080670	2537.442103
440.456580	2537.036290
440.832429	2538.147865
441.208218	2534.833306
441.583947	2538.105015
441.959616	2536.547298
442.335224	2537.679038
442.710773	2539.483771
443.086261	2536.801877
443.461689	2535.707946
443.837057	2536.368338
444.212365	2537.671476
444.587612	2536.756506
444.962800	2538.576363
445.337927	2538.969573
445.712995	2535.765920
446.088002	2539.627443
446.462949	2538.730118
446.837837	2539.957639
447.212664	2540.413863
447.587431	2541.112063
447.962139	2538.793132
448.336786	2539.549306
448.711374	2539.317412
449.085901	2539.758513
449.460369	2537.608461
449.834776	2536.370858
450.209124	2540.602907
450.583412	2538.969573
450.957640	2538.979655
451.331808	2539.261960
451.705917	2540.318082
452.079965	2543.418391
452.453954	2539.080478
452.827883	2539.990407
453.201752	2539.088040
453.575562	2541.843031
453.949311	2541.061652
454.323001	2539.070396
454.696632	2540.607948
455.070202	2539.498894
455.443713	2542.586601
455.817164	2539.241795
456.190556	2535.725590
456.563888	2540.360931
456.937160	2538.170550
457.310373	2540.441590
457.683526	2542.526107
458.056619	2540.955787
458.429653	2541.379244
458.802628	2538.634336
459.175542	2541.661549
459.548398	2541.467465
459.921194	2541.187681
460.293930	2539.135931
460.666607	2540.933102
461.039224	2541.386806
461.411782	2543.302445
461.784280	2541.064172
462.156719	2541.026364
462.529099	2541.767413
462.901419	2545.238248
463.273680	2541.285983
463.645882	2542.326981
464.018024	2541.507794
464.390106	2541.348998
464.762130	2542.306817
465.134094	2542.473175
465.505999	2543.914945
465.877845	2542.493339
466.249631	2543.249512
466.621358	2541.412012
466.993026	2544.950902
467.364634	2547.174051
467.736184	2545.659184
468.107674	2545.477703
468.479105	2540.968390
468.850477	2546.463248
469.221790	2542.760521
469.593043	2542.185829
469.964238	2543.862013
470.335373	2543.123484
470.706449	2543.955274
471.077467	2540.373534
471.448425	2545.064328
471.819324	2543.423432
472.190164	2543.816642
472.560945	2541.843031
472.931667	2546.221273
473.302330	2546.899308
473.672934	2542.228679
474.043479	2545.061807
474.413965	2543.473844
474.784393	2542.205994
475.154761	2540.507125
475.525070	2539.367824
475.895321	2543.204142
476.265513	2538.621733
476.635645	2545.061807
477.005719	2543.909904
477.375734	2544.966025
477.745691	2544.393854
478.115588	2544.255223
478.485427	2539.879501
478.855207	2546.886705
479.224928	2543.408309
479.594591	2542.848741
479.964194	2546.566592
480.333739	2547.017775
480.703226	2544.386293
481.072653	2542.410160
481.442022	2543.037784
481.811333	2545.709596
482.180584	2542.430325
482.549777	2546.914431
482.918912	2544.081303
483.287988	2548.507436
483.657005	2544.424101
484.025964	2543.841848
484.394864	2546.332178
484.763706	2547.433670
485.132489	2546.085162
485.501213	2547.221942
485.869879	2547.166489
486.238487	2542.548792
486.607036	2546.760676
486.975527	2545.044163
487.343959	2546.039791
487.712333	2546.392672
488.080648	2544.696324
488.448905	2546.019627
488.817104	2544.547610
489.185244	2546.571633
489.553326	2546.228834
489.921350	2546.914431
490.289315	2546.972405
490.657222	2546.528783
491.025070	2546.226314
491.392861	2548.043650
491.760593	2548.504915
492.128267	2549.651778
492.495883	2546.067517
492.863440	2544.910573
493.230939	2543.226827
493.598380	2547.126160
493.965763	2539.677855
494.333088	2545.215562
494.700354	2544.948381
495.067563	2544.608103
495.434713	2541.238092
495.801805	2545.651622
496.168839	2545.026519
496.535815	2545.641540
496.902733	2547.526932
497.269593	2548.953578
497.636395	2549.525749
498.003139	2547.917621
498.369825	2548.830070
498.736453	2547.731098
499.103023	2546.677497
499.469535	2545.528114
499.835989	2546.785882
500.202385	2547.665563
500.568723	2545.833104
500.935003	2548.202446
501.301226	2547.045501
501.667390	2547.879812
502.033497	2548.731767
502.399546	2548.058773
502.765537	2545.989380
503.131470	2551.685883
503.497345	2547.718495
503.863163	2549.470296
504.228923	2547.632796
504.594625	2548.154555
504.960269	2547.572302
505.325856	2551.141439
505.691385	2546.682538
506.056856	2546.737991
506.422270	2546.349822
506.787625	2547.068187
507.152924	2547.426108
507.518164	2548.394010
507.883347	2547.937786
508.248472	2550.223949
508.613540	2548.129349
508.978550	2550.612118
509.343503	2549.906356
509.708398	2549.820657
510.073236	2548.131870
510.438016	2548.943496
510.802738	2549.276212
511.167403	2551.080945
511.532010	2547.937786
511.896561	2546.248999
512.261053	2549.876109
512.625488	2544.862682
512.989866	2545.760007
513.354186	2547.844524
513.718449	2543.423432
514.082655	2549.661860
514.446803	2549.419885
514.810894	2550.690256
515.174927	2550.503733
515.538904	2548.441901
515.902822	2548.109185
516.266684	2547.340409
516.630488	2547.090872
516.994235	2551.980791
517.357925	2547.189174
517.721558	2551.597663
518.085133	2547.738660
518.448651	2550.037426
518.812112	2547.295038
519.175516	2549.971891
519.538863	2548.462066
519.902152	2553.780483
520.265385	2547.642878
520.628560	2549.795451
520.991678	2547.960471
521.354739	2550.128167
521.717743	2546.828732
522.080690	2549.684545
522.443580	2550.599515
522.806413	2550.695297
523.169189	2546.856458
523.531908	2550.400389
523.894569	2552.048847
524.257174	2550.488609
524.619722	2547.587425
524.982213	2549.170348
525.344647	2550.798640
525.707025	2550.344937
526.069345	2546.521221
526.431608	2546.488454
526.793815	2546.954761
527.155964	2549.104813
527.518057	2548.623382
527.880093	2547.211859
528.242072	2549.770245
528.603995	2551.365770
528.965860	2547.776469
529.327669	2549.412323
529.689421	2551.073383
530.051117	2550.042467
530.412755	2548.104144
530.774337	2548.499874
531.135862	2552.179917
531.497331	2545.886036
531.858743	2544.590459
532.220098	2549.435008
532.581396	2545.389482
532.942638	2547.587425
533.303824	2550.458362
533.664953	2551.600184
534.026025	2550.715461
534.387040	2552.326110
534.747999	2550.276881
535.108902	2551.411141
535.469748	2550.357539
535.830537	2551.585060
536.191270	2550.314690
536.551947	2551.423743
536.912567	2552.547921
537.273131	2550.949875
537.633638	2551.711089
537.994089	2548.330996
538.354483	2550.836449
538.714821	2555.076059
539.075103	2551.665719
539.435328	2550.677653
539.795497	2551.300235
540.155609	2551.582540
540.515665	2552.479865
540.875665	2553.906512
541.235609	2552.321069
541.595496	2551.887530
541.955328	2552.031203
542.315102	2554.309804
542.674821	2554.098076
543.034483	2550.632282
543.394090	2551.330482
543.753640	2552.742005
544.113134	2554.713096
544.472571	2553.659495
544.831953	2554.085473
545.191278	2556.641338
545.550548	2552.915925
545.909761	2555.706204
546.268918	2556.023796
546.628019	2554.667726
546.987064	2555.363405
547.346053	2554.692932
547.704986	2550.591953
548.063863	2553.689742
548.422684	2554.491286
548.781449	2556.192675
549.140158	2554.824002
549.498811	2554.148487
549.857408	2553.510781
550.215949	2551.068342
550.574434	2553.417520
550.932864	2552.484906
551.291237	2552.457180
551.649555	2555.466749
552.007817	2552.671429
552.366022	2555.486913
552.724173	2555.645710
553.082267	2554.939948
553.440305	2552.610935
553.798288	2554.405586
554.156215	2556.800134
554.514086	2556.759805
554.871902	2555.597819
555.229661	2556.721996
555.587365	2554.309804
555.945014	2555.764177
556.302606	2554.125802
556.660143	2556.066646
557.017625	2553.722510
557.375050	2554.377860
557.732421	2554.483724
558.089735	2557.054712
558.446994	2554.695452
558.804197	2553.276367
559.161345	2553.946841
559.518437	2556.169990
559.875474	2553.636810
560.232455	2554.690411
560.589381	2556.916081
560.946251	2559.282902
561.303065	2555.484393
561.659825	2555.819630
562.016528	2553.409958
562.373177	2555.053374
562.729770	2554.995401
563.086307	2555.297870
563.442789	2556.777449
563.799216	2556.974054
564.155587	2555.552448
564.511904	2555.343241
564.868164	2556.227963
565.224370	2557.054712
565.580520	2553.858621
565.936615	2554.942469
566.292654	2553.500699
566.648638	2555.963302
567.004567	2554.087993
567.360441	2557.621842
567.716260	2554.667726
568.072023	2555.565051
568.427732	2551.453990
568.783385	2553.057077
569.138982	2550.876778
569.494525	2552.590771
569.850013	2549.150183
570.205445	2555.575134
570.560823	2554.803837
570.916145	2555.514640
571.271412	2554.927345
571.626625	2556.694270
571.981782	2553.896429
572.336884	2557.228632
572.691931	2555.688560
573.046923	2553.576316
573.401860	2554.345092
573.756743	2556.011193
574.111570	2552.946172
574.466342	2554.445915
574.821059	2554.753426
575.175722	2554.360216
575.530330	2553.984650
575.884882	2553.651933
576.239380	2555.323076
576.593823	2555.116389
576.948211	2555.512119
577.302544	2552.812581
577.656823	2551.942982
578.011047	2552.447098
578.365216	2555.703683
578.719330	2554.889537
579.073389	2553.997252
579.427394	2554.211502
579.781344	2555.038251
580.135239	2556.079249
580.489080	2551.708569
580.842866	2554.037582
581.196597	2558.945145
581.550273	2553.082283
581.903895	2554.080432
582.257463	2554.645041
582.610975	2551.834597
582.964434	2555.353323
583.317837	2551.930379
583.671186	2552.832746
584.024481	2553.092365
584.377721	2556.033879
584.730906	2553.853580
585.084037	2555.421378
585.437113	2553.780483
585.790135	2554.019938
586.143103	2554.924825
586.496016	2553.508261
586.848874	2548.940975
587.201679	2555.723848
587.554428	2551.169165
587.907124	2552.442057
588.259765	2546.717826
588.612352	2553.301573
588.964884	2551.199412
589.317362	2553.488096
589.669786	2552.036244
590.022155	2556.585885
590.374470	2551.577499
590.726731	2550.720502
591.078937	2552.434495
591.431090	2552.028682
591.783188	2554.042623
592.135232	2550.934752
592.487222	2552.439536
592.839157	2552.260575
593.191038	2553.601522
593.542866	2552.623538
593.894639	2554.375339
594.246358	2554.483724
594.598022	2552.646223
594.949633	2553.992211
595.301190	2551.101110
595.652692	2553.921635
596.004141	2552.469783
596.355535	2556.076728
596.706876	2551.199412
597.058162	2552.563044
597.409395	2554.216543
597.760573	2553.039433
598.111698	2551.983312
598.462768	2550.460883
598.813785	2551.390976
599.164748	2552.439536
599.515657	2550.723023
599.866511	2552.409289
600.217312	2552.157231
600.568060	2553.200750
600.918753	2553.006666
601.269392	2551.199412
601.619978	2553.039433
601.970510	2553.692263
602.320988	2551.743857
602.671412	2554.665205
603.021783	2550.526418
603.372100	2553.460370
603.722363	2554.241748
604.072572	2554.216543
604.422728	2555.970864
604.772830	2549.712272
605.122878	2550.410472
605.472872	2549.281253
605.822813	2548.787220
606.172701	2551.484237
606.522534	2552.164793
606.872314	2553.034392
607.222041	2552.754608
607.571714	2556.308622
607.921333	2552.114382
608.270899	2553.261244
608.620411	2553.840977
608.969870	2555.411296
609.319276	2554.997922
609.668627	2559.555125
610.017926	2559.635783
610.367171	2558.655279
610.716362	2558.940104
611.065500	2558.115875
611.414585	2557.417675
611.763616	2555.985988
612.112594	2552.926007
612.461518	2553.306614
612.810389	2555.804506
613.159207	2555.154197
613.507971	2554.491286
613.856682	2553.208312
614.205340	2556.878272
614.553945	2553.190668
614.902496	2553.868703
615.250994	2553.646892
615.599439	2554.153528
615.947830	2554.143446
616.296169	2553.387273
616.644454	2554.246790
616.992686	2550.488609
617.340864	2555.922973
617.688990	2554.453477
618.037063	2555.973385
618.385082	2552.915925
618.733048	2556.185113
619.080961	2553.906512
619.428821	2552.230328
619.776628	2555.549928
620.124382	2553.629248
620.472083	2551.176727
620.819731	2554.055226
621.167326	2551.534649
621.514868	2554.362736
621.862357	2553.409958
622.209793	2553.530946
622.557176	2554.171172
622.904506	2551.101110
623.251783	2550.118085
623.599007	2554.455998
623.946179	2550.745708
624.293297	2551.365770
624.640363	2554.488765
624.987376	2557.150494
625.334336	2555.048333
625.681243	2555.169321
626.028097	2552.121943
626.374899	2555.716286
626.721647	2552.371480
627.068343	2554.367777
627.414987	2552.351316
627.761577	2554.080432
628.108115	2552.729402
628.454600	2552.873075
628.801032	2553.866182
629.147412	2553.788045
629.493739	2554.750905
629.840014	2559.182079
630.186236	2554.357695
630.532405	2554.166131
630.878521	2554.145967
631.224585	2555.146636
631.570597	2553.054557
631.916556	2553.906512
632.262462	2555.312994
632.608316	2555.650751
632.954117	2551.703527
633.299866	2552.840308
633.645562	2552.893240
633.991206	2555.081101
634.336797	2555.597819
634.682336	2555.499516
635.027823	2553.931718
635.373257	2553.253682
635.718639	2552.275698
636.063968	2553.609084
636.409245	2554.269475
636.754470	2550.899463
637.099642	2555.474311
637.444762	2557.536142
637.789829	2555.597819
638.134845	2552.003476
638.479808	2554.458518
638.824719	2555.565051
639.169577	2555.938097
639.514383	2554.052705
639.859137	2553.178065
640.203839	2553.092365
640.548489	2554.236707
640.893086	2551.582540
641.237632	2550.355019
641.582125	2552.305945
641.926566	2547.542055
642.270955	2555.229815
642.615292	2551.554813
642.959576	2556.439692
643.303809	2557.107644
643.647990	2553.445246
643.992118	2554.501368
644.336195	2555.582695
644.680219	2553.425082
645.024192	2552.578168
645.368112	2554.902140
645.711981	2557.959599
646.055797	2556.754764
646.399562	2555.630586
646.743274	2555.418858
647.086935	2554.687891
647.430544	2554.844166
647.774101	2555.171841
648.117606	2556.427089
648.461059	2558.125958
648.804460	2558.854404
649.147810	2557.180741
649.491108	2554.970195
649.834354	2558.199054
650.177548	2557.478169
650.520690	2559.187120
650.863781	2557.450443
651.206820	2556.737120
651.549807	2556.694270
651.892742	2558.761143
652.235626	2557.866338
652.578458	2558.095711
652.921238	2556.399362
653.263967	2558.887172
653.606644	2555.479352
653.949269	2557.702501
654.291843	2555.098745
654.634365	2558.375495
654.976836	2555.078580
655.319255	2558.990515
655.661622	2557.674774
656.003938	2558.153684
656.346203	2557.324414
656.688416	2560.414641
657.030577	2558.309960
657.372687	2560.452450
657.714746	2556.868190
658.056753	2557.863818
658.398708	2553.891388
658.740612	2556.359033
659.082465	2555.136553
659.424266	2556.449774
659.766016	2552.200081
660.107715	2562.973027
660.449362	2559.542522
660.790958	2562.592420
661.132503	2561.919426
661.473996	2563.414128
661.815438	2563.661144
662.156829	2563.202399
662.498168	2559.804662
662.839456	2563.240208
663.180693	2563.492266
663.521879	2564.263562
663.863013	2561.185938
664.204097	2563.046124
664.545129	2562.231977
664.886110	2565.919581
665.227040	2564.276165
665.567918	2565.435631
665.908746	2564.291289
666.249522	2566.426217
666.590248	2566.022925
666.930922	2567.820096
667.271545	2565.780950
667.612118	2570.103739
667.952639	2568.440158
668.293109	2566.781619
668.633528	2568.064592
668.973896	2566.668193
669.314213	2571.734552
669.654480	2573.178843
669.994695	2570.191959
670.334859	2569.070303
670.674973	2569.987792
671.015035	2573.632547
671.355047	2574.146744
671.695008	2573.637588
672.034918	2574.976014
672.374777	2574.678586
672.714585	2573.786302
673.054342	2576.561457
673.394049	2579.099678
673.733705	2578.703947
674.073310	2580.528845
674.412864	2576.861406
674.752368	2577.582291
675.091820	2581.663105
675.431223	2578.645974
675.770574	2584.647468
676.109875	2576.788309
676.449125	2577.211766
676.788324	2577.988104
677.127473	2579.404668
677.466571	2576.967270
677.805619	2580.438104
678.144616	2584.090420
678.483562	2584.097982
678.822458	2582.391552
679.161303	2585.214598
679.500098	2584.234093
679.838842	2586.910946
680.177535	2582.842735
680.516179	2588.352716
680.854771	2588.052767
681.193314	2590.711976
681.531805	2592.735999
681.870247	2598.760178
682.208638	2600.733790
682.546978	2601.482401
682.885268	2600.479212
683.223508	2603.007350
683.561697	2603.095570
683.899836	2604.827207
684.237925	2600.827051
684.575963	2605.016250
684.913951	2602.392329
685.251889	2607.289810
685.589776	2608.976076
685.927614	2607.509101
686.265401	2617.278857
686.603137	2613.495471
686.940824	2620.018724
687.278460	2622.456122
687.616046	2621.846142
687.953582	2628.961731
688.291068	2628.006432
688.628504	2635.278297
688.965889	2631.399129
689.303224	2630.831999
689.640510	2633.478605
689.977745	2631.371402
690.314930	2627.832512
690.652065	2626.904940
690.989150	2624.202882
691.326185	2625.102727
691.663170	2623.807151
692.000105	2623.860083
692.336990	2620.900926
692.673825	2621.611728
693.010610	2621.120216
693.347345	2613.611417
693.684030	2619.013014
694.020665	2617.228445
694.357251	2613.492950
694.693786	2619.297839
695.030272	2616.971346
695.366707	2620.169958
695.703093	2615.421192
696.039429	2620.953858
696.375716	2624.921246
696.711952	2622.410751
697.048139	2621.773045
697.384276	2621.684825
697.720363	2623.910495
698.056400	2628.134982
698.392388	2625.937038
698.728326	2623.449229
699.064214	2622.521657
699.400053	2624.928808
699.735842	2626.226905
700.071581	2627.159518
700.407270	2627.527522
700.742910	2623.517285
701.078501	2621.740278
701.414042	2625.463170
701.749533	2624.684312
702.084974	2621.846142
702.420366	2624.530557
702.755709	2625.339662
703.091002	2622.856893
703.426246	2629.647328
703.761440	2624.270937
704.096584	2623.852521
704.431679	2626.166411
704.766725	2629.808645
705.101721	2626.776391
705.436668	2629.571710
705.771565	2624.880917
706.106413	2627.855197
706.441212	2637.892135
706.775961	2638.086219
707.110661	2633.634880
707.445311	2635.227885
707.779913	2642.555202
708.114465	2644.213742
708.448967	2645.370687
708.783421	2652.012407
709.117825	2653.923004
709.452180	2657.207316
709.786485	2658.124806
710.120742	2665.716783
710.454949	2667.302226
710.789107	2667.471105
711.123216	2674.664832
711.457275	2676.255316
711.791286	2684.492561
712.125247	2690.909950
712.459159	2682.871830
712.793023	2685.969619
713.126837	2694.206864
713.460602	2695.247863
713.794318	2682.511387
714.127985	2687.925587
714.461602	2683.917869
714.795171	2674.944616
715.128691	2676.093999
715.462162	2675.090809
715.795584	2675.315140
716.128957	2676.938392
716.462281	2666.609068
716.795556	2668.670900
717.128782	2673.946467
717.461960	2665.915909
717.795088	2667.755930
718.128167	2665.918430
718.461198	2657.403921
718.794180	2659.385094
719.127113	2662.286278
719.459997	2664.595127
719.792833	2659.100269
720.125619	2654.525422
720.458357	2652.483755
720.791046	2660.126144
721.123686	2658.018942
721.456278	2656.022645
721.788821	2657.955927
722.121315	2658.437357
722.453761	2653.653302
722.786158	2661.401556
723.118506	2663.904489
723.450805	2656.302429
723.783056	2659.170845
724.115259	2665.585713
724.447412	2666.813234
724.779518	2663.314674
725.111574	2664.312822
725.443582	2672.918072
725.775542	2673.286076
726.107453	2676.582991
726.439315	2679.940399
726.771129	2680.812519
727.102895	2682.894515
727.434612	2693.511185
727.766281	2697.776001
728.097901	2690.063036
728.429473	2691.658561
728.760996	2697.435723
729.092471	2693.465815
729.423897	2694.300126
729.755276	2701.206507
730.086606	2698.925384
730.417887	2698.017977
730.749120	2709.083309
731.080305	2723.672409
731.411442	2725.951010
731.742530	2717.640668
732.073570	2722.021431
732.404562	2733.729511
732.735506	2735.677917
733.066401	2731.140878
733.397249	2721.048488
733.728048	2713.945502
734.058798	2710.880481
734.389501	2706.887887
734.720156	2694.663089
735.050762	2691.905578
735.381320	2698.307843
735.711831	2688.525484
736.042293	2686.256965
736.372707	2692.863397
736.703073	2690.115968
737.033391	2686.435926
737.363661	2691.371215
737.693883	2695.578058
738.024056	2697.831454
738.354182	2691.386339
738.684260	2705.451158
739.014290	2707.611292
739.344272	2704.430324
739.674207	2713.476675
740.004093	2713.728733
740.333931	2714.111860
740.663722	2720.612428
740.993464	2720.720813
741.323159	2719.430278
741.652806	2718.638817
741.982405	2713.854762
742.311956	2711.218238
742.641460	2713.012889
742.970915	2709.229503
743.300323	2701.808924
743.629683	2696.785415
743.958996	2699.273224
744.288260	2698.305322
744.617477	2693.579241
744.946647	2688.071780
745.275768	2686.846780
745.604842	2692.646627
745.933869	2679.718588
746.262847	2677.986952
746.591778	2695.507482
746.920662	2688.961544
747.249498	2681.760256
747.578286	2695.003367
747.907027	2697.181145
748.235720	2688.427182
748.564365	2699.477391
748.892963	2707.197918
749.221514	2701.564428
749.550017	2693.140660
749.878473	2695.636032
750.206881	2692.926411
750.535242	2694.700898
750.863555	2695.313398
751.191821	2695.933460
751.520039	2693.246525
751.848210	2682.387879
752.176334	2696.361958
752.504411	2700.339428
752.832440	2689.616894
753.160421	2683.955678
753.488356	2691.998839
753.816243	2699.051413
754.144082	2687.421471
754.471875	2682.728157
754.799620	2691.174610
755.127318	2688.127233
755.454969	2694.403469
755.782572	2694.080836
756.110129	2689.969775
756.437638	2686.193950
756.765100	2691.784590
757.092515	2696.737524
757.419882	2702.580221
757.747203	2695.376412
758.074477	2691.658561
758.401703	2697.367668
758.728882	2702.494521
759.056014	2707.407126
759.383099	2704.584080
759.710138	2699.472350
760.037129	2702.733976
760.364073	2715.150338
760.690970	2710.520038
761.017820	2703.331353
761.344623	2707.066848
761.671379	2715.609083
761.998088	2728.577451
762.324751	2752.449835
762.651366	2781.431429
762.977935	2851.022037
763.304456	2936.434307
763.630931	2970.663741
763.957359	2905.395923
764.283740	2851.818539
764.610074	2830.620487
764.936362	2800.287865
765.262602	2768.024480
765.588796	2750.579567
765.914943	2731.564335
766.241044	2715.578836
766.567097	2715.152859
766.893104	2704.843699
767.219064	2700.067206
767.544978	2697.975127
767.870845	2679.784123
768.196665	2680.399144
768.522438	2685.752849
768.848165	2687.718899
769.173846	2680.331088
769.499479	2674.425377
769.825066	2671.272135
770.150607	2669.432114
770.476101	2675.841941
770.801548	2678.372600
771.126949	2660.287461
771.452303	2660.176555
771.777611	2665.792401
772.102872	2670.631908
772.428087	2663.685198
772.753256	2663.264262
773.078378	2661.867862
773.403453	2651.251192
773.728482	2651.009217
774.053465	2660.138747
774.378401	2656.062974
774.703291	2644.642240
775.028135	2648.173568
775.352932	2646.391520
775.677683	2645.519401
776.002388	2644.851448
776.327046	2646.411685
776.651658	2644.609472
776.976224	2637.796353
777.300743	2641.438587
777.625216	2641.962867
777.949643	2641.032774
778.274024	2637.950108
778.598359	2635.694192
778.922647	2635.845426
779.246889	2639.467495
779.571086	2633.781074
779.895236	2634.247381
780.219339	2638.809625
780.543397	2642.076292
780.867409	2645.658032
781.191374	2642.345994
781.515294	2641.093267
781.839167	2640.768113
782.162995	2636.682258
782.486776	2642.867754
782.810511	2642.895480
783.134201	2640.319450
783.457844	2643.838176
783.781441	2641.269708
784.104993	2633.571866
784.428498	2635.795015
784.751958	2640.989924
785.075372	2637.098153
785.398739	2630.368213
785.722061	2637.569501
786.045337	2644.523773
786.368568	2634.501959
786.691752	2636.450365
787.014891	2651.011738
787.337983	2658.460042
787.661030	2654.961482
787.984031	2668.738955
788.306987	2686.584640
788.629897	2682.014834
788.952760	2681.233455
789.275579	2684.003569
789.598351	2666.835920
789.921078	2655.982315
790.243759	2658.883499
790.566395	2652.607263
790.888984	2649.874957
791.211529	2643.906231
791.534027	2640.715181
791.856480	2643.245840
792.178888	2636.823410
792.501249	2633.521454
792.823566	2633.304685
793.145836	2634.214613
793.468062	2633.579428
793.790241	2631.048768
794.112375	2636.951960
794.434464	2637.645118
794.756507	2637.889614
795.078505	2637.357772
795.400457	2636.946918
795.722364	2647.818167
796.044226	2655.470638
796.366042	2652.609783
796.687812	2651.596512
797.009538	2662.959272
797.331218	2660.226967
797.652852	2657.698828
797.974442	2652.556851
798.295986	2651.929228
798.617484	2654.011224
798.938938	2648.768424
799.260346	2642.189718
799.581709	2643.414719
799.903026	2643.747435
800.224299	2640.110242
800.545526	2639.001189
800.866708	2629.528861
801.187845	2627.141874
801.508936	2631.545322
801.829983	2634.960704
802.150984	2632.941722
802.471940	2627.184724
802.792851	2625.082563
803.113717	2625.780763
803.434538	2632.223357
803.755314	2629.060033
804.076045	2625.591719
804.396731	2625.296812
804.717372	2625.541308
805.037967	2622.446039
805.358518	2627.091463
805.679024	2628.414766
805.999485	2628.439971
806.319901	2632.808131
806.640272	2627.146915
806.960598	2627.993829
807.280879	2630.007770
807.601115	2633.667648
807.921306	2632.356948
808.241453	2627.769498
808.561554	2629.818727
808.881611	2633.536578
809.201623	2630.577421
809.521590	2633.105559
809.841513	2633.032462
810.161390	2632.412401
810.481223	2629.937194
810.801011	2625.392594
811.120755	2625.959724
811.440453	2630.080867
811.760107	2628.634056
812.079716	2629.682616
812.399281	2623.023252
812.718801	2620.180041
813.038276	2619.116357
813.357707	2625.690022
813.677093	2630.395939
813.996434	2626.806637
814.315731	2626.236987
814.634983	2625.793366
814.954191	2624.986781
815.273354	2633.433234
815.592473	2635.774850
815.911547	2634.875004
816.230577	2639.270890
816.549562	2637.960190
816.868502	2639.018833
817.187399	2642.487147
817.506250	2652.314876
817.825058	2648.302117
818.143821	2651.057108
818.462539	2659.367450
818.781213	2667.466064
819.099843	2678.997703
819.418429	2692.384487
819.736970	2709.141283
820.055466	2732.421331
820.373919	2774.882970
820.692327	2819.943324
821.010691	2865.918647
821.329011	2969.403453
821.647286	3152.858603
821.965517	3450.911783
822.283704	3611.510342
822.601847	3630.467601
822.919945	3549.408367
823.237999	3501.444309
823.556010	3371.551419
823.873976	3231.944225
824.191897	3124.764253
824.509775	3042.389278
824.827609	2948.951492
825.145398	2912.521593
825.463144	2907.717374
825.780845	2940.134514
826.098502	2959.537915
826.416116	3036.223947
826.733685	3110.270935
827.051210	3129.858339
827.368692	3113.552727
827.686129	3064.560273
828.003522	2961.413224
828.320872	2880.664022
828.638177	2817.473158
828.955439	2767.933739
829.272656	2739.756210
829.589830	2716.173692
829.906960	2705.393185
830.224046	2686.887109
830.541088	2677.041736
830.858086	2672.111487
831.175041	2661.668737
831.491952	2664.753923
831.808819	2671.052845
832.125642	2679.085923
832.442421	2698.839685
832.759157	2717.922973
833.075849	2770.766868
833.392497	2856.037985
833.709101	2930.818461
834.025662	2920.209353
834.342179	2874.317209
834.658653	2818.229331
834.975083	2772.448093
835.291469	2744.164699
835.607811	2712.024823
835.924110	2688.407017
836.240366	2667.680313
836.556578	2653.560041
836.872746	2646.963691
837.188871	2634.388533
837.504952	2628.424848
837.820990	2630.090949
838.136984	2620.540483
838.452935	2617.026799
838.768842	2614.216356
839.084706	2624.001235
839.400526	2651.609114
839.716303	2693.193592
840.032037	2715.772921
840.347727	2716.198898
840.663373	2702.277752
840.978977	2680.807477
841.294537	2653.870072
841.610054	2634.103708
841.925527	2628.427368
842.240957	2617.624176
842.556344	2609.152517
842.871687	2602.788060
843.186987	2600.136413
843.502244	2596.584920
843.817458	2597.192379
844.132629	2591.551328
844.447756	2586.737026
844.762840	2579.165213
845.077881	2583.641758
845.392879	2583.666963
845.707833	2583.092272
846.022745	2578.567836
846.337613	2581.549679
846.652438	2578.991293
846.967221	2580.135635
847.281960	2580.352405
847.596656	2579.704617
847.911309	2580.773341
848.225919	2578.892991
848.540485	2577.216807
848.855009	2577.741087
849.169490	2574.572722
849.483928	2576.022054
849.798323	2575.102043
850.112675	2575.303689
850.426984	2575.414595
850.741251	2575.424677
851.055474	2575.540623
851.369654	2577.262178
851.683792	2576.206056
851.997887	2576.422825
852.311938	2578.489698
852.625947	2575.696899
852.939914	2576.400140
853.253837	2580.743094
853.567718	2575.361663
853.881555	2573.630026
854.195350	2579.142528
854.509103	2577.978021
854.822812	2576.253947
855.136479	2573.627506
855.450103	2575.104564
855.763685	2576.374934
856.077224	2575.928792
856.390720	2575.898545
856.704173	2575.331416
857.017584	2579.906263
857.330953	2579.016499
857.644278	2580.435584
857.957561	2580.380131
858.270802	2579.450038
858.584000	2577.148752
858.897155	2581.095975
859.210268	2580.997672
859.523339	2578.963567
859.836367	2574.928123
860.149352	2578.046077
860.462295	2575.896025
860.775195	2575.013823
861.088054	2573.183884
861.400869	2573.902248
861.713642	2569.917216
862.026373	2574.698751
862.339062	2574.371076
862.651708	2579.175295
862.964312	2577.695717
863.276873	2578.794688
863.589392	2579.593711
863.901869	2581.680749
864.214303	2583.240986
864.526696	2584.042529
864.839045	2585.955647
865.151353	2586.182499
865.463619	2586.358940
865.775842	2588.793817
866.088023	2586.474886
866.400162	2589.509661
866.712258	2589.103848
867.024313	2588.070411
867.336325	2585.232242
867.648296	2586.691656
867.960224	2589.436564
868.272110	2588.912284
868.583954	2585.007910
868.895755	2586.623600
869.207515	2588.259455
869.519233	2592.234404
869.830909	2591.382449
870.142542	2588.453539
870.454134	2589.706266
870.765684	2591.004363
871.077191	2592.065526
871.388657	2595.949735
871.700081	2593.915629
872.011463	2592.889754
872.322803	2592.032758
872.634101	2592.670464
872.945357	2597.782194
873.256571	2600.201948
873.567744	2599.024839
873.878874	2598.601382
874.189963	2599.130703
874.501010	2601.283276
874.812015	2604.633122
875.122979	2605.505242
875.433900	2601.739500
875.744780	2598.145157
876.055618	2605.054059
876.366415	2610.367435
876.677169	2605.923658
876.987882	2603.264449
877.298554	2601.671444
877.609183	2608.146807
877.919771	2612.348608
878.230317	2616.568054
878.540822	2627.588016
878.851285	2634.297792
879.161707	2645.854637
879.472087	2668.696105
879.782425	2688.026410
880.092722	2740.898031
880.402977	2814.070379
880.713191	2890.660630
881.023363	2962.592854
881.333494	2999.153822
881.643583	3074.970256
881.953631	3102.918412
882.263637	3057.709345
882.573602	2992.106289
882.883526	2955.257975
883.193408	2918.563416
883.503248	2887.134343
883.813048	2842.671366
884.122806	2792.269910
884.432522	2753.790782
884.742197	2728.383367
885.051831	2710.668752
885.361424	2695.220136
885.670975	2678.990142
885.980485	2661.580517
886.289954	2655.122799
886.599382	2645.794143
886.908768	2640.770634
887.218113	2631.131947
887.527417	2626.899899
887.836680	2622.725823
888.145901	2621.004269
888.455082	2613.687035
888.764221	2609.397013
889.073319	2603.350149
889.382376	2603.471136
889.691392	2607.481374
890.000366	2606.558843
890.309300	2603.564398
890.618193	2608.708895
890.927044	2607.151179
891.235855	2606.624378
891.544625	2606.069851
891.853353	2604.491970
892.162041	2609.550768
892.470687	2622.488889
892.779293	2623.242542
893.087858	2627.756895
893.396381	2639.643936
893.704864	2656.637665
894.013306	2687.741585
894.321707	2733.958883
894.630068	2751.071080
894.938387	2764.367123
895.246665	2767.064140
895.554903	2752.832963
895.863100	2734.604151
896.171256	2706.446786
896.479371	2672.779440
896.787446	2655.253869
897.095480	2647.051911
897.403473	2644.964874
897.711425	2636.868781
898.019336	2626.310084
898.327207	2620.671553
898.635038	2619.910339
898.942827	2618.579474
899.250576	2611.806684
899.558284	2605.054059
899.865952	2601.575662
900.173579	2604.945674
900.481165	2604.060951
900.788711	2597.489807
901.096216	2594.817996
901.403681	2593.499734
901.711105	2592.665423
902.018489	2591.853797
902.325832	2595.052409
902.633135	2593.875300
902.940397	2601.313522
903.247619	2622.196502
903.554800	2654.185144
903.861941	2708.596838
904.169041	2763.880652
904.476101	2789.467028
904.783121	2791.995167
905.090100	2773.647887
905.397039	2742.614544
905.703938	2710.343598
906.010796	2679.985769
906.317614	2654.036430
906.624391	2633.715539
906.931129	2620.391769
907.237826	2604.996085
907.544483	2597.729262
907.851099	2590.623756
908.157675	2584.120667
908.464211	2583.525811
908.770707	2575.530541
909.077163	2571.048955
909.383578	2569.304716
909.689954	2571.111970
909.996289	2570.249932
910.302584	2571.197669
910.608839	2566.035528
910.915054	2570.118862
911.221229	2570.683472
911.527363	2572.780592
911.833458	2570.386044
912.139513	2570.610375
912.445527	2572.828483
912.751502	2574.509707
913.057436	2577.052970
913.363331	2581.038002
913.669186	2587.727613
913.975000	2594.172728
914.280775	2604.449120
914.586510	2609.991869
914.892205	2628.447533
915.197859	2661.615805
915.503475	2699.522761
915.809050	2731.135837
916.114585	2731.650035
916.420081	2740.681262
916.725536	2749.226017
917.030952	2746.019844
917.336328	2722.757439
917.641665	2699.638708
917.946961	2672.456806
918.252218	2652.614825
918.557435	2642.098978
918.862612	2629.594396
919.167750	2622.738426
919.472848	2614.665018
919.777906	2606.306785
920.082925	2598.737493
920.387904	2591.616863
920.692843	2591.183324
920.997743	2587.200812
921.302603	2584.087900
921.607423	2580.959864
921.912204	2576.886612
922.216946	2577.975501
922.521647	2577.420974
922.826310	2575.558267
923.130932	2572.427711
923.435516	2565.833882
923.740059	2566.670713
924.044564	2569.307237
924.349028	2566.353121
924.653454	2557.773077
924.957840	2559.459343
925.262186	2556.469938
925.566493	2559.350958
925.870761	2557.778118
926.174989	2557.372305
926.479178	2556.336348
926.783328	2556.096893
927.087438	2555.965823
927.391509	2554.176213
927.695541	2556.018755
927.999533	2553.780483
928.303486	2549.195553
928.607400	2553.021789
928.911275	2553.125133
929.215110	2551.393497
929.518906	2548.048691
929.822663	2552.177396
930.126381	2550.564227
930.430060	2550.506253
930.733699	2550.460883
931.037299	2551.453990
931.340861	2548.706562
931.644383	2553.891388
931.947866	2551.874927
932.251309	2551.383414
932.554714	2552.505071
932.858080	2553.218394
933.161407	2552.280740
933.464694	2552.076573
933.767943	2551.217056
934.071153	2550.135729
934.374323	2551.269988
934.677455	2547.872251
934.980548	2549.074566
935.283602	2551.305276
935.586617	2548.222611
935.889593	2549.538352
936.192530	2550.786037
936.495428	2551.791748
936.798287	2549.883671
937.101108	2547.937786
937.403890	2553.795606
937.706632	2552.994063
938.009336	2556.001111
938.312002	2559.648386
938.614628	2562.375650
938.917216	2565.770867
939.219765	2562.746175
939.522275	2561.417831
939.824747	2561.621998
940.127179	2558.677964
940.429573	2555.829712
940.731929	2558.534291
941.034246	2554.730740
941.336524	2557.334496
941.638763	2558.020093
941.940964	2557.256358
942.243126	2557.319373
942.545250	2555.643189
942.847335	2552.331151
943.149381	2554.418189
943.451389	2552.832746
943.753359	2552.830225
944.055290	2553.074721
944.357182	2554.251831
944.659036	2551.940462
944.960851	2552.825184
945.262628	2553.520863
945.564367	2551.776624
945.866067	2551.925338
946.167729	2551.867365
946.469352	2552.215205
946.770937	2554.594629
947.072484	2550.110523
947.373992	2550.453321
947.675462	2550.173537
947.976893	2552.792417
948.278286	2550.284443
948.579641	2550.546583
948.880958	2549.467776
949.182236	2548.683876
949.483476	2549.356870
949.784678	2550.806202
950.085841	2550.493651
950.386967	2550.274360
950.688054	2552.061449
950.989103	2550.730585
951.290114	2551.905174
951.591087	2552.454659
951.892021	2551.574978
952.192917	2554.294681
952.493776	2555.433981
952.794596	2554.130843
953.095378	2552.371480
953.396122	2556.976574
953.696828	2555.040771
953.997496	2555.055895
954.298126	2550.223949
954.598718	2551.242262
954.899272	2549.429967
955.199788	2553.667057
955.500266	2545.891077
955.800706	2545.371838
956.101108	2544.189688
956.401472	2545.326468
956.701798	2543.811601
957.002087	2543.594832
957.302337	2544.618186
957.602550	2544.940820
957.902724	2545.699513
958.202861	2545.066848
958.502960	2545.644061
958.803022	2544.618186
959.103045	2544.633309
959.403031	2544.093906
959.702979	2545.195398
960.002889	2545.071890
960.302762	2544.005686
960.602596	2541.646426
960.902393	2542.911755
961.202153	2543.360418
961.501875	2542.984852
961.801559	2546.100285
962.101205	2541.984183
962.400814	2542.813453
962.700385	2544.033412
962.999918	2544.280428
963.299414	2545.336550
963.598873	2544.562733
963.898293	2545.502908
964.197677	2541.754810
964.497022	2540.834800
964.796331	2542.642053
965.095601	2542.387475
965.394835	2542.397557
965.694030	2540.217258
965.993189	2539.992927
966.292309	2539.110725
966.591393	2541.240613
966.890439	2540.804553
967.189447	2540.741538
967.488419	2542.790767
967.787353	2539.788760
968.086249	2542.019471
968.385108	2542.200953
968.683930	2541.936292
968.982714	2541.815304
969.281462	2541.245654
969.580172	2541.853113
969.878844	2544.202291
970.177480	2542.430325
970.476078	2541.787578
970.774639	2543.612476
971.073162	2542.705068
971.371649	2540.759183
971.670098	2539.897145
971.968510	2541.840510
972.266885	2536.204500
972.565223	2543.988042
972.863524	2544.023330
973.161788	2542.258926
973.460014	2543.952753
973.758204	2541.984183
974.056356	2542.246323
974.354471	2545.336550
974.652550	2542.614327
974.950591	2547.335368
975.248595	2542.798329
975.546563	2543.884698
975.844493	2543.521735
976.142386	2541.938812
976.440243	2542.135418
976.738062	2545.041643
977.035845	2543.070552
977.333590	2543.841848
977.631299	2541.923689
977.928971	2542.329502
978.226606	2538.180632
978.524204	2543.274718
978.821765	2541.439738
979.119290	2541.026364
979.416777	2540.131559
979.714228	2539.546785
980.011642	2541.457382
980.309020	2543.123484
980.606360	2539.932433
980.903664	2546.410316
981.200931	2542.092568
981.498162	2543.123484
981.795356	2544.842517
982.092513	2546.251520
982.389633	2547.005172
982.686717	2550.493651
982.983764	2551.887530
983.280775	2552.192519
983.577749	2550.866696
983.874686	2550.423074
984.171587	2547.620193
984.468451	2547.310162
984.765279	2546.191026
985.062070	2545.026519
985.358824	2545.407126
985.655543	2544.378731
985.952224	2544.903011
986.248869	2541.903524
986.545478	2536.625436
986.842050	2540.451672
987.138586	2535.803728
987.435086	2540.229861
987.731549	2535.995292
988.027975	2541.371683
988.324366	2539.506456
988.620719	2541.553164
988.917037	2542.692465
989.213318	2543.620037
989.509563	2541.225489
989.805772	2537.888245
990.101944	2539.365303
990.398080	2543.395706
990.694180	2542.445448
990.990244	2538.460416
991.286271	2538.097453
991.582262	2539.997968
991.878217	2538.783050
992.174136	2541.535520
992.470019	2539.483771
992.765865	2540.605427
993.061676	2539.148534
993.357450	2540.867567
993.653188	2542.959646
993.948890	2541.946374
994.244556	2541.961498
994.540186	2540.144162
994.835780	2543.763710
995.131337	2541.283462
995.426859	2542.253885
995.722345	2542.808412
996.017795	2540.766744
996.313208	2543.655325
996.608586	2543.509132
996.903928	2540.476878
997.199234	2543.045346
997.494504	2541.812784
997.789738	2542.500901
998.084936	2540.955788
998.380099	2544.633309
998.675225	2542.400078
998.970316	2541.830428
999.265371	2541.802701
999.560390	2539.670293
999.855373	2541.938813
1000.150320	2539.415715
1000.445232	2539.516538
1000.740108	2538.815818
1001.034948	2538.641898
1001.329752	2538.672145
1001.624521	2539.675334
1001.919254	2534.094777
1002.213951	2535.793646
1002.508613	2536.751465
1002.803239	2537.132072
1003.097829	2536.149047
1003.392384	2537.497556
1003.686903	2537.731970
1003.981386	2539.151054
1004.275834	2541.157434
1004.570246	2541.364121
1004.864623	2536.539737
1005.158964	2538.926723
1005.453270	2540.537372
1005.747540	2538.324305
1006.041775	2538.117618
1006.335974	2536.988399
1006.630138	2540.305479
1006.924266	2541.878319
1007.218359	2538.813297
1007.512416	2538.500746
1007.806438	2541.631302
1008.100425	2541.394368
1008.394376	2538.699871
1008.688292	2540.711292
1008.982172	2540.686086
1009.276017	2541.404450
1009.569827	2538.329346
1009.863602	2543.186498
1010.157341	2540.529810
1010.451045	2538.561239
1010.744714	2537.469830
1011.038347	2539.740869
1011.331945	2537.500077
1011.625508	2538.616692
1011.919036	2539.566950
1012.212528	2539.783719
1012.505986	2536.781712
1012.799408	2541.533000
1013.092795	2536.290200
1013.386147	2536.375899
1013.679464	2537.338760
1013.972745	2539.153575
1014.265992	2540.444110
1014.559204	2537.888245
1014.852380	2540.063503
1015.145521	2538.107536
1015.438628	2537.351363
1015.731699	2539.453524
1016.024736	2538.243647
1016.317737	2538.876312
1016.610703	2540.189532
1016.903635	2532.988244
1017.196531	2535.387833
1017.489393	2539.151054
1017.782219	2534.588810
1018.075011	2535.329860
1018.367768	2540.451672
1018.660490	2539.607279
1018.953177	2539.607279
1019.245829	2539.607279
