Dividing Wavelength (nm)	Counts (n)	Blue Motor Position (mm): 0.600000	Red Motor Position (mm): 0.000000	
326.493990	2143.453245
326.888308	2143.453245
327.282561	2143.453245
327.676750	2113.339913
328.070874	2113.203801
328.464933	2111.925869
328.858929	2121.614967
329.252859	2130.870525
329.646726	2141.507360
330.040528	2156.540080
330.434265	2173.662359
330.827938	2187.364216
331.221547	2207.536393
331.615091	2226.977603
332.008571	2244.004100
332.401986	2265.658376
332.795338	2284.161931
333.188625	2306.337967
333.581847	2321.955462
333.975006	2341.212669
334.368100	2358.707994
334.761129	2379.417054
335.154095	2396.466236
335.546996	2412.950809
335.939833	2426.622418
336.332606	2442.189501
336.725315	2451.573609
337.117960	2461.920577
337.510540	2471.624799
337.903056	2480.547641
338.295508	2489.120123
338.687896	2498.209323
339.080220	2508.556292
339.472480	2509.549399
339.864676	2516.750687
340.256807	2521.650689
340.648875	2522.348889
341.040879	2526.069260
341.432818	2529.114117
341.824694	2529.938346
342.216506	2529.436751
342.608253	2531.899355
342.999937	2529.835002
343.391557	2530.944056
343.783113	2528.544467
344.174605	2527.523633
344.566033	2528.330218
344.957397	2525.759229
345.348697	2521.345699
345.739934	2521.766635
346.131106	2520.980215
346.522215	2519.031809
346.913260	2515.961747
347.304241	2513.234482
347.695159	2514.502333
348.086012	2510.749194
348.476802	2509.244409
348.867528	2506.857423
349.258191	2507.661487
349.648789	2507.290962
350.039324	2503.857936
350.429796	2504.634274
350.820203	2498.315188
351.210548	2499.497338
351.600828	2500.016577
351.991045	2497.866525
352.381198	2499.497338
352.771288	2496.845691
353.161314	2498.322749
353.551276	2499.341062
353.941175	2494.854436
354.331010	2495.134220
354.720782	2497.281751
355.110490	2497.387615
355.500135	2497.102790
355.889717	2497.405259
356.279235	2497.591782
356.668689	2499.363748
357.058080	2495.434168
357.447408	2499.638491
357.836672	2496.996926
358.225873	2497.465753
358.615010	2494.438540
359.004084	2501.886845
359.393095	2500.334170
359.782043	2497.518685
360.170927	2500.467760
360.559748	2503.810045
360.948505	2502.060765
361.337199	2502.317864
361.725830	2502.143944
362.114398	2505.297186
362.502903	2502.373317
362.891344	2506.917917
363.279722	2504.190652
363.668037	2506.146620
364.056289	2504.725015
364.444478	2506.938081
364.832603	2506.373472
365.220665	2505.198883
365.608665	2507.626199
365.996601	2507.580828
366.384474	2510.885305
366.772284	2508.654594
367.160031	2509.534276
367.547715	2506.542351
367.935336	2507.832886
368.322893	2510.978566
368.710388	2509.725839
369.097820	2510.048473
369.485189	2511.507887
369.872495	2511.407064
370.259738	2511.666684
370.646918	2513.121057
371.034035	2508.296672
371.421090	2510.202228
371.808081	2512.639626
372.195010	2513.799092
372.581875	2510.086282
372.968678	2511.442352
373.355418	2513.756242
373.742096	2514.562827
374.128710	2515.331602
374.515262	2512.135511
374.901751	2514.109123
375.288177	2514.093999
375.674540	2513.683145
376.060841	2514.832528
376.447079	2513.867147
376.833254	2517.408558
377.219367	2509.635099
377.605417	2515.003928
377.991404	2511.684328
378.377329	2514.509894
378.763191	2508.614265
379.148991	2515.213135
379.534727	2513.594925
379.920402	2516.193640
380.306013	2514.378824
380.691563	2516.758249
381.077049	2515.268588
381.462474	2519.828312
381.847835	2515.981911
382.233134	2516.120543
382.618371	2516.143228
383.003545	2520.554238
383.388657	2518.646161
383.773706	2518.981398
384.158693	2518.928466
384.543618	2519.298991
384.928480	2515.646675
385.313280	2521.287726
385.698017	2516.528877
386.082692	2518.845287
386.467305	2522.243024
386.851856	2519.704803
387.236344	2521.431399
387.620770	2520.511388
388.005133	2521.113806
388.389435	2520.488703
388.773674	2520.962571
389.157851	2521.249917
389.541965	2521.738909
389.926018	2522.719413
390.310008	2522.114475
390.693936	2520.985257
391.077802	2522.069105
391.461606	2522.900895
391.845348	2520.183713
392.229027	2526.686802
392.612645	2523.079856
392.996200	2525.071112
393.379694	2523.079856
393.763125	2527.155629
394.146494	2524.027593
394.529801	2523.710000
394.913047	2524.335103
395.296230	2526.081863
395.679351	2522.628673
396.062410	2524.299815
396.445408	2524.410721
396.828343	2524.665299
397.211217	2522.858045
397.594028	2524.372912
397.976778	2522.820237
398.359466	2522.157325
398.742092	2520.251769
399.124656	2526.321318
399.507158	2525.345855
399.889598	2528.577234
400.271977	2528.078160
400.654294	2527.453057
401.036549	2527.823582
401.418742	2526.013807
401.800874	2529.779549
402.182944	2528.312574
402.564952	2525.411390
402.946898	2525.693694
403.328783	2526.568334
403.710606	2527.808458
404.092367	2530.944056
404.474067	2530.497914
404.855705	2528.373067
405.237282	2528.950280
405.618797	2525.754188
406.000250	2531.780887
406.381642	2529.277955
406.762972	2531.606968
407.144240	2528.236956
407.525447	2531.307019
407.906593	2530.545805
408.287677	2529.366175
408.668700	2527.657224
409.049661	2534.586290
409.430560	2530.923891
409.811399	2532.698377
410.192176	2530.117307
410.572891	2531.949766
410.953545	2533.998995
411.334138	2532.537061
411.714669	2530.790301
412.095139	2534.785415
412.475547	2528.660413
412.855894	2530.530681
413.236180	2532.952956
413.616405	2534.014119
413.996568	2533.028573
414.376670	2533.336083
414.756711	2531.460774
415.136691	2533.386495
415.516609	2531.233922
415.896466	2535.269366
416.276262	2532.990764
416.655997	2530.598737
417.035670	2530.165198
417.415283	2533.086546
417.794834	2526.641431
418.174324	2532.373223
418.553753	2534.714839
418.933121	2536.459078
419.312428	2534.803059
419.691674	2534.893800
420.070859	2535.342463
420.449983	2535.166022
420.829045	2535.191228
421.208047	2536.257432
421.586988	2537.311033
421.965867	2538.407484
422.344686	2534.498069
422.723444	2533.915816
423.102141	2536.086033
423.480777	2535.604603
423.859352	2538.155427
424.237866	2537.033770
424.616319	2535.415559
424.994712	2536.718698
425.373044	2536.953111
425.751314	2536.436393
426.129524	2537.444624
426.507673	2539.350180
426.885762	2535.750796
427.263789	2538.092412
427.641756	2536.239788
428.019662	2535.672658
428.397508	2537.673996
428.775292	2538.538554
429.153016	2537.742052
429.530679	2539.851775
429.908282	2539.977804
430.285824	2539.889583
430.663305	2538.281455
431.040726	2537.522762
431.418086	2537.159799
431.795385	2538.833462
432.172624	2538.246167
432.549802	2541.124666
432.926920	2540.224820
433.303977	2540.933102
433.680974	2537.752134
434.057910	2541.177598
434.434786	2540.338246
434.811601	2542.200952
435.188355	2539.294727
435.565050	2539.327495
435.941683	2542.853782
436.318257	2536.559901
436.694770	2535.034952
437.071222	2536.002854
437.447614	2536.297761
437.823946	2536.617875
438.200218	2539.256919
438.576429	2542.142979
438.952580	2543.325130
439.328670	2542.258926
439.704700	2537.477391
440.080670	2539.771116
440.456580	2541.878319
440.832429	2538.843544
441.208218	2540.771785
441.583947	2542.319420
441.959616	2537.162319
442.335224	2543.287321
442.710773	2539.970242
443.086261	2542.644574
443.461689	2541.222969
443.837057	2541.127187
444.212365	2543.194060
444.587612	2541.122146
444.962800	2541.379244
445.337927	2542.621889
445.712995	2542.238761
446.088002	2543.554502
446.462949	2540.975952
446.837837	2544.419060
447.212664	2539.771116
447.587431	2544.035932
447.962139	2543.582229
448.336786	2545.833104
448.711374	2543.940151
449.085901	2543.831766
449.460369	2542.442928
449.834776	2545.649102
450.209124	2544.116591
450.583412	2543.599873
450.957640	2543.549461
451.331808	2541.439738
451.705917	2541.066693
452.079965	2544.444266
452.453954	2543.383103
452.827883	2541.064172
453.201752	2541.548123
453.575562	2543.128525
453.949311	2544.635830
454.323001	2543.491488
454.696632	2546.314534
455.070202	2545.477703
455.443713	2542.538710
455.817164	2542.213555
456.190556	2539.415715
456.563888	2541.515356
456.937160	2540.418905
457.310373	2546.390151
457.683526	2545.341591
458.056619	2544.330840
458.429653	2544.025850
458.802628	2546.289328
459.175542	2544.156920
459.548398	2543.307486
459.921194	2544.847558
460.293930	2545.583567
460.666607	2540.970911
461.039224	2545.074410
461.411782	2541.953936
461.784280	2543.819163
462.156719	2544.061138
462.529099	2547.161448
462.901419	2547.804195
463.273680	2543.443597
463.645882	2548.368804
464.018024	2548.835111
464.390106	2543.269677
464.762130	2544.905532
465.134094	2546.337219
465.505999	2547.327806
465.877845	2547.652960
466.249631	2546.816129
466.621358	2544.103988
466.993026	2550.919628
467.364634	2552.399207
467.736184	2546.934596
468.107674	2545.041643
468.479105	2548.298228
468.850477	2546.294369
469.221790	2547.416026
469.593043	2546.150697
469.964238	2547.088351
470.335373	2547.239586
470.706449	2547.274874
471.077467	2545.225645
471.448425	2545.276056
471.819324	2548.119267
472.190164	2550.675132
472.560945	2546.722868
472.931667	2548.898125
473.302330	2548.628424
473.672934	2546.972405
474.043479	2548.454504
474.413965	2548.641027
474.784393	2543.728422
475.154761	2545.409647
475.525070	2544.711447
475.895321	2547.862168
476.265513	2543.100798
476.635645	2548.346119
477.005719	2546.977446
477.375734	2547.627755
477.745691	2546.312013
478.115588	2548.462066
478.485427	2548.273022
478.855207	2549.089689
479.224928	2548.547765
479.594591	2549.969371
479.964194	2548.754453
480.333739	2548.580533
480.703226	2550.153373
481.072653	2549.233362
481.442022	2550.410472
481.811333	2549.087169
482.180584	2546.856458
482.549777	2549.187992
482.918912	2550.876778
483.287988	2549.130018
483.657005	2550.750749
484.025964	2551.055739
484.394864	2547.642878
484.763706	2550.753270
485.132489	2551.360729
485.501213	2548.918290
485.869879	2549.918959
486.238487	2547.640358
486.607036	2550.339895
486.975527	2549.130018
487.343959	2549.059442
487.712333	2548.704041
488.080648	2548.073897
488.448905	2553.195709
488.817104	2548.457024
489.185244	2549.649257
489.553326	2550.561706
489.921350	2549.278732
490.289315	2550.307128
490.657222	2552.903322
491.025070	2547.284956
491.392861	2551.242262
491.760593	2552.310987
492.128267	2549.969371
492.495883	2552.668908
492.863440	2549.298897
493.230939	2552.610935
493.598380	2550.118085
493.965763	2548.986346
494.333088	2549.145142
494.700354	2548.706562
495.067563	2548.401572
495.434713	2547.968033
495.801805	2551.673281
496.168839	2550.438198
496.535815	2552.434495
496.902733	2550.783517
497.269593	2549.671942
497.636395	2553.846018
498.003139	2551.978270
498.369825	2550.927190
498.736453	2550.332334
499.103023	2551.920297
499.469535	2549.626572
499.835989	2547.973074
500.202385	2550.720502
500.568723	2551.479196
500.935003	2552.726882
501.301226	2550.939793
501.667390	2552.043805
502.033497	2551.978270
502.399546	2549.016593
502.765537	2551.040616
503.131470	2552.885678
503.497345	2552.404248
503.863163	2551.698486
504.228923	2548.792261
504.594625	2551.549772
504.960269	2554.042623
505.325856	2551.821995
505.691385	2550.682694
506.056856	2551.756460
506.422270	2551.050698
506.787625	2551.968188
507.152924	2551.552293
507.518164	2552.285781
507.883347	2552.245452
508.248472	2552.951213
508.613540	2551.557334
508.978550	2550.440718
509.343503	2550.488609
509.708398	2552.426933
510.073236	2551.824515
510.438016	2550.896943
510.802738	2554.166131
511.167403	2547.547096
511.532010	2551.025492
511.896561	2551.491799
512.261053	2554.241748
512.625488	2549.853424
512.989866	2549.412323
513.354186	2549.286294
513.718449	2546.584236
514.082655	2550.412992
514.446803	2551.620348
514.810894	2552.699155
515.174927	2554.168652
515.538904	2552.457180
515.902822	2550.748229
516.266684	2551.481717
516.630488	2548.819988
516.994235	2550.365101
517.357925	2555.237376
517.721558	2552.253013
518.085133	2550.896943
518.448651	2550.339895
518.812112	2553.702345
519.175516	2553.225956
519.538863	2553.483055
519.902152	2552.358877
520.265385	2553.626728
520.628560	2555.116389
520.991678	2552.303425
521.354739	2552.552962
521.717743	2551.491799
522.080690	2554.430792
522.443580	2553.712427
522.806413	2554.609753
523.169189	2554.730740
523.531908	2552.331151
523.894569	2553.409958
524.257174	2554.755946
524.619722	2553.286450
524.982213	2553.228477
525.344647	2553.687222
525.707025	2554.579506
526.069345	2551.637993
526.431608	2553.740154
526.793815	2553.659495
527.155964	2552.316028
527.518057	2551.456511
527.880093	2556.079249
528.242072	2552.938610
528.603995	2553.510781
528.965860	2553.742674
529.327669	2553.107489
529.689421	2553.702345
530.051117	2554.660164
530.412755	2554.302242
530.774337	2552.419371
531.135862	2553.316697
531.497331	2551.519525
531.858743	2547.068187
532.220098	2549.689587
532.581396	2550.302087
532.942638	2551.811912
533.303824	2552.810061
533.664953	2553.523384
534.026025	2554.919784
534.387040	2555.701162
534.747999	2552.600853
535.108902	2554.672767
535.469748	2553.914073
535.830537	2554.881975
536.191270	2553.241079
536.551947	2552.731923
536.912567	2557.082439
537.273131	2554.032541
537.633638	2554.816440
537.994089	2555.643189
538.354483	2555.486913
538.714821	2552.444577
539.075103	2554.183775
539.435328	2554.171172
539.795497	2554.718138
540.155609	2554.471121
540.515665	2554.511450
540.875665	2551.801830
541.235609	2554.332489
541.595496	2553.167983
541.955328	2554.425751
542.315102	2552.615976
542.674821	2556.283416
543.034483	2554.922304
543.394090	2554.299722
543.753640	2555.343241
544.113134	2552.663867
544.472571	2555.459187
544.831953	2554.314845
545.191278	2553.495658
545.550548	2553.967006
545.909761	2553.049516
546.268918	2554.758467
546.628019	2553.886347
546.987064	2552.399207
547.346053	2554.655123
547.704986	2550.985163
548.063863	2554.917263
548.422684	2555.368446
548.781449	2552.358877
549.140158	2553.725030
549.498811	2554.324927
549.857408	2555.761656
550.215949	2552.530277
550.574434	2551.927859
550.932864	2551.229659
551.291237	2549.321582
551.649555	2555.408776
552.007817	2553.964485
552.366022	2555.083621
552.724173	2551.554813
553.082267	2553.873744
553.440305	2554.080432
553.798288	2555.486913
554.156215	2553.936759
554.514086	2554.085473
554.871902	2555.355843
555.229661	2553.412479
555.587365	2553.654454
555.945014	2553.014227
556.302606	2554.259392
556.660143	2557.127809
557.017625	2553.967006
557.375050	2554.241748
557.732421	2557.382387
558.089735	2555.128992
558.446994	2553.301573
558.804197	2553.490617
559.161345	2555.454146
559.518437	2554.133364
559.875474	2557.430278
560.232455	2554.715617
560.589381	2553.089845
560.946251	2555.854918
561.303065	2556.021276
561.659825	2553.611604
562.016528	2552.434495
562.373177	2557.407593
562.729770	2553.818292
563.086307	2555.592778
563.442789	2554.506409
563.799216	2554.622356
564.155587	2554.811399
564.511904	2556.137222
564.868164	2557.301729
565.224370	2554.082952
565.580520	2556.220401
565.936615	2552.817622
566.292654	2552.580688
566.648638	2554.655123
567.004567	2555.842315
567.360441	2555.239897
567.716260	2555.121430
568.072023	2554.355174
568.427732	2550.239072
568.783385	2553.483055
569.138982	2547.642878
569.494525	2552.610935
569.850013	2550.745708
570.205445	2557.720145
570.560823	2554.176213
570.916145	2553.876265
571.271412	2553.503219
571.626625	2555.433981
571.981782	2554.740823
572.336884	2554.496327
572.691931	2555.050854
573.046923	2553.266285
573.401860	2553.861141
573.756743	2556.522871
574.111570	2554.488765
574.466342	2553.916594
574.821059	2554.987839
575.175722	2555.403734
575.530330	2554.622356
575.884882	2555.290308
576.239380	2553.425082
576.593823	2557.437840
576.948211	2554.284598
577.302544	2556.054043
577.656823	2557.362223
578.011047	2556.359033
578.365216	2556.235525
578.719330	2555.386090
579.073389	2556.709393
579.427394	2553.588919
579.781344	2554.491286
580.135239	2555.723848
580.489080	2553.934238
580.842866	2555.489434
581.196597	2557.387428
581.550273	2554.352654
581.903895	2552.253013
582.257463	2555.244938
582.610975	2554.758467
582.964434	2556.013714
583.317837	2556.651420
583.671186	2554.851728
584.024481	2555.020607
584.377721	2552.883158
584.730906	2555.353323
585.084037	2553.871224
585.437113	2555.749053
585.790135	2557.480690
586.143103	2553.722510
586.496016	2557.084959
586.848874	2551.456511
587.201679	2552.638662
587.554428	2550.644885
587.907124	2552.429454
588.259765	2548.215049
588.612352	2557.901626
588.964884	2554.392983
589.317362	2554.937428
589.669786	2555.144115
590.022155	2557.599157
590.374470	2557.102603
590.726731	2555.461708
591.078937	2554.720658
591.431090	2554.677808
591.783188	2557.125288
592.135232	2556.094373
592.487222	2555.978426
592.839157	2554.297201
593.191038	2556.618653
593.542866	2553.243600
593.894639	2555.277706
594.246358	2555.612942
594.598022	2554.584547
594.949633	2557.140412
595.301190	2555.721327
595.652692	2557.770556
596.004141	2554.708055
596.355535	2556.376677
596.706876	2555.328117
597.058162	2553.503219
597.409395	2552.033723
597.760573	2555.643189
598.111698	2555.348282
598.462768	2552.472303
598.813785	2555.204609
599.164748	2554.539177
599.515657	2555.386090
599.866511	2555.484393
600.217312	2556.979095
600.568060	2556.409445
600.918753	2556.046482
601.269392	2554.950031
601.619978	2554.279557
601.970510	2554.546738
602.320988	2553.934238
602.671412	2554.561862
603.021783	2555.907850
603.372100	2554.786193
603.722363	2554.960113
604.072572	2554.352654
604.422728	2555.307952
604.772830	2551.837118
605.122878	2551.355688
605.472872	2550.362581
605.822813	2552.900802
606.172701	2555.008004
606.522534	2552.608415
606.872314	2558.156204
607.222041	2556.404403
607.571714	2557.914229
607.921333	2554.090514
608.270899	2555.134033
608.620411	2552.752087
608.969870	2554.803837
609.319276	2556.250648
609.668627	2559.290464
610.017926	2560.187789
610.367171	2563.129303
610.716362	2562.080743
611.065500	2559.968499
611.414585	2556.429609
611.763616	2557.924311
612.112594	2555.968344
612.461518	2558.030176
612.810389	2554.541697
613.159207	2559.287943
613.507971	2558.446071
613.856682	2558.090669
614.205340	2554.017417
614.553945	2557.848694
614.902496	2557.090000
615.250994	2552.510112
615.599439	2556.971533
615.947830	2556.711914
616.296169	2557.165618
616.644454	2556.422047
616.992686	2555.635628
617.340864	2555.038251
617.688990	2556.248128
618.037063	2556.795093
618.385082	2557.087480
618.733048	2555.282747
619.080961	2553.631769
619.428821	2555.842315
619.776628	2555.242417
620.124382	2558.181410
620.472083	2556.570762
620.819731	2556.038920
621.167326	2554.818961
621.514868	2555.411296
621.862357	2556.255689
622.209793	2555.807027
622.557176	2555.035730
622.904506	2553.278888
623.251783	2551.020451
623.599007	2553.208312
623.946179	2552.540359
624.293297	2553.238559
624.640363	2553.961964
624.987376	2555.865000
625.334336	2553.825853
625.681243	2553.939279
626.028097	2554.203940
626.374899	2553.488096
626.721647	2556.815257
627.068343	2554.166131
627.414987	2554.392983
627.761577	2556.961451
628.108115	2555.323076
628.454600	2555.018086
628.801032	2554.327448
629.147412	2555.557490
629.493739	2558.562017
629.840014	2555.396173
630.186236	2555.363405
630.532405	2556.084290
630.878521	2556.180072
631.224585	2556.875751
631.570597	2553.039433
631.916556	2553.117571
632.262462	2555.645710
632.608316	2554.405586
632.954117	2552.313507
633.299866	2555.126471
633.645562	2556.064126
633.991206	2554.206460
634.336797	2556.532953
634.682336	2555.423899
635.027823	2552.021120
635.373257	2554.781152
635.718639	2554.677808
636.063968	2552.638662
636.409245	2554.536656
636.754470	2554.889537
637.099642	2556.162428
637.444762	2556.384239
637.789829	2554.324928
638.134845	2557.228632
638.479808	2553.472973
638.824719	2556.338868
639.169577	2553.888868
639.514383	2555.675957
639.859137	2555.597819
640.203839	2559.086297
640.548489	2555.605381
640.893086	2551.222097
641.237632	2551.418702
641.582125	2552.600853
641.926566	2550.173537
642.270955	2552.689073
642.615292	2554.471121
642.959576	2554.854249
643.303809	2554.887016
643.647990	2554.703014
643.992118	2557.062274
644.336195	2554.841646
644.680219	2552.815102
645.024192	2554.087993
645.368112	2553.399876
645.711981	2552.742005
646.055797	2554.324928
646.399562	2554.753426
646.743274	2552.883158
647.086935	2552.628579
647.430544	2552.961295
647.774101	2554.811399
648.117606	2557.538663
648.461059	2554.841646
648.804460	2553.883827
649.147810	2555.476831
649.491108	2554.357695
649.834354	2555.678477
650.177548	2555.139074
650.520690	2554.284598
650.863781	2555.532284
651.206820	2556.732078
651.549807	2554.317366
651.892742	2553.651933
652.235626	2555.625545
652.578458	2551.937941
652.921238	2555.335679
653.263967	2557.334496
653.606644	2554.831563
653.949269	2552.484906
654.291843	2553.909032
654.634365	2555.025648
654.976836	2553.674619
655.319255	2555.111348
655.661622	2553.525905
656.003938	2552.663867
656.346203	2552.598332
656.688416	2553.853580
657.030577	2554.766028
657.372687	2555.607901
657.714746	2554.050185
658.056753	2556.280895
658.398708	2551.559855
658.740612	2551.035575
659.082465	2551.300235
659.424266	2551.176727
659.766016	2549.187992
660.107715	2556.353992
660.449362	2553.072201
660.790958	2553.067160
661.132503	2554.660164
661.473996	2555.252500
661.815438	2556.643858
662.156829	2555.489434
662.498168	2555.315514
662.839456	2554.082952
663.180693	2554.743343
663.521879	2555.232335
663.863013	2552.051367
664.204097	2555.159238
664.545129	2553.893909
664.886110	2555.028168
665.227040	2554.821481
665.567918	2553.432643
665.908746	2551.569937
666.249522	2554.080432
666.590248	2552.074052
666.930922	2554.463559
667.271545	2549.036757
667.612118	2554.405586
667.952639	2555.134033
668.293109	2554.818961
668.633528	2555.950700
668.973896	2552.368960
669.314213	2553.316697
669.654480	2554.813919
669.994695	2555.257541
670.334859	2551.126315
670.674973	2551.953065
671.015035	2553.241079
671.355047	2555.769218
671.695008	2555.887685
672.034918	2551.406099
672.374777	2554.224104
672.714585	2554.357695
673.054342	2554.274516
673.394049	2554.387942
673.733705	2556.046482
674.073310	2553.236038
674.412864	2555.854918
674.752368	2554.198899
675.091820	2553.432643
675.431223	2554.609753
675.770574	2554.019938
676.109875	2550.428116
676.449125	2550.740667
676.788324	2551.176727
677.127473	2550.947354
677.466571	2550.481048
677.805619	2552.303425
678.144616	2554.541697
678.483562	2555.128992
678.822458	2554.045143
679.161303	2552.626059
679.500098	2550.022303
679.838842	2552.278219
680.177535	2554.556821
680.516179	2552.668908
680.854771	2552.379042
681.193314	2551.237221
681.531805	2553.238559
681.870247	2553.576316
682.208638	2554.425751
682.546978	2552.260575
682.885268	2552.981460
683.223508	2553.296532
683.561697	2554.030020
683.899836	2554.294681
684.237925	2552.487427
684.575963	2551.887530
684.913951	2552.701676
685.251889	2553.916594
685.589776	2551.509443
685.927614	2553.732592
686.265401	2552.958775
686.603137	2553.208312
686.940824	2553.162942
687.278460	2555.393652
687.616046	2555.078580
687.953582	2554.519012
688.291068	2555.350802
688.628504	2553.180586
688.965889	2554.539177
689.303224	2553.432643
689.640510	2550.549103
689.977745	2553.525905
690.314930	2553.258723
690.652065	2555.794424
690.989150	2551.151521
691.326185	2552.918446
691.663170	2551.718651
692.000105	2556.167469
692.336990	2552.492468
692.673825	2554.198899
693.010610	2555.048333
693.347345	2549.561037
693.684030	2551.993394
694.020665	2550.087838
694.357251	2549.245965
694.693786	2553.087324
695.030272	2555.728889
695.366707	2554.166131
695.703093	2553.750236
696.039429	2552.575647
696.375716	2554.226625
696.711952	2552.242931
697.048139	2552.941131
697.384276	2553.112530
697.720363	2556.220401
698.056400	2549.571119
698.392388	2552.184958
698.728326	2552.484906
699.064214	2553.830894
699.400053	2554.266954
699.735842	2551.592622
700.071581	2551.484237
700.407270	2552.406768
700.742910	2556.734599
701.078501	2550.372663
701.414042	2554.705535
701.749533	2554.087993
702.084974	2554.135884
702.420366	2552.472303
702.755709	2553.656975
703.091002	2551.522046
703.426246	2550.826367
703.761440	2550.879299
704.096584	2555.315514
704.431679	2552.540359
704.766725	2553.727551
705.101721	2552.421892
705.436668	2553.256203
705.771565	2553.924156
706.106413	2552.114382
706.441212	2550.198743
706.775961	2552.915925
707.110661	2551.196892
707.445311	2553.215874
707.779913	2554.448436
708.114465	2553.052036
708.448967	2554.662685
708.783421	2553.979608
709.117825	2552.149670
709.452180	2552.883157
709.786485	2553.203271
710.120742	2551.184289
710.454949	2553.956923
710.789107	2552.263096
711.123216	2550.223949
711.457275	2547.600028
711.791286	2549.850903
712.125247	2550.733105
712.459159	2554.776111
712.793023	2554.211502
713.126837	2550.309648
713.460602	2552.729402
713.794318	2552.414330
714.127985	2551.756460
714.461602	2552.134546
714.795171	2554.743343
715.128691	2553.445246
715.462162	2553.026830
715.795584	2551.640513
716.128957	2553.813250
716.462281	2552.442057
716.795556	2553.036913
717.128782	2551.988353
717.461960	2551.406099
717.795088	2552.149670
718.128167	2548.330996
718.461198	2553.493137
718.794180	2554.171172
719.127113	2552.404248
719.459997	2552.709238
719.792833	2551.678322
720.125619	2551.161603
720.458357	2551.731254
720.791046	2553.737633
721.123686	2553.599001
721.456278	2554.564382
721.788821	2550.218908
722.121315	2553.016748
722.453761	2553.137736
722.786158	2553.253682
723.118506	2549.555996
723.450805	2551.131357
723.783056	2552.633620
724.115259	2551.927859
724.447412	2555.527243
724.779518	2551.985832
725.111574	2554.151008
725.443582	2553.871224
725.775542	2552.926007
726.107453	2551.585060
726.439315	2552.936090
726.771129	2557.450443
727.102895	2552.731923
727.434612	2554.113199
727.766281	2551.272509
728.097901	2548.714123
728.429473	2546.818649
728.760996	2549.387117
729.092471	2547.673125
729.423897	2551.824515
729.755276	2552.769732
730.086606	2551.075904
730.417887	2554.632438
730.749120	2552.356357
731.080305	2554.408107
731.411442	2551.784186
731.742530	2552.678991
732.073570	2549.979453
732.404562	2553.430123
732.735506	2553.301573
733.066401	2550.387786
733.397249	2554.524053
733.728048	2550.337375
734.058798	2554.697973
734.389501	2552.096737
734.720156	2551.829556
735.050762	2551.154042
735.381320	2555.008004
735.711831	2550.102961
736.042293	2552.442057
736.372707	2552.036244
736.703073	2551.862324
737.033391	2550.148332
737.363661	2550.879299
737.693883	2549.750080
738.024056	2553.818292
738.354182	2551.307797
738.684260	2550.702858
739.014290	2553.238559
739.344272	2551.133877
739.674207	2552.721841
740.004093	2554.496327
740.333931	2552.588250
740.663722	2553.455328
740.993464	2552.033723
741.323159	2554.050185
741.652806	2550.418033
741.982405	2552.623538
742.311956	2554.135884
742.641460	2555.141594
742.970915	2551.673281
743.300323	2553.175544
743.629683	2555.670916
743.958996	2551.474155
744.288260	2552.220246
744.617477	2554.481203
744.946647	2547.199257
745.275768	2549.346788
745.604842	2548.348640
745.933869	2549.679504
746.262847	2549.619010
746.591778	2552.822664
746.920662	2552.167314
747.249498	2552.595812
747.578286	2552.837787
747.907027	2550.695297
748.235720	2554.561862
748.564365	2552.699155
748.892963	2552.469783
749.221514	2552.487427
749.550017	2553.379711
749.878473	2551.983312
750.206881	2553.770401
750.535242	2552.247972
750.863555	2552.245452
751.191821	2551.073383
751.520039	2551.879968
751.848210	2549.634134
752.176334	2551.837118
752.504411	2551.363250
752.832440	2551.128836
753.160421	2551.091027
753.488356	2553.329300
753.816243	2552.268137
754.144082	2553.286450
754.471875	2553.049516
754.799620	2553.389793
755.127318	2550.264278
755.454969	2552.048847
755.782572	2551.537169
756.110129	2551.837118
756.437638	2553.301573
756.765100	2548.762014
757.092515	2552.676470
757.419882	2551.698486
757.747203	2553.089845
758.074477	2551.423743
758.401703	2549.896274
758.728882	2553.571275
759.056014	2550.208825
759.383099	2552.505071
759.710138	2550.256716
760.037129	2552.500030
760.364073	2554.786193
760.690970	2548.953578
761.017820	2549.916438
761.344623	2549.460214
761.671379	2552.202602
761.998088	2546.632127
762.324751	2548.411654
762.651366	2548.880481
762.977935	2550.816284
763.304456	2547.350491
763.630931	2555.005483
763.957359	2549.031716
764.283740	2550.992725
764.610074	2547.688248
764.936362	2553.462890
765.262602	2551.113712
765.588796	2550.670091
765.914943	2550.312169
766.241044	2552.563044
766.567097	2551.325441
766.893104	2552.358878
767.219064	2549.828218
767.544978	2551.960626
767.870845	2551.128836
768.196665	2552.817623
768.522438	2550.947354
768.848165	2550.609597
769.173846	2550.468445
769.499479	2550.844011
769.825066	2552.563044
770.150607	2551.882488
770.476101	2550.670091
770.801548	2555.865000
771.126949	2550.057591
771.452303	2550.841490
771.777611	2550.917107
772.102872	2553.924156
772.428087	2550.481048
772.753256	2548.285625
773.078378	2553.485575
773.403453	2552.253013
773.728482	2550.511295
774.053465	2550.324772
774.378401	2551.159083
774.703291	2550.400389
775.028135	2552.895760
775.352932	2548.963660
775.677683	2551.655637
776.002388	2551.670760
776.327046	2550.551624
776.651658	2552.374001
776.976224	2549.631613
777.300743	2552.308466
777.625216	2550.050029
777.949643	2550.062632
778.274024	2553.440205
778.598359	2547.305121
778.922647	2547.403423
779.246889	2546.422919
779.571086	2546.077600
779.895236	2549.533311
780.219339	2552.341233
780.543397	2550.528939
780.867409	2552.041285
781.191374	2554.957592
781.515294	2552.371480
781.839167	2550.390307
782.162995	2550.385266
782.486776	2552.782334
782.810511	2550.168496
783.134201	2550.682694
783.457844	2549.145142
783.781441	2550.730585
784.104993	2546.627086
784.428498	2550.786038
784.751958	2551.554813
785.075372	2552.283260
785.398739	2551.643034
785.722061	2552.187478
786.045337	2549.107333
786.368568	2553.475493
786.691752	2551.143959
787.014891	2550.796120
787.337983	2552.452139
787.661030	2550.370142
787.984031	2552.263096
788.306987	2549.729916
788.629897	2548.996428
788.952760	2551.290153
789.275579	2549.492982
789.598351	2554.093034
789.921078	2548.620862
790.243759	2552.386604
790.566395	2550.780996
790.888984	2551.184289
791.211529	2549.314021
791.534027	2548.174720
791.856480	2552.429454
792.178888	2548.625903
792.501249	2549.165307
792.823566	2554.309804
793.145836	2549.210677
793.468062	2551.970709
793.790241	2550.838970
794.112375	2550.329813
794.434464	2553.178065
794.756507	2552.026161
795.078505	2551.821995
795.400457	2549.850903
795.722364	2548.623383
796.044226	2549.291335
796.366042	2547.799154
796.687812	2544.351005
797.009538	2549.162786
797.331218	2550.496171
797.652852	2554.413148
797.974442	2551.098589
798.295986	2548.583053
798.617484	2552.240410
798.938938	2550.728064
799.260346	2550.186140
799.581709	2551.239741
799.903026	2552.386604
800.224299	2549.820657
800.545526	2551.194371
800.866708	2552.626059
801.187845	2552.981460
801.508936	2549.863506
801.829983	2553.407438
802.150984	2553.490617
802.471940	2549.457693
802.792851	2551.035575
803.113717	2551.111192
803.434538	2549.518187
803.755314	2549.596325
804.076045	2549.918959
804.396731	2551.161603
804.717372	2547.461397
805.037967	2550.168496
805.358518	2549.167827
805.679024	2550.692776
805.999485	2549.520708
806.319901	2549.835780
806.640272	2550.750749
806.960598	2550.728064
807.280879	2549.298897
807.601115	2550.738147
807.921306	2548.245296
808.241453	2551.131357
808.561554	2548.288146
808.881611	2551.085986
809.201623	2551.837118
809.521590	2549.898794
809.841513	2549.082127
810.161390	2549.190512
810.481223	2548.777138
810.801011	2549.974412
811.120755	2548.351160
811.440453	2549.175389
811.760107	2548.280584
812.079716	2547.564740
812.399281	2546.324616
812.718801	2546.196067
813.038276	2544.212373
813.357707	2548.068856
813.677093	2549.929041
813.996434	2548.830070
814.315731	2550.458363
814.634983	2550.866696
814.954191	2549.767724
815.273354	2547.479041
815.592473	2549.896274
815.911547	2551.910215
816.230577	2551.010369
816.549562	2547.332847
816.868502	2550.181099
817.187399	2550.571788
817.506250	2548.714123
817.825058	2550.123126
818.143821	2551.063301
818.462539	2547.652960
818.781213	2550.501212
819.099843	2548.550286
819.418429	2550.357539
819.736970	2548.245296
820.055466	2548.101623
820.373919	2550.501212
820.692327	2551.239741
821.010691	2550.203784
821.329011	2549.971891
821.647286	2550.879299
821.965517	2552.774773
822.283704	2548.348640
822.601847	2548.446942
822.919945	2547.461397
823.237999	2550.397869
823.556010	2551.925338
823.873976	2550.491130
824.191897	2549.402241
824.509775	2550.929710
824.827609	2547.206818
825.145398	2549.132539
825.463144	2551.365770
825.780845	2551.675801
826.098502	2548.391489
826.416116	2550.130688
826.733685	2548.920811
827.051210	2550.228990
827.368692	2549.561037
827.686129	2549.371994
828.003522	2549.240924
828.320872	2547.058104
828.638177	2548.482230
828.955439	2545.782692
829.272656	2546.513660
829.589830	2543.310006
829.906960	2549.523228
830.224046	2549.137580
830.541088	2549.392158
830.858086	2550.022303
831.175041	2551.854762
831.491952	2549.344268
831.808819	2547.247147
832.125642	2548.381407
832.442421	2548.583053
832.759157	2550.473486
833.075849	2548.812426
833.392497	2549.871068
833.709101	2548.411654
834.025662	2547.862168
834.342179	2549.356870
834.658653	2548.018444
834.975083	2549.477858
835.291469	2550.266799
835.607811	2547.771428
835.924110	2548.378887
836.240366	2549.397200
836.556578	2548.363763
836.872746	2550.012220
837.188871	2548.709082
837.504952	2548.714123
837.820990	2551.353167
838.136984	2549.402241
838.452935	2549.530790
838.768842	2550.609597
839.084706	2548.222611
839.400526	2548.630944
839.716303	2549.452652
840.032037	2546.380069
840.347727	2547.710934
840.663373	2549.881150
840.978977	2548.396531
841.294537	2548.666232
841.610054	2548.167158
841.925527	2549.873589
842.240957	2548.522559
842.556344	2547.042981
842.871687	2548.560368
843.186987	2550.171017
843.502244	2549.082128
843.817458	2547.864689
844.132629	2548.477189
844.447756	2548.280584
844.762840	2544.018288
845.077881	2549.687066
845.392879	2546.317055
845.707833	2546.647250
846.022745	2543.176416
846.337613	2549.218239
846.652438	2548.714123
846.967221	2548.462066
847.281960	2547.544576
847.596656	2550.304607
847.911309	2548.948537
848.225919	2549.087169
848.540485	2547.078269
848.855009	2549.850903
849.169490	2551.209494
849.483928	2547.748742
849.798323	2548.361242
850.112675	2550.072714
850.426984	2546.985008
850.741251	2547.829401
851.055474	2547.269833
851.369654	2547.471479
851.683792	2547.048022
851.997887	2551.121274
852.311938	2549.409802
852.625947	2546.974925
852.939914	2549.334185
853.253837	2548.381407
853.567718	2546.251520
853.881555	2548.754452
854.195350	2547.037940
854.509103	2548.295708
854.822812	2546.319575
855.136479	2550.047508
855.450103	2547.068187
855.763685	2547.441232
856.077224	2551.282591
856.390720	2546.276725
856.704173	2547.811757
857.017584	2548.290666
857.330953	2550.292004
857.644278	2548.683876
857.957561	2549.613969
858.270802	2550.513815
858.584000	2549.150183
858.897155	2549.830739
859.210268	2547.751263
859.523339	2551.138918
859.836367	2549.228321
860.149352	2550.193702
860.462295	2547.942827
860.775195	2546.750594
861.088054	2546.501057
861.400869	2544.822353
861.713642	2546.105326
862.026373	2546.206149
862.339062	2546.405275
862.651708	2549.334185
862.964312	2546.790923
863.276873	2548.923331
863.589392	2546.309493
863.901869	2548.376366
864.214303	2548.230172
864.526696	2549.956768
864.839045	2547.857127
865.151353	2550.012220
865.463619	2548.320913
865.775842	2548.575492
866.088023	2547.274874
866.400162	2549.929041
866.712258	2549.641696
867.024313	2549.314021
867.336325	2546.301931
867.648296	2549.833259
867.960224	2548.557848
868.272110	2548.454504
868.583954	2546.160779
868.895755	2547.605069
869.207515	2547.350491
869.519233	2549.505584
869.830909	2547.738660
870.142542	2549.737477
870.454134	2549.306459
870.765684	2549.833259
871.077191	2547.821839
871.388657	2549.692107
871.700081	2547.829401
872.011463	2549.752601
872.322803	2546.420398
872.634101	2549.883671
872.945357	2544.315717
873.256571	2549.039278
873.567744	2547.952909
873.878874	2546.032229
874.189963	2546.490974
874.501010	2549.437529
874.812015	2551.756460
875.122979	2547.748742
875.433900	2546.037271
875.744780	2548.116747
876.055618	2548.136911
876.366415	2549.137580
876.677169	2547.998279
876.987882	2550.755791
877.298554	2544.872764
877.609183	2542.931920
877.919771	2543.851930
878.230317	2545.165151
878.540822	2547.448794
878.851285	2548.671273
879.161707	2548.172199
879.472087	2548.729247
879.782425	2545.467620
880.092722	2547.952909
880.402977	2549.961809
880.713191	2549.177909
881.023363	2546.864020
881.333494	2548.764535
881.643583	2548.814946
881.953631	2547.146324
882.263637	2550.075235
882.573602	2548.242775
882.883526	2547.214380
883.193408	2548.857796
883.503248	2548.184802
883.813048	2548.956099
884.122806	2547.123639
884.432522	2547.209339
884.742197	2545.412168
885.051831	2549.014072
885.361424	2548.540203
885.670975	2544.905532
885.980485	2547.836963
886.289954	2549.583722
886.599382	2546.400234
886.908768	2548.794782
887.218113	2546.551468
887.527417	2546.130532
887.836680	2546.191026
888.145901	2549.999617
888.455082	2545.374359
888.764221	2548.948537
889.073319	2548.883002
889.382376	2547.610111
889.691392	2549.903836
890.000366	2547.272353
890.309300	2545.593649
890.618193	2547.151366
890.927044	2546.604400
891.235855	2548.855276
891.544625	2546.291849
891.853353	2547.400903
892.162041	2550.304607
892.470687	2549.712272
892.779293	2547.453835
893.087858	2545.772610
893.396381	2542.029553
893.704864	2542.465613
894.013306	2541.989224
894.321707	2548.310831
894.630068	2545.482744
894.938387	2546.700182
895.246665	2546.488454
895.554903	2548.182282
895.863100	2549.036757
896.171256	2545.593649
896.479371	2548.018444
896.787446	2549.258568
897.095480	2550.415513
897.403473	2548.278063
897.711425	2548.416695
898.019336	2548.081458
898.327207	2548.588094
898.635038	2551.287632
898.942827	2546.833773
899.250576	2546.682538
899.558284	2545.754966
899.865952	2548.056253
900.173579	2546.523742
900.481165	2549.626572
900.788711	2549.450132
901.096216	2548.106664
901.403681	2546.032229
901.711105	2548.845193
902.018489	2544.469472
902.325832	2548.658671
902.633135	2547.257230
902.940397	2547.584905
903.247619	2547.257230
903.554800	2546.811088
903.861941	2545.961653
904.169041	2548.240255
904.476101	2548.358722
904.783121	2550.062632
905.090100	2547.403423
905.397039	2547.332847
905.703938	2546.541386
906.010796	2549.931562
906.317614	2546.566592
906.624391	2547.715975
906.931129	2547.685728
907.237826	2548.363763
907.544483	2544.706406
907.851099	2545.712116
908.157675	2546.624565
908.464211	2547.385779
908.770707	2544.217414
909.077163	2545.691952
909.383578	2545.515511
909.689954	2544.799667
909.996289	2541.669111
910.302584	2544.832435
910.608839	2547.542055
910.915054	2547.380738
911.221229	2546.140614
911.527363	2545.543238
911.833458	2547.789072
912.139513	2547.151366
912.445527	2547.428629
912.751502	2546.717826
913.057436	2547.209339
913.363331	2547.824360
913.669186	2546.400234
913.975000	2546.576674
914.280775	2548.595656
914.586510	2547.373176
914.892205	2547.547096
915.197859	2545.432332
915.503475	2545.598690
915.809050	2543.347815
916.114585	2544.068700
916.420081	2546.949719
916.725536	2546.705223
917.030952	2545.054246
917.336328	2547.078269
917.641665	2546.987528
917.946961	2547.947868
918.252218	2546.223793
918.557435	2547.849565
918.862612	2546.722867
919.167750	2548.736808
919.472848	2546.591798
919.777906	2548.431819
920.082925	2546.803526
920.387904	2545.979297
920.692843	2544.247661
920.997743	2547.093392
921.302603	2546.594318
921.607423	2544.348484
921.912204	2547.000131
922.216946	2542.813453
922.521647	2546.402754
922.826310	2545.840666
923.130932	2547.627755
923.435516	2545.278577
923.740059	2547.811757
924.044564	2545.820501
924.349028	2546.029709
924.653454	2541.860675
924.957840	2542.947043
925.262186	2542.551313
925.566493	2546.266643
925.870761	2539.831610
926.174989	2545.633978
926.479178	2544.431663
926.783328	2545.497867
927.087438	2546.470810
927.391509	2547.350491
927.695541	2546.450645
927.999533	2546.261602
928.303486	2544.910573
928.607400	2548.320913
928.911275	2544.295552
929.215110	2546.647250
929.518906	2547.279915
929.822663	2548.953578
930.126381	2547.491643
930.430060	2549.397200
930.733699	2545.094575
931.037299	2547.037940
931.340861	2545.709596
931.644383	2547.325285
931.947866	2547.436191
932.251309	2547.436191
932.554714	2549.649257
932.858080	2546.425439
933.161407	2544.976108
933.464694	2546.301931
933.767943	2545.722198
934.071153	2546.851417
934.374323	2545.490305
934.677455	2548.749411
934.980548	2546.029709
935.283602	2545.913762
935.586617	2547.748742
935.889593	2545.996941
936.192530	2546.531304
936.495428	2545.414688
936.798287	2545.008875
937.101108	2548.610780
937.403890	2544.197249
937.706632	2547.098433
938.009336	2546.627086
938.312002	2547.650440
938.614628	2545.051725
938.917216	2545.351674
939.219765	2545.404606
939.522275	2546.339740
939.824747	2547.526932
940.127179	2544.361087
940.429573	2542.447969
940.731929	2542.899152
941.034246	2542.420243
941.336524	2546.208670
941.638763	2544.890408
941.940964	2546.397713
942.243126	2544.913093
942.545250	2544.998793
942.847335	2544.434184
943.149381	2545.434853
943.451389	2544.426622
943.753359	2545.734801
944.055290	2545.644061
944.357182	2545.785213
944.659036	2544.010727
944.960851	2547.375697
945.262628	2546.019627
945.564367	2546.967363
945.866067	2547.383259
946.167729	2548.189843
946.469352	2543.829245
946.770937	2545.596170
947.072484	2544.865202
947.373992	2547.910059
947.675462	2544.668597
947.976893	2545.974256
948.278286	2545.460058
948.579641	2547.486602
948.880958	2544.653474
949.182236	2545.991900
949.483476	2546.425439
949.784678	2546.793444
950.085841	2546.606921
950.386967	2546.291849
950.688054	2544.540048
950.989103	2542.074924
951.290114	2544.270346
951.591087	2548.164638
951.892021	2545.003834
952.192917	2546.496016
952.493776	2544.051056
952.794596	2544.101467
953.095378	2545.286139
953.396122	2544.862682
953.696828	2548.774617
953.997496	2547.095913
954.298126	2545.591128
954.598718	2546.427960
954.899272	2546.594318
955.199788	2546.296890
955.500266	2546.533824
955.800706	2544.928217
956.101108	2538.278935
956.401472	2543.128525
956.701798	2542.057280
957.002087	2543.849410
957.302337	2545.949050
957.602550	2545.026519
957.902724	2546.014585
958.202861	2546.725388
958.502960	2545.540717
958.803022	2544.913093
959.103045	2546.901828
959.403031	2547.521890
959.702979	2544.819832
960.002889	2546.896787
960.302762	2544.502239
960.602596	2546.211190
960.902393	2545.346632
961.202153	2547.141283
961.501875	2544.509801
961.801559	2544.719009
962.101205	2544.391334
962.400814	2544.146838
962.700385	2549.495502
962.999918	2546.596839
963.299414	2544.267826
963.598873	2547.713454
963.898293	2544.192208
964.197677	2545.218083
964.497022	2545.155069
964.796331	2545.596170
965.095601	2544.003165
965.394835	2545.664225
965.694030	2544.734132
965.993189	2545.071890
966.292309	2543.436035
966.591393	2546.191026
966.890439	2545.122301
967.189447	2546.286808
967.488419	2545.361756
967.787353	2546.798485
968.086249	2545.926365
968.385108	2543.098278
968.683930	2543.793957
968.982714	2546.559030
969.281462	2547.373176
969.580172	2544.615665
969.878844	2543.463762
970.177480	2546.652291
970.476078	2547.446273
970.774639	2547.221942
971.073162	2545.059287
971.371649	2543.254554
971.670098	2540.212217
971.968510	2543.307486
972.266885	2539.632485
972.565223	2545.888557
972.863524	2544.996272
973.161788	2544.351005
973.460014	2542.016950
973.758204	2547.166489
974.056356	2544.464431
974.354471	2542.150541
974.652550	2542.095088
974.950591	2545.732281
975.248595	2543.640202
975.546563	2544.696324
975.844493	2544.129194
976.142386	2543.579708
976.440243	2543.720860
976.738062	2545.767569
977.035845	2544.469472
977.333590	2541.878319
977.631299	2544.275387
977.928971	2547.045501
978.226606	2546.082641
978.524204	2545.165151
978.821765	2546.243958
979.119290	2546.942158
979.416777	2542.536189
979.714228	2543.811601
980.011642	2548.565409
980.309020	2546.617003
980.606360	2543.017619
980.903664	2544.141797
981.200931	2543.579708
981.498162	2543.970397
981.795356	2544.403937
982.092513	2546.685059
982.389633	2543.499050
982.686717	2545.439894
982.983764	2544.625747
983.280775	2544.184647
983.577749	2546.274205
983.874686	2544.746735
984.171587	2548.262940
984.468451	2545.505429
984.765279	2544.376210
985.062070	2542.906714
985.358824	2544.976108
985.655543	2547.912580
985.952224	2543.899821
986.248869	2546.516180
986.545478	2542.838658
986.842050	2538.772968
987.138586	2539.776157
987.435086	2541.535520
987.731549	2538.415046
988.027975	2546.806047
988.324366	2544.038453
988.620719	2543.246992
988.917037	2542.689944
989.213318	2546.359904
989.509563	2545.094575
989.805772	2546.251520
990.101944	2545.281097
990.398080	2542.062321
990.694180	2544.320758
990.990244	2544.540048
991.286271	2546.440563
991.582262	2546.768238
991.878217	2546.241437
992.174136	2544.736653
992.470019	2544.729091
992.765865	2544.192208
993.061676	2543.804039
993.357450	2543.569626
993.653188	2542.828576
993.948890	2544.232537
994.244556	2544.966025
994.540186	2545.437373
994.835780	2545.139945
995.131337	2543.592311
995.426859	2544.993752
995.722345	2543.859492
996.017795	2546.339740
996.313208	2545.628937
996.608586	2544.008206
996.903928	2545.084493
997.199234	2542.737835
997.494504	2544.577857
997.789738	2546.591798
998.084936	2545.457538
998.380099	2545.548279
998.675225	2546.246478
998.970316	2543.763710
999.265371	2544.121632
999.560390	2544.577857
999.855373	2542.576518
1000.150320	2543.017619
1000.445232	2545.253371
1000.740108	2544.179605
1001.034948	2546.617003
1001.329752	2545.757487
1001.624521	2543.622558
1001.919254	2537.404295
1002.213951	2542.662218
1002.508613	2540.015612
1002.803239	2543.161292
1003.097829	2541.197763
1003.392384	2543.609955
1003.686903	2541.989224
1003.981386	2543.468803
1004.275834	2543.907383
1004.570246	2542.957126
1004.864623	2546.480892
1005.158964	2544.459389
1005.453270	2542.435366
1005.747540	2545.485264
1006.041775	2545.520552
1006.335974	2543.814122
1006.630138	2543.463762
1006.924266	2545.455017
1007.218359	2545.076931
1007.512416	2544.850079
1007.806438	2541.956457
1008.100425	2544.151879
1008.394376	2544.731612
1008.688292	2544.330840
1008.982172	2542.090047
1009.276017	2545.848227
1009.569827	2546.647250
1009.863602	2547.310162
1010.157341	2542.992414
1010.451045	2541.999306
1010.744714	2545.087013
1011.038347	2542.455531
1011.331945	2542.760521
1011.625508	2545.286139
1011.919036	2543.683052
1012.212528	2544.106509
1012.505986	2541.177598
1012.799408	2546.238917
1013.092795	2543.519214
1013.386147	2544.749256
1013.679464	2543.002496
1013.972745	2542.823535
1014.265992	2545.117260
1014.559204	2544.368649
1014.852380	2542.538710
1015.145521	2543.373021
1015.438628	2546.916952
1015.731699	2544.827394
1016.024736	2543.027702
1016.317737	2546.369987
1016.610703	2544.666077
1016.903635	2542.742877
1017.196531	2541.341436
1017.489393	2541.898483
1017.782219	2539.768596
1018.075011	2543.461241
1018.367768	2545.255892
1018.660490	2544.305634
1018.953177	2544.305634
1019.245829	2544.305634
