Dividing Wavelength (nm)	Counts (n)	Blue Motor Position (mm): 38.900000	Red Motor Position (mm): 0.000000	
326.493990	2128.332304
326.888308	2128.332304
327.282561	2128.332304
327.676750	2094.642273
328.070874	2094.037334
328.464933	2100.285845
328.858929	2106.947729
329.252859	2118.164297
329.646726	2127.152674
330.040528	2140.809160
330.434265	2156.192241
330.827938	2175.376352
331.221547	2194.227747
331.615091	2210.404809
332.008571	2231.378530
332.401986	2252.148084
332.795338	2269.464447
333.188625	2287.458846
333.581847	2305.727987
333.975006	2323.772798
334.368100	2340.302741
334.761129	2361.072295
335.154095	2378.184492
335.546996	2401.086453
335.939833	2424.328693
336.332606	2440.130190
336.725315	2451.520677
337.117960	2459.730196
337.510540	2471.047587
337.903056	2481.911273
338.295508	2489.253714
338.687896	2498.365599
339.080220	2504.654439
339.472480	2512.143073
339.864676	2517.464011
340.256807	2522.245545
340.648875	2520.970133
341.040879	2527.158149
341.432818	2529.567821
341.824694	2528.483973
342.216506	2529.966072
342.608253	2532.821886
342.999937	2530.631504
343.391557	2527.637059
343.783113	2528.070598
344.174605	2524.052799
344.566033	2525.199661
344.957397	2523.021883
345.348697	2524.027593
345.739934	2519.636748
346.131106	2522.598426
346.522215	2519.732530
346.913260	2516.677591
347.304241	2515.152642
347.695159	2509.781292
348.086012	2511.288597
348.476802	2508.077382
348.867528	2506.449089
349.258191	2506.134017
349.648789	2503.431959
350.039324	2502.703512
350.429796	2500.394664
350.820203	2502.932885
351.210548	2500.636639
351.600828	2497.730414
351.991045	2495.083808
352.381198	2495.529950
352.771288	2496.606237
353.161314	2496.734786
353.551276	2495.847543
353.941175	2496.727224
354.331010	2498.998264
354.720782	2493.440392
355.110490	2497.906854
355.500135	2496.828047
355.889717	2496.263438
356.279235	2495.744199
356.668689	2498.063130
357.058080	2498.922647
357.447408	2496.586072
357.836672	2493.301760
358.225873	2496.654128
358.615010	2495.169508
359.004084	2499.940960
359.393095	2501.899448
359.782043	2500.235867
360.170927	2498.579848
360.559748	2501.682678
360.948505	2503.220230
361.337199	2502.706033
361.725830	2502.461537
362.114398	2506.128976
362.502903	2504.238543
362.891344	2506.219717
363.279722	2506.040756
363.668037	2504.057062
364.056289	2507.180057
364.444478	2509.022598
364.832603	2509.355315
365.220665	2510.252640
365.608665	2507.956394
365.996601	2509.128463
366.384474	2509.559481
366.772284	2509.980418
367.160031	2507.429594
367.547715	2508.044615
367.935336	2507.784995
368.322893	2510.494615
368.710388	2510.928155
369.097820	2512.369925
369.485189	2513.685666
369.872495	2512.075017
370.259738	2512.790861
370.646918	2512.480830
371.034035	2514.598115
371.421090	2514.489730
371.808081	2511.883453
372.195010	2513.761283
372.581875	2515.689524
372.968678	2514.671211
373.355418	2516.443177
373.742096	2517.252282
374.128710	2515.795389
374.515262	2519.956861
374.901751	2515.150121
375.288177	2516.254134
375.674540	2518.263033
376.060841	2517.756398
376.447079	2518.406706
376.833254	2519.266223
377.219367	2515.747498
377.605417	2515.699607
377.991404	2515.903773
378.377329	2516.470903
378.763191	2514.635923
379.148991	2519.598939
379.534727	2520.448374
379.920402	2522.795031
380.306013	2521.602798
380.691563	2525.451719
381.077049	2522.164887
381.462474	2524.766122
381.847835	2522.462315
382.233134	2521.670853
382.618371	2523.808303
383.003545	2524.645134
383.388657	2527.493386
383.773706	2526.454908
384.158693	2527.634538
384.543618	2527.150588
384.928480	2527.200999
385.313280	2524.806451
385.698017	2525.479445
386.082692	2529.817358
386.467305	2528.627646
386.851856	2529.507327
387.236344	2528.884745
387.620770	2530.049251
388.005133	2531.410363
388.389435	2530.641587
388.773674	2532.647966
389.157851	2529.971113
389.541965	2533.260466
389.926018	2535.415559
390.310008	2537.731970
390.693936	2540.423946
391.077802	2542.858823
391.461606	2545.046684
391.845348	2552.079093
392.229027	2556.036399
392.612645	2564.661813
392.996200	2572.561302
393.379694	2580.788465
393.763125	2594.656679
394.146494	2606.546240
394.529801	2619.620473
394.913047	2638.529841
395.296230	2651.863693
395.679351	2672.971004
396.062410	2693.785928
396.445408	2707.424770
396.828343	2730.941752
397.211217	2751.055956
397.594028	2765.317381
397.976778	2795.166052
398.359466	2823.111689
398.742092	2854.565968
399.124656	2868.945860
399.507158	2913.199629
399.889598	2944.396809
400.271977	2992.166783
400.654294	3015.643437
401.036549	3050.281205
401.418742	3072.946232
401.800874	3142.423415
402.182944	3183.715506
402.564952	3241.414032
402.946898	3271.557612
403.328783	3313.570588
403.710606	3312.121256
404.092367	3434.906120
404.474067	3457.576188
404.855705	3499.213599
405.237282	3501.905575
405.618797	3594.632559
406.000250	3653.540962
406.381642	3737.198910
406.762972	3758.258330
407.144240	3802.204589
407.525447	3842.985003
407.906593	3916.137186
408.287677	3987.046056
408.668700	3974.778408
409.049661	4045.478071
409.430560	4111.630612
409.811399	4095.261985
410.192176	4246.204214
410.572891	4230.037233
410.953545	4349.948639
411.334138	4285.923465
411.714669	4369.253738
412.095139	4313.659893
412.475547	4461.194302
412.855894	4474.407166
413.236180	4506.786497
413.616405	4494.004652
413.996568	4592.821349
414.376670	4565.195826
414.756711	4539.480901
415.136691	4589.663067
415.516609	4677.253115
415.896466	4729.754211
416.276262	4777.032673
416.655997	4773.697949
417.035670	4959.782061
417.415283	5059.760745
417.794834	5019.912944
418.174324	4987.626875
418.553753	4906.189555
418.933121	5096.172999
419.312428	5171.928939
419.691674	5119.306854
420.070859	5250.412142
420.449983	5167.351571
420.829045	5293.146003
421.208047	5211.696081
421.586988	5285.196104
421.965867	5301.239576
422.344686	5429.184061
422.723444	5294.670953
423.102141	5114.845433
423.480777	5411.287964
423.859352	5186.180281
424.237866	5444.516730
424.616319	5438.270740
424.994712	5548.437596
425.373044	5427.956540
425.751314	5568.272016
426.129524	5377.691195
426.507673	5570.129681
426.885762	5656.141848
427.263789	5585.782464
427.641756	5469.316686
428.019662	5594.186067
428.397508	5599.980873
428.775292	5547.018511
429.153016	5645.416793
429.530679	5569.764197
429.908282	5651.992978
430.285824	5525.843144
430.663305	5803.525022
431.040726	5536.666502
431.418086	5537.936872
431.795385	5646.263707
432.172624	5659.965563
432.549802	5647.655065
432.926920	5664.066542
433.303977	5674.065670
433.680974	5712.171752
434.057910	5728.822683
434.434786	5732.112036
434.811601	5701.103899
435.188355	5939.943686
435.565050	5810.643131
435.941683	5795.113857
436.318257	6006.776783
436.694770	5990.022508
437.071222	6027.846286
437.447614	5957.587724
437.823946	5871.860383
438.200218	6028.189084
438.576429	5889.864864
438.952580	5986.987734
439.328670	6035.833994
439.704700	5943.701866
440.080670	5929.442963
440.456580	6195.036153
440.832429	6084.836530
441.208218	5925.455410
441.583947	6081.058185
441.959616	6089.431542
442.335224	6014.346076
442.710773	6147.760212
443.086261	6176.308266
443.461689	5973.023738
443.837057	6115.837105
444.212365	6273.955416
444.587612	6169.084293
444.962800	6321.455688
445.337927	6304.676208
445.712995	5914.238843
446.088002	6489.888200
446.462949	6319.928219
446.837837	6253.798363
447.212664	6424.060813
447.587431	6564.431742
447.962139	7111.094465
448.336786	8032.196452
448.711374	7773.996114
449.085901	6849.907243
449.460369	6768.091837
449.834776	6704.858124
450.209124	7095.718946
450.583412	7249.995898
450.957640	7393.257928
451.331808	7155.401166
451.705917	6710.415996
452.079965	6630.980014
452.453954	6844.480441
452.827883	6724.969807
453.201752	6810.674463
453.575562	6612.960410
453.949311	6818.815927
454.323001	6706.783844
454.696632	6780.999711
455.070202	6920.891731
455.443713	7074.881337
455.817164	7170.625451
456.190556	7258.613750
456.563888	7332.169226
456.937160	7375.480299
457.310373	7034.496653
457.683526	7052.347379
458.056619	6944.930473
458.429653	6930.613596
458.802628	6868.148658
459.175542	6980.581513
459.548398	7334.399937
459.921194	7490.761405
460.293930	7499.109556
460.666607	8030.842902
461.039224	8332.099735
461.411782	8453.377294
461.784280	8470.731466
462.156719	8366.515693
462.529099	8245.036488
462.901419	7825.718352
463.273680	7731.998261
463.645882	7742.020075
464.018024	7609.152903
464.390106	7774.280939
464.762130	8161.232346
465.134094	8628.133933
465.505999	9649.335591
465.877845	10873.821778
466.249631	11516.652073
466.621358	11134.003290
466.993026	10499.488379
467.364634	10245.237785
467.736184	9888.359380
468.107674	9556.031395
468.479105	9586.137166
468.850477	9352.739305
469.221790	9127.780335
469.593043	8795.596023
469.964238	8650.264599
470.335373	8670.119183
470.706449	8724.845949
471.077467	8708.096716
471.448425	10018.630357
471.819324	11081.701319
472.190164	11101.606315
472.560945	9863.529177
472.931667	9074.076923
473.302330	8940.014998
473.672934	8593.486083
474.043479	8943.173281
474.413965	8886.261175
474.784393	8769.573587
475.154761	8930.194831
475.525070	9011.662397
475.895321	8839.048248
476.265513	9015.428139
476.635645	9190.855252
477.005719	9185.131022
477.375734	9300.233167
477.745691	9539.539261
478.115588	9669.447275
478.485427	9915.122866
478.855207	10449.643970
479.224928	11263.611355
479.594591	11883.569935
479.964194	11697.962212
480.333739	11637.155814
480.703226	11556.880480
481.072653	11641.869293
481.442022	11886.032538
481.811333	12073.412227
482.180584	11873.313707
482.549777	11582.998698
482.918912	11421.535582
483.287988	11440.623911
483.657005	11446.002822
484.025964	11131.641509
484.394864	11256.747824
484.763706	11229.376880
485.132489	10984.681793
485.501213	10960.486775
485.869879	11030.773062
486.238487	10869.995543
486.607036	10974.884310
486.975527	10764.728688
487.343959	10953.474530
487.712333	10998.923052
488.080648	10932.979719
488.448905	10975.020421
488.817104	10914.277038
489.185244	11182.700836
489.553326	11334.631131
489.921350	11872.577699
490.289315	12935.958691
490.657222	13270.096450
491.025070	13183.963296
491.392861	13052.840364
491.760593	12676.629134
492.128267	12326.510918
492.495883	11996.302738
492.863440	11654.303299
493.230939	11325.078144
493.598380	11260.800912
493.965763	11128.803340
494.333088	11030.836077
494.700354	10951.014447
495.067563	11012.055258
495.434713	10839.209216
495.801805	10965.858124
496.168839	10899.289688
496.535815	10827.233955
496.902733	10824.305045
497.269593	10761.545200
497.636395	10860.913904
498.003139	10851.368479
498.369825	10712.214989
498.736453	10878.245391
499.103023	10799.794955
499.469535	10829.696559
499.835989	10817.386061
500.202385	10783.489343
500.568723	10629.809768
500.935003	10853.634478
501.301226	10661.558954
501.667390	10915.582697
502.033497	11016.917451
502.399546	10875.744978
502.765537	10779.209403
503.131470	10853.916782
503.497345	11035.582323
503.863163	10645.649073
504.228923	10956.776485
504.594625	11016.788901
504.960269	10761.565364
505.325856	10982.955197
505.691385	10783.824579
506.056856	10935.071797
506.422270	10960.186826
506.787625	10841.313898
507.152924	10953.517379
507.518164	10946.963879
507.883347	10865.478669
508.248472	10783.207038
508.613540	11018.384427
508.978550	10897.782383
509.343503	10878.381502
509.708398	10998.507157
510.073236	11108.036307
510.438016	11114.783891
510.802738	11062.741539
511.167403	11112.785073
511.532010	11010.754640
511.896561	11244.701987
512.261053	11318.539768
512.625488	11185.140755
512.989866	11171.136429
513.354186	11157.046404
513.718449	11056.160313
514.082655	11247.494787
514.446803	11149.729169
514.810894	11264.024730
515.174927	11132.400203
515.538904	11158.271405
515.902822	11301.215842
516.266684	11195.454955
516.630488	11135.644186
516.994235	11190.181908
517.357925	11258.255129
517.721558	11347.107987
518.085133	11354.853719
518.448651	11376.727286
518.812112	11256.105077
519.175516	11263.651685
519.538863	11388.667259
519.902152	11302.992849
520.265385	11467.319341
520.628560	11369.785617
520.991678	11361.571057
521.354739	11416.005436
521.717743	11348.169149
522.080690	11337.287819
522.443580	11471.727830
522.806413	11423.247054
523.169189	11455.618823
523.531908	11505.039775
523.894569	11331.291366
524.257174	11336.037613
524.619722	11451.260746
524.982213	11389.486446
525.344647	11453.120931
525.707025	11406.258365
526.069345	11497.135246
526.431608	11413.389077
526.793815	11523.286231
527.155964	11312.336628
527.518057	11358.044770
527.880093	11310.015177
528.242072	11381.559232
528.603995	11287.801332
528.965860	11205.209588
529.327669	11260.616910
529.689421	11204.700432
530.051117	11186.481702
530.412755	11278.394539
530.774337	11171.388487
531.135862	11161.734677
531.497331	11177.377378
531.858743	11033.321365
532.220098	11201.912673
532.581396	11072.319732
532.942638	11052.029087
533.303824	11007.729948
533.664953	11025.643688
534.026025	10934.292939
534.387040	11042.140864
534.747999	11051.310723
535.108902	11103.227046
535.469748	10858.078255
535.830537	10964.620521
536.191270	10942.507499
536.551947	10965.835439
536.912567	10956.791609
537.273131	10884.309899
537.633638	10869.083094
537.994089	10854.360404
538.354483	10803.941304
538.714821	10954.497884
539.075103	10962.548607
539.435328	10928.200705
539.795497	10748.168498
540.155609	10907.156408
540.515665	10993.148410
540.875665	10733.614687
541.235609	10798.048195
541.595496	10796.891250
541.955328	10957.522576
542.315102	10832.113792
542.674821	10784.361462
543.034483	10786.950095
543.394090	10788.412029
543.753640	10715.302696
544.113134	10931.921076
544.472571	10787.421443
544.831953	10931.858062
545.191278	10742.968548
545.550548	10774.758064
545.909761	10906.218753
546.268918	10881.217151
546.628019	10966.090017
546.987064	10828.141363
547.346053	10753.275187
547.704986	10855.489622
548.063863	10836.625625
548.422684	10826.752525
548.781449	10748.854095
549.140158	10854.655311
549.498811	10730.227032
549.857408	10581.376882
550.215949	10810.565380
550.574434	10659.653398
550.932864	10764.567372
551.291237	10826.583646
551.649555	10765.585685
552.007817	10778.685123
552.366022	10748.907027
552.724173	10737.922353
553.082267	10723.184540
553.440305	10863.474810
553.798288	10659.751701
554.156215	10816.652573
554.514086	10790.947730
554.871902	10633.230190
555.229661	10679.863384
555.587365	10654.556792
555.945014	10543.548063
556.302606	10675.432210
556.660143	10565.346013
557.017625	10718.166071
557.375050	10610.416449
557.732421	10755.679817
558.089735	10662.867134
558.446994	10663.998873
558.804197	10698.331651
559.161345	10704.368433
559.518437	10551.974352
559.875474	10635.899481
560.232455	10669.125726
560.589381	10614.409043
560.946251	10616.445669
561.303065	10723.061031
561.659825	10664.271095
562.016528	10589.573798
562.373177	10471.333535
562.729770	10586.831410
563.086307	10500.579789
563.442789	10594.037740
563.799216	10468.303801
564.155587	10517.717191
564.511904	10474.874945
564.868164	10461.435229
565.224370	10479.575821
565.580520	10404.714687
565.936615	10411.442106
566.292654	10285.304875
566.648638	10416.944526
567.004567	10364.811433
567.360441	10353.501605
567.716260	10259.668087
568.072023	10355.346667
568.427732	10307.884203
568.783385	10215.132014
569.138982	10287.543148
569.494525	10305.887907
569.850013	10177.850161
570.205445	10257.495350
570.560823	10156.687397
570.916145	10073.790663
571.271412	10144.230706
571.626625	10085.322302
571.981782	10061.197861
572.336884	10032.380105
572.691931	10038.563080
573.046923	9988.239762
573.401860	9947.086302
573.756743	9880.752279
574.111570	9922.195605
574.466342	9907.324201
574.821059	9940.116907
575.175722	9832.120268
575.530330	9832.400052
575.884882	9829.214043
576.239380	9753.705120
576.593823	9738.443027
576.948211	9751.663453
577.302544	9639.144899
577.656823	9644.349890
578.011047	9645.963059
578.365216	9619.073545
578.719330	9547.239623
579.073389	9561.359895
579.427394	9505.844188
579.781344	9482.380138
580.135239	9429.516078
580.489080	9445.007544
580.842866	9342.399898
581.196597	9352.567906
581.550273	9392.468638
581.903895	9354.314665
582.257463	9423.950644
582.610975	9297.319380
582.964434	9329.618053
583.317837	9249.365404
583.671186	9232.633814
584.024481	9221.535714
584.377721	9143.483529
584.730906	9122.686249
585.084037	9149.658943
585.437113	9091.811702
585.790135	9108.656718
586.143103	9008.126028
586.496016	8978.146286
586.848874	9038.156181
587.201679	9025.611270
587.554428	8914.095906
587.907124	8956.343296
588.259765	8931.281199
588.612352	8928.153163
588.964884	8807.722518
589.317362	8824.454108
589.669786	8823.085435
590.022155	8869.723670
590.374470	8884.884940
590.726731	8827.937545
591.078937	8681.305503
591.431090	8786.310217
591.783188	8658.993357
592.135232	8660.992174
592.487222	8654.652923
592.839157	8707.564874
593.191038	8645.604052
593.542866	8586.259589
593.894639	8487.384918
594.246358	8532.568780
594.598022	8550.033857
594.949633	8450.614742
595.301190	8433.520189
595.652692	8455.270247
596.004141	8567.572032
596.355535	8343.964091
596.706876	8326.042789
597.058162	8256.179958
597.409395	8337.594593
597.760573	8396.439982
598.111698	8307.682907
598.462768	8294.142367
598.813785	8256.860514
599.164748	8230.056699
599.515657	8215.104637
599.866511	8124.961244
600.217312	8249.417251
600.568060	8108.837114
600.918753	8218.797282
601.269392	8181.384359
601.619978	8096.725742
601.970510	8159.120103
602.320988	8156.788569
602.671412	8215.084472
603.021783	8147.396900
603.372100	8118.420347
603.722363	8122.934701
604.072572	8101.774457
604.422728	8111.561857
604.772830	8039.732977
605.122878	8042.245992
605.472872	8042.558544
605.822813	8073.344870
606.172701	8015.820264
606.522534	8088.188548
606.872314	8093.403621
607.222041	8060.636121
607.571714	8115.635110
607.921333	8069.548881
608.270899	8083.359122
608.620411	8168.126124
608.969870	8073.501146
609.319276	8068.006288
609.668627	8081.962723
610.017926	8119.020245
610.367171	8164.751072
610.716362	8145.080489
611.065500	8135.565312
611.414585	8159.311667
611.763616	8143.681569
612.112594	8125.183055
612.461518	8144.591497
612.810389	8209.884522
613.159207	8146.308010
613.507971	8095.404959
613.856682	8214.474493
614.205340	8172.040580
614.553945	8249.636541
614.902496	8144.926734
615.250994	8196.752316
615.599439	8181.490223
615.947830	8193.682254
616.296169	8171.329777
616.644454	8178.556272
616.992686	8181.407044
617.340864	8237.189932
617.688990	8139.973801
618.037063	8234.568532
618.385082	8177.606014
618.733048	8266.206813
619.080961	8204.109880
619.428821	8228.052841
619.776628	8227.558808
620.124382	8175.949995
620.472083	8164.015063
620.819731	8190.546656
621.167326	8085.491530
621.514868	8092.208868
621.862357	7978.772824
622.209793	7993.866039
622.557176	7929.402284
622.904506	7898.011019
623.251783	7833.116245
623.599007	7786.790562
623.946179	7790.452960
624.293297	7750.602639
624.640363	7667.171543
624.987376	7648.299984
625.334336	7596.411387
625.681243	7540.227728
626.028097	7538.659929
626.374899	7508.160948
626.721647	7503.712130
627.068343	7442.305835
627.414987	7408.648571
627.761577	7364.440172
628.108115	7400.262612
628.454600	7292.795294
628.801032	7343.635330
629.147412	7308.932027
629.493739	7296.944163
629.840014	7229.259111
630.186236	7289.642052
630.532405	7170.454052
630.878521	7221.571352
631.224585	7179.452511
631.570597	7104.296469
631.916556	7138.495657
632.262462	7132.206817
632.608316	7087.663182
632.954117	7068.310192
633.299866	7059.553708
633.645562	7050.063736
633.991206	6967.761858
634.336797	6910.411172
634.682336	6871.412806
635.027823	6837.276632
635.373257	6830.360169
635.718639	6761.533296
636.063968	6773.266581
636.409245	6670.243041
636.754470	6665.514438
637.099642	6621.248067
637.444762	6570.370221
637.789829	6576.858186
638.134845	6518.123703
638.479808	6502.770869
638.824719	6506.148442
639.169577	6438.937258
639.514383	6458.960721
639.859137	6383.910543
640.203839	6396.344549
640.548489	6375.479214
640.893086	6360.570001
641.237632	6326.136400
641.582125	6348.680440
641.926566	6319.161963
642.270955	6330.093706
642.615292	6324.939126
642.959576	6344.012331
643.303809	6331.485064
643.647990	6334.081258
643.992118	6326.280073
644.336195	6275.455160
644.680219	6296.444004
645.024192	6292.673221
645.368112	6385.974896
645.711981	6409.335603
646.055797	6481.988712
646.399562	6444.497651
646.743274	6571.900212
647.086935	6622.767974
647.430544	6613.328414
647.774101	6640.974102
648.117606	6646.877293
648.461059	6639.905377
648.804460	6601.915242
649.147810	6505.956878
649.491108	6475.911601
649.834354	6451.240194
650.177548	6365.674169
650.520690	6284.128465
650.863781	6262.428818
651.206820	6281.718793
651.549807	6205.400765
651.892742	6145.829450
652.235626	6153.212220
652.578458	6141.277288
652.921238	6042.999994
653.263967	6084.597075
653.606644	6020.458475
653.949269	6027.107757
654.291843	5968.350588
654.634365	6015.205592
654.976836	5973.149766
655.319255	5970.525846
655.661622	5946.935766
656.003938	5941.418223
656.346203	5905.868007
656.688416	5939.492503
657.030577	5893.895266
657.372687	5859.544844
657.714746	5846.863821
658.056753	5892.571963
658.398708	5830.568292
658.740612	5824.634853
659.082465	5871.411720
659.424266	5861.951995
659.766016	5859.254978
660.107715	5834.646585
660.449362	5851.897413
660.790958	5844.688563
661.132503	5835.148180
661.473996	5873.143356
661.815438	5853.205593
662.156829	5851.937743
662.498168	5845.840467
662.839456	5822.262991
663.180693	5854.869174
663.521879	5860.454772
663.863013	5848.121589
664.204097	5862.148600
664.545129	5907.077883
664.886110	5904.713582
665.227040	5938.305311
665.567918	5899.231328
665.908746	5932.288694
666.249522	5933.743067
666.590248	5917.465181
666.930922	5949.647907
667.271545	5959.941943
667.612118	5963.190967
667.952639	5937.181134
668.293109	5960.496470
668.633528	5915.463843
668.973896	5920.358803
669.314213	5912.066105
669.654480	5890.202621
669.994695	5885.869749
670.334859	5878.257607
670.674973	5866.473910
671.015035	5874.587647
671.355047	5869.060022
671.695008	5861.168095
672.034918	5830.782541
672.374777	5843.897102
672.714585	5825.315409
673.054342	5833.504764
673.394049	5822.941026
673.733705	5853.964287
674.073310	5841.139591
674.412864	5801.816071
674.752368	5791.408608
675.091820	5795.706192
675.431223	5740.528243
675.770574	5734.650257
676.109875	5687.855747
676.449125	5696.927303
676.788324	5656.582949
677.127473	5600.051450
677.466571	5592.053659
677.805619	5583.801290
678.144616	5566.366460
678.483562	5548.626639
678.822458	5520.907855
679.161303	5514.792935
679.500098	5502.114433
679.838842	5483.194983
680.177535	5490.466847
680.516179	5507.551318
680.854771	5516.433831
681.193314	5596.865440
681.531805	5706.387028
681.870247	5858.226582
682.208638	5958.588393
682.546978	5971.481144
682.885268	5948.251508
683.223508	5860.800091
683.561697	5807.152132
683.899836	5781.099449
684.237925	5737.039764
684.575963	5702.903591
684.913951	5657.255943
685.251889	5715.133430
685.589776	5686.461868
685.927614	5662.382796
686.265401	5729.099947
686.603137	5717.059151
686.940824	5792.530265
687.278460	5816.639583
687.616046	5823.795501
687.953582	5894.306120
688.291068	5880.669799
688.628504	5941.473676
688.965889	5898.908694
689.303224	5846.279048
689.640510	5797.987314
689.977745	5721.860850
690.314930	5618.638184
690.652065	5566.583229
690.989150	5473.631914
691.326185	5396.073762
691.663170	5349.995095
692.000105	5267.529380
692.336990	5192.678328
692.673825	5165.067928
693.010610	5096.392289
693.347345	5031.036250
693.684030	5010.964896
694.020665	4970.534843
694.357251	4884.999065
694.693786	4891.008120
695.030272	4856.168706
695.366707	4824.732070
695.703093	4793.948264
696.039429	4814.193538
696.375716	4792.317451
696.711952	4766.874748
697.048139	4753.092233
697.384276	4734.744954
697.720363	4747.907406
698.056400	4758.082975
698.392388	4705.899471
698.728326	4685.966749
699.064214	4667.387577
699.400053	4659.397348
699.735842	4626.634889
700.071581	4604.431127
700.407270	4577.589503
700.742910	4555.249630
701.078501	4504.255838
701.414042	4501.125282
701.749533	4470.737206
702.084974	4407.599275
702.420366	4461.746308
702.755709	4406.654058
703.091002	4350.775389
703.426246	4399.891351
703.761440	4358.032130
704.096584	4317.251716
704.431679	4338.787525
704.766725	4325.741019
705.101721	4309.221158
705.436668	4335.054550
705.771565	4286.130152
706.106413	4312.056807
706.441212	4347.934698
706.775961	4356.371069
707.110661	4333.695959
707.445311	4361.860886
707.779913	4386.897777
708.114465	4399.674581
708.448967	4426.377573
708.783421	4483.713136
709.117825	4525.325341
709.452180	4529.423799
709.786485	4574.073298
710.120742	4662.613604
710.454949	4646.764216
710.789107	4712.117735
711.123216	4789.161689
711.457275	4775.953866
711.791286	4851.238457
712.125247	4865.865365
712.459159	4767.978760
712.793023	4844.858877
713.126837	4807.362775
713.460602	4800.043019
713.794318	4717.496646
714.127985	4727.712544
714.461602	4642.794307
714.795171	4613.016212
715.128691	4545.207651
715.462162	4490.175895
715.795584	4439.179583
716.128957	4422.992438
716.462281	4369.757853
716.795556	4342.913709
717.128782	4304.961383
717.461960	4236.810024
717.795088	4244.195314
718.128167	4207.349521
718.461198	4147.024553
718.794180	4142.981548
719.127113	4125.297180
719.459997	4101.097121
719.792833	4059.086665
720.125619	4048.623751
720.458357	4014.966487
720.791046	4017.217362
721.123686	3992.510667
721.456278	3951.054738
721.788821	3965.285916
722.121315	3942.492339
722.453761	3917.838576
722.786158	3926.350564
723.118506	3951.697486
723.450805	3902.299219
723.783056	3924.865944
724.115259	3939.354220
724.447412	3944.145837
724.779518	3936.458078
725.111574	3938.439251
725.443582	3969.661637
725.775542	3957.454483
726.107453	4010.119417
726.439315	4008.289479
726.771129	4026.735061
727.102895	4062.282757
727.434612	4106.627267
727.766281	4118.015233
728.097901	4120.334164
728.429473	4122.700986
728.760996	4126.567551
729.092471	4124.392293
729.423897	4110.360241
729.755276	4115.184625
730.086606	4120.989514
730.417887	4156.275070
730.749120	4219.034915
731.080305	4283.970018
731.411442	4310.894821
731.742530	4280.095891
732.073570	4286.102426
732.404562	4338.293492
732.735506	4332.274354
733.066401	4296.212460
733.397249	4229.326431
733.728048	4147.601765
734.058798	4070.741813
734.389501	3996.105010
734.720156	3933.461112
735.050762	3889.668608
735.381320	3881.393554
735.711831	3835.236749
736.042293	3802.287768
736.372707	3824.456242
736.703073	3800.223415
737.033391	3791.371149
737.363661	3807.381854
737.693883	3828.791634
738.024056	3840.736648
738.354182	3837.704394
738.684260	3897.772263
739.014290	3921.143052
739.344272	3915.438987
739.674207	3957.381387
740.004093	3962.137715
740.333931	3959.380204
740.663722	3957.252837
740.993464	3955.133032
741.323159	3932.180658
741.652806	3902.924322
741.982405	3874.920712
742.311956	3844.545240
742.641460	3835.067871
742.970915	3811.392092
743.300323	3767.584465
743.629683	3731.535174
743.958996	3725.657188
744.288260	3697.698949
744.617477	3666.552180
744.946647	3653.258657
745.275768	3627.712610
745.604842	3624.564410
745.933869	3576.615475
746.262847	3568.163980
746.591778	3601.828806
746.920662	3576.121442
747.249498	3546.784447
747.578286	3592.041406
747.907027	3609.065382
748.235720	3610.239971
748.564365	3630.192858
748.892963	3634.828199
749.221514	3613.390692
749.550017	3592.916046
749.878473	3586.637289
750.206881	3559.205850
750.535242	3553.305179
750.863555	3556.965057
751.191821	3554.784758
751.520039	3536.661810
751.848210	3510.934281
752.176334	3544.785629
752.504411	3553.554717
752.832440	3510.624250
753.160421	3494.177486
753.488356	3505.222654
753.816243	3516.441742
754.144082	3472.019094
754.471875	3459.189358
754.799620	3475.147130
755.127318	3469.453147
755.454969	3467.489618
755.782572	3472.548415
756.110129	3449.684262
756.437638	3443.148406
756.765100	3455.214408
757.092515	3462.589616
757.419882	3468.840647
757.747203	3444.496915
758.074477	3442.619085
758.401703	3464.235553
758.728882	3482.497133
759.056014	3489.527022
759.383099	3492.952486
759.710138	3488.337309
760.037129	3507.239116
760.364073	3536.530740
760.690970	3523.713606
761.017820	3498.424658
761.344623	3516.535003
761.671379	3566.674319
761.998088	3614.519911
762.324751	3742.204776
762.651366	3990.957992
762.977935	4467.921722
763.304456	4912.753137
763.630931	5005.419627
763.957359	4645.385461
764.283740	4303.602792
764.610074	4108.588276
764.936362	3908.724170
765.262602	3751.407402
765.588796	3638.646873
765.914943	3550.237637
766.241044	3460.338741
766.567097	3432.937549
766.893104	3384.935682
767.219064	3351.532997
767.544978	3325.571054
767.870845	3271.303033
768.196665	3254.026999
768.522438	3262.123092
768.848165	3255.113368
769.173846	3218.244889
769.499479	3202.672765
769.825066	3182.490505
770.150607	3169.126407
770.476101	3182.750125
770.801548	3178.336595
771.126949	3136.157260
771.452303	3119.503809
771.777611	3125.117133
772.102872	3129.117289
772.428087	3106.734566
772.753256	3093.670416
773.078378	3085.342430
773.403453	3051.891853
773.728482	3042.326264
774.053465	3061.671692
774.378401	3050.893705
774.703291	3018.128725
775.028135	3020.059487
775.352932	3014.993128
775.677683	3002.082733
776.002388	2998.475787
776.327046	2996.613081
776.651658	2988.033037
776.976224	2978.812767
777.300743	2975.694813
777.625216	2970.126858
777.949643	2960.684777
778.274024	2965.615026
778.598359	2956.329220
778.922647	2958.713686
779.246889	2959.215281
779.571086	2942.173660
779.895236	2938.206272
780.219339	2949.773200
780.543397	2964.233750
780.867409	2965.635190
781.191374	2955.565486
781.515294	2952.603808
781.839167	2955.068932
782.162995	2944.111984
782.486776	2955.792338
782.810511	2950.693210
783.134201	2938.440686
783.457844	2945.798250
783.781441	2937.147630
784.104993	2913.537386
784.428498	2918.281112
784.751958	2929.822833
785.075372	2924.010383
785.398739	2907.316602
785.722061	2925.210178
786.045337	2937.712239
786.368568	2922.908891
786.691752	2913.060997
787.014891	2962.015642
787.337983	2991.355157
787.661030	3020.961854
787.984031	3085.851586
788.306987	3134.286992
788.629897	3126.876496
788.952760	3110.966615
789.275579	3094.724017
789.598351	3034.872918
789.921078	2988.078407
790.243759	2982.029023
790.566395	2962.391208
790.888984	2939.355655
791.211529	2923.944848
791.534027	2912.287180
791.856480	2904.390212
792.178888	2887.640979
792.501249	2881.372304
792.823566	2875.872405
793.145836	2874.067672
793.468062	2869.626415
793.790241	2869.344111
794.112375	2876.346273
794.434464	2885.206101
794.756507	2890.779097
795.078505	2897.362844
795.400457	2909.385996
795.722364	2945.359670
796.044226	2973.499390
796.366042	2974.265646
796.687812	2962.461784
797.009538	2981.313179
797.331218	2967.812969
797.652852	2956.581278
797.974442	2937.097218
798.295986	2935.968000
798.617484	2929.837957
798.938938	2917.058632
799.260346	2898.998698
799.581709	2894.512071
799.903026	2888.409755
800.224299	2880.865668
800.545526	2871.980634
800.866708	2854.623942
801.187845	2846.149762
801.508936	2847.543641
801.829983	2853.197295
802.150984	2838.003257
802.471940	2829.355158
802.792851	2827.996567
803.113717	2827.744509
803.434538	2834.575273
803.755314	2825.362564
804.076045	2822.567244
804.396731	2820.954075
804.717372	2818.748570
805.037967	2814.587098
805.358518	2822.915084
805.679024	2832.563852
805.999485	2828.752740
806.319901	2831.729541
806.640272	2824.389621
806.960598	2829.594613
807.280879	2837.685665
807.601115	2848.461131
807.921306	2834.756754
808.241453	2831.638801
808.561554	2836.216168
808.881611	2839.273628
809.201623	2833.733400
809.521590	2831.943790
809.841513	2829.145950
810.161390	2831.742144
810.481223	2828.130157
810.801011	2814.629947
811.120755	2810.039977
811.440453	2816.583395
811.760107	2814.309834
812.079716	2812.984011
812.399281	2802.856333
812.718801	2795.292081
813.038276	2793.242852
813.357707	2799.350210
813.677093	2804.391364
813.996434	2797.069088
814.315731	2794.460291
814.634983	2790.697070
814.954191	2792.829478
815.273354	2806.286838
815.592473	2814.672797
815.911547	2814.556851
816.230577	2826.683346
816.549562	2834.512258
816.868502	2833.819100
817.187399	2842.212621
817.506250	2854.878520
817.825058	2852.519260
818.143821	2863.400590
818.462539	2880.306100
818.781213	2907.856006
819.099843	2945.914197
819.418429	3001.734893
819.736970	3066.395253
820.055466	3136.273207
820.373919	3246.520721
820.692327	3387.625138
821.010691	3557.012948
821.329011	4005.458871
821.647286	4906.698711
821.965517	6302.677390
822.283704	7054.031124
822.601847	7038.217025
822.919945	6398.746659
823.237999	5886.636005
823.556010	5298.416530
823.873976	4740.509513
824.191897	4330.504909
824.509775	4027.216491
824.827609	3753.267588
825.145398	3633.593116
825.463144	3619.871095
825.780845	3711.826783
826.098502	3813.905107
826.416116	4098.944548
826.733685	4420.451697
827.051210	4486.455524
827.368692	4374.312536
827.686129	4101.011421
828.003522	3773.540588
828.320872	3513.716998
828.638177	3315.423212
828.955439	3177.051100
829.272656	3093.383070
829.589830	3023.086700
829.906960	2974.139617
830.224046	2925.381577
830.541088	2893.539129
830.858086	2879.769217
831.175041	2861.789942
831.491952	2862.117617
831.808819	2873.540871
832.125642	2899.941394
832.442421	2944.769855
832.759157	3028.460570
833.075849	3207.933209
833.392497	3490.855366
833.709101	3698.865976
834.025662	3645.470075
834.342179	3485.312617
834.658653	3308.320226
834.975083	3153.579488
835.291469	3057.842935
835.607811	2975.924185
835.924110	2911.281470
836.240366	2860.655682
836.556578	2816.795123
836.872746	2795.551701
837.188871	2772.664862
837.504952	2757.032244
837.820990	2746.370204
838.136984	2733.910992
838.452935	2723.957234
838.768842	2725.018397
839.084706	2743.285018
839.400526	2822.191678
839.716303	2956.677060
840.032037	3037.282589
840.347727	3023.716844
840.663373	2961.685446
840.978977	2885.334651
841.294537	2812.421922
841.610054	2762.484252
841.925527	2741.117322
842.240957	2719.087479
842.556344	2695.336083
842.871687	2681.233455
843.186987	2669.737104
843.502244	2668.600323
843.817458	2661.845177
844.132629	2649.990904
844.447756	2641.655356
844.762840	2636.432721
845.077881	2636.888945
845.392879	2637.072947
845.707833	2631.812503
846.022745	2623.403859
846.337613	2627.920732
846.652438	2625.798407
846.967221	2624.034003
847.281960	2626.375619
847.596656	2621.059722
847.911309	2618.569392
848.225919	2617.886316
848.540485	2616.177365
848.855009	2619.035699
849.169490	2617.339351
849.483928	2616.958743
849.798323	2615.345574
850.112675	2613.296345
850.426984	2612.247785
850.741251	2612.532610
851.055474	2612.114195
851.369654	2616.197529
851.683792	2613.949175
851.997887	2612.577981
852.311938	2611.736108
852.625947	2616.255502
852.939914	2617.256172
853.253837	2617.087293
853.567718	2614.538990
853.881555	2611.534462
854.195350	2616.880606
854.509103	2614.962447
854.822812	2612.381376
855.136479	2613.379524
855.450103	2614.813732
855.763685	2616.245420
856.077224	2612.343567
856.390720	2609.780140
856.704173	2615.214504
857.017584	2619.423868
857.330953	2618.957561
857.644278	2619.736419
857.957561	2620.777417
858.270802	2616.749536
858.584000	2616.222735
858.897155	2619.156687
859.210268	2617.326748
859.523339	2616.875564
859.836367	2612.028495
860.149352	2610.508587
860.462295	2615.010338
860.775195	2609.215531
861.088054	2607.163782
861.400869	2608.051025
861.713642	2605.016250
862.026373	2607.544389
862.339062	2610.347270
862.651708	2618.962602
862.964312	2616.739453
863.276873	2613.951695
863.589392	2619.038219
863.901869	2622.854373
864.214303	2626.484004
864.526696	2631.356279
864.839045	2631.404170
865.151353	2634.713687
865.463619	2634.093625
865.775842	2634.121352
866.088023	2634.640591
866.400162	2634.474232
866.712258	2633.004736
867.024313	2632.442647
867.336325	2630.186731
867.648296	2632.530868
867.960224	2636.354583
868.272110	2632.578759
868.583954	2627.388891
868.895755	2629.750671
869.207515	2632.054479
869.519233	2642.015799
869.830909	2638.691158
870.142542	2633.342493
870.454134	2634.456588
870.765684	2640.546302
871.077191	2641.201652
871.388657	2642.832466
871.700081	2643.626447
872.011463	2643.018988
872.322803	2646.671304
872.634101	2648.864206
872.945357	2656.504075
873.256571	2662.245949
873.567744	2659.145639
873.878874	2655.765546
874.189963	2657.527429
874.501010	2662.525733
874.812015	2667.813903
875.122979	2668.053358
875.433900	2658.523057
875.744780	2657.560197
876.055618	2664.088491
876.366415	2669.651404
876.677169	2670.387412
876.987882	2662.790394
877.298554	2663.455826
877.609183	2672.280366
877.919771	2678.798578
878.230317	2687.905422
878.540822	2699.225333
878.851285	2710.716643
879.161707	2733.941239
879.472087	2774.625871
879.782425	2821.856442
880.092722	2941.112498
880.402977	3131.506796
880.713191	3393.177969
881.023363	3693.749205
881.333494	3888.289853
881.643583	4060.815781
881.953631	4058.617838
882.263637	3882.852968
882.573602	3657.720078
882.883526	3525.331817
883.193408	3406.567273
883.503248	3302.381747
883.813048	3188.239941
884.122806	3071.292734
884.432522	2986.911380
884.742197	2922.379570
885.051831	2883.555123
885.361424	2846.981552
885.670975	2808.252888
885.980485	2776.894390
886.289954	2757.410331
886.599382	2746.362642
886.908768	2732.678430
887.218113	2713.761500
887.527417	2699.893286
887.836680	2692.029086
888.145901	2686.783765
888.455082	2678.438135
888.764221	2665.394150
889.073319	2662.578665
889.382376	2658.235711
889.691392	2658.651606
890.000366	2660.330311
890.309300	2658.943993
890.618193	2662.198058
890.927044	2664.282575
891.235855	2663.528923
891.544625	2660.196720
891.853353	2662.061947
892.162041	2669.893379
892.470687	2689.354754
892.779293	2702.607947
893.087858	2710.643547
893.396381	2735.798904
893.704864	2778.235337
894.013306	2850.628827
894.321707	2943.141562
894.630068	2998.213647
894.938387	3016.376924
895.246665	3008.555574
895.554903	2965.063019
895.863100	2918.507964
896.171256	2861.391691
896.479371	2800.640746
896.787446	2761.851587
897.095480	2742.818711
897.403473	2732.106259
897.711425	2719.551265
898.019336	2698.743903
898.327207	2684.762263
898.635038	2681.251099
898.942827	2678.609534
899.250576	2671.065448
899.558284	2657.807213
899.865952	2655.006852
900.173579	2652.186327
900.481165	2651.364618
900.788711	2644.062507
901.096216	2635.520272
901.403681	2632.659417
901.711105	2634.335601
902.018489	2630.857205
902.325832	2633.544140
902.633135	2635.495066
902.940397	2650.963847
903.247619	2691.653520
903.554800	2762.413676
903.861941	2889.735578
904.169041	3020.513191
904.476101	3083.194898
904.783121	3075.648291
905.090100	3019.210053
905.397039	2941.717436
905.703938	2865.850591
906.010796	2802.614357
906.317614	2751.050915
906.624391	2709.635316
906.931129	2684.484999
907.237826	2663.216371
907.544483	2641.463792
907.851099	2629.995167
908.157675	2619.794392
908.464211	2611.627723
908.770707	2599.234047
909.077163	2596.942842
909.383578	2592.680547
909.689954	2592.753643
909.996289	2589.620566
910.302584	2588.423292
910.608839	2584.798702
910.915054	2587.538570
911.221229	2589.547469
911.527363	2594.051740
911.833458	2589.945721
912.139513	2590.994281
912.445527	2590.492686
912.751502	2600.270004
913.057436	2603.055241
913.363331	2611.428598
913.669186	2621.904115
913.975000	2632.039355
914.280775	2654.147335
914.586510	2670.329439
914.892205	2707.429811
915.197859	2778.933537
915.503475	2864.721373
915.809050	2928.340734
916.114585	2946.854372
916.420081	2961.609829
916.725536	2972.649956
917.030952	2943.386058
917.336328	2894.907802
917.641665	2842.444514
917.946961	2796.050775
918.252218	2759.973757
918.557435	2731.965107
918.862612	2710.678835
919.167750	2691.930783
919.472848	2676.882939
919.777906	2659.468273
920.082925	2648.360091
920.387904	2636.929274
920.692843	2631.409211
920.997743	2625.135495
921.302603	2615.854731
921.607423	2612.426746
921.912204	2607.972887
922.216946	2601.613471
922.521647	2604.449120
922.826310	2597.787235
923.130932	2593.035948
923.435516	2585.912797
923.740059	2585.017993
924.044564	2585.887592
924.349028	2583.296439
924.653454	2574.242526
924.957840	2572.498287
925.262186	2568.525858
925.566493	2567.494942
925.870761	2565.264231
926.174989	2567.462174
926.479178	2561.861452
926.783328	2561.773232
927.087438	2561.836247
927.391509	2564.359344
927.695541	2559.368602
927.999533	2556.669064
928.303486	2558.695608
928.607400	2556.482541
928.911275	2556.454815
929.215110	2556.563200
929.518906	2556.669064
929.822663	2557.213509
930.126381	2553.294012
930.430060	2552.149670
930.733699	2555.769218
931.037299	2556.016235
931.340861	2556.522871
931.644383	2557.589075
931.947866	2557.846173
932.251309	2556.543035
932.554714	2554.987839
932.858080	2558.466235
933.161407	2556.618653
933.464694	2554.985319
933.767943	2554.564382
934.071153	2553.195709
934.374323	2555.083621
934.677455	2553.646892
934.980548	2554.224104
935.283602	2552.787376
935.586617	2553.820812
935.889593	2554.050185
936.192530	2551.227138
936.495428	2555.761656
936.798287	2554.818961
937.101108	2555.050854
937.403890	2556.744681
937.706632	2560.084446
938.009336	2566.217009
938.312002	2569.763461
938.614628	2572.979717
938.917216	2574.476940
939.219765	2575.591035
939.522275	2578.782085
939.824747	2578.015830
940.127179	2570.733883
940.429573	2567.142061
940.731929	2567.595765
941.034246	2566.660631
941.336524	2568.286403
941.638763	2566.174160
941.940964	2564.760116
942.243126	2563.459498
942.545250	2562.572255
942.847335	2563.837585
943.149381	2562.630228
943.451389	2560.520506
943.753359	2559.960937
944.055290	2556.459856
944.357182	2556.648899
944.659036	2556.953889
944.960851	2555.822150
945.262628	2556.142263
945.564367	2558.075546
945.866067	2558.360371
946.167729	2559.338355
946.469352	2554.398024
946.770937	2557.153015
947.072484	2555.103786
947.373992	2556.696790
947.675462	2558.330124
947.976893	2555.300391
948.278286	2556.984136
948.579641	2555.607901
948.880958	2552.016079
949.182236	2556.805175
949.483476	2553.788045
949.784678	2551.133877
950.085841	2553.208312
950.386967	2553.667057
950.688054	2554.992880
950.989103	2554.927345
951.290114	2555.030689
951.591087	2557.289126
951.892021	2556.865669
952.192917	2559.235011
952.493776	2561.221226
952.794596	2559.892882
953.095378	2561.730382
953.396122	2564.256001
953.696828	2559.887841
953.997496	2556.651420
954.298126	2556.961451
954.598718	2556.727037
954.899272	2554.302242
955.199788	2554.347613
955.500266	2552.782334
955.800706	2549.223280
956.101108	2543.272198
956.401472	2544.381252
956.701798	2545.165151
957.002087	2544.532486
957.302337	2542.085006
957.602550	2546.589277
957.902724	2542.528627
958.202861	2543.143648
958.502960	2540.804553
958.803022	2542.460572
959.103045	2541.986703
959.403031	2541.656508
959.702979	2542.440407
960.002889	2538.856147
960.302762	2538.498225
960.602596	2539.771116
960.902393	2537.817669
961.202153	2540.363452
961.501875	2538.669624
961.801559	2540.678524
962.101205	2539.675334
962.400814	2537.598379
962.700385	2535.866743
962.999918	2540.844882
963.299414	2537.873122
963.598873	2537.711805
963.898293	2537.366486
964.197677	2535.667617
964.497022	2535.823893
964.796331	2537.968904
965.095601	2537.154757
965.394835	2537.048893
965.694030	2537.164840
965.993189	2538.594007
966.292309	2534.374561
966.591393	2538.871270
966.890439	2537.058976
967.189447	2537.205169
967.488419	2537.495035
967.787353	2537.041332
968.086249	2538.334387
968.385108	2538.289017
968.683930	2539.403112
968.982714	2538.208359
969.281462	2535.002185
969.580172	2536.824562
969.878844	2536.600231
970.177480	2537.505118
970.476078	2538.513348
970.774639	2538.440252
971.073162	2537.941178
971.371649	2536.867412
971.670098	2534.369520
971.968510	2538.407484
972.266885	2534.982020
972.565223	2539.554347
972.863524	2539.564429
973.161788	2540.063503
973.460014	2540.043339
973.758204	2540.602907
974.056356	2537.621064
974.354471	2539.398071
974.652550	2540.192053
974.950591	2539.186342
975.248595	2537.684079
975.546563	2537.792463
975.844493	2536.421270
976.142386	2538.722556
976.440243	2538.987217
976.738062	2540.073586
977.035845	2536.108718
977.333590	2539.587114
977.631299	2535.425642
977.928971	2536.030580
978.226606	2533.736855
978.524204	2537.305992
978.821765	2538.266332
979.119290	2536.474202
979.416777	2536.005374
979.714228	2534.974458
980.011642	2534.450178
980.309020	2538.049562
980.606360	2535.692823
980.903664	2538.619213
981.200931	2540.779347
981.498162	2538.329346
981.795356	2541.331353
982.092513	2544.426622
982.389633	2543.128525
982.686717	2548.691438
982.983764	2550.576830
983.280775	2553.009186
983.577749	2551.522046
983.874686	2551.559855
984.171587	2548.676315
984.468451	2545.810419
984.765279	2544.368649
985.062070	2538.992258
985.358824	2538.722556
985.655543	2539.763555
985.952224	2538.110056
986.248869	2538.044521
986.545478	2534.372041
986.842050	2535.682741
987.138586	2530.117307
987.435086	2533.638553
987.731549	2530.026566
988.027975	2536.441434
988.324366	2532.474046
988.620719	2534.966897
988.917037	2532.564787
989.213318	2531.425486
989.509563	2533.951104
989.805772	2533.875487
990.101944	2534.014119
990.398080	2535.171063
990.694180	2532.552184
990.990244	2536.285158
991.286271	2533.147040
991.582262	2535.589479
991.878217	2532.181659
992.174136	2533.883049
992.470019	2533.658717
992.765865	2531.826258
993.061676	2534.049407
993.357450	2533.343645
993.653188	2531.448171
993.948890	2534.402287
994.244556	2533.441948
994.540186	2536.121321
994.835780	2535.070240
995.131337	2533.991433
995.426859	2537.701723
995.722345	2534.369520
996.017795	2537.215251
996.313208	2536.280117
996.608586	2536.126362
996.903928	2538.634336
997.199234	2538.344470
997.494504	2535.965045
997.789738	2533.948584
998.084936	2535.087884
998.380099	2533.225178
998.675225	2535.039993
998.970316	2535.065199
999.265371	2535.012267
999.560390	2532.988244
999.855373	2532.804242
1000.150320	2534.762730
1000.445232	2534.551002
1000.740108	2532.658048
1001.034948	2534.087215
1001.329752	2532.552184
1001.624521	2531.601927
1001.919254	2527.203520
1002.213951	2531.990095
1002.508613	2526.769981
1002.803239	2531.435568
1003.097829	2527.576565
1003.392384	2531.327184
1003.686903	2533.257946
1003.981386	2533.462112
1004.275834	2530.747451
1004.570246	2532.383305
1004.864623	2532.194262
1005.158964	2532.048069
1005.453270	2531.060003
1005.747540	2532.295085
1006.041775	2532.252235
1006.335974	2532.446320
1006.630138	2530.833151
1006.924266	2533.623429
1007.218359	2530.785260
1007.512416	2531.107893
1007.806438	2531.241484
1008.100425	2532.002698
1008.394376	2530.192924
1008.688292	2531.604447
1008.982172	2532.385826
1009.276017	2530.485311
1009.569827	2530.389529
1009.863602	2532.252235
1010.157341	2530.001360
1010.451045	2531.296937
1010.744714	2529.041020
1011.038347	2531.664941
1011.331945	2531.216278
1011.625508	2531.138140
1011.919036	2528.025228
1012.212528	2528.950280
1012.505986	2529.048582
1012.799408	2530.432379
1013.092795	2529.454395
1013.386147	2533.260466
1013.679464	2531.100332
1013.972745	2533.333563
1014.265992	2531.422966
1014.559204	2531.196114
1014.852380	2528.650331
1015.145521	2530.250897
1015.438628	2530.770136
1015.731699	2531.954807
1016.024736	2531.390198
1016.317737	2529.613191
1016.610703	2532.232071
1016.903635	2529.197296
1017.196531	2524.645134
1017.489393	2526.313756
1017.782219	2525.189579
1018.075011	2529.035979
1018.367768	2529.262831
1018.660490	2528.378109
1018.953177	2528.378109
1019.245829	2528.378109
