Dividing Wavelength (nm)	Counts (n)	Blue Motor Position (mm): 17.800000	Red Motor Position (mm): 0.000000	
326.493990	2135.208438
326.888308	2135.208438
327.282561	2135.208438
327.676750	2102.629981
328.070874	2099.746441
328.464933	2103.071082
328.858929	2110.839500
329.252859	2121.468773
329.646726	2130.610906
330.040528	2144.161527
330.434265	2158.997643
330.827938	2179.285767
331.221547	2196.413087
331.615091	2216.814636
332.008571	2236.346587
332.401986	2254.792169
332.795338	2274.009047
333.188625	2290.564197
333.581847	2312.258802
333.975006	2330.994250
334.368100	2347.713237
334.761129	2364.086905
335.154095	2382.356046
335.546996	2403.365055
335.939833	2420.774680
336.332606	2439.789912
336.725315	2448.115378
337.117960	2459.120217
337.510540	2466.250929
337.903056	2478.412712
338.295508	2487.940493
338.687896	2495.038438
339.080220	2502.738800
339.472480	2509.277177
339.864676	2511.880933
340.256807	2518.671367
340.648875	2521.469207
341.040879	2526.069260
341.432818	2525.983561
341.824694	2527.392563
342.216506	2526.825433
342.608253	2524.256965
342.999937	2526.754857
343.391557	2524.614887
343.783113	2525.348375
344.174605	2523.725124
344.566033	2521.716224
344.957397	2520.723117
345.348697	2520.823940
345.739934	2519.914011
346.131106	2516.286901
346.522215	2515.434946
346.913260	2515.213135
347.304241	2512.891684
347.695159	2509.115860
348.086012	2508.616786
348.476802	2503.235354
348.867528	2507.553102
349.258191	2500.747544
349.648789	2503.147134
350.039324	2498.852071
350.429796	2500.578666
350.820203	2496.207985
351.210548	2496.674292
351.600828	2493.785711
351.991045	2492.227994
352.381198	2493.437871
352.771288	2493.768067
353.161314	2493.667244
353.551276	2495.262769
353.941175	2492.520381
354.331010	2495.313181
354.720782	2490.602222
355.110490	2494.136071
355.500135	2493.357213
355.889717	2494.148674
356.279235	2494.168839
356.668689	2494.083139
357.058080	2494.148674
357.447408	2491.025679
357.836672	2490.960144
358.225873	2493.498365
358.615010	2490.234218
359.004084	2497.173366
359.393095	2495.585403
359.782043	2496.757471
360.170927	2497.516165
360.559748	2497.682523
360.948505	2500.230826
361.337199	2502.390961
361.725830	2501.160919
362.114398	2500.049345
362.502903	2499.623367
362.891344	2499.673779
363.279722	2502.083450
363.668037	2500.797956
364.056289	2499.973727
364.444478	2503.394150
364.832603	2503.126969
365.220665	2501.859119
365.608665	2505.110663
365.996601	2505.440859
366.384474	2505.072854
366.772284	2505.907165
367.160031	2505.448420
367.547715	2504.296517
367.935336	2507.016219
368.322893	2506.018071
368.710388	2509.168792
369.097820	2509.753566
369.485189	2504.747700
369.872495	2508.730212
370.259738	2508.059738
370.646918	2508.745335
371.034035	2507.691734
371.421090	2510.872702
371.808081	2509.619975
372.195010	2508.216014
372.581875	2508.863802
372.968678	2512.889163
373.355418	2511.220542
373.742096	2509.607372
374.128710	2508.521004
374.515262	2511.754904
374.901751	2510.784482
375.288177	2509.834224
375.674540	2510.265243
376.060841	2513.655419
376.447079	2512.500995
376.833254	2512.803464
377.219367	2509.478823
377.605417	2511.971673
377.991404	2509.642660
378.377329	2512.390089
378.763191	2509.108298
379.148991	2514.492250
379.534727	2513.448732
379.920402	2514.663650
380.306013	2514.182219
380.691563	2515.838238
381.077049	2513.279853
381.462474	2515.946623
381.847835	2512.017044
382.233134	2512.770696
382.618371	2515.240862
383.003545	2514.764473
383.388657	2515.079545
383.773706	2516.148269
384.158693	2513.869668
384.543618	2516.617097
384.928480	2517.506860
385.313280	2517.025430
385.698017	2518.225225
386.082692	2517.501819
386.467305	2513.116015
386.851856	2518.386542
387.236344	2518.499968
387.620770	2518.802437
388.005133	2518.434433
388.389435	2519.856038
388.773674	2518.981398
389.157851	2517.002745
389.541965	2518.285719
389.926018	2520.087931
390.310008	2517.143897
390.693936	2519.992149
391.077802	2518.600791
391.461606	2519.387211
391.845348	2522.033817
392.229027	2523.087418
392.612645	2520.211439
392.996200	2521.242355
393.379694	2520.947448
393.763125	2522.311080
394.146494	2520.531553
394.529801	2522.669002
394.913047	2522.041378
395.296230	2523.667150
395.679351	2520.455935
396.062410	2523.294105
396.445408	2522.822757
396.828343	2522.290915
397.211217	2518.678929
397.594028	2519.251100
397.976778	2518.915863
398.359466	2520.599608
398.742092	2519.114988
399.124656	2524.587161
399.507158	2524.317459
399.889598	2524.171266
400.271977	2526.550690
400.654294	2523.339475
401.036549	2525.630680
401.418742	2526.338962
401.800874	2524.188910
402.182944	2525.655886
402.564952	2523.677233
402.946898	2525.509692
403.328783	2525.368540
403.710606	2527.024559
404.092367	2524.100690
404.474067	2527.551359
404.855705	2523.029444
405.237282	2526.984230
405.618797	2525.539939
406.000250	2528.110927
406.381642	2523.957017
406.762972	2525.814682
407.144240	2528.814168
407.525447	2528.184024
407.906593	2527.465660
408.287677	2526.449867
408.668700	2524.849301
409.049661	2527.931967
409.430560	2529.703932
409.811399	2528.602440
410.192176	2526.855680
410.572891	2527.750485
410.953545	2529.061185
411.334138	2527.558921
411.714669	2529.363654
412.095139	2529.504807
412.475547	2528.615043
412.855894	2531.959848
413.236180	2524.753519
413.616405	2529.691329
413.996568	2529.671165
414.376670	2532.121165
414.756711	2528.005063
415.136691	2530.636546
415.516609	2530.172759
415.896466	2531.317101
416.276262	2531.291896
416.655997	2526.026410
417.035670	2525.751668
417.415283	2527.500948
417.794834	2526.432223
418.174324	2528.806607
418.553753	2534.538399
418.933121	2533.888090
419.312428	2532.121165
419.691674	2532.814324
420.070859	2531.632173
420.449983	2531.904396
420.829045	2531.100332
421.208047	2531.808614
421.586988	2531.463295
421.965867	2533.862884
422.344686	2537.207690
422.723444	2534.578728
423.102141	2532.083357
423.480777	2535.168543
423.859352	2533.136958
424.237866	2534.828265
424.616319	2533.174767
424.994712	2535.576876
425.373044	2532.075795
425.751314	2531.329704
426.129524	2531.448171
426.507673	2536.083512
426.885762	2532.716022
427.263789	2535.281969
427.641756	2533.726773
428.019662	2535.478574
428.397508	2534.044366
428.775292	2531.233922
429.153016	2533.331042
429.530679	2537.908410
429.908282	2536.272556
430.285824	2536.224665
430.663305	2533.522606
431.040726	2538.079809
431.418086	2534.162833
431.795385	2535.929757
432.172624	2535.776002
432.549802	2538.556198
432.926920	2537.013605
433.303977	2537.515200
433.680974	2537.021167
434.057910	2536.683410
434.434786	2538.009233
434.811601	2539.143493
435.188355	2536.330529
435.565050	2536.252391
435.941683	2537.058976
436.318257	2536.270035
436.694770	2535.390354
437.071222	2535.970086
437.447614	2532.529499
437.823946	2534.291382
438.200218	2537.084181
438.576429	2536.874973
438.952580	2536.355735
439.328670	2537.986548
439.704700	2539.108205
440.080670	2540.401261
440.456580	2536.607792
440.832429	2538.253729
441.208218	2540.786909
441.583947	2540.257588
441.959616	2538.425128
442.335224	2540.749100
442.710773	2541.270860
443.086261	2540.121477
443.461689	2537.167360
443.837057	2540.880170
444.212365	2540.295396
444.587612	2540.045859
444.962800	2538.760365
445.337927	2541.094419
445.712995	2538.432690
446.088002	2540.827238
446.462949	2539.405633
446.837837	2539.219110
447.212664	2540.870088
447.587431	2542.420243
447.962139	2541.154913
448.336786	2541.354039
448.711374	2541.858154
449.085901	2541.948895
449.460369	2540.436549
449.834776	2538.220962
450.209124	2540.817156
450.583412	2540.204656
450.957640	2540.776827
451.331808	2539.559388
451.705917	2540.421425
452.079965	2539.791281
452.453954	2540.522248
452.827883	2544.149358
453.201752	2541.903524
453.575562	2543.849410
453.949311	2542.344625
454.323001	2541.548123
454.696632	2539.677855
455.070202	2546.513660
455.443713	2543.572146
455.817164	2540.837320
456.190556	2539.662732
456.563888	2539.879501
456.937160	2538.949408
457.310373	2543.173895
457.683526	2543.625078
458.056619	2546.506098
458.429653	2542.296734
458.802628	2543.146169
459.175542	2543.352856
459.548398	2544.787064
459.921194	2545.253371
460.293930	2542.881508
460.666607	2546.674977
461.039224	2542.407640
461.411782	2544.471992
461.784280	2545.681869
462.156719	2543.715819
462.529099	2544.978628
462.901419	2545.805378
463.273680	2545.334030
463.645882	2546.284287
464.018024	2545.001313
464.390106	2547.310162
464.762130	2548.477189
465.134094	2546.062476
465.505999	2547.322765
465.877845	2546.246478
466.249631	2546.695141
466.621358	2544.330840
466.993026	2547.688248
467.364634	2550.226469
467.736184	2551.317879
468.107674	2548.666232
468.479105	2547.045501
468.850477	2546.450645
469.221790	2548.073897
469.593043	2546.541386
469.964238	2545.792775
470.335373	2547.509287
470.706449	2545.991900
471.077467	2547.847045
471.448425	2549.835780
471.819324	2550.052550
472.190164	2549.913918
472.560945	2547.930224
472.931667	2549.019113
473.302330	2548.608259
473.672934	2548.860317
474.043479	2548.068856
474.413965	2547.836963
474.784393	2544.691283
475.154761	2547.148845
475.525070	2544.494677
475.895321	2545.873433
476.265513	2544.139276
476.635645	2550.465924
477.005719	2547.010213
477.375734	2551.083466
477.745691	2552.623538
478.115588	2551.506922
478.485427	2551.111192
478.855207	2550.188661
479.224928	2550.065152
479.594591	2551.431305
479.964194	2551.068342
480.333739	2551.751418
480.703226	2552.663867
481.072653	2551.151521
481.442022	2552.310987
481.811333	2553.765359
482.180584	2552.973898
482.549777	2552.472303
482.918912	2555.149156
483.287988	2551.204453
483.657005	2553.208312
484.025964	2551.879968
484.394864	2550.521377
484.763706	2551.637993
485.132489	2552.192519
485.501213	2555.701163
485.869879	2552.356357
486.238487	2550.642365
486.607036	2554.849207
486.975527	2555.174362
487.343959	2554.952551
487.712333	2554.541697
488.080648	2554.370298
488.448905	2554.284598
488.817104	2554.955072
489.185244	2555.302911
489.553326	2556.162428
489.921350	2555.575134
490.289315	2557.304249
490.657222	2556.177552
491.025070	2557.561348
491.392861	2557.382387
491.760593	2560.613767
492.128267	2556.240566
492.495883	2559.517316
492.863440	2558.534291
493.230939	2556.147305
493.598380	2559.063612
493.965763	2550.765873
494.333088	2557.430278
494.700354	2556.122099
495.067563	2556.379198
495.434713	2555.249979
495.801805	2560.276010
496.168839	2557.788200
496.535815	2560.843139
496.902733	2560.270968
497.269593	2562.131154
497.636395	2559.224929
498.003139	2558.531770
498.369825	2560.699467
498.736453	2560.780125
499.103023	2561.102759
499.469535	2563.973696
499.835989	2560.210475
500.202385	2560.921277
500.568723	2563.993861
500.935003	2565.344890
501.301226	2559.870197
501.667390	2563.658624
502.033497	2566.395970
502.399546	2564.926474
502.765537	2564.397153
503.131470	2564.840774
503.497345	2566.771536
503.863163	2570.524675
504.228923	2569.292113
504.594625	2568.994685
504.960269	2569.249263
505.325856	2572.039542
505.691385	2569.884449
506.056856	2574.396282
506.422270	2575.328895
506.787625	2578.809812
507.152924	2576.846282
507.518164	2579.520614
507.883347	2580.521283
508.248472	2582.714185
508.613540	2584.029927
508.978550	2586.986563
509.343503	2589.098807
509.708398	2593.529981
510.073236	2595.627101
510.438016	2601.316043
510.802738	2600.446444
511.167403	2604.928030
511.532010	2605.273349
511.896561	2609.651591
512.261053	2616.530245
512.625488	2616.626027
512.989866	2617.694752
513.354186	2621.858745
513.718449	2628.147584
514.082655	2634.179325
514.446803	2638.658390
514.810894	2646.870430
515.174927	2651.742705
515.538904	2657.441729
515.902822	2662.220743
516.266684	2666.019253
516.630488	2675.262208
516.994235	2681.175482
517.357925	2689.579085
517.721558	2697.675178
518.085133	2706.046014
518.448651	2713.776624
518.812112	2716.027499
519.175516	2729.699108
519.538863	2737.689337
519.902152	2746.143352
520.265385	2759.998963
520.628560	2764.437699
520.991678	2780.254319
521.354739	2790.399642
521.717743	2798.760395
522.080690	2806.012095
522.443580	2825.377687
522.806413	2832.694922
523.169189	2847.692355
523.531908	2861.742051
523.894569	2874.012219
524.257174	2883.973539
524.619722	2902.383833
524.982213	2914.618713
525.344647	2935.824327
525.707025	2950.199177
526.069345	2963.071764
526.431608	2987.423057
526.793815	3000.270438
527.155964	3014.564630
527.518057	3027.195241
527.880093	3045.149310
528.242072	3067.857187
528.603995	3083.814960
528.965860	3100.841457
529.327669	3123.098151
529.689421	3138.322436
530.051117	3156.732730
530.412755	3193.941486
530.774337	3200.545398
531.135862	3230.946076
531.497331	3251.506422
531.858743	3259.529418
532.220098	3300.882003
532.581396	3316.262564
532.942638	3333.599092
533.303824	3359.331662
533.664953	3395.242321
534.026025	3407.872932
534.387040	3449.406999
534.747999	3474.234681
535.108902	3512.794467
535.469748	3512.376051
535.830537	3554.757032
536.191270	3581.288624
536.551947	3615.956639
536.912567	3648.396464
537.273131	3668.336748
537.633638	3699.049978
537.994089	3734.234712
538.354483	3756.597270
538.714821	3809.695743
539.075103	3847.658152
539.435328	3877.015312
539.795497	3881.670817
540.155609	3951.669759
540.515665	3998.050895
540.875665	3995.739526
541.235609	4046.027556
541.595496	4080.118359
541.955328	4148.357938
542.315102	4162.228673
542.674821	4191.686656
543.034483	4226.967171
543.394090	4269.111217
543.753640	4300.094148
544.113134	4389.272160
544.472571	4395.135022
544.831953	4468.695539
545.191278	4468.118327
545.550548	4508.883617
545.909761	4582.371038
546.268918	4627.154128
546.628019	4687.448848
546.987064	4706.443916
547.346053	4713.907344
547.704986	4799.770797
548.063863	4831.383873
548.422684	4863.803533
548.781449	4892.412081
549.140158	4965.796158
549.498811	4976.937108
549.857408	4974.260255
550.215949	5093.307103
550.574434	5087.328295
550.932864	5170.567827
551.291237	5226.128904
551.649555	5270.332262
552.007817	5313.572759
552.366022	5341.727603
552.724173	5395.209204
553.082267	5424.944450
553.440305	5536.653899
553.798288	5496.947251
554.156215	5613.085353
554.514086	5651.882073
554.871902	5641.605681
555.229661	5699.599115
555.587365	5742.438840
555.945014	5737.659826
556.302606	5847.413307
556.660143	5838.185475
557.017625	5963.266584
557.375050	5964.683148
557.732421	6067.058901
558.089735	6084.319812
558.446994	6127.688858
558.804197	6197.574374
559.161345	6242.952320
559.518437	6210.207505
559.875474	6316.159956
560.232455	6375.960644
560.589381	6392.306585
560.946251	6460.710002
561.303065	6529.362955
561.659825	6566.982566
562.016528	6569.722433
562.373177	6550.099742
562.729770	6672.161200
563.086307	6670.689183
563.442789	6752.940649
563.799216	6757.868377
564.155587	6820.305588
564.511904	6846.219639
564.868164	6888.010805
565.224370	6934.709533
565.580520	6952.325845
565.936615	6975.535318
566.292654	6963.713812
566.648638	7074.447797
567.004567	7100.548371
567.360441	7126.069213
567.716260	7121.176773
568.072023	7215.335444
568.427732	7237.450986
568.783385	7209.192798
569.138982	7311.255999
569.494525	7353.132864
569.850013	7320.020045
570.205445	7420.379336
570.560823	7380.027420
570.916145	7380.488686
571.271412	7460.484235
571.626625	7466.536141
571.981782	7487.570355
572.336884	7518.127309
572.691931	7547.222328
573.046923	7563.656490
573.401860	7569.806698
573.756743	7570.063797
574.111570	7630.232488
574.466342	7652.511868
574.821059	7717.464614
575.175722	7672.661360
575.530330	7724.517189
575.884882	7743.988645
576.239380	7735.663180
576.593823	7747.605673
576.948211	7799.842109
577.302544	7736.807522
577.656823	7789.205275
578.011047	7817.476066
578.365216	7834.679003
578.719330	7807.512225
579.073389	7850.238524
579.427394	7836.420722
579.781344	7852.083587
580.135239	7845.146959
580.489080	7872.777523
580.842866	7828.402767
581.196597	7864.131944
581.550273	7917.666478
581.903895	7924.464474
582.257463	7994.100452
582.610975	7929.989578
582.964434	7966.492573
583.317837	7939.194725
583.671186	7945.531456
584.024481	7970.091957
584.377721	7920.081190
584.730906	7928.346162
585.084037	7979.773493
585.437113	7949.788710
585.790135	7987.718352
586.143103	7923.622601
586.496016	7926.642252
586.848874	7999.872573
587.201679	8005.153182
587.554428	7933.765402
587.907124	7991.993250
588.259765	7984.244997
588.612352	8012.639296
588.964884	7912.453925
589.317362	7951.868186
589.669786	7971.014488
590.022155	8029.930453
590.374470	8057.762664
590.726731	8022.023403
591.078937	7914.114985
591.431090	8029.968262
591.783188	7927.668127
592.135232	7946.993390
592.487222	7955.011345
592.839157	8018.955861
593.191038	7976.320303
593.542866	7937.999972
593.894639	7868.497584
594.246358	7932.434538
594.598022	7956.004453
594.949633	7877.251547
595.301190	7869.341977
595.652692	7903.465547
596.004141	8026.260493
596.355535	7827.475194
596.706876	7826.204823
597.058162	7780.776466
597.409395	7863.085905
597.760573	7928.477232
598.111698	7855.952672
598.462768	7850.122578
598.813785	7827.812952
599.164748	7813.730488
599.515657	7813.743091
599.866511	7743.408913
600.217312	7867.229733
600.568060	7744.661639
600.918753	7848.206939
601.269392	7827.588620
601.619978	7755.225377
601.970510	7829.111049
602.320988	7827.487797
602.671412	7894.298209
603.021783	7839.395002
603.372100	7821.319945
603.722363	7834.464754
604.072572	7817.337434
604.422728	7838.172523
604.772830	7768.327336
605.122878	7785.321066
605.472872	7785.162269
605.822813	7815.550345
606.172701	7775.044674
606.522534	7853.888320
606.872314	7857.623815
607.222041	7831.616502
607.571714	7897.794249
607.921333	7858.188424
608.270899	7872.863223
608.620411	7959.802962
608.969870	7873.730301
609.319276	7872.762400
609.668627	7894.376347
610.017926	7929.200638
610.367171	7978.203174
610.716362	7959.140050
611.065500	7952.780635
611.414585	7987.259607
611.763616	7976.736198
612.112594	7966.510217
612.461518	7984.428999
612.810389	8042.515694
613.159207	7989.354206
613.507971	7945.612114
613.856682	8060.610916
614.205340	8018.000563
614.553945	8100.730938
614.902496	8008.140066
615.250994	8060.489928
615.599439	8047.965181
615.947830	8063.915392
616.296169	8037.804736
616.644454	8052.865183
616.992686	8050.884009
617.340864	8109.121939
617.688990	8018.345882
618.037063	8107.985159
618.385082	8057.094711
618.733048	8146.774317
619.080961	8088.846418
619.428821	8106.843337
619.776628	8113.855582
620.124382	8062.299702
620.472083	8052.726551
620.819731	8084.052281
621.167326	7979.697876
621.514868	7986.631983
621.862357	7885.672795
622.209793	7898.875577
622.557176	7840.554468
622.904506	7808.225548
623.251783	7747.522494
623.599007	7704.103036
623.946179	7711.543779
624.293297	7665.548292
624.640363	7581.340858
624.987376	7576.188798
625.334336	7523.254163
625.681243	7475.290104
626.028097	7457.809903
626.374899	7440.985052
626.721647	7436.566481
627.068343	7367.532920
627.414987	7338.170720
627.761577	7298.915255
628.108115	7332.857343
628.454600	7231.474698
628.801032	7283.441433
629.147412	7245.877275
629.493739	7231.837662
629.840014	7170.690986
630.186236	7224.205355
630.532405	7106.282684
630.878521	7160.885942
631.224585	7114.819878
631.570597	7046.436626
631.916556	7078.263951
632.262462	7073.822694
632.608316	7038.953033
632.954117	7017.228181
633.299866	7000.413412
633.645562	6992.642473
633.991206	6914.509630
634.336797	6860.347473
634.682336	6820.550084
635.027823	6788.795856
635.373257	6772.444873
635.718639	6717.138374
636.063968	6723.175156
636.409245	6622.682275
636.754470	6619.473580
637.099642	6575.640748
637.444762	6526.141658
637.789829	6531.177771
638.134845	6481.038455
638.479808	6461.685465
638.824719	6466.436752
639.169577	6392.109980
639.514383	6418.535709
639.859137	6348.403176
640.203839	6354.376944
640.548489	6340.135684
640.893086	6320.089536
641.237632	6289.189783
641.582125	6311.005377
641.926566	6272.952227
642.270955	6295.133304
642.615292	6288.862108
642.959576	6305.283667
643.303809	6296.469209
643.647990	6300.550023
643.992118	6293.290762
644.336195	6239.337813
644.680219	6266.703717
645.024192	6253.458085
645.368112	6347.110120
645.711981	6370.929572
646.055797	6445.624349
646.399562	6407.036837
646.743274	6532.904366
647.086935	6583.194917
647.430544	6578.816675
647.774101	6601.063287
648.117606	6600.070179
648.461059	6598.237720
648.804460	6565.245888
649.147810	6468.806095
649.491108	6437.450118
649.834354	6416.809113
650.177548	6331.071689
650.520690	6246.874338
650.863781	6225.562860
651.206820	6247.005408
651.549807	6170.130332
651.892742	6108.189675
652.235626	6116.094204
652.578458	6101.905877
652.921238	6010.247618
653.263967	6050.392846
653.606644	5991.600389
653.949269	5991.928064
654.291843	5935.275578
654.634365	5985.364482
654.976836	5937.695331
655.319255	5940.745229
655.661622	5916.663638
656.003938	5912.393780
656.346203	5874.945569
656.688416	5907.418161
657.030577	5856.505028
657.372687	5823.727446
657.714746	5813.685467
658.056753	5860.043918
658.398708	5795.108815
658.740612	5790.324760
659.082465	5838.813099
659.424266	5826.454710
659.766016	5828.997972
660.107715	5804.644158
660.449362	5817.887269
660.790958	5815.772505
661.132503	5799.474455
661.473996	5842.339386
661.815438	5823.835831
662.156829	5825.058310
662.498168	5811.669006
662.839456	5789.291324
663.180693	5822.860367
663.521879	5827.720040
663.863013	5812.241177
664.204097	5835.876627
664.545129	5877.468666
664.886110	5868.134970
665.227040	5902.997069
665.567918	5866.541965
665.908746	5899.233848
666.249522	5898.966667
666.590248	5884.405294
666.930922	5914.518627
667.271545	5925.173105
667.612118	5928.901038
667.952639	5903.486061
668.293109	5926.912303
668.633528	5884.864039
668.973896	5889.622888
669.314213	5881.854470
669.654480	5859.197004
669.994695	5852.351117
670.334859	5844.509603
670.674973	5835.120453
671.015035	5838.124981
671.355047	5833.595504
671.695008	5824.826417
672.034918	5797.581501
672.374777	5806.786648
672.714585	5795.353311
673.054342	5798.504033
673.394049	5790.475995
673.733705	5824.647456
674.073310	5806.312780
674.412864	5767.115288
674.752368	5761.426346
675.091820	5763.624289
675.431223	5701.466862
675.770574	5703.606832
676.109875	5651.977855
676.449125	5661.916490
676.788324	5621.123473
677.127473	5569.807047
677.466571	5558.167023
677.805619	5552.205858
678.144616	5538.241862
678.483562	5519.085478
678.822458	5489.357793
679.161303	5480.329087
679.500098	5474.040247
679.838842	5451.387823
680.177535	5459.688082
680.516179	5474.587213
680.854771	5487.006095
681.193314	5565.020472
681.531805	5675.991391
681.870247	5826.288352
682.208638	5924.071613
682.546978	5938.333037
682.885268	5910.609212
683.223508	5829.194577
683.561697	5774.228356
683.899836	5743.474797
684.237925	5703.934507
684.575963	5665.641902
684.913951	5625.748731
685.251889	5687.701992
685.589776	5651.685468
685.927614	5625.496674
686.265401	5697.224731
686.603137	5681.652607
686.940824	5755.744966
687.278460	5779.607267
687.616046	5787.312671
687.953582	5851.320201
688.291068	5835.606925
688.628504	5902.084621
688.965889	5867.096492
689.303224	5806.862266
689.640510	5760.743270
689.977745	5686.406415
690.314930	5586.074851
690.652065	5534.221542
690.989150	5436.697900
691.326185	5364.337178
691.663170	5307.964475
692.000105	5237.209360
692.336990	5159.051311
692.673825	5141.926512
693.010610	5067.995470
693.347345	4998.011652
693.684030	4989.623172
694.020665	4943.242036
694.357251	4853.880022
694.693786	4865.555334
695.030272	4832.412268
695.366707	4796.763749
695.703093	4760.621196
696.039429	4785.007778
696.375716	4768.475314
696.711952	4744.381119
697.048139	4730.480137
697.384276	4711.411973
697.720363	4722.694075
698.056400	4730.994335
698.392388	4682.863919
698.728326	4662.510260
699.064214	4638.249707
699.400053	4634.811640
699.735842	4602.724696
700.071581	4577.052620
700.407270	4549.941295
700.742910	4531.967061
701.078501	4479.781036
701.414042	4477.860357
701.749533	4449.881953
702.084974	4381.987693
702.420366	4443.595634
702.755709	4376.966703
703.091002	4328.105320
703.426246	4373.878997
703.761440	4329.854600
704.096584	4289.817756
704.431679	4316.334226
704.766725	4302.612205
705.101721	4289.427067
705.436668	4317.138290
705.771565	4263.722223
706.106413	4291.244403
706.441212	4328.755629
706.775961	4334.474818
707.110661	4315.769616
707.445311	4342.250798
707.779913	4367.673336
708.114465	4374.693143
708.448967	4395.334148
708.783421	4463.661947
709.117825	4499.723841
709.452180	4506.509234
709.786485	4550.256367
710.120742	4634.539418
710.454949	4618.868991
710.789107	4684.146892
711.123216	4758.781175
711.457275	4748.167026
711.791286	4819.786698
712.125247	4841.766129
712.459159	4741.520264
712.793023	4816.290658
713.126837	4778.361017
713.460602	4774.060912
713.794318	4687.423642
714.127985	4703.240263
714.461602	4609.973875
714.795171	4588.090227
715.128691	4518.161861
715.462162	4464.710507
715.795584	4411.579266
716.128957	4397.721134
716.462281	4346.185418
716.795556	4320.997293
717.128782	4282.669400
717.461960	4217.817477
717.795088	4223.662694
718.128167	4185.465872
718.461198	4126.015544
718.794180	4120.944144
719.127113	4100.492182
719.459997	4080.120880
719.792833	4040.956156
720.125619	4026.714896
720.458357	3991.436901
720.791046	4000.261441
721.123686	3969.550732
721.456278	3931.205195
721.788821	3945.839665
722.121315	3924.495419
722.453761	3894.535842
722.786158	3909.190476
723.118506	3930.189403
723.450805	3882.860530
723.783056	3904.754261
724.115259	3921.279163
724.447412	3924.087086
724.779518	3917.788164
725.111574	3923.262857
725.443582	3950.928710
725.775542	3934.421451
726.107453	3989.554030
726.439315	3990.199298
726.771129	4000.064836
727.102895	4038.811145
727.434612	4085.139348
727.766281	4098.266513
728.097901	4095.612346
728.429473	4104.162143
728.760996	4108.333697
729.092471	4100.572841
729.423897	4088.373249
729.755276	4094.011779
730.086606	4091.002210
730.417887	4133.068119
730.749120	4196.074980
731.080305	4258.575205
731.411442	4283.738125
731.742530	4253.387858
732.073570	4256.223507
732.404562	4312.674348
732.735506	4307.602947
733.066401	4264.758181
733.397249	4209.348338
733.728048	4123.270636
734.058798	4046.748441
734.389501	3974.556598
734.720156	3911.864808
735.050762	3868.783108
735.381320	3865.902088
735.711831	3811.669355
736.042293	3783.915283
736.372707	3807.139878
736.703073	3775.864560
737.033391	3767.153446
737.363661	3785.596508
737.693883	3808.480825
738.024056	3820.267043
738.354182	3814.948626
738.684260	3879.374572
739.014290	3895.894433
739.344272	3894.394690
739.674207	3938.744241
740.004093	3941.100980
740.333931	3934.786935
740.663722	3935.233077
740.993464	3936.725259
741.323159	3911.794232
741.652806	3879.752658
741.982405	3856.467569
742.311956	3822.084379
742.641460	3811.734890
742.970915	3786.801343
743.300323	3750.013523
743.629683	3714.738049
743.958996	3703.652552
744.288260	3680.541382
744.617477	3647.771361
744.946647	3634.213178
745.275768	3609.864405
745.604842	3607.376596
745.933869	3559.820871
746.262847	3548.442987
746.591778	3587.927824
746.920662	3560.229204
747.249498	3528.744678
747.578286	3574.256215
747.907027	3591.199533
748.235720	3589.346909
748.564365	3614.829942
748.892963	3613.461268
749.221514	3599.613219
749.550017	3572.668251
749.878473	3571.125658
750.206881	3538.438817
750.535242	3536.886141
750.863555	3540.230947
751.191821	3534.615102
751.520039	3516.668594
751.848210	3494.996673
752.176334	3526.546735
752.504411	3535.492262
752.832440	3494.895850
753.160421	3478.204590
753.488356	3489.779079
753.816243	3501.782067
754.144082	3455.731126
754.471875	3440.695885
754.799620	3460.278247
755.127318	3452.250209
755.454969	3453.787761
755.782572	3460.527784
756.110129	3433.313115
756.437638	3423.959254
756.765100	3438.719753
757.092515	3447.907255
757.419882	3455.025365
757.747203	3429.451591
758.074477	3430.936211
758.401703	3443.453396
758.728882	3466.849391
759.056014	3475.366420
759.383099	3479.427070
759.710138	3473.052531
760.037129	3491.578771
760.364073	3524.434491
760.690970	3504.161491
761.017820	3483.074345
761.344623	3501.706449
761.671379	3549.095816
761.998088	3596.696911
762.324751	3720.787434
762.651366	3968.592913
762.977935	4438.073050
763.304456	4871.128330
763.630931	4961.513698
763.957359	4601.429120
764.283740	4266.620887
764.610074	4080.771189
764.936362	3887.624420
765.262602	3728.051736
765.588796	3622.353864
765.914943	3530.080584
766.241044	3446.604117
766.567097	3414.812080
766.893104	3367.694936
767.219064	3338.121007
767.544978	3310.354332
767.870845	3257.482710
768.196665	3237.282807
768.522438	3248.164137
768.848165	3244.766399
769.173846	3207.539999
769.499479	3192.711445
769.825066	3173.716377
770.150607	3157.216681
770.476101	3175.321985
770.801548	3170.149761
771.126949	3121.979015
771.452303	3106.164916
771.777611	3113.898046
772.102872	3114.916359
772.428087	3092.377360
772.753256	3084.112388
773.078378	3077.790781
773.403453	3044.010009
773.728482	3028.168183
774.053465	3051.722975
774.378401	3040.055224
774.703291	3007.416273
775.028135	3011.663446
775.352932	3005.223372
775.677683	2994.629387
776.002388	2990.782986
776.327046	2990.336844
776.651658	2981.766883
776.976224	2964.269038
777.300743	2969.337918
777.625216	2960.873821
777.949643	2951.804785
778.274024	2955.502471
778.598359	2946.753549
778.922647	2952.152624
779.246889	2950.602470
779.571086	2934.939605
779.895236	2927.390477
780.219339	2941.213321
780.543397	2955.867955
780.867409	2956.432564
781.191374	2946.624999
781.515294	2944.873198
781.839167	2944.787499
782.162995	2938.082764
782.486776	2948.210442
782.810511	2942.841613
783.134201	2931.244439
783.457844	2936.628391
783.781441	2927.450971
784.104993	2908.047569
784.428498	2910.684093
784.751958	2926.049530
785.075372	2918.351688
785.398739	2900.258987
785.722061	2919.881678
786.045337	2930.049685
786.368568	2915.006882
786.691752	2903.742424
787.014891	2952.543314
787.337983	2979.379896
787.661030	3010.564474
787.984031	3076.192735
788.306987	3124.741568
788.629897	3113.109105
788.952760	3096.019593
789.275579	3085.864189
789.598351	3021.687780
789.921078	2977.623054
790.243759	2969.811786
790.566395	2954.436267
790.888984	2930.478183
791.211529	2914.490164
791.534027	2905.637898
791.856480	2897.650190
792.178888	2880.948847
792.501249	2874.213865
792.823566	2870.143134
793.145836	2868.167001
793.468062	2864.834799
793.790241	2858.896319
794.112375	2867.236908
794.434464	2880.548075
794.756507	2886.509240
795.078505	2889.317162
795.400457	2900.135478
795.722364	2940.048814
796.044226	2964.153091
796.366042	2965.000005
796.687812	2954.716051
797.009538	2974.437045
797.331218	2962.408852
797.652852	2948.633899
797.974442	2927.418203
798.295986	2925.689087
798.617484	2923.491144
798.938938	2906.779719
799.260346	2891.855383
799.581709	2887.010834
799.903026	2880.129659
800.224299	2873.303937
800.545526	2863.786239
800.866708	2846.689165
801.187845	2838.429235
801.508936	2842.252950
801.829983	2846.414422
802.150984	2836.248936
802.471940	2821.339723
802.792851	2821.299394
803.113717	2818.710762
803.434538	2827.502534
803.755314	2821.884168
804.076045	2814.279587
804.396731	2813.336892
804.717372	2814.503919
805.037967	2811.063331
805.358518	2816.109526
805.679024	2826.683346
805.999485	2820.641523
806.319901	2829.798779
806.640272	2820.281081
806.960598	2824.596309
807.280879	2834.353462
807.601115	2842.580625
807.921306	2826.607729
808.241453	2823.464570
808.561554	2829.012359
808.881611	2833.181394
809.201623	2825.100424
809.521590	2825.624704
809.841513	2818.766214
810.161390	2826.821978
810.481223	2819.625731
810.801011	2808.441931
811.120755	2804.822383
811.440453	2809.641726
811.760107	2809.772796
812.079716	2805.603762
812.399281	2796.917853
812.718801	2794.311577
813.038276	2785.771862
813.357707	2791.833850
813.677093	2798.994809
813.996434	2791.259158
814.315731	2789.943417
814.634983	2783.289094
814.954191	2788.423509
815.273354	2801.021353
815.592473	2810.602066
815.911547	2809.329174
816.230577	2818.244455
816.549562	2827.638645
816.868502	2822.388283
817.187399	2833.957731
817.506250	2855.395238
817.825058	2842.510049
818.143821	2854.760053
818.462539	2873.520707
818.781213	2894.968296
819.099843	2932.605550
819.418429	2990.024293
819.736970	3051.506205
820.055466	3120.443984
820.373919	3226.557752
820.692327	3364.450953
821.010691	3527.136550
821.329011	3962.518322
821.647286	4848.291903
821.965517	6201.488830
822.283704	6921.068171
822.601847	6888.237657
822.919945	6275.157732
823.237999	5780.582731
823.556010	5208.830185
823.873976	4668.640303
824.191897	4268.360085
824.509775	3978.791167
824.827609	3716.618399
825.145398	3597.082559
825.463144	3586.163420
825.780845	3676.130372
826.098502	3779.327833
826.416116	4059.618507
826.733685	4361.213098
827.051210	4426.843880
827.368692	4308.525478
827.686129	4049.906724
828.003522	3730.395873
828.320872	3478.590238
828.638177	3286.164355
828.955439	3153.942451
829.272656	3074.163671
829.589830	3010.473733
829.906960	2961.307360
830.224046	2915.057294
830.541088	2883.915566
830.858086	2869.346631
831.175041	2850.880885
831.491952	2853.875330
831.808819	2863.259438
832.125642	2887.020917
832.442421	2932.759306
832.759157	3013.493384
833.075849	3187.272040
833.392497	3464.805203
833.709101	3658.934997
834.025662	3609.148561
834.342179	3452.303142
834.658653	3281.660084
834.975083	3133.694657
835.291469	3037.562373
835.607811	2960.157977
835.924110	2900.576579
836.240366	2850.767459
836.556578	2806.531334
836.872746	2788.486524
837.188871	2766.980961
837.504952	2751.814650
837.820990	2744.192425
838.136984	2728.990826
838.452935	2720.357850
838.768842	2719.649568
839.084706	2736.968452
839.400526	2816.674135
839.716303	2943.617951
840.032037	3022.030578
840.347727	3005.881242
840.663373	2946.819084
840.978977	2871.872249
841.294537	2805.039152
841.610054	2756.447470
841.925527	2737.575911
842.240957	2717.035730
842.556344	2692.321473
842.871687	2677.795388
843.186987	2671.751045
843.502244	2664.862308
843.817458	2660.806700
844.132629	2648.549134
844.447756	2640.027063
844.762840	2632.377112
845.077881	2637.345170
845.392879	2634.315436
845.707833	2632.261166
846.022745	2621.261368
846.337613	2623.955865
846.652438	2625.503499
846.967221	2625.105248
847.281960	2621.155504
847.596656	2621.561317
847.911309	2619.401182
848.225919	2618.564351
848.540485	2617.782972
848.855009	2617.669546
849.169490	2614.589401
849.483928	2613.538321
849.798323	2613.422374
850.112675	2609.724688
850.426984	2612.320882
850.741251	2612.729215
851.055474	2614.087806
851.369654	2618.423199
851.683792	2615.741305
851.997887	2612.348608
852.311938	2611.927672
852.625947	2610.919441
852.939914	2616.290791
853.253837	2617.714917
853.567718	2614.929679
853.881555	2614.022271
854.195350	2615.706017
854.509103	2613.208125
854.822812	2611.930192
855.136479	2609.976745
855.450103	2614.395317
855.763685	2616.331120
856.077224	2612.520007
856.390720	2612.537652
856.704173	2613.427415
857.017584	2614.659977
857.330953	2618.478651
857.644278	2620.066615
857.957561	2618.811367
858.270802	2616.643671
858.584000	2616.149638
858.897155	2617.901439
859.210268	2618.453446
859.523339	2616.230297
859.836367	2611.695779
860.149352	2610.984976
860.462295	2612.257867
860.775195	2610.183433
861.088054	2608.063627
861.400869	2606.248812
861.713642	2604.557505
862.026373	2607.297372
862.339062	2609.606221
862.651708	2617.251130
862.964312	2615.121243
863.276873	2612.464555
863.589392	2616.167282
863.901869	2624.235649
864.214303	2627.845115
864.526696	2626.748664
864.839045	2629.070116
865.151353	2631.149592
865.463619	2629.783439
865.775842	2632.074643
866.088023	2630.040538
866.400162	2633.009777
866.712258	2633.019860
867.024313	2630.199334
867.336325	2624.540639
867.648296	2628.074488
867.960224	2637.115797
868.272110	2632.389715
868.583954	2625.720269
868.895755	2625.684981
869.207515	2629.475928
869.519233	2637.743421
869.830909	2633.897020
870.142542	2628.986937
870.454134	2631.194962
870.765684	2640.143010
871.077191	2641.620068
871.388657	2643.006385
871.700081	2643.087044
872.011463	2639.727115
872.322803	2639.023874
872.634101	2645.915131
872.945357	2653.058446
873.256571	2659.143119
873.567744	2656.917449
873.878874	2654.437202
874.189963	2654.041471
874.501010	2658.669250
874.812015	2666.830878
875.122979	2664.249808
875.433900	2656.209167
875.744780	2655.783190
876.055618	2659.455670
876.366415	2665.908347
876.677169	2664.829540
876.987882	2658.371822
877.298554	2657.383756
877.609183	2668.887669
877.919771	2674.322033
878.230317	2682.060204
878.540822	2691.194775
878.851285	2703.492670
879.161707	2725.116699
879.472087	2763.621032
879.782425	2809.049390
880.092722	2921.298242
880.402977	3105.181891
880.713191	3353.917463
881.023363	3636.663179
881.333494	3820.632527
881.643583	3994.254906
881.953631	3988.364318
882.263637	3811.303872
882.573602	3595.202209
882.883526	3471.222592
883.193408	3361.128833
883.503248	3265.359513
883.813048	3153.458500
884.122806	3044.937582
884.432522	2962.363482
884.742197	2900.372413
885.051831	2863.758512
885.361424	2831.979078
885.670975	2793.532719
885.980485	2763.429468
886.289954	2750.483785
886.599382	2735.098184
886.908768	2722.828015
887.218113	2706.749255
887.527417	2694.053109
887.836680	2686.037675
888.145901	2683.728826
888.455082	2672.597958
888.764221	2663.060095
889.073319	2655.737819
889.382376	2654.843015
889.691392	2655.947027
890.000366	2655.579023
890.309300	2653.965854
890.618193	2655.649599
890.927044	2660.494148
891.235855	2660.234529
891.544625	2655.881492
891.853353	2656.476348
892.162041	2666.054541
892.470687	2682.178671
892.779293	2694.597554
893.087858	2703.837989
893.396381	2723.541339
893.704864	2764.291506
894.013306	2834.224912
894.321707	2923.591967
894.630068	2967.742393
894.938387	2987.667553
895.246665	2983.798468
895.554903	2940.626026
895.863100	2898.272772
896.171256	2843.840913
896.479371	2785.237500
896.787446	2747.239803
897.095480	2728.776577
897.403473	2723.705176
897.711425	2708.440562
898.019336	2693.112934
898.327207	2677.261026
898.635038	2676.973680
898.942827	2672.872701
899.250576	2665.215189
899.558284	2654.777480
899.865952	2651.571306
900.173579	2650.220277
900.481165	2647.341778
900.788711	2638.875160
901.096216	2634.232257
901.403681	2627.404014
901.711105	2631.089098
902.018489	2626.310084
902.325832	2633.745786
902.633135	2631.073974
902.940397	2646.676345
903.247619	2680.724298
903.554800	2749.793147
903.861941	2870.191025
904.169041	2989.711741
904.476101	3047.969836
904.783121	3041.224772
905.090100	2987.533963
905.397039	2914.769948
905.703938	2847.606655
906.010796	2787.972326
906.317614	2739.473905
906.624391	2703.598534
906.931129	2678.246571
907.237826	2657.731596
907.544483	2640.200983
907.851099	2627.461987
908.157675	2614.060080
908.464211	2608.683689
908.770707	2598.984509
909.077163	2596.925198
909.383578	2591.561410
909.689954	2592.156267
909.996289	2589.156780
910.302584	2587.503282
910.608839	2583.243507
910.915054	2586.086717
911.221229	2589.098807
911.527363	2588.307346
911.833458	2586.968919
912.139513	2589.739033
912.445527	2591.730289
912.751502	2598.112390
913.057436	2602.596496
913.363331	2609.021447
913.669186	2617.851028
913.975000	2632.445168
914.280775	2644.543937
914.586510	2664.426248
914.892205	2699.553008
915.197859	2763.066505
915.503475	2843.830831
915.809050	2904.954822
916.114585	2919.082655
916.420081	2926.079777
916.725536	2938.176025
917.030952	2914.200298
917.336328	2871.274873
917.641665	2826.252328
917.946961	2777.143927
918.252218	2743.932806
918.557435	2720.619990
918.862612	2698.958152
919.167750	2683.955678
919.472848	2667.292144
919.777906	2650.273209
920.082925	2642.214924
920.387904	2630.743779
920.692843	2626.244549
920.997743	2622.970319
921.302603	2617.054525
921.607423	2608.519852
921.912204	2605.399378
922.216946	2601.583224
922.521647	2597.540219
922.826310	2594.931422
923.130932	2591.286667
923.435516	2584.211408
923.740059	2583.906418
924.044564	2582.081521
924.349028	2580.491037
924.653454	2570.229768
924.957840	2571.737073
925.262186	2569.350087
925.566493	2570.416291
925.870761	2566.327915
926.174989	2569.846640
926.479178	2563.036041
926.783328	2562.569735
927.087438	2563.265414
927.391509	2563.267934
927.695541	2563.247770
927.999533	2561.599312
928.303486	2557.296688
928.607400	2558.488921
928.911275	2556.061605
929.215110	2558.173848
929.518906	2555.917932
929.822663	2557.405072
930.126381	2560.149981
930.430060	2556.958930
930.733699	2554.428271
931.037299	2558.748540
931.340861	2558.340207
931.644383	2558.456153
931.947866	2558.703170
932.251309	2559.691236
932.554714	2555.980947
932.858080	2558.635114
933.161407	2557.493293
933.464694	2557.762994
933.767943	2554.758467
934.071153	2554.312325
934.374323	2555.560010
934.677455	2553.180586
934.980548	2553.629248
935.283602	2555.300391
935.586617	2554.582026
935.889593	2557.210988
936.192530	2555.502037
936.495428	2555.600339
936.798287	2556.989177
937.101108	2558.020093
937.403890	2560.066802
937.706632	2560.623849
938.009336	2567.000909
938.312002	2568.669531
938.614628	2570.635581
938.917216	2573.877043
939.219765	2575.570870
939.522275	2578.658577
939.824747	2576.085068
940.127179	2571.308575
940.429573	2566.567370
940.731929	2570.827145
941.034246	2564.591237
941.336524	2568.104922
941.638763	2568.253636
941.940964	2565.329766
942.243126	2564.742472
942.545250	2564.175342
942.847335	2563.875393
943.149381	2560.356668
943.451389	2562.892368
943.753359	2560.182748
944.055290	2558.743499
944.357182	2557.609239
944.659036	2557.606719
944.960851	2558.539332
945.262628	2557.725186
945.564367	2556.943807
945.866067	2558.889692
946.167729	2558.448591
946.469352	2560.543191
946.770937	2557.243756
947.072484	2557.243756
947.373992	2557.291647
947.675462	2557.400031
947.976893	2554.811399
948.278286	2557.475649
948.579641	2558.887172
948.880958	2553.183106
949.182236	2554.221584
949.483476	2554.299722
949.784678	2555.436502
950.085841	2554.430792
950.386967	2557.168138
950.688054	2553.783003
950.989103	2555.471790
951.290114	2556.207798
951.591087	2558.085628
951.892021	2559.499672
952.192917	2557.616801
952.493776	2561.523695
952.794596	2563.893037
953.095378	2561.909343
953.396122	2563.429251
953.696828	2562.660475
953.997496	2558.546894
954.298126	2554.423230
954.598718	2559.996226
954.899272	2557.127809
955.199788	2555.149156
955.500266	2553.833415
955.800706	2551.038095
956.101108	2546.352343
956.401472	2547.819318
956.701798	2544.141797
957.002087	2546.301931
957.302337	2546.992569
957.602550	2548.532642
957.902724	2547.378217
958.202861	2546.858979
958.502960	2543.730943
958.803022	2545.064328
959.103045	2545.349153
959.403031	2542.553833
959.702979	2546.637168
960.002889	2541.865716
960.302762	2544.303114
960.602596	2541.482588
960.902393	2544.746735
961.202153	2544.711447
961.501875	2542.851261
961.801559	2544.466951
962.101205	2541.076775
962.400814	2542.712630
962.700385	2541.245654
962.999918	2540.121477
963.299414	2541.916127
963.598873	2543.509132
963.898293	2542.652136
964.197677	2543.620037
964.497022	2542.447969
964.796331	2539.140972
965.095601	2540.527289
965.394835	2541.628782
965.694030	2539.947557
965.993189	2541.621220
966.292309	2540.953267
966.591393	2540.202135
966.890439	2542.904193
967.189447	2541.243133
967.488419	2541.182639
967.787353	2540.988555
968.086249	2541.772454
968.385108	2542.150541
968.683930	2541.190201
968.982714	2539.997968
969.281462	2540.328164
969.580172	2541.268339
969.878844	2538.967052
970.177480	2540.761703
970.476078	2541.815304
970.774639	2542.405119
971.073162	2542.619368
971.371649	2539.241795
971.670098	2535.833975
971.968510	2539.493853
972.266885	2532.474046
972.565223	2538.800694
972.863524	2540.439069
973.161788	2543.194060
973.460014	2541.989224
973.758204	2540.849923
974.056356	2544.580377
974.354471	2541.356559
974.652550	2542.571477
974.950591	2546.140614
975.248595	2545.903680
975.546563	2540.176929
975.844493	2543.062990
976.142386	2542.125335
976.440243	2540.744059
976.738062	2540.287835
977.035845	2542.140459
977.333590	2541.316230
977.631299	2539.604758
977.928971	2539.030067
978.226606	2539.912269
978.524204	2540.393699
978.821765	2541.222969
979.119290	2543.587270
979.416777	2540.355890
979.714228	2542.321940
980.011642	2539.982845
980.309020	2543.123484
980.606360	2538.578883
980.903664	2540.572660
981.200931	2543.758669
981.498162	2540.507125
981.795356	2543.836807
982.092513	2544.124153
982.389633	2550.080276
982.686717	2552.202602
982.983764	2551.980791
983.280775	2554.637479
983.577749	2552.119423
983.874686	2554.788714
984.171587	2550.992725
984.468451	2550.581871
984.765279	2547.917621
985.062070	2546.168341
985.358824	2543.443597
985.655543	2542.102650
985.952224	2540.900335
986.248869	2542.737835
986.545478	2536.965714
986.842050	2540.267670
987.138586	2535.339942
987.435086	2535.261804
987.731549	2535.115611
988.027975	2539.070396
988.324366	2539.569470
988.620719	2539.433359
988.917037	2536.587628
989.213318	2537.240457
989.509563	2541.117104
989.805772	2538.790612
990.101944	2537.094264
990.398080	2535.045035
990.694180	2538.483102
990.990244	2538.871270
991.286271	2534.177956
991.582262	2537.742052
991.878217	2537.414377
992.174136	2536.862371
992.470019	2537.323636
992.765865	2536.935467
993.061676	2537.283307
993.357450	2536.564943
993.653188	2539.236754
993.948890	2538.553678
994.244556	2537.636188
994.540186	2538.291538
994.835780	2538.162988
995.131337	2539.130890
995.426859	2541.107022
995.722345	2539.042670
996.017795	2540.076106
996.313208	2543.519214
996.608586	2538.498225
996.903928	2541.958977
997.199234	2538.956970
997.494504	2541.444779
997.789738	2538.528472
998.084936	2537.651311
998.380099	2539.178781
998.675225	2540.819676
998.970316	2537.530323
999.265371	2538.407484
999.560390	2535.561753
999.855373	2537.386651
1000.150320	2539.927392
1000.445232	2537.888245
1000.740108	2534.351876
1001.034948	2537.653832
1001.329752	2534.775333
1001.624521	2539.871939
1001.919254	2533.444468
1002.213951	2537.321116
1002.508613	2534.684592
1002.803239	2535.823893
1003.097829	2534.137627
1003.392384	2532.844571
1003.686903	2537.545447
1003.981386	2536.307844
1004.275834	2535.113090
1004.570246	2537.560570
1004.864623	2536.867412
1005.158964	2534.861032
1005.453270	2534.591331
1005.747540	2539.592155
1006.041775	2533.033614
1006.335974	2536.620395
1006.630138	2533.772143
1006.924266	2535.511341
1007.218359	2536.149047
1007.512416	2535.922195
1007.806438	2537.149716
1008.100425	2535.231557
1008.394376	2535.261804
1008.688292	2534.979500
1008.982172	2534.465302
1009.276017	2535.377751
1009.569827	2535.052596
1009.863602	2537.540406
1010.157341	2535.803728
1010.451045	2537.321116
1010.744714	2535.155940
1011.038347	2535.644932
1011.331945	2534.319108
1011.625508	2535.685261
1011.919036	2536.133924
1012.212528	2534.694674
1012.505986	2536.141486
1012.799408	2535.813811
1013.092795	2536.176774
1013.386147	2535.254242
1013.679464	2536.948070
1013.972745	2536.101156
1014.265992	2536.360776
1014.559204	2536.663245
1014.852380	2535.065199
1015.145521	2535.934798
1015.438628	2536.708615
1015.731699	2537.157278
1016.024736	2537.825231
1016.317737	2535.478574
1016.610703	2535.087884
1016.903635	2536.219623
1017.196531	2530.684437
1017.489393	2532.416073
1017.782219	2533.338604
1018.075011	2534.001516
1018.367768	2536.819521
1018.660490	2534.694674
1018.953177	2534.694674
1019.245829	2534.694674
