Dividing Wavelength (nm)	Counts (n)	Blue Motor Position (mm): 42.200000	Red Motor Position (mm): 0.000000	
326.493990	2129.771553
326.888308	2129.771553
327.282561	2129.771553
327.676750	2097.505648
328.070874	2095.433734
328.464933	2098.397933
328.858929	2104.805239
329.252859	2115.767228
329.646726	2127.762654
330.040528	2139.821094
330.434265	2156.088897
330.827938	2173.604386
331.221547	2191.124916
331.615091	2212.743905
332.008571	2229.389795
332.401986	2251.147415
332.795338	2268.993099
333.188625	2290.244083
333.581847	2307.938533
333.975006	2323.354382
334.368100	2343.632423
334.761129	2359.290247
335.154095	2377.035108
335.546996	2400.521844
335.939833	2424.313570
336.332606	2441.095571
336.725315	2453.000256
337.117960	2463.372430
337.510540	2470.921558
337.903056	2481.107209
338.295508	2487.753970
338.687896	2499.953563
339.080220	2503.651249
339.472480	2512.155676
339.864676	2515.611387
340.256807	2519.248579
340.648875	2524.372912
341.040879	2527.566483
341.432818	2525.885258
341.824694	2529.507327
342.216506	2529.940866
342.608253	2531.952287
342.999937	2529.855167
343.391557	2530.001360
343.783113	2529.477080
344.174605	2526.399456
344.566033	2526.512882
344.957397	2525.726462
345.348697	2524.428365
345.739934	2523.490710
346.131106	2522.893333
346.522215	2519.172962
346.913260	2515.780265
347.304241	2513.105933
347.695159	2512.737929
348.086012	2511.646519
348.476802	2510.086282
348.867528	2507.026302
349.258191	2505.637464
349.648789	2506.801970
350.039324	2504.372134
350.429796	2502.915241
350.820203	2501.728049
351.210548	2500.727380
351.600828	2500.921464
351.991045	2498.138747
352.381198	2499.530106
352.771288	2499.396515
353.161314	2499.918275
353.551276	2497.932060
353.941175	2494.443582
354.331010	2496.170177
354.720782	2499.121772
355.110490	2497.571618
355.500135	2496.240753
355.889717	2497.727893
356.279235	2498.448778
356.668689	2498.174035
357.058080	2500.724859
357.447408	2496.712101
357.836672	2493.697491
358.225873	2499.522544
358.615010	2493.947028
359.004084	2498.022801
359.393095	2499.164622
359.782043	2501.692761
360.170927	2504.150323
360.559748	2500.719818
360.948505	2500.566063
361.337199	2504.442710
361.725830	2504.596465
362.114398	2506.577639
362.502903	2504.886332
362.891344	2504.926661
363.279722	2504.631753
363.668037	2510.764317
364.056289	2506.597803
364.444478	2510.688700
364.832603	2505.473626
365.220665	2509.468741
365.608665	2507.059069
365.996601	2512.453104
366.384474	2509.259533
366.772284	2509.922444
367.160031	2511.863289
367.547715	2511.946468
367.935336	2510.590397
368.322893	2514.076355
368.710388	2511.384379
369.097820	2517.958044
369.485189	2514.187261
369.872495	2516.932169
370.259738	2511.835562
370.646918	2513.819256
371.034035	2514.346057
371.421090	2515.966788
371.808081	2515.555934
372.195010	2517.375790
372.581875	2515.860924
372.968678	2519.046933
373.355418	2514.802281
373.742096	2519.727489
374.128710	2518.807478
374.515262	2519.248579
374.901751	2517.973167
375.288177	2518.615914
375.674540	2518.605832
376.060841	2520.466018
376.447079	2521.824609
376.833254	2522.548014
377.219367	2519.692201
377.605417	2521.532222
377.991404	2517.763959
378.377329	2520.130781
378.763191	2519.984588
379.148991	2525.265196
379.534727	2524.408200
379.920402	2527.964734
380.306013	2528.942718
380.691563	2529.852646
381.077049	2529.141843
381.462474	2533.439427
381.847835	2537.260622
382.233134	2540.978473
382.618371	2544.535007
383.003545	2553.601522
383.388657	2557.876420
383.773706	2566.900086
384.158693	2579.384503
384.543618	2588.700556
384.928480	2602.684716
385.313280	2618.385390
385.698017	2630.622791
386.082692	2650.487458
386.467305	2663.044972
386.851856	2684.711851
387.236344	2701.811445
387.620770	2723.962275
388.005133	2747.854824
388.389435	2771.676796
388.773674	2793.356278
389.157851	2822.259734
389.541965	2850.769979
389.926018	2862.664582
390.310008	2908.344998
390.693936	2936.184770
391.077802	2977.466778
391.461606	2999.947804
391.845348	3054.167934
392.229027	3082.713468
392.612645	3114.422326
392.996200	3179.624609
393.379694	3226.658575
393.763125	3289.451187
394.146494	3306.467602
394.529801	3372.418497
394.913047	3429.804472
395.296230	3440.136317
395.679351	3510.704909
396.062410	3556.584450
396.445408	3574.830906
396.828343	3630.966675
397.211217	3674.892769
397.594028	3646.753048
397.976778	3724.926221
398.359466	3772.570166
398.742092	3824.887261
399.124656	3791.741674
399.507158	3878.537740
399.889598	3926.731171
400.271977	4001.330166
400.654294	3999.759846
401.036549	4028.360833
401.418742	4017.408926
401.800874	4130.030823
402.182944	4165.908715
402.564952	4243.529882
402.946898	4248.477774
403.328783	4257.388014
403.710606	4190.355791
404.092367	4387.812746
404.474067	4364.600753
404.855705	4380.475347
405.237282	4324.649609
405.618797	4439.570273
406.000250	4476.988237
406.381642	4566.657761
406.762972	4536.307494
407.144240	4552.076223
407.525447	4555.216862
407.906593	4619.489053
408.287677	4668.161394
408.668700	4599.858800
409.049661	4652.528776
409.430560	4699.252710
409.811399	4627.443994
410.192176	4785.327891
410.572891	4730.744798
410.953545	4834.340510
411.334138	4715.712077
411.714669	4782.146923
412.095139	4676.869987
412.475547	4823.696113
412.855894	4805.623577
413.236180	4816.830062
413.616405	4767.245272
413.996568	4855.571329
414.376670	4798.180313
414.756711	4752.620885
415.136691	4786.920896
415.516609	4866.200602
415.896466	4901.229059
416.276262	4937.001087
416.655997	4917.794291
417.035670	5099.679122
417.415283	5193.401733
417.794834	5132.355881
418.174324	5090.113532
418.553753	4996.574923
418.933121	5178.989075
419.312428	5246.810238
419.691674	5191.927196
420.070859	5313.408921
420.449983	5225.458431
420.829045	5337.354402
421.208047	5247.352162
421.586988	5320.577442
421.965867	5331.720913
422.344686	5464.267971
422.723444	5315.879087
423.102141	5137.449967
423.480777	5432.871665
423.859352	5202.072518
424.237866	5463.758814
424.616319	5455.082988
424.994712	5565.890071
425.373044	5442.812820
425.751314	5584.935550
426.129524	5387.511362
426.507673	5578.306432
426.885762	5664.255585
427.263789	5593.969297
427.641756	5476.908664
428.019662	5596.706644
428.397508	5607.928252
428.775292	5556.463113
429.153016	5655.574718
429.530679	5584.179377
429.908282	5659.267363
430.285824	5535.234814
430.663305	5801.188447
431.040726	5547.976330
431.418086	5543.469539
431.795385	5654.233771
432.172624	5665.886398
432.549802	5656.693854
432.926920	5670.420916
433.303977	5679.694119
433.680974	5714.248708
434.057910	5732.354012
434.434786	5738.559672
434.811601	5704.688159
435.188355	5944.964675
435.565050	5810.935518
435.941683	5796.510256
436.318257	6013.610067
436.694770	5997.249002
437.071222	6031.811153
437.447614	5965.381348
437.823946	5877.264500
438.200218	6029.104053
438.576429	5897.214866
438.952580	5996.964177
439.328670	6040.106372
439.704700	5949.199244
440.080670	5934.169044
440.456580	6205.703234
440.832429	6084.990285
441.208218	5929.899187
441.583947	6090.908600
441.959616	6092.073106
442.335224	6018.076529
442.710773	6156.458723
443.086261	6183.481828
443.461689	5978.591692
443.837057	6128.772706
444.212365	6282.580831
444.587612	6171.567061
444.962800	6327.411812
445.337927	6310.919677
445.712995	5924.106901
446.088002	6497.770044
446.462949	6325.241595
446.837837	6259.953612
447.212664	6430.090033
447.587431	6574.085552
447.962139	7117.605115
448.336786	8044.539717
448.711374	7780.995756
449.085901	6857.181628
449.460369	6779.424351
449.834776	6714.012859
450.209124	7104.472910
450.583412	7255.679799
450.957640	7401.190184
451.331808	7160.165057
451.705917	6716.619136
452.079965	6640.525439
452.453954	6851.376740
452.827883	6729.290076
453.201752	6814.740154
453.575562	6619.092973
453.949311	6823.196690
454.323001	6712.777776
454.696632	6786.068592
455.070202	6921.721000
455.443713	7083.226967
455.817164	7182.588109
456.190556	7265.411746
456.563888	7341.533169
456.937160	7379.062039
457.310373	7044.394959
457.683526	7062.931281
458.056619	6954.838861
458.429653	6941.691531
458.802628	6875.052519
459.175542	6981.138560
459.548398	7344.298242
459.921194	7499.684248
460.293930	7505.360587
460.666607	8032.370372
461.039224	8342.749173
461.411782	8466.252401
461.784280	8484.002304
462.156719	8374.203452
462.529099	8255.131398
462.901419	7846.346754
463.273680	7737.127635
463.645882	7747.875375
464.018024	7620.997094
464.390106	7786.515819
464.762130	8172.509408
465.134094	8637.583576
465.505999	9660.340430
465.877845	10882.099353
466.249631	11534.664115
466.621358	11146.374282
466.993026	10520.056287
467.364634	10262.221432
467.736184	9899.379343
468.107674	9566.882479
468.479105	9601.696687
468.850477	9365.858908
469.221790	9138.822982
469.593043	8806.595821
469.964238	8669.882249
470.335373	8678.253085
470.706449	8743.263805
471.077467	8713.311789
471.448425	10036.554180
471.819324	11105.485483
472.190164	11124.117587
472.560945	9869.117296
472.931667	9081.918438
473.302330	8955.193912
473.672934	8598.507072
474.043479	8955.503943
474.413965	8893.855673
474.784393	8781.621944
475.154761	8934.994009
475.525070	9028.101600
475.895321	8852.377059
476.265513	9031.622846
476.635645	9196.372795
477.005719	9206.190442
477.375734	9314.913007
477.745691	9553.949399
478.115588	9684.429584
478.485427	9935.418552
478.855207	10466.524274
479.224928	11279.566607
479.594591	11908.034654
479.964194	11722.973897
480.333739	11659.835965
480.703226	11577.967627
481.072653	11670.319045
481.442022	11902.559961
481.811333	12093.090371
482.180584	11903.986608
482.549777	11615.042793
482.918912	11437.798344
483.287988	11456.180912
483.657005	11467.778086
484.025964	11150.560960
484.394864	11281.351176
484.763706	11248.792884
485.132489	11002.882878
485.501213	10965.772424
485.869879	11043.471729
486.238487	10890.959181
486.607036	11000.931952
486.975527	10781.450196
487.343959	10968.976078
487.712333	11011.863694
488.080648	10946.873139
488.448905	10991.142031
488.817104	10923.583008
489.185244	11198.746829
489.553326	11351.017401
489.921350	11889.760472
490.289315	12953.421248
490.657222	13297.384216
491.025070	13199.789998
491.392861	13080.352461
491.760593	12699.894059
492.128267	12340.580778
492.495883	12016.142199
492.863440	11679.050323
493.230939	11341.227481
493.598380	11279.322111
493.965763	11145.320680
494.333088	11038.675071
494.700354	10967.330141
495.067563	11022.248471
495.434713	10857.380055
495.801805	10987.797226
496.168839	10905.404607
496.535815	10845.261121
496.902733	10847.045690
497.269593	10781.982038
497.636395	10870.545028
498.003139	10860.263595
498.369825	10739.502755
498.736453	10889.640919
499.103023	10816.909672
499.469535	10847.685916
499.835989	10834.667136
500.202385	10801.579523
500.568723	10642.508434
500.935003	10870.008145
501.301226	10678.529999
501.667390	10933.723289
502.033497	11031.791375
502.399546	10891.899356
502.765537	10794.547113
503.131470	10870.459329
503.497345	11043.464167
503.863163	10655.471761
504.228923	10968.073711
504.594625	11028.537310
504.960269	10780.726790
505.325856	11000.901705
505.691385	10799.222784
506.056856	10950.969076
506.422270	10972.386418
506.787625	10862.340550
507.152924	10982.814045
507.518164	10952.602410
507.883347	10882.031297
508.248472	10798.494337
508.613540	11035.289936
508.978550	10920.719633
509.343503	10892.975642
509.708398	11008.405463
510.073236	11131.394493
510.438016	11131.318876
510.802738	11075.596482
511.167403	11133.347940
511.532010	11026.936744
511.896561	11260.470717
512.261053	11337.698673
512.625488	11202.855369
512.989866	11182.859632
513.354186	11172.573158
513.718449	11074.893241
514.082655	11270.323652
514.446803	11157.427011
514.810894	11280.612647
515.174927	11152.373255
515.538904	11172.575679
515.902822	11326.222486
516.266684	11201.670698
516.630488	11150.288738
516.994235	11206.931142
517.357925	11268.304670
517.721558	11357.341529
518.085133	11377.652338
518.448651	11380.906403
518.812112	11267.097313
519.175516	11284.297730
519.538863	11407.420351
519.902152	11317.067751
520.265385	11484.981024
520.628560	11389.330171
520.991678	11369.523477
521.354739	11430.632344
521.717743	11366.498785
522.080690	11348.761485
522.443580	11482.127731
522.806413	11443.454519
523.169189	11464.932355
523.531908	11529.355780
523.894569	11343.007008
524.257174	11349.895745
524.619722	11473.328397
524.982213	11418.160529
525.344647	11469.411420
525.707025	11417.873184
526.069345	11515.832885
526.431608	11433.843559
526.793815	11544.935466
527.155964	11327.041674
527.518057	11378.905064
527.880093	11333.287663
528.242072	11400.584547
528.603995	11302.002262
528.965860	11224.055942
529.327669	11274.202820
529.689421	11228.938299
530.051117	11194.706344
530.412755	11303.698611
530.774337	11189.483709
531.135862	11173.588951
531.497331	11192.846158
531.858743	11042.750844
532.220098	11211.034641
532.581396	11078.474980
532.942638	11061.239275
533.303824	11025.739470
533.664953	11043.638087
534.026025	10953.343460
534.387040	11052.167719
534.747999	11060.185674
535.108902	11110.178797
535.469748	10868.183248
535.830537	10977.929167
536.191270	10957.217586
536.551947	10986.776392
536.912567	10974.924639
537.273131	10904.540049
537.633638	10884.483819
537.994089	10872.755574
538.354483	10823.553913
538.714821	10963.135901
539.075103	10977.823303
539.435328	10941.499269
539.795497	10767.012331
540.155609	10926.217011
540.515665	11009.585092
540.875665	10745.680689
541.235609	10812.072685
541.595496	10809.531943
541.955328	10965.865686
542.315102	10847.522079
542.674821	10799.147166
543.034483	10797.773452
543.394090	10805.776284
543.753640	10731.068904
544.113134	10946.217789
544.472571	10809.957921
544.831953	10947.667120
545.191278	10757.643347
545.550548	10785.999837
545.909761	10930.985942
546.268918	10900.416385
546.628019	10976.043775
546.987064	10837.018835
547.346053	10765.184913
547.704986	10861.813750
548.063863	10853.407626
548.422684	10844.076450
548.781449	10761.973698
549.140158	10861.501198
549.498811	10740.949566
549.857408	10597.974881
550.215949	10826.729840
550.574434	10683.692140
550.932864	10775.259659
551.291237	10840.013280
551.649555	10779.990782
552.007817	10791.066197
552.366022	10761.731723
552.724173	10755.508418
553.082267	10737.743392
553.440305	10873.978054
553.798288	10672.793166
554.156215	10826.737401
554.514086	10796.475355
554.871902	10648.257870
555.229661	10686.583242
555.587365	10664.729840
555.945014	10556.483664
556.302606	10685.297748
556.660143	10576.577703
557.017625	10735.099307
557.375050	10625.860023
557.732421	10763.498647
558.089735	10670.391056
558.446994	10684.624754
558.804197	10715.433766
559.161345	10722.438449
559.518437	10565.777031
559.875474	10653.750207
560.232455	10685.116266
560.589381	10636.569955
560.946251	10628.584767
561.303065	10738.620553
561.659825	10677.511686
562.016528	10602.491755
562.373177	10477.977775
562.729770	10597.604356
563.086307	10516.739207
563.442789	10604.813206
563.799216	10482.650925
564.155587	10535.184789
564.511904	10493.789354
564.868164	10479.769906
565.224370	10496.244396
565.580520	10421.325288
565.936615	10422.898128
566.292654	10297.857348
566.648638	10430.190157
567.004567	10380.731397
567.360441	10369.570282
567.716260	10276.261045
568.072023	10369.696311
568.427732	10321.409619
568.783385	10227.124919
569.138982	10301.645776
569.494525	10315.846706
569.850013	10195.663078
570.205445	10273.785839
570.560823	10163.530763
570.916145	10084.296428
571.271412	10155.656481
571.626625	10098.031051
571.981782	10075.870139
572.336884	10056.963291
572.691931	10057.164937
573.046923	10000.749385
573.401860	9955.419329
573.756743	9894.643179
574.111570	9938.148336
574.466342	9920.685779
574.821059	9953.831366
575.175722	9838.635959
575.530330	9853.517446
575.884882	9848.478812
576.239380	9766.860011
576.593823	9755.499771
576.948211	9770.295557
577.302544	9644.092791
577.656823	9663.629783
578.011047	9661.605760
578.365216	9632.155339
578.719330	9564.382067
579.073389	9571.023787
579.427394	9524.942600
579.781344	9496.497889
580.135239	9440.072254
580.489080	9455.493144
580.842866	9352.053708
581.196597	9361.296663
581.550273	9402.472808
581.903895	9370.935350
582.257463	9439.363972
582.610975	9311.137183
582.964434	9336.206841
583.317837	9267.052292
583.671186	9245.922296
584.024481	9233.019463
584.377721	9157.339141
584.730906	9131.571283
585.084037	9169.712653
585.437113	9102.196479
585.790135	9117.418243
586.143103	9022.183285
586.496016	8998.124379
586.848874	9051.358963
587.201679	9043.353611
587.554428	8925.070498
587.907124	8968.437024
588.259765	8937.660779
588.612352	8951.087893
588.964884	8817.434301
589.317362	8839.630502
589.669786	8833.092125
590.022155	8882.417295
590.374470	8899.864728
590.726731	8838.846602
591.078937	8686.669291
591.431090	8794.643245
591.783188	8676.783588
592.135232	8662.050816
592.487222	8664.112648
592.839157	8722.249755
593.191038	8658.668202
593.542866	8595.951207
593.894639	8496.743820
594.246358	8547.253661
594.598022	8566.674706
594.949633	8458.408366
595.301190	8440.844986
595.652692	8465.327349
596.004141	8579.237262
596.355535	8348.851490
596.706876	8335.336156
597.058162	8267.638501
597.409395	8346.640944
597.760573	8404.221003
598.111698	8317.487951
598.462768	8300.121176
598.813785	8265.949715
599.164748	8239.687824
599.515657	8229.149292
599.866511	8134.978017
600.217312	8261.826051
600.568060	8123.859752
600.918753	8220.196202
601.269392	8189.223353
601.619978	8109.805015
601.970510	8172.920262
602.320988	8170.689551
602.671412	8220.697797
603.021783	8158.890730
603.372100	8134.229406
603.722363	8136.974314
604.072572	8110.019264
604.422728	8119.247097
604.772830	8047.607259
605.122878	8061.089825
605.472872	8052.474493
605.822813	8076.571209
606.172701	8024.528857
606.522534	8100.914941
606.872314	8102.727235
607.222041	8064.936226
607.571714	8129.342007
607.921333	8083.472548
608.270899	8090.769618
608.620411	8179.279677
608.969870	8078.403668
609.319276	8078.726302
609.668627	8096.713139
610.017926	8126.992829
610.367171	8171.954881
610.716362	8152.100296
611.065500	8143.447156
611.414585	8168.191659
611.763616	8162.452306
612.112594	8146.267681
612.461518	8156.856625
612.810389	8221.154022
613.159207	8159.488107
613.507971	8103.203624
613.856682	8224.524033
614.205340	8176.459152
614.553945	8257.634331
614.902496	8155.384608
615.250994	8207.462248
615.599439	8188.378960
615.947830	8204.243471
616.296169	8179.967795
616.644454	8190.702932
616.992686	8182.543824
617.340864	8249.089576
617.688990	8149.289853
618.037063	8240.973318
618.385082	8192.268210
618.733048	8268.671938
619.080961	8214.547589
619.428821	8231.959735
619.776628	8237.530210
620.124382	8187.809309
620.472083	8167.629571
620.819731	8198.496556
621.167326	8092.629804
621.514868	8092.793642
621.862357	7988.174576
622.209793	8000.442224
622.557176	7939.333357
622.904506	7907.110302
623.251783	7840.773758
623.599007	7794.551418
623.946179	7796.245246
624.293297	7753.178669
624.640363	7677.170672
624.987376	7654.954307
625.334336	7609.904035
625.681243	7554.090901
626.028097	7544.497585
626.374899	7516.655292
626.721647	7512.024992
627.068343	7441.179137
627.414987	7419.124089
627.761577	7369.007458
628.108115	7405.197901
628.454600	7298.577497
628.801032	7352.837957
629.147412	7308.357336
629.493739	7303.598487
629.840014	7238.718837
630.186236	7291.219933
630.532405	7174.789444
630.878521	7229.765747
631.224585	7183.992070
631.570597	7108.697397
631.916556	7143.199053
632.262462	7134.505584
632.608316	7097.337156
632.954117	7074.079793
633.299866	7067.480923
633.645562	7051.278654
633.991206	6976.299052
634.336797	6914.847387
634.682336	6878.664505
635.027823	6842.781572
635.373257	6832.835376
635.718639	6763.300220
636.063968	6779.104238
636.409245	6674.167579
636.754470	6670.913514
637.099642	6633.598893
637.444762	6572.482465
637.789829	6583.441933
638.134845	6527.827924
638.479808	6510.483834
638.824719	6513.324524
639.169577	6444.301046
639.514383	6463.520445
639.859137	6392.714919
640.203839	6399.086937
640.548489	6381.818465
640.893086	6360.617892
641.237632	6334.545044
641.582125	6354.230750
641.926566	6317.163146
642.270955	6339.382032
642.615292	6334.575291
642.959576	6346.225398
643.303809	6337.453790
643.647990	6342.978895
643.992118	6332.498336
644.336195	6282.661489
644.680219	6306.163348
645.024192	6298.770496
645.368112	6397.347739
645.711981	6412.607312
646.055797	6489.999106
646.399562	6452.797911
646.743274	6574.728299
647.086935	6633.125025
647.430544	6629.092102
647.774101	6644.563403
648.117606	6651.126985
648.461059	6643.585419
648.804460	6603.609069
649.147810	6515.109093
649.491108	6479.637014
649.834354	6457.760927
650.177548	6372.386466
650.520690	6284.993023
650.863781	6267.270846
651.206820	6286.293640
651.549807	6206.245158
651.892742	6148.322301
652.235626	6161.479712
652.578458	6141.090766
652.921238	6049.898813
653.263967	6087.742755
653.606644	6030.618920
653.949269	6028.698241
654.291843	5970.941741
654.634365	6018.873032
654.976836	5976.504654
655.319255	5973.812678
655.661622	5955.296520
656.003938	5949.363082
656.346203	5910.551238
656.688416	5940.397390
657.030577	5896.859465
657.372687	5863.308065
657.714746	5849.787691
658.056753	5893.139093
658.398708	5831.808415
658.740612	5825.068393
659.082465	5870.761411
659.424266	5869.231421
659.766016	5865.049784
660.107715	5837.855279
660.449362	5851.710891
660.790958	5846.185786
661.132503	5830.926213
661.473996	5878.683584
661.815438	5858.715574
662.156829	5853.313978
662.498168	5846.037072
662.839456	5822.651159
663.180693	5863.015678
663.521879	5861.773034
663.863013	5847.128482
664.204097	5869.266709
664.545129	5908.731382
664.886110	5901.686369
665.227040	5943.253203
665.567918	5901.467079
665.908746	5926.352735
666.249522	5938.123829
666.590248	5916.736734
666.930922	5950.469615
667.271545	5959.495801
667.612118	5964.171471
667.952639	5936.636689
668.293109	5959.838600
668.633528	5920.817548
668.973896	5922.551705
669.314213	5910.145426
669.654480	5896.380555
669.994695	5886.555346
670.334859	5875.721907
670.674973	5870.209405
671.015035	5874.670826
671.355047	5872.790476
671.695008	5858.879412
672.034918	5836.748746
672.374777	5846.132854
672.714585	5826.038815
673.054342	5834.122305
673.394049	5830.840514
673.733705	5858.266911
674.073310	5845.701835
674.412864	5803.220032
674.752368	5793.946829
675.091820	5800.500329
675.431223	5733.677315
675.770574	5739.257872
676.109875	5688.866498
676.449125	5697.416295
676.788324	5656.837527
677.127473	5600.623621
677.466571	5592.255305
677.805619	5584.451599
678.144616	5567.684721
678.483562	5548.125044
678.822458	5517.459706
679.161303	5511.692626
679.500098	5500.919680
679.838842	5488.904090
680.177535	5495.203011
680.516179	5505.968395
680.854771	5520.459192
681.193314	5598.236634
681.531805	5707.251586
681.870247	5856.404205
682.208638	5955.785512
682.546978	5972.766639
682.885268	5947.563390
683.223508	5862.390575
683.561697	5810.139016
683.899836	5781.714470
684.237925	5736.230659
684.575963	5699.279001
684.913951	5659.756355
685.251889	5722.359924
685.589776	5685.665365
685.927614	5658.357435
686.265401	5730.173713
686.603137	5709.252924
686.940824	5789.124966
687.278460	5817.357948
687.616046	5822.356252
687.953582	5892.869391
688.291068	5873.914653
688.628504	5940.654489
688.965889	5902.636627
689.303224	5845.875755
689.640510	5794.760976
689.977745	5721.656683
690.314930	5621.471312
690.652065	5566.863013
690.989150	5473.664682
691.326185	5398.919493
691.663170	5342.987892
692.000105	5267.486530
692.336990	5192.693451
692.673825	5160.041898
693.010610	5097.713072
693.347345	5027.978791
693.684030	5013.664434
694.020665	4971.596005
694.357251	4881.722315
694.693786	4889.634406
695.030272	4859.349674
695.366707	4821.296524
695.703093	4787.185557
696.039429	4809.369154
696.375716	4792.990445
696.711952	4765.982463
697.048139	4752.570474
697.384276	4733.136826
697.720363	4748.386316
698.056400	4756.114405
698.392388	4705.027352
698.728326	4688.147048
699.064214	4663.810878
699.400053	4656.478520
699.735842	4625.896360
700.071581	4598.769911
700.407270	4574.436261
700.742910	4556.613262
701.078501	4499.736444
701.414042	4500.558152
701.749533	4472.241991
702.084974	4403.107607
702.420366	4462.908294
702.755709	4403.954521
703.091002	4344.539481
703.426246	4399.099889
703.761440	4353.530379
704.096584	4318.731294
704.431679	4337.499510
704.766725	4319.119463
705.101721	4310.148730
705.436668	4339.551260
705.771565	4284.088485
706.106413	4314.741221
706.441212	4349.003423
706.775961	4353.795040
707.110661	4334.472297
707.445311	4362.745608
707.779913	4385.181264
708.114465	4398.968819
708.448967	4420.728960
708.783421	4480.179287
709.117825	4522.527500
709.452180	4525.166544
709.786485	4572.792845
710.120742	4663.016896
710.454949	4647.807735
710.789107	4710.875090
711.123216	4786.210093
711.457275	4776.768012
711.791286	4852.203838
712.125247	4869.179924
712.459159	4770.496817
712.793023	4843.011294
713.126837	4806.467970
713.460602	4797.182165
713.794318	4718.313313
714.127985	4723.503181
714.461602	4638.032938
714.795171	4608.950521
715.128691	4547.115728
715.462162	4490.498529
715.795584	4440.933905
716.128957	4420.539917
716.462281	4365.392214
716.795556	4341.935725
717.128782	4300.903254
717.461960	4236.976382
717.795088	4244.505345
718.128167	4204.922205
718.461198	4145.000530
718.794180	4140.856701
719.127113	4119.535141
719.459997	4097.316256
719.792833	4056.399730
720.125619	4047.847413
720.458357	4009.128831
720.791046	4020.226931
721.123686	3991.091582
721.456278	3948.703040
721.788821	3965.870690
722.121315	3939.092080
722.453761	3909.886156
722.786158	3925.465842
723.118506	3947.208338
723.450805	3898.241090
723.783056	3925.329730
724.115259	3935.699384
724.447412	3942.414201
724.779518	3938.766926
725.111574	3939.041669
725.443582	3968.545022
725.775542	3957.945996
726.107453	4008.067668
726.439315	4006.396525
726.771129	4023.682642
727.102895	4055.842683
727.434612	4105.402266
727.766281	4117.294348
728.097901	4117.758134
728.429473	4123.121922
728.760996	4131.389414
729.092471	4126.444043
729.423897	4104.073922
729.755276	4117.160758
730.086606	4114.751086
730.417887	4150.210562
730.749120	4218.482909
731.080305	4280.847023
731.411442	4308.754851
731.742530	4274.845529
732.073570	4283.067651
732.404562	4340.035210
732.735506	4328.075073
733.066401	4290.730205
733.397249	4226.999938
733.728048	4147.969769
734.058798	4067.369281
734.389501	3993.642406
734.720156	3933.226698
735.050762	3889.424112
735.381320	3884.380438
735.711831	3831.997808
736.042293	3801.897078
736.372707	3822.525480
736.703073	3796.631593
737.033391	3788.328813
737.363661	3805.519147
737.693883	3829.109227
738.024056	3838.279086
738.354182	3832.965710
738.684260	3896.080956
739.014290	3918.985438
739.344272	3913.178029
739.674207	3956.645378
740.004093	3961.121923
740.333931	3956.383238
740.663722	3957.681335
740.993464	3950.122125
741.323159	3927.157149
741.652806	3900.716297
741.982405	3875.150085
742.311956	3838.755475
742.641460	3831.236594
742.970915	3804.848674
743.300323	3766.621604
743.629683	3730.801686
743.958996	3723.257599
744.288260	3699.528888
744.617477	3661.785769
744.946647	3650.473420
745.275768	3625.484420
745.604842	3621.804378
745.933869	3575.181267
746.262847	3567.369999
746.591778	3603.464660
746.920662	3573.638673
747.249498	3544.659601
747.578286	3592.021241
747.907027	3608.520937
748.235720	3603.109259
748.564365	3630.086994
748.892963	3629.842498
749.221514	3611.976648
749.550017	3587.103595
749.878473	3589.530911
750.206881	3558.265675
750.535242	3553.978173
750.863555	3555.601425
751.191821	3551.356773
751.520039	3534.191645
751.848210	3507.546626
752.176334	3543.215310
752.504411	3548.654715
752.832440	3510.326822
753.160421	3493.043226
753.488356	3502.513034
753.816243	3515.922503
754.144082	3469.614464
754.471875	3457.656847
754.799620	3476.803149
755.127318	3464.575831
755.454969	3465.377374
755.782572	3473.102942
756.110129	3446.851134
756.437638	3435.838733
756.765100	3451.529324
757.092515	3462.110706
757.419882	3468.639001
757.747203	3441.842747
758.074477	3443.317285
758.401703	3460.744554
758.728882	3481.723315
759.056014	3487.719768
759.383099	3495.581447
759.710138	3486.840087
760.037129	3505.736852
760.364073	3536.109804
760.690970	3520.494830
761.017820	3497.744102
761.344623	3516.958460
761.671379	3563.238773
761.998088	3614.895477
762.324751	3739.706884
762.651366	3987.852641
762.977935	4462.651195
763.304456	4909.680554
763.630931	5000.761601
763.957359	4642.083505
764.283740	4300.406700
764.610074	4105.366978
764.936362	3906.427924
765.262602	3748.919593
765.588796	3635.337355
765.914943	3546.431566
766.241044	3459.199440
766.567097	3430.981581
766.893104	3381.091802
767.219064	3351.560723
767.544978	3325.918894
767.870845	3271.492077
768.196665	3250.074734
768.522438	3257.013883
768.848165	3252.744025
769.173846	3219.825291
769.499479	3201.989688
769.825066	3186.495702
770.150607	3170.008608
770.476101	3185.321113
770.801548	3181.134435
771.126949	3133.160294
771.452303	3115.296966
771.777611	3124.038327
772.102872	3126.337093
772.428087	3102.210130
772.753256	3089.418202
773.078378	3083.202460
773.403453	3051.344888
773.728482	3037.973227
774.053465	3061.437278
774.378401	3048.244578
774.703291	3013.919362
775.028135	3019.237779
775.352932	3012.580936
775.677683	3002.569204
776.002388	2997.449912
776.327046	2999.584841
776.651658	2986.858448
776.976224	2975.654484
777.300743	2978.283445
777.625216	2968.249029
777.949643	2961.791311
778.274024	2964.261476
778.598359	2951.078859
778.922647	2959.525312
779.246889	2956.241000
779.571086	2942.556788
779.895236	2935.572269
780.219339	2949.591718
780.543397	2959.036320
780.867409	2965.342803
781.191374	2954.224539
781.515294	2952.286215
781.839167	2952.495423
782.162995	2947.058538
782.486776	2953.927111
782.810511	2950.408385
783.134201	2934.294337
783.457844	2945.349587
783.781441	2934.770726
784.104993	2918.649116
784.428498	2916.022675
784.751958	2931.675458
785.075372	2925.759663
785.398739	2908.677714
785.722061	2925.603388
786.045337	2933.500355
786.368568	2919.725402
786.691752	2913.718868
787.014891	2961.463636
787.337983	2990.785507
787.661030	3019.716689
787.984031	3083.525094
788.306987	3132.578041
788.629897	3125.328862
788.952760	3107.294134
789.275579	3095.215529
789.598351	3030.381250
789.921078	2989.555465
790.243759	2981.328302
790.566395	2960.838533
790.888984	2938.468412
791.211529	2922.984508
791.534027	2911.813311
791.856480	2902.227557
792.178888	2887.893036
792.501249	2874.859133
792.823566	2874.670090
793.145836	2874.266798
793.468062	2872.588093
793.790241	2868.192207
794.112375	2874.964997
794.434464	2884.825494
794.756507	2889.667523
795.078505	2898.214799
795.400457	2910.535379
795.722364	2949.185905
796.044226	2972.113073
796.366042	2977.071048
796.687812	2961.821557
797.009538	2983.826194
797.331218	2971.329174
797.652852	2959.006073
797.974442	2935.731066
798.295986	2933.026487
798.617484	2929.273348
798.938938	2915.788261
799.260346	2900.120355
799.581709	2892.717421
799.903026	2884.555793
800.224299	2879.738970
800.545526	2869.664224
800.866708	2854.412213
801.187845	2844.251767
801.508936	2846.863085
801.829983	2856.690815
802.150984	2841.325378
802.471940	2826.459015
802.792851	2825.821309
803.113717	2828.304077
803.434538	2832.601661
803.755314	2825.050012
804.076045	2815.965853
804.396731	2817.636996
804.717372	2821.511122
805.037967	2817.246306
805.358518	2822.189158
805.679024	2833.612412
805.999485	2828.299036
806.319901	2834.492094
806.640272	2825.574292
806.960598	2827.631083
807.280879	2838.275480
807.601115	2846.759742
807.921306	2835.182732
808.241453	2830.892710
808.561554	2834.610561
808.881611	2839.238340
809.201623	2833.267093
809.521590	2831.517813
809.841513	2826.849704
810.161390	2832.024449
810.481223	2826.128819
810.801011	2815.973415
811.120755	2810.919658
811.440453	2813.636840
811.760107	2814.062818
812.079716	2811.234730
812.399281	2803.037814
812.718801	2799.224181
813.038276	2790.306380
813.357707	2798.130251
813.677093	2805.344142
813.996434	2798.800724
814.315731	2794.581279
814.634983	2788.819240
814.954191	2790.288736
815.273354	2804.119142
815.592473	2814.284628
815.911547	2813.929227
816.230577	2823.479693
816.549562	2833.080571
816.868502	2832.742813
817.187399	2843.888804
817.506250	2858.787935
817.825058	2854.787779
818.143821	2863.574510
818.462539	2879.759135
818.781213	2908.352559
819.099843	2945.125256
819.418429	3001.712208
819.736970	3063.456260
820.055466	3137.304123
820.373919	3245.401585
820.692327	3383.078017
821.010691	3552.919531
821.329011	4002.166997
821.647286	4910.683743
821.965517	6307.640406
822.283704	7062.636374
822.601847	7048.211112
822.919945	6402.908132
823.237999	5883.931426
823.556010	5297.927538
823.873976	4740.580089
824.191897	4330.126823
824.509775	4028.776728
824.827609	3753.063421
825.145398	3632.030358
825.463144	3619.855972
825.780845	3706.722614
826.098502	3818.482475
826.416116	4099.892285
826.733685	4424.340947
827.051210	4488.713961
827.368692	4371.502093
827.686129	4101.218109
828.003522	3771.546812
828.320872	3512.209693
828.638177	3316.076041
828.955439	3175.742921
829.272656	3092.783173
829.589830	3023.121988
829.906960	2974.865543
830.224046	2928.701177
830.541088	2890.516957
830.858086	2881.107643
831.175041	2860.764067
831.491952	2861.827750
831.808819	2875.060779
832.125642	2897.486352
832.442421	2945.105091
832.759157	3024.331865
833.075849	3205.442879
833.392497	3488.445694
833.709101	3695.644679
834.025662	3645.293634
834.342179	3483.102071
834.658653	3304.909885
834.975083	3156.692401
835.291469	3057.548028
835.607811	2971.833289
835.924110	2911.740215
836.240366	2863.670292
836.556578	2815.436532
836.872746	2791.874179
837.188871	2770.963473
837.504952	2756.364291
837.820990	2746.463465
838.136984	2732.625498
838.452935	2722.586040
838.768842	2722.528067
839.084706	2742.853999
839.400526	2820.639003
839.716303	2956.447688
840.032037	3039.480532
840.347727	3023.810106
840.663373	2961.529171
840.978977	2886.478993
841.294537	2811.108702
841.610054	2763.842843
841.925527	2739.370562
842.240957	2718.583364
842.556344	2695.971268
842.871687	2681.679597
843.186987	2671.347752
843.502244	2667.874397
843.817458	2663.551608
844.132629	2650.769762
844.447756	2643.394554
844.762840	2633.907103
845.077881	2637.536733
845.392879	2635.719397
845.707833	2630.131278
846.022745	2621.415123
846.337613	2628.697070
846.652438	2623.446708
846.967221	2628.074488
847.281960	2622.904784
847.596656	2622.922428
847.911309	2623.237501
848.225919	2620.648868
848.540485	2615.156531
848.855009	2617.409927
849.169490	2612.693927
849.483928	2616.915894
849.798323	2614.654936
850.112675	2612.966150
850.426984	2613.356839
850.741251	2613.540841
851.055474	2612.104112
851.369654	2620.522839
851.683792	2615.055708
851.997887	2613.626541
852.311938	2611.657970
852.625947	2613.561006
852.939914	2616.409258
853.253837	2616.893208
853.567718	2612.492281
853.881555	2611.857096
854.195350	2617.488065
854.509103	2615.285080
854.822812	2611.915069
855.136479	2611.143772
855.450103	2614.380193
855.763685	2617.084772
856.077224	2612.285594
856.390720	2611.105964
856.704173	2612.746859
857.017584	2618.466048
857.330953	2617.609052
857.644278	2620.679115
857.957561	2621.470576
858.270802	2616.865482
858.584000	2616.381531
858.897155	2621.011831
859.210268	2618.710544
859.523339	2614.692745
859.836367	2611.453803
860.149352	2612.217538
860.462295	2615.466562
860.775195	2608.973556
861.088054	2608.061107
861.400869	2611.932713
861.713642	2605.991713
862.026373	2610.261571
862.339062	2611.577312
862.651708	2614.536469
862.964312	2617.147787
863.276873	2614.536469
863.589392	2615.302724
863.901869	2621.495782
864.214303	2625.110289
864.526696	2628.359313
864.839045	2631.976341
865.151353	2633.934829
865.463619	2632.850981
865.775842	2631.815024
866.088023	2632.198152
866.400162	2634.507000
866.712258	2634.890128
867.024313	2630.448871
867.336325	2628.344189
867.648296	2631.099180
867.960224	2636.929274
868.272110	2634.138996
868.583954	2628.298819
868.895755	2630.416104
869.207515	2631.595734
869.519233	2642.008237
869.830909	2638.550005
870.142542	2632.394757
870.454134	2636.276445
870.765684	2640.679893
871.077191	2641.012609
871.388657	2644.261633
871.700081	2642.895480
872.011463	2641.194091
872.322803	2643.681900
872.634101	2649.816984
872.945357	2653.595329
873.256571	2661.005825
873.567744	2658.301246
873.878874	2656.874600
874.189963	2658.258396
874.501010	2664.017915
874.812015	2666.399860
875.122979	2666.732576
875.433900	2659.780825
875.744780	2659.828716
876.055618	2666.077226
876.366415	2669.812721
876.677169	2671.667866
876.987882	2662.961793
877.298554	2664.033038
877.609183	2671.047804
877.919771	2678.135666
878.230317	2685.518436
878.540822	2698.315405
878.851285	2712.362580
879.161707	2735.758575
879.472087	2774.822476
879.782425	2823.822492
880.092722	2937.911365
880.402977	3133.051910
880.713191	3397.951941
881.023363	3701.663817
881.333494	3895.279412
881.643583	4071.313984
881.953631	4070.792225
882.263637	3890.321437
882.573602	3667.406656
882.883526	3533.561500
883.193408	3416.082451
883.503248	3309.555309
883.813048	3193.480221
884.122806	3078.856985
884.432522	2988.335506
884.742197	2923.082811
885.051831	2883.136708
885.361424	2845.469206
885.670975	2809.765234
885.980485	2780.408075
886.289954	2759.666247
886.599382	2744.898187
886.908768	2733.795046
887.218113	2718.417006
887.527417	2698.668286
887.836680	2694.554704
888.145901	2688.144877
888.455082	2680.089113
888.764221	2669.467402
889.073319	2660.738644
889.382376	2658.558345
889.691392	2661.462050
890.000366	2661.283089
890.309300	2658.281082
890.618193	2660.297543
890.927044	2665.905827
891.235855	2665.079078
891.544625	2663.125630
891.853353	2660.975578
892.162041	2670.032011
892.470687	2690.037830
892.779293	2701.055272
893.087858	2713.539689
893.396381	2737.132289
893.704864	2780.027467
894.013306	2850.890967
894.321707	2950.201698
894.630068	3001.230778
894.938387	3021.602080
895.246665	3010.574556
895.554903	2968.012094
895.863100	2923.765887
896.171256	2861.711804
896.479371	2800.734007
896.787446	2760.445105
897.095480	2743.456417
897.403473	2735.430900
897.711425	2719.339537
898.019336	2701.516537
898.327207	2684.273271
898.635038	2685.533559
898.942827	2683.161696
899.250576	2674.092661
899.558284	2662.200579
899.865952	2654.966523
900.173579	2653.527273
900.481165	2650.767242
900.788711	2642.376241
901.096216	2634.275107
901.403681	2636.667134
901.711105	2634.287710
902.018489	2634.023049
902.325832	2636.536064
902.633135	2635.855509
902.940397	2656.826709
903.247619	2690.723427
903.554800	2765.151022
903.861941	2891.923439
904.169041	3022.776669
904.476101	3091.507761
904.783121	3084.503078
905.090100	3024.757843
905.397039	2944.548044
905.703938	2865.805221
906.010796	2805.691982
906.317614	2751.010586
906.624391	2713.985832
906.931129	2685.394927
907.237826	2660.635300
907.544483	2644.571664
907.851099	2629.596916
908.157675	2620.114506
908.464211	2609.722167
908.770707	2603.685385
909.077163	2597.535178
909.383578	2592.025197
909.689954	2592.748602
909.996289	2590.341451
910.302584	2590.669126
910.608839	2586.462283
910.915054	2587.969588
911.221229	2589.860021
911.527363	2592.703232
911.833458	2592.287337
912.139513	2592.362954
912.445527	2594.971751
912.751502	2599.533995
913.057436	2605.321240
913.363331	2608.136724
913.669186	2623.063581
913.975000	2636.566311
914.280775	2654.810247
914.586510	2674.233813
914.892205	2713.930379
915.197859	2782.364042
915.503475	2868.456868
915.809050	2937.087136
916.114585	2954.562296
916.420081	2966.701394
916.725536	2977.174392
917.030952	2948.192798
917.336328	2899.465005
917.641665	2849.892819
917.946961	2799.824079
918.252218	2762.194386
918.557435	2736.234964
918.862612	2710.429297
919.167750	2696.679550
919.472848	2676.900583
919.777906	2659.629590
920.082925	2647.717344
920.387904	2635.890797
920.692843	2632.989613
920.997743	2626.937707
921.302603	2619.940586
921.607423	2613.104781
921.912204	2607.433483
922.216946	2604.519696
922.521647	2598.800507
922.826310	2598.324118
923.130932	2591.422779
923.435516	2587.543611
923.740059	2584.859196
924.044564	2586.240472
924.349028	2582.288208
924.653454	2575.265881
924.957840	2572.268915
925.262186	2567.757082
925.566493	2570.706157
925.870761	2567.086608
926.174989	2570.121383
926.479178	2567.515107
926.783328	2563.197358
927.087438	2563.159550
927.391509	2560.656617
927.695541	2560.356668
927.999533	2559.081256
928.303486	2558.428427
928.607400	2557.997408
928.911275	2555.769218
929.215110	2556.905998
929.518906	2556.243087
929.822663	2556.469938
930.126381	2556.989177
930.430060	2556.918601
930.733699	2555.945658
931.037299	2555.761656
931.340861	2554.423230
931.644383	2559.885320
931.947866	2557.455484
932.251309	2556.870710
932.554714	2556.686708
932.858080	2559.151832
933.161407	2555.471790
933.464694	2555.590257
933.767943	2556.409445
934.071153	2552.439536
934.374323	2553.851059
934.677455	2552.805020
934.980548	2554.856769
935.283602	2554.690411
935.586617	2553.278888
935.889593	2555.376008
936.192530	2553.208312
936.495428	2554.287119
936.798287	2554.143446
937.101108	2558.188972
937.403890	2560.069322
937.706632	2563.802297
938.009336	2564.545867
938.312002	2569.750858
938.614628	2573.725808
938.917216	2574.610531
939.219765	2576.208576
939.522275	2575.281004
939.824747	2579.671849
940.127179	2573.420818
940.429573	2568.316650
940.731929	2570.144068
941.034246	2567.389078
941.336524	2568.543502
941.638763	2569.720611
941.940964	2569.125755
942.243126	2563.961093
942.545250	2564.681978
942.847335	2564.555949
943.149381	2561.758109
943.451389	2558.594785
943.753359	2560.906154
944.055290	2559.872717
944.357182	2559.056050
944.659036	2555.431461
944.960851	2555.867521
945.262628	2555.121430
945.564367	2558.499003
945.866067	2558.002449
946.167729	2558.766184
946.469352	2555.098745
946.770937	2559.000598
947.072484	2558.640155
947.373992	2554.156049
947.675462	2557.062274
947.976893	2553.510781
948.278286	2555.925494
948.579641	2554.667726
948.880958	2553.021789
949.182236	2555.176882
949.483476	2555.242417
949.784678	2554.846687
950.085841	2552.414330
950.386967	2553.546069
950.688054	2553.455328
950.989103	2557.450443
951.290114	2555.764177
951.591087	2559.416493
951.892021	2560.323901
952.192917	2559.638304
952.493776	2558.967830
952.794596	2559.857594
953.095378	2563.565362
953.396122	2561.889179
953.696828	2558.153684
953.997496	2559.348437
954.298126	2556.961451
954.598718	2559.653427
954.899272	2555.406255
955.199788	2550.259237
955.500266	2553.586398
955.800706	2548.774617
956.101108	2547.113557
956.401472	2542.682383
956.701798	2544.058618
957.002087	2543.118442
957.302337	2545.263453
957.602550	2545.490305
957.902724	2543.751107
958.202861	2540.713812
958.502960	2543.907383
958.803022	2542.800850
959.103045	2541.800181
959.403031	2542.790768
959.702979	2541.870757
960.002889	2540.088709
960.302762	2540.166847
960.602596	2539.161137
960.902393	2539.725746
961.202153	2538.480581
961.501875	2537.116949
961.801559	2542.387475
962.101205	2537.089223
962.400814	2536.070909
962.700385	2535.206352
962.999918	2539.713143
963.299414	2536.383461
963.598873	2538.001671
963.898293	2536.325488
964.197677	2537.041332
964.497022	2541.812784
964.796331	2536.559901
965.095601	2537.217772
965.394835	2538.672145
965.694030	2537.774819
965.993189	2535.410518
966.292309	2535.440765
966.591393	2539.332536
966.890439	2536.953111
967.189447	2536.423790
967.488419	2538.735159
967.787353	2538.445293
968.086249	2536.242309
968.385108	2535.675179
968.683930	2538.316743
968.982714	2536.786753
969.281462	2537.134593
969.580172	2537.200128
969.878844	2536.683410
970.177480	2536.333049
970.476078	2537.353883
970.774639	2541.086858
971.073162	2536.905220
971.371649	2537.840354
971.670098	2535.559232
971.968510	2539.193904
972.266885	2536.275076
972.565223	2537.220292
972.863524	2539.425797
973.161788	2542.687424
973.460014	2536.789274
973.758204	2536.643080
974.056356	2536.968235
974.354471	2538.750283
974.652550	2540.242464
974.950591	2538.841023
975.248595	2538.263811
975.546563	2537.258101
975.844493	2538.173071
976.142386	2536.383461
976.440243	2537.346321
976.738062	2540.499563
977.035845	2532.849612
977.333590	2535.954963
977.631299	2534.588810
977.928971	2534.815662
978.226606	2532.834489
978.524204	2534.853471
978.821765	2536.832124
979.119290	2533.389016
979.416777	2534.581248
979.714228	2536.572504
980.011642	2537.517721
980.309020	2537.424459
980.606360	2535.879346
980.903664	2539.198945
981.200931	2536.249870
981.498162	2540.013092
981.795356	2541.137269
982.092513	2544.169523
982.389633	2546.264122
982.686717	2550.869217
982.983764	2551.017931
983.280775	2554.375339
983.577749	2552.593291
983.874686	2551.343085
984.171587	2548.562889
984.468451	2547.007693
984.765279	2542.788247
985.062070	2544.661036
985.358824	2540.781868
985.655543	2538.019315
985.952224	2536.244829
986.248869	2538.334388
986.545478	2532.227030
986.842050	2535.881866
987.138586	2532.234591
987.435086	2532.179139
987.731549	2530.392050
988.027975	2537.641229
988.324366	2534.523275
988.620719	2537.555529
988.917037	2532.645445
989.213318	2533.429345
989.509563	2532.698378
989.805772	2536.960673
990.101944	2534.732483
990.398080	2532.819365
990.694180	2533.023532
990.990244	2535.997813
991.286271	2533.028573
991.582262	2533.099149
991.878217	2535.997813
992.174136	2536.890097
992.470019	2533.842719
992.765865	2532.844571
993.061676	2533.341125
993.357450	2534.727442
993.653188	2534.379602
993.948890	2537.048893
994.244556	2532.726104
994.540186	2533.429345
994.835780	2533.452030
995.131337	2536.380940
995.426859	2535.392874
995.722345	2535.201310
996.017795	2537.558050
996.313208	2539.355221
996.608586	2537.749614
996.903928	2540.418905
997.199234	2537.827752
997.494504	2536.128883
997.789738	2536.615354
998.084936	2536.496887
998.380099	2533.512524
998.675225	2533.638553
998.970316	2535.294572
999.265371	2534.820703
999.560390	2535.347504
999.855373	2537.800025
1000.150320	2534.407329
1000.445232	2535.849099
1000.740108	2533.013450
1001.034948	2531.246525
1001.329752	2532.859694
1001.624521	2533.336083
1001.919254	2527.586647
1002.213951	2528.673016
1002.508613	2528.877183
1002.803239	2531.017153
1003.097829	2528.423479
1003.392384	2530.046731
1003.686903	2530.094622
1003.981386	2531.044879
1004.275834	2529.754344
1004.570246	2530.926412
1004.864623	2532.630322
1005.158964	2531.765764
1005.453270	2531.251566
1005.747540	2531.836340
1006.041775	2532.912627
1006.335974	2529.777029
1006.630138	2529.837523
1006.924266	2531.312060
1007.218359	2530.903727
1007.512416	2532.862215
1007.806438	2531.612009
1008.100425	2529.635877
1008.394376	2530.659231
1008.688292	2528.831813
1008.982172	2530.450023
1009.276017	2530.223171
1009.569827	2531.367513
1009.863602	2532.474046
1010.157341	2531.264169
1010.451045	2531.647297
1010.744714	2531.702750
1011.038347	2533.820034
1011.331945	2531.281813
1011.625508	2532.075795
1011.919036	2530.928932
1012.212528	2529.532533
1012.505986	2529.270393
1012.799408	2530.248377
1013.092795	2531.493542
1013.386147	2532.375744
1013.679464	2529.230064
1013.972745	2532.126207
1014.265992	2530.278624
1014.559204	2530.334076
1014.852380	2532.443799
1015.145521	2531.428007
1015.438628	2530.061854
1015.731699	2528.902389
1016.024736	2531.480939
1016.317737	2530.379447
1016.610703	2532.854653
1016.903635	2529.653521
1017.196531	2528.279806
1017.489393	2528.652852
1017.782219	2524.793848
1018.075011	2529.837523
1018.367768	2528.438602
1018.660490	2532.741227
1018.953177	2532.741227
1019.245829	2532.741227
