Dividing Wavelength (nm)	Counts (n)	Blue Motor Position (mm): 41.200000	Red Motor Position (mm): 0.000000	
326.493990	2132.224075
326.888308	2132.224075
327.282561	2132.224075
327.676750	2099.880032
328.070874	2095.665627
328.464933	2099.380958
328.858929	2107.330857
329.252859	2116.190685
329.646726	2126.467077
330.040528	2137.703809
330.434265	2156.230049
330.827938	2173.508604
331.221547	2190.530060
331.615091	2210.619058
332.008571	2230.090515
332.401986	2250.940727
332.795338	2266.722059
333.188625	2287.418517
333.581847	2306.189253
333.975006	2326.227839
334.368100	2344.237362
334.761129	2360.752182
335.154095	2376.195756
335.546996	2399.574107
335.939833	2425.122675
336.332606	2438.814449
336.725315	2451.929011
337.117960	2464.877214
337.510540	2469.323512
337.903056	2480.678711
338.295508	2492.028869
338.687896	2496.707060
339.080220	2505.602176
339.472480	2512.805984
339.864676	2519.533404
340.256807	2522.795031
340.648875	2524.902233
341.040879	2528.841895
341.432818	2526.580937
341.824694	2529.262831
342.216506	2529.436751
342.608253	2527.992460
342.999937	2530.669313
343.391557	2530.883562
343.783113	2526.903571
344.174605	2525.497089
344.566033	2525.698735
344.957397	2524.440968
345.348697	2523.170597
345.739934	2521.353261
346.131106	2518.862931
346.522215	2518.641120
346.913260	2515.092148
347.304241	2511.684328
347.695159	2512.047291
348.086012	2508.989831
348.476802	2507.908503
348.867528	2507.764831
349.258191	2505.017402
349.648789	2506.544871
350.039324	2499.051196
350.429796	2502.832062
350.820203	2501.163440
351.210548	2500.946670
351.600828	2497.710249
351.991045	2499.504900
352.381198	2496.157574
352.771288	2497.523727
353.161314	2495.887872
353.551276	2498.968017
353.941175	2496.109683
354.331010	2496.520537
354.720782	2495.439209
355.110490	2494.718324
355.500135	2497.196052
355.889717	2496.374343
356.279235	2494.403252
356.668689	2499.875425
357.058080	2496.011380
357.447408	2496.573469
357.836672	2493.546256
358.225873	2495.736637
358.615010	2493.321925
359.004084	2498.836947
359.393095	2501.367606
359.782043	2501.314674
360.170927	2499.706546
360.559748	2501.541526
360.948505	2499.222595
361.337199	2504.672083
361.725830	2503.459685
362.114398	2507.149810
362.502903	2504.987155
362.891344	2506.484378
363.279722	2503.956239
363.668037	2506.537310
364.056289	2508.180726
364.444478	2504.422546
364.832603	2505.592093
365.220665	2506.146620
365.608665	2506.436487
365.996601	2508.011847
366.384474	2507.916065
366.772284	2512.871519
367.160031	2511.991838
367.547715	2511.913700
367.935336	2512.218690
368.322893	2513.219359
368.710388	2512.725326
369.097820	2512.795902
369.485189	2510.595438
369.872495	2512.949657
370.259738	2512.579133
370.646918	2514.504853
371.034035	2512.054853
371.421090	2515.908815
371.808081	2513.597446
372.195010	2514.187261
372.581875	2516.349916
372.968678	2517.711027
373.355418	2515.850841
373.742096	2519.485513
374.128710	2517.448887
374.515262	2518.116840
374.901751	2518.217663
375.288177	2521.406193
375.674540	2520.206398
376.060841	2520.405524
376.447079	2521.784279
376.833254	2521.179341
377.219367	2515.500481
377.605417	2518.956192
377.991404	2518.341171
378.377329	2519.777900
378.763191	2516.997704
379.148991	2521.249917
379.534727	2524.440968
379.920402	2522.177489
380.306013	2525.008097
380.691563	2524.135978
381.077049	2526.311236
381.462474	2524.841739
381.847835	2527.533715
382.233134	2527.679909
382.618371	2527.972296
383.003545	2529.744261
383.388657	2532.229550
383.773706	2533.094108
384.158693	2533.661238
384.543618	2537.686599
384.928480	2539.667773
385.313280	2547.708413
385.698017	2551.655637
386.082692	2562.443706
386.467305	2567.162226
386.851856	2579.394586
387.236344	2589.703745
387.620770	2605.192690
388.005133	2620.225411
388.389435	2633.672689
388.773674	2648.972591
389.157851	2667.660148
389.541965	2688.079342
389.926018	2699.245498
390.310008	2726.452605
390.693936	2747.602766
391.077802	2776.002106
391.461606	2797.192596
391.845348	2831.437154
392.229027	2858.525795
392.612645	2883.766852
392.996200	2931.867021
393.379694	2970.273052
393.763125	3018.801719
394.146494	3038.414328
394.529801	3090.691094
394.913047	3145.992552
395.296230	3166.033659
395.679351	3217.750856
396.062410	3264.454626
396.445408	3290.943369
396.828343	3340.026563
397.211217	3383.216649
397.594028	3376.869836
397.976778	3451.110909
398.359466	3501.698888
398.742092	3556.954975
399.124656	3537.107952
399.507158	3622.205150
399.889598	3668.062006
400.271977	3744.498501
400.654294	3756.486365
401.036549	3792.770069
401.418742	3799.058909
401.800874	3909.102256
402.182944	3953.340902
402.564952	4032.098848
402.946898	4049.826066
403.328783	4073.612750
403.710606	4025.570554
404.092367	4211.629460
404.474067	4206.374057
404.855705	4231.443715
405.237282	4187.074000
405.618797	4305.909119
406.000250	4360.235114
406.381642	4445.241571
406.762972	4432.903347
407.144240	4458.709013
407.525447	4469.507165
407.906593	4542.263617
408.287677	4589.647943
408.668700	4531.904046
409.049661	4592.470989
409.430560	4642.685923
409.811399	4579.404318
410.192176	4739.763422
410.572891	4689.493036
410.953545	4799.675015
411.334138	4687.022871
411.714669	4756.500053
412.095139	4658.610928
412.475547	4802.215757
412.855894	4788.468530
413.236180	4795.984891
413.616405	4752.114249
413.996568	4840.397456
414.376670	4787.881236
414.756711	4741.568155
415.136691	4778.713897
415.516609	4855.820866
415.896466	4888.898397
416.276262	4929.348616
416.655997	4912.922016
417.035670	5091.164613
417.415283	5184.693140
417.794834	5126.026712
418.174324	5078.375206
418.553753	4989.290455
418.933121	5175.309032
419.312428	5242.469804
419.691674	5179.210885
420.070859	5304.518847
420.449983	5220.313933
420.829045	5334.536397
421.208047	5243.901492
421.586988	5314.371782
421.965867	5323.707999
422.344686	5458.657167
422.723444	5316.887317
423.102141	5134.969719
423.480777	5425.556950
423.859352	5196.749060
424.237866	5462.531293
424.616319	5446.911278
424.994712	5560.977466
425.373044	5435.493065
425.751314	5575.737965
426.129524	5381.804776
426.507673	5575.052368
426.885762	5658.082692
427.263789	5589.016364
427.641756	5471.834743
428.019662	5590.533751
428.397508	5599.244865
428.775292	5544.719745
429.153016	5645.212626
429.530679	5575.075053
429.908282	5655.867105
430.285824	5528.391448
430.663305	5809.322349
431.040726	5542.118510
431.418086	5541.874014
431.795385	5646.122555
432.172624	5660.154606
432.549802	5652.663452
432.926920	5661.482950
433.303977	5676.576165
433.680974	5709.936001
434.057910	5726.992745
434.434786	5728.600873
434.811601	5703.289239
435.188355	5936.056956
435.565050	5812.016845
435.941683	5792.799967
436.318257	6005.347616
436.694770	5989.001675
437.071222	6025.867633
437.447614	5955.016736
437.823946	5871.192430
438.200218	6025.297982
438.576429	5889.506942
438.952580	5987.474205
439.328670	6034.528335
439.704700	5942.015600
440.080670	5926.196459
440.456580	6195.968766
440.832429	6079.818061
441.208218	5929.687458
441.583947	6080.259162
441.959616	6084.874338
442.335224	6018.512589
442.710773	6153.822200
443.086261	6174.649727
443.461689	5969.071473
443.837057	6120.137210
444.212365	6278.469770
444.587612	6165.215207
444.962800	6320.316388
445.337927	6305.278626
445.712995	5911.685498
446.088002	6489.570607
446.462949	6315.179452
446.837837	6250.007415
447.212664	6421.938487
447.587431	6569.011630
447.962139	7108.586491
448.336786	8031.876339
448.711374	7770.966380
449.085901	6850.597881
449.460369	6773.034688
449.834776	6703.771755
450.209124	7095.388750
450.583412	7242.782007
450.957640	7383.956999
451.331808	7155.002915
451.705917	6712.021603
452.079965	6633.704758
452.453954	6843.268044
452.827883	6718.570062
453.201752	6812.706048
453.575562	6612.985615
453.949311	6811.672612
454.323001	6703.451642
454.696632	6780.049454
455.070202	6922.759478
455.443713	7071.992755
455.817164	7171.948754
456.190556	7260.047958
456.563888	7336.088723
456.937160	7374.404013
457.310373	7034.957919
457.683526	7053.607667
458.056619	6945.492561
458.429653	6934.306241
458.802628	6869.461879
459.175542	6982.837429
459.548398	7336.429001
459.921194	7493.299626
460.293930	7493.672672
460.666607	8026.888117
461.039224	8330.279879
461.411782	8455.124054
461.784280	8478.487281
462.156719	8363.443109
462.529099	8245.217969
462.901419	7834.457192
463.273680	7727.902323
463.645882	7740.371617
464.018024	7608.774817
464.390106	7777.648430
464.762130	8160.125813
465.134094	8629.868090
465.505999	9655.193412
465.877845	10877.670699
466.249631	11514.857422
466.621358	11131.991870
466.993026	10507.849132
467.364634	10245.046221
467.736184	9889.881809
468.107674	9559.020800
468.479105	9587.957023
468.850477	9350.546403
469.221790	9124.768246
469.593043	8794.255076
469.964238	8661.143409
470.335373	8672.773351
470.706449	8728.473059
471.077467	8712.442190
471.448425	10011.194656
471.819324	11089.610889
472.190164	11105.208219
472.560945	9860.587664
472.931667	9074.790246
473.302330	8939.253784
473.672934	8587.461904
474.043479	8945.794681
474.413965	8885.938541
474.784393	8765.772557
475.154761	8929.252135
475.525070	9012.408488
475.895321	8842.556892
476.265513	9018.228500
476.635645	9189.484058
477.005719	9184.097585
477.375734	9302.161408
477.745691	9537.951297
478.115588	9671.574642
478.485427	9912.662783
478.855207	10449.747314
479.224928	11263.762590
479.594591	11894.330278
479.964194	11701.342306
480.333739	11645.279634
480.703226	11559.222096
481.072653	11652.130562
481.442022	11885.026828
481.811333	12074.357443
482.180584	11883.948021
482.549777	11596.503950
482.918912	11417.235478
483.287988	11436.560741
483.657005	11450.716301
484.025964	11135.160235
484.394864	11261.383165
484.763706	11231.771428
485.132489	10986.864612
485.501213	10953.756834
485.869879	11031.705676
486.238487	10866.144101
486.607036	10984.757410
486.975527	10761.736764
487.343959	10949.476895
487.712333	10995.931127
488.080648	10931.190109
488.448905	10981.445372
488.817104	10912.547922
489.185244	11178.778818
489.553326	11335.800678
489.921350	11874.997453
490.289315	12938.690997
490.657222	13277.529632
491.025070	13179.655630
491.392861	13054.314901
491.760593	12673.755677
492.128267	12323.602172
492.495883	11996.189312
492.863440	11660.382931
493.230939	11327.523104
493.598380	11257.108267
493.965763	11123.530293
494.333088	11023.833914
494.700354	10938.983733
495.067563	11006.981337
495.434713	10836.194606
495.801805	10971.897426
496.168839	10884.098170
496.535815	10825.729171
496.902733	10827.221352
497.269593	10758.969170
497.636395	10859.913235
498.003139	10845.717346
498.369825	10715.930319
498.736453	10878.631039
499.103023	10797.171034
499.469535	10826.906280
499.835989	10822.520476
500.202385	10784.994127
500.568723	10633.333534
500.935003	10857.359890
501.301226	10661.296814
501.667390	10919.711402
502.033497	11020.491629
502.399546	10882.661442
502.765537	10782.692840
503.131470	10857.191012
503.497345	11028.832218
503.863163	10648.600668
504.228923	10954.951588
504.594625	11017.124138
504.960269	10762.671898
505.325856	10990.872329
505.691385	10780.295772
506.056856	10935.018865
506.422270	10958.850920
506.787625	10845.835813
507.152924	10963.415685
507.518164	10944.738210
507.883347	10865.196364
508.248472	10782.637387
508.613540	11014.616164
508.978550	10897.754656
509.343503	10887.044725
509.708398	11000.816005
510.073236	11109.715011
510.438016	11117.531320
510.802738	11064.863865
511.167403	11119.820004
511.532010	11014.107007
511.896561	11246.378171
512.261053	11317.302164
512.625488	11183.378871
512.989866	11165.177785
513.354186	11156.610344
513.718449	11060.331868
514.082655	11253.095508
514.446803	11142.180042
514.810894	11263.898701
515.174927	11140.521502
515.538904	11155.622278
515.902822	11313.183542
516.266684	11186.927844
516.630488	11138.371450
516.994235	11192.906652
517.357925	11257.703123
517.721558	11339.115237
518.085133	11353.923627
518.448651	11371.108920
518.812112	11250.585014
519.175516	11266.280646
519.538863	11390.003165
519.902152	11305.485700
520.265385	11460.070162
520.628560	11376.765095
520.991678	11355.559481
521.354739	11418.778071
521.717743	11348.824499
522.080690	11334.590802
522.443580	11472.771349
522.806413	11421.752352
523.169189	11456.354832
523.531908	11506.264775
523.894569	11326.678711
524.257174	11340.194044
524.619722	11453.894748
524.982213	11396.047508
525.344647	11455.359204
525.707025	11400.932386
526.069345	11499.912921
526.431608	11416.852350
526.793815	11519.472598
527.155964	11307.108951
527.518057	11366.390400
527.880093	11313.591875
528.242072	11376.082018
528.603995	11280.438727
528.965860	11208.723272
529.327669	11261.559606
529.689421	11207.344517
530.051117	11181.115393
530.412755	11284.257401
530.774337	11168.003352
531.135862	11153.855354
531.497331	11177.125320
531.858743	11029.038905
532.220098	11199.727333
532.581396	11065.728423
532.942638	11050.030270
533.303824	11006.749443
533.664953	11025.754593
534.026025	10943.651841
534.387040	11036.469566
534.747999	11043.466687
535.108902	11101.553383
535.469748	10856.013902
535.830537	10964.363422
536.191270	10939.984402
536.551947	10969.001283
536.912567	10962.939296
537.273131	10888.456248
537.633638	10861.445746
537.994089	10853.485764
538.354483	10811.699639
538.714821	10951.649632
539.075103	10959.657505
539.435328	10929.103071
539.795497	10745.703374
540.155609	10910.748230
540.515665	10991.497432
540.875665	10733.216436
541.235609	10805.735954
541.595496	10794.015272
541.955328	10953.222472
542.315102	10828.310241
542.674821	10788.792636
543.034483	10786.498911
543.394090	10784.936154
543.753640	10711.330266
544.113134	10941.496748
544.472571	10792.455035
544.831953	10931.905953
545.191278	10738.844884
545.550548	10767.085428
545.909761	10908.724207
546.268918	10880.932326
546.628019	10962.077259
546.987064	10832.229738
547.346053	10756.667883
547.704986	10850.135917
548.063863	10842.675009
548.422684	10828.690848
548.781449	10744.584238
549.140158	10842.024700
549.498811	10723.749149
549.857408	10585.682027
550.215949	10811.510596
550.574434	10662.831846
550.932864	10758.535631
551.291237	10820.342698
551.649555	10763.468400
552.007817	10785.924220
552.366022	10748.876780
552.724173	10738.524771
553.082267	10721.815866
553.440305	10857.715292
553.798288	10663.328399
554.156215	10809.768877
554.514086	10790.458738
554.871902	10640.943156
555.229661	10675.207878
555.587365	10655.005454
555.945014	10540.684688
556.302606	10669.541622
556.660143	10566.707124
557.017625	10720.674045
557.375050	10613.110945
557.732421	10753.754097
558.089735	10660.018882
558.446994	10663.986270
558.804197	10698.082114
559.161345	10702.687208
559.518437	10553.620289
559.875474	10643.514144
560.232455	10665.783441
560.589381	10619.987079
560.946251	10621.000351
561.303065	10720.215300
561.659825	10661.891671
562.016528	10587.325443
562.373177	10471.572989
562.729770	10579.877139
563.086307	10499.259006
563.442789	10593.120250
563.799216	10469.659872
564.155587	10514.077478
564.511904	10471.673812
564.868164	10464.785076
565.224370	10479.918620
565.580520	10405.919522
565.936615	10406.484132
566.292654	10279.835223
566.648638	10413.761037
567.004567	10368.680519
567.360441	10353.884732
567.716260	10258.775803
568.072023	10359.487975
568.427732	10303.695005
568.783385	10212.545902
569.138982	10284.909145
569.494525	10300.556886
569.850013	10180.781592
570.205445	10265.964489
570.560823	10154.476851
570.916145	10071.018028
571.271412	10146.143823
571.626625	10089.796326
571.981782	10066.112986
572.336884	10041.348317
572.691931	10045.855109
573.046923	9991.793775
573.401860	9945.493298
573.756743	9882.965346
574.111570	9919.841386
574.466342	9914.591024
574.821059	9940.096742
575.175722	9829.040123
575.530330	9840.574283
575.884882	9836.604374
576.239380	9760.485472
576.593823	9734.929343
576.948211	9752.525490
577.302544	9634.983426
577.656823	9646.681424
578.011047	9646.071444
578.365216	9626.105954
578.719330	9544.842554
579.073389	9556.104492
579.427394	9508.147996
579.781344	9482.647319
580.135239	9428.364174
580.489080	9446.867729
580.842866	9341.351338
581.196597	9340.670783
581.550273	9386.381445
581.903895	9358.342547
582.257463	9423.610366
582.610975	9300.802817
582.964434	9332.068053
583.317837	9247.822811
583.671186	9234.690605
584.024481	9224.893123
584.377721	9149.968974
584.730906	9121.899829
585.084037	9152.393769
585.437113	9087.478831
585.790135	9109.188560
586.143103	9008.209207
586.496016	8983.202563
586.848874	9046.005258
587.201679	9025.308801
587.554428	8915.857789
587.907124	8961.606260
588.259765	8929.662989
588.612352	8932.574255
588.964884	8810.553126
589.317362	8821.477307
589.669786	8827.294798
590.022155	8870.270635
590.374470	8884.932831
590.726731	8829.868307
591.078937	8681.040843
591.431090	8790.267523
591.783188	8662.199530
592.135232	8659.240373
592.487222	8652.943972
592.839157	8710.203918
593.191038	8637.694482
593.542866	8586.347809
593.894639	8485.353333
594.246358	8537.698154
594.598022	8555.027120
594.949633	8455.512223
595.301190	8427.009539
595.652692	8452.290925
596.004141	8561.875528
596.355535	8344.233793
596.706876	8322.249321
597.058162	8257.992253
597.409395	8339.051487
597.760573	8400.508193
598.111698	8302.591341
598.462768	8295.211092
598.813785	8260.611133
599.164748	8223.324238
599.515657	8217.206798
599.866511	8124.694063
600.217312	8256.192561
600.568060	8114.954554
600.918753	8214.847538
601.269392	8185.873506
601.619978	8094.978982
601.970510	8160.720669
602.320988	8157.403590
602.671412	8214.688742
603.021783	8152.639700
603.372100	8119.970502
603.722363	8124.883107
604.072572	8099.198428
604.422728	8111.035057
604.772830	8038.097122
605.122878	8044.980818
605.472872	8041.578039
605.822813	8073.261691
606.172701	8014.217177
606.522534	8088.057478
606.872314	8091.062005
607.222041	8060.384064
607.571714	8117.182744
607.921333	8075.585663
608.270899	8077.070283
608.620411	8165.940784
608.969870	8070.090805
609.319276	8064.532933
609.668627	8088.697704
610.017926	8113.865665
610.367171	8159.145309
610.716362	8138.176629
611.065500	8135.169581
611.414585	8160.219074
611.763616	8150.507292
612.112594	8127.118858
612.461518	8143.532855
612.810389	8206.338070
613.159207	8147.185171
613.507971	8097.209693
613.856682	8216.911891
614.205340	8168.161412
614.553945	8250.952282
614.902496	8149.524267
615.250994	8202.181639
615.599439	8181.152466
615.947830	8200.762554
616.296169	8166.679313
616.644454	8182.826129
616.992686	8180.184564
617.340864	8240.877536
617.688990	8139.636043
618.037063	8238.107422
618.385082	8181.298659
618.733048	8262.869570
619.080961	8207.658853
619.428821	8222.489927
619.776628	8222.762150
620.124382	8179.035181
620.472083	8162.535485
620.819731	8190.304681
621.167326	8079.865603
621.514868	8089.022859
621.862357	7980.418761
622.209793	7992.620874
622.557176	7934.289682
622.904506	7900.100577
623.251783	7832.914599
623.599007	7789.938763
623.946179	7791.403218
624.293297	7746.226918
624.640363	7662.266500
624.987376	7647.316959
625.334336	7601.568488
625.681243	7544.510188
626.028097	7530.004268
626.374899	7509.713623
626.721647	7503.671800
627.068343	7439.412212
627.414987	7408.303252
627.761577	7362.171653
628.108115	7405.142448
628.454600	7293.165819
628.801032	7345.056936
629.147412	7303.217879
629.493739	7291.658514
629.840014	7231.512507
630.186236	7283.423789
630.532405	7167.056314
630.878521	7220.663944
631.224585	7178.524939
631.570597	7098.151303
631.916556	7133.938454
632.262462	7135.057590
632.608316	7092.570745
632.954117	7070.523259
633.299866	7058.154788
633.645562	7045.330093
633.991206	6966.859492
634.336797	6913.675319
634.682336	6866.689244
635.027823	6838.206725
635.373257	6829.538461
635.718639	6761.498008
636.063968	6772.218021
636.409245	6668.176168
636.754470	6668.395458
637.099642	6626.279138
637.444762	6567.083389
637.789829	6575.189564
638.134845	6522.164188
638.479808	6507.812023
638.824719	6509.190778
639.169577	6438.644871
639.514383	6460.478109
639.859137	6385.879114
640.203839	6390.282562
640.548489	6385.127982
640.893086	6356.774012
641.237632	6328.800650
641.582125	6348.640111
641.926566	6322.988199
642.270955	6335.412123
642.615292	6326.665721
642.959576	6345.602815
643.303809	6330.189487
643.647990	6341.363205
643.992118	6331.724519
644.336195	6275.886178
644.680219	6305.084541
645.024192	6288.796573
645.368112	6390.075875
645.711981	6412.095635
646.055797	6486.238405
646.399562	6444.691735
646.743274	6568.716723
647.086935	6622.994826
647.430544	6614.079546
647.774101	6637.341950
648.117606	6642.002497
648.461059	6633.717361
648.804460	6597.473985
649.147810	6507.489389
649.491108	6479.536191
649.834354	6453.687674
650.177548	6366.160641
650.520690	6284.730883
650.863781	6255.325832
651.206820	6282.732065
651.549807	6203.502771
651.892742	6141.496578
652.235626	6149.479246
652.578458	6134.789323
652.921238	6041.371701
653.263967	6085.401139
653.606644	6023.518455
653.949269	6027.753024
654.291843	5965.124249
654.634365	6016.501169
654.976836	5969.033664
655.319255	5974.755374
655.661622	5944.798317
656.003938	5943.391835
656.346203	5905.557976
656.688416	5939.719355
657.030577	5893.781840
657.372687	5861.528538
657.714746	5847.914902
658.056753	5891.445265
658.398708	5828.312375
658.740612	5819.051776
659.082465	5872.198140
659.424266	5860.114494
659.766016	5857.306572
660.107715	5836.075752
660.449362	5851.536971
660.790958	5844.875086
661.132503	5829.895298
661.473996	5866.867120
661.815438	5856.510069
662.156829	5852.119224
662.498168	5842.737637
662.839456	5821.274924
663.180693	5853.467733
663.521879	5857.485533
663.863013	5845.840467
664.204097	5862.980390
664.545129	5904.602677
664.886110	5902.329117
665.227040	5933.039826
665.567918	5895.455503
665.908746	5924.525317
666.249522	5930.552016
666.590248	5919.781591
666.930922	5948.312001
667.271545	5960.461182
667.612118	5962.381862
667.952639	5937.967554
668.293109	5958.583352
668.633528	5909.689201
668.973896	5919.131282
669.314213	5910.087452
669.654480	5889.985851
669.994695	5883.195417
670.334859	5876.152925
670.674973	5866.040371
671.015035	5871.046236
671.355047	5864.490216
671.695008	5851.347928
672.034918	5829.295400
672.374777	5836.312686
672.714585	5826.820194
673.054342	5830.580894
673.394049	5822.129400
673.733705	5851.400860
674.073310	5837.300753
674.412864	5803.797244
674.752368	5791.201921
675.091820	5795.771727
675.431223	5731.434001
675.770574	5736.664198
676.109875	5684.170663
676.449125	5689.731056
676.788324	5655.640253
677.127473	5595.426191
677.466571	5589.906127
677.805619	5580.529581
678.144616	5568.957613
678.483562	5544.840733
678.822458	5512.630280
679.161303	5509.091390
679.500098	5494.923227
679.838842	5480.976875
680.177535	5486.507021
680.516179	5505.428992
680.854771	5516.214541
681.193314	5591.809163
681.531805	5699.478127
681.870247	5851.925140
682.208638	5951.775274
682.546978	5962.465041
682.885268	5944.868893
683.223508	5860.918558
683.561697	5806.879910
683.899836	5775.097955
684.237925	5730.352674
684.575963	5693.590059
684.913951	5658.725439
685.251889	5719.327670
685.589776	5683.348955
685.927614	5655.567156
686.265401	5732.215380
686.603137	5709.567996
686.940824	5791.590090
687.278460	5809.652544
687.616046	5817.037835
687.953582	5890.195059
688.291068	5870.973140
688.628504	5934.458911
688.965889	5897.247633
689.303224	5839.355023
689.640510	5790.997754
689.977745	5716.532350
690.314930	5616.026866
690.652065	5555.588473
690.989150	5473.447912
691.326185	5394.327002
691.663170	5338.415565
692.000105	5263.902270
692.336990	5185.943346
692.673825	5166.250079
693.010610	5090.484057
693.347345	5026.259757
693.684030	5009.351727
694.020665	4966.882527
694.357251	4877.807859
694.693786	4888.588366
695.030272	4856.776165
695.366707	4823.910362
695.703093	4785.128766
696.039429	4808.320594
696.375716	4789.917862
696.711952	4766.874748
697.048139	4752.820011
697.384276	4728.481320
697.720363	4748.212396
698.056400	4754.153396
698.392388	4705.851580
698.728326	4682.410215
699.064214	4663.137884
699.400053	4656.977594
699.735842	4620.950988
700.071581	4599.785703
700.407270	4568.739758
700.742910	4554.012027
701.078501	4497.876258
701.414042	4497.357019
701.749533	4471.246363
702.084974	4398.721803
702.420366	4458.328406
702.755709	4402.890837
703.091002	4347.722970
703.426246	4393.950351
703.761440	4347.536447
704.096584	4314.874812
704.431679	4333.887523
704.766725	4321.791275
705.101721	4307.494562
705.436668	4337.678471
705.771565	4287.224083
706.106413	4310.862053
706.441212	4341.585365
706.775961	4352.315461
707.110661	4333.408614
707.445311	4359.610011
707.779913	4388.639495
708.114465	4396.468407
708.448967	4417.686624
708.783421	4476.413545
709.117825	4521.320144
709.452180	4526.794837
709.786485	4567.693718
710.120742	4660.922297
710.454949	4638.005211
710.789107	4704.074574
711.123216	4783.134989
711.457275	4774.365902
711.791286	4848.170915
712.125247	4863.417885
712.459159	4769.314666
712.793023	4842.663455
713.126837	4799.838853
713.460602	4794.293583
713.794318	4714.159402
714.127985	4722.527717
714.461602	4634.516733
714.795171	4607.990181
715.128691	4543.559194
715.462162	4485.850585
715.795584	4437.664716
716.128957	4419.551851
716.462281	4365.848439
716.795556	4339.871373
717.128782	4299.312770
717.461960	4235.045620
717.795088	4243.539964
718.128167	4201.819375
718.461198	4142.905930
718.794180	4142.701764
719.127113	4121.148310
719.459997	4099.423458
719.792833	4055.512487
720.125619	4044.711815
720.458357	4008.841485
720.791046	4014.522865
721.123686	3986.458762
721.456278	3947.611630
721.788821	3965.051502
722.121315	3934.925567
722.453761	3909.376999
722.786158	3923.784617
723.118506	3946.099284
723.450805	3898.218405
723.783056	3922.937703
724.115259	3938.582924
724.447412	3939.734827
724.779518	3937.448664
725.111574	3939.162657
725.443582	3965.469918
725.775542	3953.668577
726.107453	4005.050537
726.439315	4006.580527
726.771129	4018.124770
727.102895	4058.882499
727.434612	4104.953604
727.766281	4115.257722
728.097901	4113.415180
728.429473	4120.934061
728.760996	4129.713231
729.092471	4123.968836
729.423897	4110.478708
729.755276	4112.585911
730.086606	4109.115076
730.417887	4148.836848
730.749120	4216.161458
731.080305	4278.512969
731.411442	4305.452895
731.742530	4279.251498
732.073570	4278.454996
732.404562	4333.229653
732.735506	4327.291173
733.066401	4287.962612
733.397249	4227.496492
733.728048	4148.068072
734.058798	4065.514137
734.389501	3996.614166
734.720156	3932.200823
735.050762	3887.112743
735.381320	3877.521948
735.711831	3825.645954
736.042293	3796.545894
736.372707	3823.969771
736.703073	3796.084628
737.033391	3786.115746
737.363661	3803.195176
737.693883	3825.615707
738.024056	3833.242973
738.354182	3829.462108
738.684260	3893.451994
739.014290	3916.154830
739.344272	3911.332967
739.674207	3952.985500
740.004093	3958.039257
740.333931	3954.996921
740.663722	3955.364925
740.993464	3952.688072
741.323159	3926.194288
741.652806	3898.014238
741.982405	3869.498952
742.311956	3837.638859
742.641460	3830.001511
742.970915	3804.432779
743.300323	3762.376953
743.629683	3728.170203
743.958996	3719.842217
744.288260	3694.359185
744.617477	3660.573372
744.946647	3648.242709
745.275768	3620.045015
745.604842	3622.837814
745.933869	3574.215886
746.262847	3565.976120
746.591778	3602.395936
746.920662	3569.981316
747.249498	3543.313613
747.578286	3588.094182
747.907027	3606.633025
748.235720	3603.368878
748.564365	3629.668578
748.892963	3629.330821
749.221514	3610.585290
749.550017	3589.823298
749.878473	3585.805498
750.206881	3555.818195
750.535242	3550.189746
750.863555	3553.065725
751.191821	3551.346691
751.520039	3535.217519
751.848210	3506.041842
752.176334	3541.072820
752.504411	3548.188408
752.832440	3508.595186
753.160421	3491.722444
753.488356	3498.971623
753.816243	3511.945033
754.144082	3470.940287
754.471875	3453.782720
754.799620	3475.684013
755.127318	3463.648258
755.454969	3465.223619
755.782572	3469.790904
756.110129	3447.193932
756.437638	3440.020370
756.765100	3450.926907
757.092515	3464.795121
757.419882	3466.786377
757.747203	3438.969290
758.074477	3442.374589
758.401703	3460.031230
758.728882	3481.950167
759.056014	3487.656753
759.383099	3491.195643
759.710138	3485.484016
760.037129	3507.410515
760.364073	3537.657438
760.690970	3519.537010
761.017820	3497.071108
761.344623	3513.147348
761.671379	3562.800193
761.998088	3610.822224
762.324751	3740.503386
762.651366	3984.747290
762.977935	4461.844611
763.304456	4906.091252
763.630931	5000.746478
763.957359	4640.467815
764.283740	4293.921256
764.610074	4100.658541
764.936362	3906.319539
765.262602	3749.224582
765.588796	3636.592603
765.914943	3547.868295
766.241044	3460.149698
766.567097	3429.925460
766.893104	3380.643140
767.219064	3350.907894
767.544978	3322.490909
767.870845	3267.862446
768.196665	3248.413674
768.522438	3257.422216
768.848165	3252.542379
769.173846	3218.108778
769.499479	3199.958103
769.825066	3182.417409
770.150607	3165.103566
770.476101	3182.896318
770.801548	3177.106553
771.126949	3131.221971
771.452303	3117.179837
771.777611	3121.558079
772.102872	3124.870117
772.428087	3101.958073
772.753256	3092.452977
773.078378	3082.489137
773.403453	3052.726164
773.728482	3038.172353
774.053465	3057.898388
774.378401	3045.613096
774.703291	3015.489681
775.028135	3013.989938
775.352932	3011.451717
775.677683	3000.593072
776.002388	2996.658451
776.327046	2998.057371
776.651658	2987.034888
776.976224	2975.508290
777.300743	2974.515183
777.625216	2964.695015
777.949643	2962.290385
778.274024	2964.793318
778.598359	2950.945268
778.922647	2955.648665
779.246889	2955.467183
779.571086	2939.907662
779.895236	2934.478339
780.219339	2945.495781
780.543397	2958.416258
780.867409	2961.256948
781.191374	2956.535908
781.515294	2950.547017
781.839167	2949.561471
782.162995	2946.146090
782.486776	2952.752522
782.810511	2949.367387
783.134201	2934.127979
783.457844	2945.309258
783.781441	2934.866508
784.104993	2911.531007
784.428498	2915.521080
784.751958	2929.255704
785.075372	2926.167997
785.398739	2907.367014
785.722061	2923.256731
786.045337	2934.322063
786.368568	2920.274888
786.691752	2908.723084
787.014891	2961.831640
787.337983	2989.943634
787.661030	3017.848941
787.984031	3087.752101
788.306987	3130.259110
788.629897	3125.187710
788.952760	3109.983590
789.275579	3091.154880
789.598351	3030.557690
789.921078	2984.970536
790.243759	2980.945175
790.566395	2962.744089
790.888984	2938.143258
791.211529	2922.112389
791.534027	2914.220462
791.856480	2899.712022
792.178888	2883.819784
792.501249	2878.607231
792.823566	2877.989690
793.145836	2872.295706
793.468062	2866.402598
793.790241	2869.344111
794.112375	2872.560367
794.434464	2886.403375
794.756507	2889.755743
795.078505	2893.403018
795.400457	2910.001017
795.722364	2945.357149
796.044226	2972.082826
796.366042	2971.669452
796.687812	2962.113944
797.009538	2981.068683
797.331218	2969.859677
797.652852	2956.062039
797.974442	2936.628391
798.295986	2935.385747
798.617484	2930.384922
798.938938	2915.407654
799.260346	2897.922412
799.581709	2891.729354
799.903026	2887.134343
800.224299	2880.132180
800.545526	2868.562732
800.866708	2853.590505
801.187845	2844.372755
801.508936	2845.461644
801.829983	2852.703262
802.150984	2839.296313
802.471940	2828.178048
802.792851	2827.449602
803.113717	2827.807524
803.434538	2834.852536
803.755314	2826.317863
804.076045	2819.166986
804.396731	2817.576502
804.717372	2818.809064
805.037967	2812.820173
805.358518	2821.823674
805.679024	2833.115859
805.999485	2826.552276
806.319901	2833.816579
806.640272	2824.881134
806.960598	2830.549911
807.280879	2835.129800
807.601115	2846.827797
807.921306	2832.982268
808.241453	2829.002277
808.561554	2836.700119
808.881611	2838.053669
809.201623	2831.399346
809.521590	2830.197031
809.841513	2826.078408
810.161390	2829.367761
810.481223	2824.311483
810.801011	2817.140442
811.120755	2811.839669
811.440453	2813.104998
811.760107	2814.655153
812.079716	2812.439566
812.399281	2800.907927
812.718801	2797.361475
813.038276	2793.036165
813.357707	2797.074129
813.677093	2805.354224
813.996434	2798.843574
814.315731	2796.355765
814.634983	2787.644651
814.954191	2790.281174
815.273354	2804.618216
815.592473	2811.910245
815.911547	2813.841007
816.230577	2821.122954
816.549562	2832.563852
816.868502	2828.770384
817.187399	2840.342353
817.506250	2855.559076
817.825058	2848.544310
818.143821	2864.676002
818.462539	2881.896584
818.781213	2906.885583
819.099843	2944.270780
819.418429	2998.904285
819.736970	3063.642783
820.055466	3134.841519
820.373919	3242.341604
820.692327	3384.940723
821.010691	3552.959860
821.329011	3998.862521
821.647286	4905.637548
821.965517	6299.070445
822.283704	7046.424023
822.601847	7032.805346
822.919945	6393.632409
823.237999	5883.177773
823.556010	5292.989728
823.873976	4737.769646
824.191897	4321.531655
824.509775	4024.471582
824.827609	3753.776744
825.145398	3629.872745
825.463144	3614.131742
825.780845	3706.841082
826.098502	3812.014674
826.416116	4100.240125
826.733685	4415.942384
827.051210	4485.366635
827.368692	4365.765260
827.686129	4096.295422
828.003522	3766.563631
828.320872	3506.752644
828.638177	3312.448931
828.955439	3173.726459
829.272656	3091.243100
829.589830	3021.513860
829.906960	2971.997127
830.224046	2926.611618
830.541088	2894.315466
830.858086	2879.174361
831.175041	2858.815661
831.491952	2858.543439
831.808819	2873.785367
832.125642	2898.373595
832.442421	2942.425718
832.759157	3025.002339
833.075849	3205.609237
833.392497	3489.834532
833.709101	3694.497816
834.025662	3641.815238
834.342179	3481.236844
834.658653	3304.998106
834.975083	3158.292967
835.291469	3060.176990
835.607811	2972.523927
835.924110	2912.282139
836.240366	2859.138295
836.556578	2815.731440
836.872746	2792.317801
837.188871	2771.276024
837.504952	2754.441091
837.820990	2744.409195
838.136984	2734.006774
838.452935	2724.234497
838.768842	2720.730895
839.084706	2741.747466
839.400526	2822.161431
839.716303	2956.876186
840.032037	3037.438865
840.347727	3022.383459
840.663373	2957.060188
840.978977	2880.873230
841.294537	2807.809266
841.610054	2762.426279
841.925527	2737.916189
842.240957	2718.676625
842.556344	2696.886238
842.871687	2679.980728
843.186987	2669.222906
843.502244	2666.404901
843.817458	2663.715445
844.132629	2650.341264
844.447756	2640.561426
844.762840	2633.128244
845.077881	2635.197638
845.392879	2636.906589
845.707833	2629.879221
846.022745	2619.567541
846.337613	2625.813530
846.652438	2622.965278
846.967221	2624.462501
847.281960	2624.018879
847.596656	2623.272789
847.911309	2619.648199
848.225919	2618.655092
848.540485	2614.312138
848.855009	2614.533948
849.169490	2616.358846
849.483928	2616.187447
849.798323	2615.726181
850.112675	2613.434977
850.426984	2610.493464
850.741251	2609.868361
851.055474	2612.464555
851.369654	2617.092334
851.683792	2612.746859
851.997887	2611.796602
852.311938	2612.446911
852.625947	2612.555296
852.939914	2614.753239
853.253837	2619.471759
853.567718	2610.276694
853.881555	2611.055552
854.195350	2616.731892
854.509103	2614.508743
854.822812	2612.628392
855.136479	2608.338370
855.450103	2615.348095
855.763685	2616.966305
856.077224	2612.872888
856.390720	2609.518000
856.704173	2614.339864
857.017584	2617.190637
857.330953	2617.556120
857.644278	2620.487551
857.957561	2620.817747
858.270802	2615.184257
858.584000	2617.205760
858.897155	2623.076184
859.210268	2619.365894
859.523339	2614.337343
859.836367	2608.350973
860.149352	2612.444390
860.462295	2612.658639
860.775195	2610.417846
861.088054	2611.345419
861.400869	2606.707557
861.713642	2603.680344
862.026373	2605.359048
862.339062	2610.664863
862.651708	2615.716099
862.964312	2615.096037
863.276873	2613.256016
863.589392	2614.438167
863.901869	2623.398817
864.214303	2628.439971
864.526696	2630.002729
864.839045	2630.214457
865.151353	2632.911475
865.463619	2633.523975
865.775842	2632.601444
866.088023	2632.760240
866.400162	2632.752678
866.712258	2633.312247
867.024313	2631.406690
867.336325	2627.232615
867.648296	2629.057513
867.960224	2634.048255
868.272110	2635.008595
868.583954	2628.616412
868.895755	2630.491721
869.207515	2633.216465
869.519233	2640.185860
869.830909	2637.781229
870.142542	2631.966258
870.454134	2633.697895
870.765684	2638.565129
871.077191	2642.104019
871.388657	2644.909421
871.700081	2644.513690
872.011463	2643.298772
872.322803	2643.840696
872.634101	2648.483599
872.945357	2654.711945
873.256571	2660.292502
873.567744	2657.540032
873.878874	2653.590288
874.189963	2658.941473
874.501010	2661.683860
874.812015	2668.323060
875.122979	2669.177536
875.433900	2657.325783
875.744780	2657.935762
876.055618	2663.995229
876.366415	2670.243740
876.677169	2666.775426
876.987882	2662.329128
877.298554	2660.902482
877.609183	2672.499656
877.919771	2679.695903
878.230317	2686.078004
878.540822	2699.442103
878.851285	2711.051880
879.161707	2736.550036
879.472087	2774.663680
879.782425	2821.871565
880.092722	2939.075871
880.402977	3133.553504
880.713191	3396.157291
881.023363	3696.053012
881.333494	3890.747415
881.643583	4063.631266
881.953631	4065.824167
882.263637	3884.100654
882.573602	3662.531860
882.883526	3528.258207
883.193408	3411.129518
883.503248	3306.742345
883.813048	3192.973585
884.122806	3074.534196
884.432522	2985.625886
884.742197	2919.317069
885.051831	2881.568909
885.361424	2844.181191
885.670975	2805.961683
885.980485	2777.690893
886.289954	2760.503079
886.599382	2744.308372
886.908768	2732.927967
887.218113	2714.449618
887.527417	2701.617361
887.836680	2691.162007
888.145901	2686.498940
888.455082	2679.821932
888.764221	2669.212824
889.073319	2660.305105
889.382376	2658.734785
889.691392	2657.335865
890.000366	2659.899292
890.309300	2657.650937
890.618193	2658.621359
890.927044	2661.061278
891.235855	2663.307112
891.544625	2660.330311
891.853353	2660.453819
892.162041	2668.479336
892.470687	2689.692511
892.779293	2704.543750
893.087858	2712.705378
893.396381	2736.408884
893.704864	2775.087137
894.013306	2851.944568
894.321707	2944.918569
894.630068	2996.915550
894.938387	3014.844414
895.246665	3011.688651
895.554903	2965.156281
895.863100	2920.390835
896.171256	2864.590303
896.479371	2801.157464
896.787446	2761.793614
897.095480	2738.243864
897.403473	2732.638101
897.711425	2716.766028
898.019336	2699.946218
898.327207	2686.945082
898.635038	2683.212108
898.942827	2679.655574
899.250576	2670.684841
899.558284	2658.512975
899.865952	2657.363592
900.173579	2652.438384
900.481165	2649.552324
900.788711	2639.434728
901.096216	2637.352731
901.403681	2632.316619
901.711105	2634.633029
902.018489	2630.222019
902.325832	2636.397433
902.633135	2634.625467
902.940397	2655.324445
903.247619	2691.638397
903.554800	2760.770260
903.861941	2889.836401
904.169041	3021.239117
904.476101	3085.090372
904.783121	3077.014443
905.090100	3019.464631
905.397039	2944.064093
905.703938	2867.035262
906.010796	2804.270376
906.317614	2750.012438
906.624391	2714.505070
906.931129	2686.756039
907.237826	2663.339879
907.544483	2642.590490
907.851099	2631.257976
908.157675	2621.405041
908.464211	2612.086468
908.770707	2599.871752
909.077163	2595.879159
909.383578	2591.679877
909.689954	2592.703232
909.996289	2588.718200
910.302584	2590.200299
910.608839	2587.127716
910.915054	2588.057808
911.221229	2587.858683
911.527363	2591.692480
911.833458	2592.418407
912.139513	2593.653489
912.445527	2594.107193
912.751502	2598.273707
913.057436	2603.914758
913.363331	2611.342898
913.669186	2620.936214
913.975000	2632.354427
914.280775	2653.791934
914.586510	2673.132321
914.892205	2710.434339
915.197859	2779.929165
915.503475	2865.326311
915.809050	2934.256528
916.114585	2950.189095
916.420081	2964.773153
916.725536	2977.378558
917.030952	2942.866819
917.336328	2896.778070
917.641665	2847.662108
917.946961	2795.856691
918.252218	2761.279416
918.557435	2733.101887
918.862612	2709.784030
919.167750	2692.359282
919.472848	2674.939574
919.777906	2658.666730
920.082925	2644.740542
920.387904	2635.774850
920.692843	2631.434417
920.997743	2624.417131
921.302603	2617.911522
921.607423	2614.612086
921.912204	2604.353338
922.216946	2601.008533
922.521647	2603.503904
922.826310	2594.707090
923.130932	2593.764395
923.435516	2583.702252
923.740059	2584.042529
924.044564	2582.532704
924.349028	2583.235945
924.653454	2571.744635
924.957840	2571.953842
925.262186	2568.115004
925.566493	2569.415622
925.870761	2563.973696
926.174989	2564.598799
926.479178	2562.857080
926.783328	2562.685681
927.087438	2563.038562
927.391509	2559.928170
927.695541	2559.668551
927.999533	2557.354661
928.303486	2554.700493
928.607400	2556.490103
928.911275	2555.668395
929.215110	2554.783672
929.518906	2556.316183
929.822663	2556.061605
930.126381	2552.678991
930.430060	2555.842315
930.733699	2556.721996
931.037299	2555.791903
931.340861	2557.153015
931.644383	2556.336348
931.947866	2555.968344
932.251309	2559.519837
932.554714	2555.733930
932.858080	2558.867007
933.161407	2555.053374
933.464694	2554.249310
933.767943	2552.636141
934.071153	2552.709238
934.374323	2550.221428
934.677455	2553.336861
934.980548	2551.428785
935.283602	2550.150852
935.586617	2552.126984
935.889593	2553.089845
936.192530	2552.424413
936.495428	2552.643703
936.798287	2551.819474
937.101108	2555.134033
937.403890	2559.671071
937.706632	2563.066288
938.009336	2562.589899
938.312002	2569.085426
938.614628	2568.593913
938.917216	2574.126580
939.219765	2577.468865
939.522275	2576.538772
939.824747	2576.795871
940.127179	2573.204049
940.429573	2568.896383
940.731929	2567.918399
941.034246	2564.581155
941.336524	2564.934036
941.638763	2569.995354
941.940964	2565.639797
942.243126	2562.166442
942.545250	2561.443037
942.847335	2561.571586
943.149381	2559.507234
943.451389	2560.195351
943.753359	2558.998077
944.055290	2559.892882
944.357182	2560.180228
944.659036	2558.496482
944.960851	2556.336348
945.262628	2557.354661
945.564367	2554.642520
945.866067	2555.754095
946.167729	2555.421378
946.469352	2560.540670
946.770937	2558.188972
947.072484	2555.764177
947.373992	2553.510781
947.675462	2556.467418
947.976893	2555.189485
948.278286	2553.243600
948.579641	2551.751418
948.880958	2551.141439
949.182236	2553.357026
949.483476	2552.426933
949.784678	2552.812581
950.085841	2550.528939
950.386967	2552.515153
950.688054	2553.326779
950.989103	2553.414999
951.290114	2555.318035
951.591087	2555.489434
951.892021	2556.684188
952.192917	2560.863304
952.493776	2560.354148
952.794596	2562.814231
953.095378	2562.035372
953.396122	2563.235167
953.696828	2560.230639
953.997496	2561.246432
954.298126	2555.746533
954.598718	2556.807696
954.899272	2554.685370
955.199788	2554.037582
955.500266	2551.171686
955.800706	2548.830070
956.101108	2546.100285
956.401472	2545.074410
956.701798	2542.737835
957.002087	2542.821014
957.302337	2545.641540
957.602550	2544.252702
957.902724	2544.270346
958.202861	2541.966539
958.502960	2541.026364
958.803022	2539.899666
959.103045	2541.220448
959.403031	2541.134748
959.702979	2536.978317
960.002889	2540.728936
960.302762	2534.664427
960.602596	2538.193235
960.902393	2536.539737
961.202153	2539.330015
961.501875	2539.140972
961.801559	2539.178781
962.101205	2537.510159
962.400814	2538.888914
962.700385	2538.112577
962.999918	2540.330684
963.299414	2540.260108
963.598873	2537.870601
963.898293	2536.711136
964.197677	2538.833462
964.497022	2537.658873
964.796331	2539.955118
965.095601	2536.315405
965.394835	2537.742052
965.694030	2536.688451
965.993189	2537.305992
966.292309	2534.891279
966.591393	2537.820190
966.890439	2537.502597
967.189447	2537.358924
967.488419	2536.980838
967.787353	2535.274407
968.086249	2538.447813
968.385108	2536.922864
968.683930	2540.479398
968.982714	2538.956970
969.281462	2537.411856
969.580172	2537.074099
969.878844	2536.995961
970.177480	2536.602751
970.476078	2538.392361
970.774639	2540.358411
971.073162	2537.258101
971.371649	2534.220806
971.670098	2532.889941
971.968510	2537.477391
972.266885	2533.552853
972.565223	2539.241795
972.863524	2536.625436
973.161788	2540.865047
973.460014	2537.353883
973.758204	2540.940664
974.056356	2537.144675
974.354471	2542.702547
974.652550	2538.049562
974.950591	2537.759696
975.248595	2538.243647
975.546563	2537.182484
975.844493	2536.305323
976.142386	2536.595189
976.440243	2539.511497
976.738062	2534.190559
977.035845	2536.690971
977.333590	2536.093595
977.631299	2534.661907
977.928971	2538.551157
978.226606	2535.924716
978.524204	2536.272556
978.821765	2536.378420
979.119290	2536.668286
979.416777	2538.266332
979.714228	2536.993441
980.011642	2534.145189
980.309020	2537.797505
980.606360	2535.271887
980.903664	2536.512010
981.200931	2535.007226
981.498162	2540.978473
981.795356	2539.287166
982.092513	2542.228679
982.389633	2546.536345
982.686717	2547.350491
982.983764	2550.526418
983.280775	2552.469783
983.577749	2553.359547
983.874686	2551.751418
984.171587	2550.740667
984.468451	2543.912424
984.765279	2542.694986
985.062070	2544.716488
985.358824	2541.926210
985.655543	2540.728936
985.952224	2535.440765
986.248869	2536.451517
986.545478	2529.910619
986.842050	2537.510159
987.138586	2532.219468
987.435086	2530.167718
987.731549	2529.537574
988.027975	2533.633512
988.324366	2534.523275
988.620719	2534.387164
988.917037	2533.424304
989.213318	2538.576363
989.509563	2532.010260
989.805772	2534.873635
990.101944	2534.127545
990.398080	2532.907585
990.694180	2531.012112
990.990244	2534.253573
991.286271	2531.004550
991.582262	2534.329191
991.878217	2534.273738
992.174136	2532.821886
992.470019	2534.314067
992.765865	2532.852133
993.061676	2531.682585
993.357450	2532.854653
993.653188	2532.592513
993.948890	2535.019829
994.244556	2533.983872
994.540186	2535.143337
994.835780	2534.092257
995.131337	2534.203162
995.426859	2538.515869
995.722345	2533.497400
996.017795	2536.086033
996.313208	2539.317412
996.608586	2537.411856
996.903928	2537.021167
997.199234	2538.553678
997.494504	2538.140303
997.789738	2536.635519
998.084936	2537.348842
998.380099	2534.631660
998.675225	2532.350538
998.970316	2534.671989
999.265371	2533.063861
999.560390	2533.724252
999.855373	2532.809283
1000.150320	2533.147040
1000.445232	2532.065713
1000.740108	2534.062010
1001.034948	2532.332894
1001.329752	2531.652338
1001.624521	2532.421114
1001.919254	2528.673016
1002.213951	2529.676206
1002.508613	2528.998171
1002.803239	2528.758716
1003.097829	2526.593540
1003.392384	2533.363810
1003.686903	2531.276772
1003.981386	2534.457740
1004.275834	2530.056813
1004.570246	2531.037317
1004.864623	2532.771474
1005.158964	2532.126207
1005.453270	2530.684437
1005.747540	2533.038655
1006.041775	2532.400949
1006.335974	2532.148892
1006.630138	2532.305168
1006.924266	2531.637215
1007.218359	2532.526978
1007.512416	2530.354241
1007.806438	2531.425486
1008.100425	2530.460105
1008.394376	2531.591844
1008.688292	2531.516227
1008.982172	2531.556556
1009.276017	2529.277955
1009.569827	2530.631504
1009.863602	2534.616537
1010.157341	2532.290044
1010.451045	2531.183511
1010.744714	2528.980527
1011.038347	2530.868439
1011.331945	2531.448171
1011.625508	2528.983047
1011.919036	2528.990609
1012.212528	2532.161495
1012.505986	2529.895496
1012.799408	2531.175949
1013.092795	2529.900537
1013.386147	2530.132430
1013.679464	2531.642256
1013.972745	2529.318284
1014.265992	2529.691329
1014.559204	2531.773326
1014.852380	2528.766277
1015.145521	2529.252749
1015.438628	2529.492204
1015.731699	2531.571680
1016.024736	2527.032121
1016.317737	2530.623943
1016.610703	2530.787780
1016.903635	2525.993643
1017.196531	2526.379291
1017.489393	2528.163860
1017.782219	2524.052799
1018.075011	2531.669982
1018.367768	2529.225022
1018.660490	2528.075639
1018.953177	2528.075639
1019.245829	2528.075639
