Dividing Wavelength (nm)	Counts (n)	Blue Motor Position (mm): 37.500000	Red Motor Position (mm): 0.000000	
326.493990	2131.457819
326.888308	2131.457819
327.282561	2131.457819
327.676750	2096.961204
328.070874	2097.324167
328.464933	2097.455237
328.858929	2106.085692
329.252859	2116.568772
329.646726	2126.900616
330.040528	2138.351597
330.434265	2157.071922
330.827938	2176.084634
331.221547	2192.115503
331.615091	2213.046374
332.008571	2230.811400
332.401986	2249.352764
332.795338	2268.700712
333.188625	2287.962961
333.581847	2306.895014
333.975006	2324.531491
334.368100	2345.379183
334.761129	2363.426514
335.154095	2378.000489
335.546996	2399.165774
335.939833	2425.299115
336.332606	2439.368976
336.725315	2451.896243
337.117960	2462.722121
337.510540	2471.521455
337.903056	2480.507312
338.295508	2486.463435
338.687896	2499.819972
339.080220	2506.449089
339.472480	2513.214318
339.864676	2517.400996
340.256807	2522.676564
340.648875	2523.359640
341.040879	2526.742254
341.432818	2528.390712
341.824694	2528.703263
342.216506	2532.738707
342.608253	2528.622605
342.999937	2532.093439
343.391557	2531.370033
343.783113	2528.806607
344.174605	2526.643952
344.566033	2522.913498
344.957397	2524.289733
345.348697	2523.460463
345.739934	2523.180679
346.131106	2519.372087
346.522215	2518.593229
346.913260	2515.906294
347.304241	2515.462673
347.695159	2510.933196
348.086012	2509.453617
348.476802	2508.440345
348.867528	2507.157372
349.258191	2504.528410
349.648789	2507.545540
350.039324	2504.372134
350.429796	2506.285252
350.820203	2499.789725
351.210548	2502.978255
351.600828	2496.654128
351.991045	2498.373161
352.381198	2496.770074
352.771288	2498.879797
353.161314	2498.489108
353.551276	2497.216216
353.941175	2498.922647
354.331010	2497.559015
354.720782	2498.408449
355.110490	2497.682523
355.500135	2495.910557
355.889717	2497.727893
356.279235	2496.054230
356.668689	2499.096567
357.058080	2495.971051
357.447408	2495.598006
357.836672	2494.473828
358.225873	2495.318222
358.615010	2496.825527
359.004084	2499.860301
359.393095	2500.228306
359.782043	2499.870384
360.170927	2499.013388
360.559748	2501.042452
360.948505	2501.715446
361.337199	2502.340549
361.725830	2502.529592
362.114398	2503.419356
362.502903	2504.725015
362.891344	2504.951867
363.279722	2505.158554
363.668037	2506.335663
364.056289	2508.538648
364.444478	2509.284738
364.832603	2507.883298
365.220665	2508.866323
365.608665	2506.348266
365.996601	2507.109481
366.384474	2508.982269
366.772284	2508.793226
367.160031	2511.202897
367.547715	2508.808349
367.935336	2508.034532
368.322893	2510.313134
368.710388	2510.509739
369.097820	2512.251458
369.485189	2513.468896
369.872495	2511.805315
370.259738	2512.153155
370.646918	2509.889677
371.034035	2511.628875
371.421090	2515.835718
371.808081	2510.897908
372.195010	2514.827487
372.581875	2511.817918
372.968678	2514.903104
373.355418	2513.282373
373.742096	2515.107271
374.128710	2515.780265
374.515262	2515.664319
374.901751	2515.712210
375.288177	2518.968795
375.674540	2518.288239
376.060841	2519.283867
376.447079	2517.050636
376.833254	2518.809999
377.219367	2513.899915
377.605417	2515.613907
377.991404	2514.376304
378.377329	2515.051818
378.763191	2513.375635
379.148991	2518.323527
379.534727	2519.160359
379.920402	2521.880061
380.306013	2521.343178
380.691563	2520.357633
381.077049	2521.464166
381.462474	2522.207736
381.847835	2525.106400
382.233134	2522.752181
382.618371	2522.129598
383.003545	2522.611029
383.388657	2520.839063
383.773706	2523.830988
384.158693	2523.583971
384.543618	2529.109076
384.928480	2525.257634
385.313280	2525.272758
385.698017	2526.011287
386.082692	2527.140505
386.467305	2525.101359
386.851856	2526.386853
387.236344	2524.892151
387.620770	2527.901720
388.005133	2528.007584
388.389435	2528.834333
388.773674	2529.051103
389.157851	2528.362985
389.541965	2529.295599
389.926018	2532.118645
390.310008	2529.862728
390.693936	2533.116793
391.077802	2534.437576
391.461606	2533.477236
391.845348	2534.825744
392.229027	2531.352389
392.612645	2531.551515
392.996200	2534.543440
393.379694	2533.542771
393.763125	2536.113759
394.146494	2539.695499
394.529801	2542.468134
394.913047	2543.988042
395.296230	2546.324616
395.679351	2551.257385
396.062410	2554.899619
396.445408	2560.913716
396.828343	2569.823955
397.211217	2569.380333
397.594028	2579.465162
397.976778	2589.799527
398.359466	2602.402412
398.742092	2614.753239
399.124656	2623.920577
399.507158	2642.058648
399.889598	2658.507933
400.271977	2682.564320
400.654294	2693.790969
401.036549	2716.975236
401.418742	2730.293964
401.800874	2760.921494
402.182944	2783.972170
402.564952	2822.295022
402.946898	2840.617096
403.328783	2866.097608
403.710606	2879.345760
404.092367	2944.767334
404.474067	2967.704584
404.855705	2998.669872
405.237282	3012.669156
405.618797	3072.096798
406.000250	3115.070114
406.381642	3174.316274
406.762972	3200.303422
407.144240	3241.643405
407.525447	3274.872170
407.906593	3333.994823
408.287677	3389.472721
408.668700	3399.683578
409.049661	3467.149340
409.430560	3523.156559
409.811399	3534.806665
410.192176	3649.747494
410.572891	3658.975326
410.953545	3758.835542
411.334138	3734.895103
411.714669	3813.577432
412.095139	3796.593785
412.475547	3920.318823
412.855894	3949.383596
413.236180	3996.727592
413.616405	4009.680837
413.996568	4103.085856
414.376670	4102.042337
414.756711	4107.514510
415.136691	4166.059950
415.516609	4260.803395
415.896466	4318.010409
416.276262	4384.750245
416.655997	4400.894540
417.035670	4577.733176
417.415283	4679.221685
417.794834	4666.114685
418.174324	4664.241897
418.553753	4610.430100
418.933121	4796.390703
419.312428	4885.407398
419.691674	4867.665057
420.070859	5001.147249
420.449983	4947.917706
420.829045	5071.909926
421.208047	5011.700905
421.586988	5094.711065
421.965867	5125.852793
422.344686	5267.478969
422.723444	5148.076719
423.102141	4991.342205
423.480777	5291.104336
423.859352	5084.684210
424.237866	5346.166339
424.616319	5348.538202
424.994712	5468.157221
425.373044	5353.395354
425.751314	5503.989742
426.129524	5322.041897
426.507673	5513.265466
426.885762	5602.960195
427.263789	5544.429879
427.641756	5434.913332
428.019662	5560.367487
428.397508	5567.152880
428.775292	5518.757803
429.153016	5625.410974
429.530679	5553.352721
429.908282	5639.513602
430.285824	5512.226988
430.663305	5786.301920
431.040726	5526.259040
431.418086	5529.346746
431.795385	5631.949351
432.172624	5648.688502
432.549802	5641.038551
432.926920	5653.049100
433.303977	5665.805740
433.680974	5703.178334
434.057910	5725.603907
434.434786	5729.057097
434.811601	5695.949319
435.188355	5933.007058
435.565050	5805.672553
435.941683	5784.545077
436.318257	5999.819991
436.694770	5984.714173
437.071222	6016.183576
437.447614	5953.806859
437.823946	5871.479776
438.200218	6018.910840
438.576429	5890.331170
438.952580	5984.739379
439.328670	6034.548500
439.704700	5938.489313
440.080670	5922.390388
440.456580	6199.868099
440.832429	6076.596764
441.208218	5927.739053
441.583947	6078.857721
441.959616	6084.034986
442.335224	6016.508731
442.710773	6147.893803
443.086261	6171.093193
443.461689	5970.107430
443.837057	6121.957066
444.212365	6274.676301
444.587612	6164.113715
444.962800	6320.770092
445.337927	6301.268388
445.712995	5915.191621
446.088002	6489.754610
446.462949	6318.627601
446.837837	6249.026911
447.212664	6421.371358
447.587431	6568.371404
447.962139	7108.687314
448.336786	8032.100670
448.711374	7771.956967
449.085901	6847.207705
449.460369	6770.995542
449.834776	6703.199584
450.209124	7098.824297
450.583412	7242.655978
450.957640	7393.837661
451.331808	7152.895713
451.705917	6708.018927
452.079965	6626.420290
452.453954	6838.569688
452.827883	6718.675926
453.201752	6810.770245
453.575562	6614.765143
453.949311	6814.455329
454.323001	6703.741508
454.696632	6780.339320
455.070202	6915.631287
455.443713	7081.505413
455.817164	7176.097623
456.190556	7253.179386
456.563888	7330.084709
456.937160	7377.733695
457.310373	7029.495828
457.683526	7057.196969
458.056619	6944.176820
458.429653	6932.093174
458.802628	6869.615634
459.175542	6977.274516
459.548398	7329.494894
459.921194	7494.131417
460.293930	7490.733679
460.666607	8020.843773
461.039224	8330.834406
461.411782	8455.295453
461.784280	8476.853948
462.156719	8365.787246
462.529099	8239.690344
462.901419	7837.020619
463.273680	7727.095739
463.645882	7736.633602
464.018024	7605.077131
464.390106	7772.287162
464.762130	8159.384763
465.134094	8626.997153
465.505999	9647.248554
465.877845	10867.558145
466.249631	11512.808193
466.621358	11130.088834
466.993026	10506.929122
467.364634	10244.216951
467.736184	9880.507783
468.107674	9550.110560
468.479105	9582.948636
468.850477	9345.648922
469.221790	9120.377401
469.593043	8797.476373
469.964238	8653.374991
470.335373	8668.679934
470.706449	8724.724962
471.077467	8706.249133
471.448425	10017.359987
471.819324	11086.258522
472.190164	11109.009249
472.560945	9861.220329
472.931667	9078.674455
473.302330	8940.509031
473.672934	8585.805885
474.043479	8939.120193
474.413965	8878.281028
474.784393	8768.381354
475.154761	8923.437164
475.525070	9008.889763
475.895321	8835.423659
476.265513	9008.226851
476.635645	9179.371503
477.005719	9185.307462
477.375734	9296.411972
477.745691	9533.835195
478.115588	9666.208333
478.485427	9907.006608
478.855207	10445.797570
479.224928	11259.076837
479.594591	11884.444575
479.964194	11694.035153
480.333739	11636.460135
480.703226	11546.223481
481.072653	11639.792338
481.442022	11881.382074
481.811333	12067.783779
482.180584	11874.155580
482.549777	11584.747979
482.918912	11407.228787
483.287988	11425.356777
483.657005	11438.879672
484.025964	11127.873247
484.394864	11257.761096
484.763706	11228.630789
485.132489	10981.576442
485.501213	10948.188880
485.869879	11025.200067
486.238487	10870.229956
486.607036	10978.856739
486.975527	10754.971535
487.343959	10946.996647
487.712333	10993.002217
488.080648	10919.822307
488.448905	10968.766870
488.817104	10910.150853
489.185244	11177.664723
489.553326	11331.281284
489.921350	11871.249355
490.289315	12935.832662
490.657222	13271.369342
491.025070	13172.366121
491.392861	13048.169735
491.760593	12663.512052
492.128267	12323.655104
492.495883	11991.551450
492.863440	11660.922334
493.230939	11320.679737
493.598380	11256.357135
493.965763	11126.421395
494.333088	11019.601865
494.700354	10945.678385
495.067563	10995.732002
495.434713	10836.151756
495.801805	10959.881836
496.168839	10882.293437
496.535815	10822.265898
496.902733	10820.246916
497.269593	10760.562175
497.636395	10859.315858
498.003139	10842.783394
498.369825	10709.880935
498.736453	10865.788700
499.103023	10794.254727
499.469535	10826.679428
499.835989	10816.113170
500.202385	10770.977199
500.568723	10629.114088
500.935003	10854.698161
501.301226	10658.730867
501.667390	10917.024467
502.033497	11012.236739
502.399546	10874.005780
502.765537	10779.063209
503.131470	10859.872906
503.497345	11027.541682
503.863163	10642.639504
504.228923	10949.998654
504.594625	11008.314722
504.960269	10763.236507
505.325856	10977.704836
505.691385	10776.078846
506.056856	10927.883112
506.422270	10950.038983
506.787625	10838.707621
507.152924	10955.609458
507.518164	10938.058681
507.883347	10860.132525
508.248472	10779.315267
508.613540	11014.979127
508.978550	10896.857331
509.343503	10873.859587
509.708398	10988.535755
510.073236	11102.775862
510.438016	11109.667120
510.802738	11056.369521
511.167403	11112.890938
511.532010	11006.827581
511.896561	11239.943138
512.261053	11307.212295
512.625488	11175.658344
512.989866	11165.215594
513.354186	11149.842595
513.718449	11056.687113
514.082655	11253.118194
514.446803	11140.955041
514.810894	11265.539597
515.174927	11126.623041
515.538904	11153.031125
515.902822	11303.139043
516.266684	11191.386744
516.630488	11131.702003
516.994235	11186.643018
517.357925	11250.159036
517.721558	11340.375526
518.085133	11352.257525
518.448651	11357.127280
518.812112	11242.993036
519.175516	11256.344532
519.538863	11381.377750
519.902152	11297.210646
520.265385	11457.221910
520.628560	11369.311749
520.991678	11344.660506
521.354739	11413.671382
521.717743	11345.721669
522.080690	11330.104175
522.443580	11462.893208
522.806413	11419.078019
523.169189	11445.796135
523.531908	11499.413847
523.894569	11322.353401
524.257174	11327.381952
524.619722	11451.172525
524.982213	11395.649257
525.344647	11444.283789
525.707025	11397.333002
526.069345	11488.565284
526.431608	11407.763150
526.793815	11517.345231
527.155964	11301.798096
527.518057	11360.525017
527.880093	11311.144395
528.242072	11376.122347
528.603995	11279.266659
528.965860	11204.612211
529.327669	11256.704975
529.689421	11200.024761
530.051117	11172.610967
530.412755	11279.879159
530.774337	11165.951602
531.135862	11152.174129
531.497331	11171.995946
531.858743	11021.993893
532.220098	11192.664677
532.581396	11061.957640
532.942638	11045.674713
533.303824	11012.035093
533.664953	11023.702844
534.026025	10939.119844
534.387040	11039.590040
534.747999	11039.761439
535.108902	11095.476272
535.469748	10851.716319
535.830537	10957.257916
536.191270	10940.228898
536.551947	10959.246651
536.912567	10954.490322
537.273131	10888.244519
537.633638	10861.851558
537.994089	10851.083654
538.354483	10797.334872
538.714821	10952.173912
539.075103	10955.813625
539.435328	10931.754718
539.795497	10746.835113
540.155609	10900.905377
540.515665	10994.267547
540.875665	10728.944058
541.235609	10794.042998
541.595496	10789.044694
541.955328	10943.941708
542.315102	10828.544655
542.674821	10780.293251
543.034483	10780.300813
543.394090	10785.190732
543.753640	10710.324556
544.113134	10937.226891
544.472571	10791.056114
544.831953	10929.700448
545.191278	10740.480738
545.550548	10766.538463
545.909761	10902.803372
546.268918	10885.678572
546.628019	10958.198091
546.987064	10827.778400
547.346053	10747.596327
547.704986	10850.128355
548.063863	10832.673360
548.422684	10824.564664
548.781449	10750.719322
549.140158	10848.048879
549.498811	10725.258974
549.857408	10580.224978
550.215949	10806.202261
550.574434	10656.923613
550.932864	10762.102247
551.291237	10818.295989
551.649555	10767.695408
552.007817	10780.976327
552.366022	10731.353729
552.724173	10731.220139
553.082267	10717.553571
553.440305	10858.617658
553.798288	10657.263891
554.156215	10807.364247
554.514086	10786.360280
554.871902	10630.994439
555.229661	10673.846767
555.587365	10645.099587
555.945014	10543.361541
556.302606	10667.338637
556.660143	10562.691845
557.017625	10712.240195
557.375050	10612.581624
557.732421	10747.530792
558.089735	10662.972998
558.446994	10663.792186
558.804197	10692.834273
559.161345	10696.027844
559.518437	10549.055524
559.875474	10635.165993
560.232455	10665.531384
560.589381	10620.735691
560.946251	10614.169588
561.303065	10716.147089
561.659825	10654.939919
562.016528	10586.027346
562.373177	10469.516199
562.729770	10581.069372
563.086307	10499.460652
563.442789	10588.588253
563.799216	10466.345313
564.155587	10521.896308
564.511904	10469.029727
564.868164	10459.441453
565.224370	10480.699998
565.580520	10402.284850
565.936615	10405.274255
566.292654	10277.332291
566.648638	10406.766436
567.004567	10361.859838
567.360441	10348.329381
567.716260	10258.831256
568.072023	10353.494043
568.427732	10300.619901
568.783385	10214.930368
569.138982	10288.362335
569.494525	10299.445312
569.850013	10172.859418
570.205445	10256.663560
570.560823	10156.223611
570.916145	10068.560466
571.271412	10143.361107
571.626625	10087.013609
571.981782	10064.540146
572.336884	10033.022852
572.691931	10044.365448
573.046923	9983.516200
573.401860	9941.104973
573.756743	9878.675324
574.111570	9920.060676
574.466342	9909.244881
574.821059	9936.366288
575.175722	9830.776801
575.530330	9839.402215
575.884882	9831.714455
576.239380	9752.253268
576.593823	9730.321728
576.948211	9754.078165
577.302544	9631.305905
577.656823	9647.445159
578.011047	9649.474223
578.365216	9619.491961
578.719330	9547.751300
579.073389	9556.669101
579.427394	9507.419549
579.781344	9483.874840
580.135239	9430.700749
580.489080	9442.071072
580.842866	9342.591462
581.196597	9349.931382
581.550273	9389.514522
581.903895	9359.191982
582.257463	9420.746991
582.610975	9298.700656
582.964434	9329.023197
583.317837	9248.896577
583.671186	9229.624246
584.024481	9218.246361
584.377721	9146.946802
584.730906	9123.291188
585.084037	9149.689190
585.437113	9083.569416
585.790135	9103.754196
586.143103	9002.046396
586.496016	8981.748190
586.848874	9037.924288
587.201679	9027.836939
587.554428	8912.427284
587.907124	8959.678019
588.259765	8932.692722
588.612352	8935.470398
588.964884	8808.539185
589.317362	8824.184406
589.669786	8825.658944
590.022155	8872.377837
590.374470	8885.121874
590.726731	8827.199016
591.078937	8679.407509
591.431090	8787.767111
591.783188	8666.799583
592.135232	8652.608735
592.487222	8651.668560
592.839157	8708.469761
593.191038	8640.169688
593.542866	8584.381759
593.894639	8483.346954
594.246358	8540.067496
594.598022	8553.953354
594.949633	8450.617262
595.301190	8432.267462
595.652692	8456.946431
596.004141	8564.736382
596.355535	8349.627827
596.706876	8326.957758
597.058162	8258.773632
597.409395	8334.116197
597.760573	8393.831185
598.111698	8304.257443
598.462768	8288.450905
598.813785	8255.801872
599.164748	8225.186945
599.515657	8214.797127
599.866511	8125.311605
600.217312	8252.648630
600.568060	8112.784337
600.918753	8212.662198
601.269392	8186.286881
601.619978	8089.867252
601.970510	8161.572624
602.320988	8154.696490
602.671412	8212.919297
603.021783	8143.711816
603.372100	8121.445040
603.722363	8125.682129
604.072572	8105.373841
604.422728	8107.468441
604.772830	8041.749438
605.122878	8044.607773
605.472872	8043.637351
605.822813	8075.825118
606.172701	8014.791868
606.522534	8089.148888
606.872314	8094.742048
607.222041	8062.834064
607.571714	8113.848021
607.921333	8069.387564
608.270899	8076.987104
608.620411	8170.079571
608.969870	8078.333092
609.319276	8065.659631
609.668627	8081.637568
610.017926	8122.617108
610.367171	8164.045310
610.716362	8139.104202
611.065500	8131.673541
611.414585	8157.595154
611.763616	8149.539390
612.112594	8132.225547
612.461518	8144.324316
612.810389	8205.965025
613.159207	8149.095768
613.507971	8094.739527
613.856682	8211.800161
614.205340	8170.863471
614.553945	8243.866940
614.902496	8144.609142
615.250994	8200.870939
615.599439	8179.506529
615.947830	8195.512192
616.296169	8164.337697
616.644454	8183.665481
616.992686	8178.687342
617.340864	8236.731187
617.688990	8139.207545
618.037063	8236.330415
618.385082	8179.597270
618.733048	8267.479705
619.080961	8204.233389
619.428821	8222.540339
619.776628	8219.618990
620.124382	8176.562495
620.472083	8162.641349
620.819731	8188.429371
621.167326	8079.921055
621.514868	8092.128209
621.862357	7980.620407
622.209793	7989.124833
622.557176	7932.172398
622.904506	7900.524034
623.251783	7832.022315
623.599007	7783.917104
623.946179	7791.592261
624.293297	7746.433605
624.640363	7665.525606
624.987376	7648.582288
625.334336	7596.358455
625.681243	7539.022892
626.028097	7527.458485
626.374899	7512.932400
626.721647	7502.537541
627.068343	7434.010616
627.414987	7405.112202
627.761577	7365.745831
628.108115	7400.186994
628.454600	7294.040459
628.801032	7342.478386
629.147412	7304.745349
629.493739	7293.443082
629.840014	7231.777168
630.186236	7288.727083
630.532405	7172.944382
630.878521	7222.914819
631.224585	7175.175092
631.570597	7098.738597
631.916556	7132.829400
632.262462	7129.023329
632.608316	7091.993533
632.954117	7069.043680
633.299866	7057.751496
633.645562	7051.949128
633.991206	6972.772765
634.336797	6909.791110
634.682336	6867.493308
635.027823	6836.717064
635.373257	6828.494942
635.718639	6759.373161
636.063968	6774.136180
636.409245	6673.809657
636.754470	6662.870353
637.099642	6624.633201
637.444762	6564.638429
637.789829	6576.459935
638.134845	6522.219640
638.479808	6504.656260
638.824719	6507.343195
639.169577	6437.382062
639.514383	6456.866122
639.859137	6378.350151
640.203839	6395.651391
640.548489	6381.455502
640.893086	6354.369382
641.237632	6327.426935
641.582125	6347.205902
641.926566	6318.725904
642.270955	6331.628737
642.615292	6326.849723
642.959576	6344.677764
643.303809	6330.436504
643.647990	6341.443863
643.992118	6326.519527
644.336195	6277.637979
644.680219	6301.943902
645.024192	6288.854547
645.368112	6386.708384
645.711981	6407.621611
646.055797	6484.973075
646.399562	6439.204439
646.743274	6570.120684
647.086935	6620.380988
647.430544	6618.354444
647.774101	6641.352188
648.117606	6641.478217
648.461059	6634.072762
648.804460	6599.180416
649.147810	6506.188771
649.491108	6481.328321
649.834354	6452.397139
650.177548	6364.638212
650.520690	6281.171828
650.863781	6261.261791
651.206820	6280.415655
651.549807	6208.009562
651.892742	6142.078832
652.235626	6153.587786
652.578458	6132.853520
652.921238	6045.553338
653.263967	6083.770326
653.606644	6019.886304
653.949269	6021.433938
654.291843	5967.186081
654.634365	6016.060068
654.976836	5972.383511
655.319255	5969.285722
655.661622	5944.785714
656.003938	5941.206495
656.346203	5899.599332
656.688416	5938.222132
657.030577	5885.489142
657.372687	5852.920768
657.714746	5846.710066
658.056753	5886.426797
658.398708	5824.675183
658.740612	5820.349873
659.082465	5865.730340
659.424266	5856.696592
659.766016	5856.084092
660.107715	5838.298901
660.449362	5848.804666
660.790958	5844.560014
661.132503	5829.756666
661.473996	5870.295104
661.815438	5852.822465
662.156829	5851.720973
662.498168	5846.084963
662.839456	5822.005892
663.180693	5852.600654
663.521879	5860.550554
663.863013	5845.411969
664.204097	5867.847624
664.545129	5905.820116
664.886110	5901.701493
665.227040	5935.580567
665.567918	5896.461213
665.908746	5926.587149
666.249522	5929.546306
666.590248	5919.466519
666.930922	5943.268327
667.271545	5959.337005
667.612118	5961.035874
667.952639	5935.199960
668.293109	5957.277693
668.633528	5917.772691
668.973896	5913.429737
669.314213	5906.019241
669.654480	5890.547940
669.994695	5883.281117
670.334859	5871.169745
670.674973	5867.860227
671.015035	5873.501278
671.355047	5866.325196
671.695008	5859.996027
672.034918	5828.340102
672.374777	5837.595660
672.714585	5821.705943
673.054342	5830.671635
673.394049	5819.863401
673.733705	5855.199369
674.073310	5836.564744
674.412864	5800.210463
674.752368	5790.947343
675.091820	5794.483712
675.431223	5733.251337
675.770574	5733.967181
676.109875	5687.525551
676.449125	5688.405232
676.788324	5655.418442
677.127473	5599.151604
677.466571	5589.906127
677.805619	5583.657617
678.144616	5567.145318
678.483562	5542.678078
678.822458	5516.116238
679.161303	5509.794631
679.500098	5494.063711
679.838842	5481.917050
680.177535	5488.866281
680.516179	5500.581922
680.854771	5512.494169
681.193314	5594.995172
681.531805	5701.348395
681.870247	5854.894379
682.208638	5956.892045
682.546978	5967.559127
682.885268	5945.473832
683.223508	5859.398650
683.561697	5808.135157
683.899836	5777.237925
684.237925	5733.367284
684.575963	5696.274474
684.913951	5654.521117
685.251889	5716.673503
685.589776	5681.677813
685.927614	5657.639071
686.265401	5723.393361
686.603137	5709.835178
686.940824	5784.474501
687.278460	5808.649355
687.616046	5818.482125
687.953582	5886.530140
688.291068	5869.266709
688.628504	5936.828253
688.965889	5893.852416
689.303224	5842.989695
689.640510	5791.648063
689.977745	5715.703081
690.314930	5618.018122
690.652065	5560.092744
690.989150	5473.037058
691.326185	5393.165016
691.663170	5338.962530
692.000105	5263.864461
692.336990	5185.668603
692.673825	5161.377804
693.010610	5096.785499
693.347345	5024.576012
693.684030	5009.036655
694.020665	4968.669616
694.357251	4875.098238
694.693786	4886.148448
695.030272	4854.666442
695.366707	4822.929858
695.703093	4783.382006
696.039429	4808.076098
696.375716	4789.325526
696.711952	4766.015231
697.048139	4752.023508
697.384276	4730.326382
697.720363	4746.841202
698.056400	4751.605093
698.392388	4704.762691
698.728326	4683.637736
699.064214	4663.208460
699.400053	4655.550947
699.735842	4622.614569
700.071581	4597.960806
700.407270	4567.996187
700.742910	4553.959094
701.078501	4497.059591
701.414042	4496.159745
701.749533	4471.546311
702.084974	4403.876383
702.420366	4461.363181
702.755709	4402.079211
703.091002	4344.181559
703.426246	4396.400352
703.761440	4350.651880
704.096584	4312.928926
704.431679	4334.061443
704.766725	4315.895645
705.101721	4307.623112
705.436668	4335.861135
705.771565	4283.009678
706.106413	4312.240809
706.441212	4344.965459
706.775961	4351.851675
707.110661	4334.868028
707.445311	4361.671843
707.779913	4383.132035
708.114465	4399.853542
708.448967	4419.713167
708.783421	4477.290706
709.117825	4520.886605
709.452180	4525.763921
709.786485	4573.417948
710.120742	4657.078417
710.454949	4640.530829
710.789107	4705.929718
711.123216	4788.216472
711.457275	4774.756592
711.791286	4847.427345
712.125247	4862.810426
712.459159	4768.707207
712.793023	4840.324359
713.126837	4800.809275
713.460602	4795.165703
713.794318	4713.746027
714.127985	4722.406730
714.461602	4634.546980
714.795171	4606.626549
715.128691	4541.691447
715.462162	4484.227334
715.795584	4438.289819
716.128957	4415.143362
716.462281	4365.215774
716.795556	4343.846323
717.128782	4298.543994
717.461960	4233.313983
717.795088	4246.158843
718.128167	4201.952965
718.461198	4140.735714
718.794180	4137.955517
719.127113	4117.062455
719.459997	4094.667129
719.792833	4056.611459
720.125619	4046.347670
720.458357	4009.315353
720.791046	4017.227444
721.123686	3989.639730
721.456278	3947.639357
721.788821	3961.376501
722.121315	3935.648972
722.453761	3910.438162
722.786158	3921.188422
723.118506	3947.830921
723.450805	3900.754105
723.783056	3922.088268
724.115259	3937.239456
724.447412	3940.727935
724.779518	3932.871297
725.111574	3940.312040
725.443582	3969.361689
725.775542	3958.639154
726.107453	4003.865866
726.439315	4005.622708
726.771129	4019.763145
727.102895	4056.782858
727.434612	4104.469653
727.766281	4114.625057
728.097901	4115.731591
728.429473	4120.195532
728.760996	4126.539824
729.092471	4123.341212
729.423897	4107.683388
729.755276	4112.147330
730.086606	4112.694295
730.417887	4152.597549
730.749120	4216.007702
731.080305	4278.893576
731.411442	4305.548677
731.742530	4276.302423
732.073570	4279.349800
732.404562	4334.699149
732.735506	4322.854958
733.066401	4289.288435
733.397249	4224.910380
733.728048	4147.816014
734.058798	4063.981626
734.389501	3992.372035
734.720156	3929.644958
735.050762	3885.053432
735.381320	3877.945405
735.711831	3828.158969
736.042293	3798.723672
736.372707	3821.434070
736.703073	3796.271151
737.033391	3783.819501
737.363661	3803.772388
737.693883	3824.534380
738.024056	3836.376050
738.354182	3832.025534
738.684260	3895.191192
739.014290	3913.233482
739.344272	3911.867329
739.674207	3956.693269
740.004093	3958.069504
740.333931	3953.446766
740.663722	3951.536169
740.993464	3953.908032
741.323159	3926.567334
741.652806	3896.610277
741.982405	3872.115310
742.311956	3839.693129
742.641460	3827.170903
742.970915	3804.742810
743.300323	3761.527518
743.629683	3728.785224
743.958996	3717.440107
744.288260	3695.853887
744.617477	3660.923732
744.946647	3648.270436
745.275768	3622.948720
745.604842	3619.107361
745.933869	3573.442068
746.262847	3570.251018
746.591778	3600.422324
746.920662	3573.729414
747.249498	3541.874363
747.578286	3588.605859
747.907027	3609.128397
748.235720	3605.007253
748.564365	3629.414000
748.892963	3629.421561
749.221514	3610.625619
749.550017	3585.495467
749.878473	3586.612083
750.206881	3557.927918
750.535242	3550.179664
750.863555	3552.160838
751.191821	3549.400806
751.520039	3531.275337
751.848210	3507.052593
752.176334	3539.772202
752.504411	3546.582801
752.832440	3506.258611
753.160421	3489.262361
753.488356	3500.967920
753.816243	3512.466792
754.144082	3470.179073
754.471875	3458.120633
754.799620	3473.234012
755.127318	3465.757981
755.454969	3466.002477
755.782572	3473.198724
756.110129	3448.887760
756.437638	3434.550718
756.765100	3453.654171
757.092515	3464.139771
757.419882	3465.957107
757.747203	3444.602779
758.074477	3441.031122
758.401703	3463.043320
758.728882	3480.503356
759.056014	3488.044922
759.383099	3487.117350
759.710138	3488.223883
760.037129	3507.178622
760.364073	3539.225237
760.690970	3520.058770
761.017820	3497.146726
761.344623	3514.029550
761.671379	3559.354564
761.998088	3612.659725
762.324751	3739.573293
762.651366	3986.098319
762.977935	4461.355619
763.304456	4901.092948
763.630931	4998.944265
763.957359	4643.008557
764.283740	4298.821257
764.610074	4103.247173
764.936362	3906.372471
765.262602	3747.679469
765.588796	3635.392808
765.914943	3545.173798
766.241044	3457.777835
766.567097	3427.921601
766.893104	3379.259343
767.219064	3350.867564
767.544978	3323.781445
767.870845	3269.062240
768.196665	3251.403078
768.522438	3260.285592
768.848165	3255.098244
769.173846	3215.731874
769.499479	3197.742516
769.825066	3180.993283
770.150607	3167.677075
770.476101	3180.582429
770.801548	3176.141172
771.126949	3132.663741
771.452303	3113.759414
771.777611	3119.778552
772.102872	3124.701238
772.428087	3102.278186
772.753256	3091.926177
773.078378	3086.849735
773.403453	3052.307748
773.728482	3035.694626
774.053465	3062.253945
774.378401	3048.126111
774.703291	3018.501771
775.028135	3018.141328
775.352932	3010.816532
775.677683	2999.857063
776.002388	2995.095693
776.327046	2995.927484
776.651658	2985.938438
776.976224	2975.278918
777.300743	2974.898311
777.625216	2967.132413
777.949643	2961.090590
778.274024	2964.442958
778.598359	2955.913325
778.922647	2962.466825
779.246889	2958.953141
779.571086	2941.505708
779.895236	2936.633432
780.219339	2949.768159
780.543397	2959.467339
780.867409	2963.691826
781.191374	2955.799899
781.515294	2952.172789
781.839167	2954.527008
782.162995	2943.754062
782.486776	2953.899384
782.810511	2948.951492
783.134201	2936.020932
783.457844	2945.367231
783.781441	2937.994544
784.104993	2914.739701
784.428498	2916.839342
784.751958	2928.963317
785.075372	2924.784200
785.398739	2907.278793
785.722061	2921.739343
786.045337	2934.748041
786.368568	2921.081473
786.691752	2910.575708
787.014891	2959.356433
787.337983	2988.360712
787.661030	3019.832635
787.984031	3084.326637
788.306987	3130.438071
788.629897	3125.656537
788.952760	3105.234823
789.275579	3091.147318
789.598351	3034.056251
789.921078	2988.501864
790.243759	2979.649598
790.566395	2961.796352
790.888984	2937.256015
791.211529	2919.309507
791.534027	2910.530338
791.856480	2905.718556
792.178888	2888.583674
792.501249	2879.912890
792.823566	2876.426932
793.145836	2872.709081
793.468062	2867.216744
793.790241	2868.560211
794.112375	2873.908876
794.434464	2887.588047
794.756507	2892.059550
795.078505	2895.926115
795.400457	2910.416912
795.722364	2946.251954
796.044226	2973.219606
796.366042	2973.227168
796.687812	2963.893472
797.009538	2982.260916
797.331218	2968.254070
797.652852	2958.043213
797.974442	2937.452620
798.295986	2931.892227
798.617484	2926.145312
798.938938	2914.154927
799.260346	2897.670354
799.581709	2890.821947
799.903026	2888.044271
800.224299	2880.117057
800.545526	2872.633464
800.866708	2854.444981
801.187845	2842.056345
801.508936	2847.127746
801.829983	2853.688807
802.150984	2839.170284
802.471940	2828.977071
802.792851	2828.717452
803.113717	2829.516475
803.434538	2832.707525
803.755314	2825.705362
804.076045	2818.622541
804.396731	2818.804023
804.717372	2818.783858
805.037967	2812.316058
805.358518	2820.722182
805.679024	2831.054027
805.999485	2828.856084
806.319901	2832.848677
806.640272	2824.548418
806.960598	2829.733244
807.280879	2837.307578
807.601115	2845.862416
807.921306	2832.281548
808.241453	2829.206444
808.561554	2835.974193
808.881611	2836.924450
809.201623	2830.948162
809.521590	2830.615446
809.841513	2827.565548
810.161390	2831.197700
810.481223	2827.043789
810.801011	2813.944351
811.120755	2812.711788
811.440453	2813.644402
811.760107	2813.795637
812.079716	2814.329999
812.399281	2801.588482
812.718801	2795.909623
813.038276	2791.962399
813.357707	2795.554221
813.677093	2802.994964
813.996434	2798.757875
814.315731	2793.739406
814.634983	2787.727830
814.954191	2793.220167
815.273354	2804.469502
815.592473	2811.701037
815.911547	2817.057263
816.230577	2822.554641
816.549562	2832.528564
816.868502	2830.791887
817.187399	2841.211952
817.506250	2858.256093
817.825058	2851.679908
818.143821	2862.594006
818.462539	2879.209649
818.781213	2904.634708
819.099843	2943.746500
819.418429	3000.925788
819.736970	3061.860735
820.055466	3137.195738
820.373919	3241.587952
820.692327	3383.448542
821.010691	3553.373235
821.329011	3997.549300
821.647286	4900.271240
821.965517	6284.163753
822.283704	7035.275511
822.601847	7018.896802
822.919945	6382.355347
823.237999	5873.077821
823.556010	5282.526813
823.873976	4726.497626
824.191897	4316.447652
824.509775	4016.778782
824.827609	3748.977566
825.145398	3627.021972
825.463144	3615.291207
825.780845	3706.974672
826.098502	3809.917554
826.416116	4093.792489
826.733685	4412.247219
827.051210	4478.782888
827.368692	4363.993294
827.686129	4094.886419
828.003522	3769.074126
828.320872	3506.021677
828.638177	3309.431800
828.955439	3172.657735
829.272656	3091.938779
829.589830	3020.861031
829.906960	2970.832620
830.224046	2925.119437
830.541088	2892.669530
830.858086	2876.709237
831.175041	2859.183665
831.491952	2859.776001
831.808819	2874.576828
832.125642	2894.945611
832.442421	2940.005964
832.759157	3025.277082
833.075849	3204.986654
833.392497	3486.124243
833.709101	3691.778114
834.025662	3641.845485
834.342179	3480.286587
834.658653	3305.882828
834.975083	3154.617966
835.291469	3053.293294
835.607811	2971.061993
835.924110	2911.883888
836.240366	2858.755167
836.556578	2819.371153
836.872746	2791.516257
837.188871	2770.852567
837.504952	2753.130391
837.820990	2744.409195
838.136984	2730.876217
838.452935	2727.687688
838.768842	2723.352295
839.084706	2741.792836
839.400526	2821.145639
839.716303	2951.847635
840.032037	3037.224616
840.347727	3019.494878
840.663373	2958.068418
840.978977	2883.764331
841.294537	2809.666932
841.610054	2760.782863
841.925527	2742.150758
842.240957	2718.142263
842.556344	2695.895651
842.871687	2679.310255
843.186987	2672.895387
843.502244	2668.214675
843.817458	2664.713594
844.132629	2648.743218
844.447756	2642.840027
844.762840	2633.239150
845.077881	2637.002371
845.392879	2637.118318
845.707833	2630.932822
846.022745	2625.183386
846.337613	2628.734879
846.652438	2625.271606
846.967221	2626.002573
847.281960	2620.719444
847.596656	2619.625514
847.911309	2621.941924
848.225919	2618.299690
848.540485	2615.466562
848.855009	2614.188629
849.169490	2617.470421
849.483928	2617.616614
849.798323	2615.937910
850.112675	2612.484719
850.426984	2614.634772
850.741251	2612.575460
851.055474	2612.709051
851.369654	2615.131325
851.683792	2614.627210
851.997887	2615.174175
852.311938	2611.761314
852.625947	2612.822477
852.939914	2614.541510
853.253837	2618.506378
853.567718	2614.458331
853.881555	2611.849534
854.195350	2617.422530
854.509103	2614.241562
854.822812	2611.834411
855.136479	2612.204935
855.450103	2613.268619
855.763685	2616.202570
856.077224	2612.303238
856.390720	2608.325767
856.704173	2613.651747
857.017584	2616.394134
857.330953	2620.348919
857.644278	2620.225411
857.957561	2622.824126
858.270802	2617.117540
858.584000	2615.406068
858.897155	2619.358333
859.210268	2620.762294
859.523339	2615.532097
859.836367	2609.243257
860.149352	2612.441870
860.462295	2616.195009
860.775195	2611.761314
861.088054	2609.896087
861.400869	2607.642691
861.713642	2606.478185
862.026373	2606.200921
862.339062	2612.537652
862.651708	2613.805502
862.964312	2614.536469
863.276873	2616.074021
863.589392	2614.896912
863.901869	2620.111985
864.214303	2628.039200
864.526696	2628.563480
864.839045	2632.039355
865.151353	2632.924078
865.463619	2633.453399
865.775842	2633.279479
866.088023	2632.747637
866.400162	2633.539098
866.712258	2633.506331
867.024313	2631.968779
867.336325	2626.791514
867.648296	2630.753861
867.960224	2636.851137
868.272110	2636.485653
868.583954	2627.615743
868.895755	2629.727986
869.207515	2633.075312
869.519233	2640.271559
869.830909	2638.401291
870.142542	2631.565487
870.454134	2634.227216
870.765684	2639.548154
871.077191	2641.143679
871.388657	2644.942188
871.700081	2643.308855
872.011463	2641.912455
872.322803	2645.153917
872.634101	2651.077273
872.945357	2653.955772
873.256571	2663.579334
873.567744	2656.536842
873.878874	2656.040289
874.189963	2658.510454
874.501010	2663.806186
874.812015	2664.428769
875.122979	2667.158553
875.433900	2660.637821
875.744780	2658.543222
876.055618	2665.285765
876.366415	2667.564366
876.677169	2669.807680
876.987882	2661.192348
877.298554	2661.683860
877.609183	2671.123421
877.919771	2676.696417
878.230317	2686.846780
878.540822	2694.405990
878.851285	2707.041642
879.161707	2732.133985
879.472087	2775.165275
879.782425	2823.419199
880.092722	2937.424893
880.402977	3127.284830
880.713191	3393.399779
881.023363	3686.905839
881.333494	3880.917165
881.643583	4057.715472
881.953631	4049.142989
882.263637	3875.979355
882.573602	3653.432577
882.883526	3519.907535
883.193408	3403.797159
883.503248	3300.808907
883.813048	3186.714992
884.122806	3066.687640
884.432522	2984.942810
884.742197	2919.652306
885.051831	2880.810215
885.361424	2842.658763
885.670975	2807.355562
885.980485	2776.947322
886.289954	2756.442429
886.599382	2743.227044
886.908768	2733.041393
887.218113	2713.612786
887.527417	2701.435879
887.836680	2692.583613
888.145901	2684.873168
888.455082	2676.986283
888.764221	2668.045797
889.073319	2660.819302
889.382376	2659.221257
889.691392	2656.294867
890.000366	2658.828047
890.309300	2658.039106
890.618193	2659.397697
890.927044	2662.477842
891.235855	2664.282575
891.544625	2661.585558
891.853353	2660.937770
892.162041	2669.535457
892.470687	2690.110927
892.779293	2702.441589
893.087858	2711.094730
893.396381	2733.842937
893.704864	2773.257198
894.013306	2851.090093
894.321707	2942.224072
894.630068	2991.307266
894.938387	3011.217303
895.246665	3008.706809
895.554903	2964.689974
895.863100	2919.490989
896.171256	2859.115610
896.479371	2796.247380
896.787446	2761.302102
897.095480	2741.477764
897.403473	2732.030642
897.711425	2720.196533
898.019336	2699.545446
898.327207	2684.464835
898.635038	2683.519618
898.942827	2680.699093
899.250576	2669.590910
899.558284	2656.481390
899.865952	2653.194557
900.173579	2654.711945
900.481165	2651.619197
900.788711	2643.376910
901.096216	2639.129738
901.403681	2632.556073
901.711105	2633.760909
902.018489	2631.749489
902.325832	2634.925416
902.633135	2637.120838
902.940397	2652.675318
903.247619	2688.712007
903.554800	2760.336721
903.861941	2890.509395
904.169041	3018.030423
904.476101	3080.150041
904.783121	3075.280287
905.090100	3016.684435
905.397039	2939.166612
905.703938	2865.797659
906.010796	2799.239305
906.317614	2750.788775
906.624391	2710.835110
906.931129	2685.662109
907.237826	2661.106648
907.544483	2643.054276
907.851099	2628.805455
908.157675	2618.453446
908.464211	2610.564040
908.770707	2600.464088
909.077163	2599.244129
909.383578	2591.967223
909.689954	2592.972933
909.996289	2591.422779
910.302584	2590.018817
910.608839	2587.662078
910.915054	2589.681060
911.221229	2590.661564
911.527363	2592.667944
911.833458	2589.983529
912.139513	2591.528643
912.445527	2592.173911
912.751502	2599.571804
913.057436	2604.184460
913.363331	2609.873402
913.669186	2618.597118
913.975000	2634.743934
914.280775	2650.646254
914.586510	2670.669717
914.892205	2710.819987
915.197859	2778.497477
915.503475	2862.110055
915.809050	2928.822164
916.114585	2947.658436
916.420081	2959.011114
916.725536	2968.848926
917.030952	2941.742642
917.336328	2893.917215
917.641665	2845.103722
917.946961	2793.537760
918.252218	2758.902512
918.557435	2733.197669
918.862612	2709.327805
919.167750	2691.033458
919.472848	2675.587363
919.777906	2657.466935
920.082925	2646.257930
920.387904	2635.152268
920.692843	2630.161525
920.997743	2626.264713
921.302603	2616.658795
921.607423	2612.487240
921.912204	2609.177722
922.216946	2603.536671
922.521647	2599.811259
922.826310	2597.121803
923.130932	2595.337235
923.435516	2585.380956
923.740059	2582.762076
924.044564	2583.286356
924.349028	2583.908939
924.653454	2574.834862
924.957840	2572.518452
925.262186	2569.856723
925.566493	2569.745817
925.870761	2565.236505
926.174989	2569.183728
926.479178	2567.366392
926.783328	2562.196689
927.087438	2563.608212
927.391509	2563.172152
927.695541	2562.110990
927.999533	2558.735937
928.303486	2555.597819
928.607400	2558.746019
928.911275	2555.043292
929.215110	2557.369784
929.518906	2555.670916
929.822663	2558.715772
930.126381	2556.648899
930.430060	2558.493962
930.733699	2553.972047
931.037299	2558.728375
931.340861	2555.791903
931.644383	2557.377346
931.947866	2559.749209
932.251309	2558.504044
932.554714	2556.175031
932.858080	2561.906823
933.161407	2560.165104
933.464694	2555.829712
933.767943	2555.315514
934.071153	2558.309960
934.374323	2554.060267
934.677455	2554.566903
934.980548	2552.167314
935.283602	2553.467931
935.586617	2552.152190
935.889593	2556.457336
936.192530	2553.399876
936.495428	2554.955072
936.798287	2553.818292
937.101108	2554.221584
937.403890	2560.770043
937.706632	2562.330280
938.009336	2564.979406
938.312002	2568.107442
938.614628	2572.316806
938.917216	2577.446180
939.219765	2576.243864
939.522275	2577.854513
939.824747	2577.594894
940.127179	2571.147258
940.429573	2570.184398
940.731929	2570.685992
941.034246	2565.181052
941.336524	2566.554767
941.638763	2569.150961
941.940964	2566.746331
942.243126	2563.608212
942.545250	2564.077040
942.847335	2563.600651
943.149381	2559.227450
943.451389	2561.019580
943.753359	2557.331976
944.055290	2559.098900
944.357182	2559.865156
944.659036	2557.291647
944.960851	2559.043447
945.262628	2558.723334
945.564367	2558.244425
945.866067	2558.481359
946.167729	2557.253838
946.469352	2557.198385
946.770937	2555.658313
947.072484	2556.553117
947.373992	2555.943138
947.675462	2554.713096
947.976893	2554.811399
948.278286	2555.323076
948.579641	2554.909701
948.880958	2553.931718
949.182236	2553.583878
949.483476	2553.425082
949.784678	2555.224773
950.085841	2552.913404
950.386967	2556.437171
950.688054	2553.543549
950.989103	2555.365926
951.290114	2557.306770
951.591087	2556.601008
951.892021	2559.250135
952.192917	2560.704508
952.493776	2560.515464
952.794596	2562.552091
953.095378	2561.211144
953.396122	2562.569735
953.696828	2562.403377
953.997496	2559.902964
954.298126	2558.352809
954.598718	2556.154866
954.899272	2551.690925
955.199788	2555.345761
955.500266	2550.705379
955.800706	2546.609442
956.101108	2544.434184
956.401472	2545.674308
956.701798	2542.954605
957.002087	2543.622558
957.302337	2547.141283
957.602550	2545.271015
957.902724	2543.128525
958.202861	2543.879657
958.502960	2545.417209
958.803022	2541.653987
959.103045	2544.015768
959.403031	2541.780016
959.702979	2538.530993
960.002889	2540.280273
960.302762	2539.882022
960.602596	2542.241282
960.902393	2539.912269
961.202153	2540.754141
961.501875	2538.336908
961.801559	2538.944367
962.101205	2539.062834
962.400814	2539.899666
962.700385	2539.201466
962.999918	2540.373534
963.299414	2539.118287
963.598873	2539.894625
963.898293	2538.639377
964.197677	2537.638708
964.497022	2540.151723
964.796331	2537.817669
965.095601	2537.797505
965.394835	2540.083668
965.694030	2538.785571
965.993189	2538.142824
966.292309	2538.541075
966.591393	2536.784233
966.890439	2540.229861
967.189447	2541.674152
967.488419	2538.205838
967.787353	2537.797505
968.086249	2538.006713
968.385108	2537.202648
968.683930	2533.499921
968.982714	2537.560570
969.281462	2535.503780
969.580172	2538.720036
969.878844	2541.628782
970.177480	2536.328008
970.476078	2538.296579
970.774639	2538.510828
971.073162	2536.743903
971.371649	2539.042670
971.670098	2534.135106
971.968510	2538.011754
972.266885	2534.732483
972.565223	2539.206507
972.863524	2540.696168
973.161788	2541.699358
973.460014	2540.020653
973.758204	2541.101981
974.056356	2537.515200
974.354471	2539.745911
974.652550	2538.657021
974.950591	2539.839172
975.248595	2538.072248
975.546563	2538.828421
975.844493	2538.800694
976.142386	2538.243647
976.440243	2539.803884
976.738062	2537.265663
977.035845	2538.563760
977.333590	2535.213913
977.631299	2538.964532
977.928971	2535.932278
978.226606	2537.212731
978.524204	2539.332536
978.821765	2536.985879
979.119290	2535.549150
979.416777	2536.882535
979.714228	2539.224151
980.011642	2537.522762
980.309020	2539.448483
980.606360	2537.555529
980.903664	2537.774819
981.200931	2536.406146
981.498162	2542.329502
981.795356	2541.220448
982.092513	2543.418391
982.389633	2544.391334
982.686717	2550.445760
982.983764	2551.431305
983.280775	2552.187478
983.577749	2553.372149
983.874686	2552.560524
984.171587	2548.257899
984.468451	2545.238248
984.765279	2541.822866
985.062070	2544.713968
985.358824	2541.502753
985.655543	2542.097609
985.952224	2538.916641
986.248869	2536.753986
986.545478	2533.716691
986.842050	2534.581248
987.138586	2532.247194
987.435086	2533.210055
987.731549	2531.054961
988.027975	2538.367155
988.324366	2535.813811
988.620719	2533.850281
988.917037	2534.929088
989.213318	2534.273738
989.509563	2535.319778
989.805772	2536.136444
990.101944	2533.530168
990.398080	2533.860363
990.694180	2533.857843
990.990244	2533.777184
991.286271	2532.569828
991.582262	2534.117462
991.878217	2534.414890
992.174136	2532.249715
992.470019	2534.606454
992.765865	2535.221475
993.061676	2534.956814
993.357450	2535.024870
993.653188	2532.368182
993.948890	2536.045704
994.244556	2537.064017
994.540186	2536.204500
994.835780	2533.444468
995.131337	2534.971938
995.426859	2535.347504
995.722345	2536.716177
996.017795	2536.464119
996.313208	2536.963194
996.608586	2540.623071
996.903928	2541.101981
997.199234	2538.866229
997.494504	2538.044521
997.789738	2537.157278
998.084936	2533.978831
998.380099	2534.422452
998.675225	2536.887576
998.970316	2532.973120
999.265371	2537.187525
999.560390	2535.458409
999.855373	2538.019315
1000.150320	2534.233409
1000.445232	2533.699047
1000.740108	2533.429345
1001.034948	2534.883718
1001.329752	2533.714170
1001.624521	2533.779705
1001.919254	2528.647810
1002.213951	2530.623943
1002.508613	2530.286185
1002.803239	2531.070085
1003.097829	2527.342152
1003.392384	2532.736186
1003.686903	2534.760209
1003.981386	2531.286854
1004.275834	2532.829448
1004.570246	2534.230888
1004.864623	2531.886752
1005.158964	2532.476567
1005.453270	2532.194262
1005.747540	2534.185518
1006.041775	2531.710311
1006.335974	2533.890610
1006.630138	2531.758202
1006.924266	2533.068902
1007.218359	2530.913809
1007.512416	2533.073943
1007.806438	2533.895652
1008.100425	2532.673172
1008.394376	2533.941022
1008.688292	2532.161495
1008.982172	2533.341125
1009.276017	2530.308871
1009.569827	2534.319108
1009.863602	2533.986392
1010.157341	2532.766433
1010.451045	2532.970600
1010.744714	2532.940353
1011.038347	2532.736186
1011.331945	2531.546474
1011.625508	2533.240302
1011.919036	2533.462112
1012.212528	2533.280631
1012.505986	2530.644107
1012.799408	2532.118645
1013.092795	2532.128727
1013.386147	2533.207534
1013.679464	2531.685106
1013.972745	2530.649148
1014.265992	2534.006557
1014.559204	2532.539581
1014.852380	2532.035466
1015.145521	2532.872297
1015.438628	2533.399098
1015.731699	2531.770805
1016.024736	2529.645959
1016.317737	2534.056968
1016.610703	2531.927081
1016.903635	2530.323994
1017.196531	2527.727800
1017.489393	2529.635877
1017.782219	2528.630166
1018.075011	2531.619571
1018.367768	2527.271575
1018.660490	2532.317770
1018.953177	2532.317770
1019.245829	2532.317770
