Dividing Wavelength (nm)	Counts (n)	Blue Motor Position (mm): 12.600000	Red Motor Position (mm): 0.000000	
326.493990	2136.375465
326.888308	2136.375465
327.282561	2136.375465
327.676750	2105.568974
328.070874	2104.772472
328.464933	2105.967225
328.858929	2114.171703
329.252859	2124.400204
329.646726	2135.631895
330.040528	2146.999697
330.434265	2166.703047
330.827938	2180.863648
331.221547	2200.277131
331.615091	2216.726416
332.008571	2239.149468
332.401986	2258.550349
332.795338	2276.464089
333.188625	2297.442851
333.581847	2316.392548
333.975006	2332.073057
334.368100	2351.095851
334.761129	2369.801053
335.154095	2386.144473
335.546996	2406.893863
335.939833	2423.630493
336.332606	2437.574325
336.725315	2450.961109
337.117960	2461.010649
337.510540	2467.722946
337.903056	2482.256592
338.295508	2485.971922
338.687896	2496.268479
339.080220	2502.769047
339.472480	2510.865140
339.864676	2515.679442
340.256807	2520.425688
340.648875	2522.043899
341.040879	2525.091276
341.432818	2525.305525
341.824694	2526.442306
342.216506	2527.891637
342.608253	2531.077647
342.999937	2529.192255
343.391557	2529.547656
343.783113	2527.029600
344.174605	2528.126051
344.566033	2523.707480
344.957397	2522.820237
345.348697	2521.985926
345.739934	2519.094824
346.131106	2516.304545
346.522215	2516.896881
346.913260	2511.525531
347.304241	2512.921931
347.695159	2511.149965
348.086012	2511.124760
348.476802	2507.764831
348.867528	2506.393637
349.258191	2503.066475
349.648789	2501.032370
350.039324	2500.533295
350.429796	2499.996412
350.820203	2495.832419
351.210548	2497.523727
351.600828	2496.165136
351.991045	2495.802173
352.381198	2496.495331
352.771288	2494.652789
353.161314	2494.385608
353.551276	2495.557677
353.941175	2491.015597
354.331010	2493.173211
354.720782	2494.718324
355.110490	2494.728407
355.500135	2492.303612
355.889717	2492.558190
356.279235	2492.628766
356.668689	2494.234374
357.058080	2493.667244
357.447408	2489.324290
357.836672	2489.662047
358.225873	2492.429641
358.615010	2491.481904
359.004084	2496.449961
359.393095	2499.920795
359.782043	2499.323418
360.170927	2497.579179
360.559748	2500.992040
360.948505	2499.494818
361.337199	2499.086484
361.725830	2501.188645
362.114398	2503.391630
362.502903	2501.256701
362.891344	2499.683861
363.279722	2503.439521
363.668037	2504.170488
364.056289	2504.306599
364.444478	2503.343739
364.832603	2503.449603
365.220665	2505.609737
365.608665	2503.008502
365.996601	2507.361538
366.384474	2504.097391
366.772284	2506.368431
367.160031	2504.551095
367.547715	2508.672238
367.935336	2505.014881
368.322893	2508.258864
368.710388	2508.180726
369.097820	2510.396313
369.485189	2506.602845
369.872495	2508.699965
370.259738	2508.357166
370.646918	2508.357166
371.034035	2509.897239
371.421090	2508.152999
371.808081	2509.378000
372.195010	2513.680625
372.581875	2509.572084
372.968678	2511.991838
373.355418	2511.633916
373.742096	2510.865140
374.128710	2511.822959
374.515262	2510.943278
374.901751	2511.936385
375.288177	2513.073166
375.674540	2509.287259
376.060841	2513.844462
376.447079	2511.752383
376.833254	2510.784482
377.219367	2507.316168
377.605417	2512.236334
377.991404	2508.490757
378.377329	2509.304903
378.763191	2508.641991
379.148991	2513.846983
379.534727	2512.417816
379.920402	2514.338495
380.306013	2514.661129
380.691563	2513.426046
381.077049	2513.602487
381.462474	2515.573578
381.847835	2513.151303
382.233134	2515.649195
382.618371	2514.464524
383.003545	2517.945441
383.388657	2515.064421
383.773706	2516.513753
384.158693	2515.649195
384.543618	2518.608352
384.928480	2517.905112
385.313280	2518.263033
385.698017	2521.146573
386.082692	2520.521470
386.467305	2516.150790
386.851856	2518.734381
387.236344	2518.535256
387.620770	2518.694052
388.005133	2517.030471
388.389435	2521.922911
388.773674	2518.194978
389.157851	2518.671367
389.541965	2519.730009
389.926018	2521.978364
390.310008	2520.130781
390.693936	2525.320649
391.077802	2518.943589
391.461606	2522.628673
391.845348	2519.598939
392.229027	2521.128929
392.612645	2523.044568
392.996200	2518.711696
393.379694	2520.208919
393.763125	2522.651358
394.146494	2520.771008
394.529801	2522.059022
394.913047	2522.159845
395.296230	2522.227901
395.679351	2521.075997
396.062410	2518.714217
396.445408	2523.026924
396.828343	2523.359640
397.211217	2519.104906
397.594028	2519.677077
397.976778	2521.025586
398.359466	2523.442819
398.742092	2519.666995
399.124656	2526.686802
399.507158	2525.693694
399.889598	2526.326359
400.271977	2525.547501
400.654294	2524.446009
401.036549	2524.572038
401.418742	2524.897192
401.800874	2526.306194
402.182944	2524.745957
402.564952	2523.710000
402.946898	2524.342665
403.328783	2527.828623
403.710606	2528.627646
404.092367	2526.338962
404.474067	2527.541277
404.855705	2528.549508
405.237282	2525.910464
405.618797	2525.948273
406.000250	2526.870804
406.381642	2528.335259
406.762972	2528.121010
407.144240	2525.683612
407.525447	2529.227543
407.906593	2527.137985
408.287677	2529.696370
408.668700	2528.899868
409.049661	2529.950949
409.430560	2527.004394
409.811399	2531.183511
410.192176	2528.340300
410.572891	2531.090249
410.953545	2529.275434
411.334138	2530.082019
411.714669	2526.764939
412.095139	2533.968748
412.475547	2529.489683
412.855894	2529.373737
413.236180	2530.046731
413.616405	2532.252235
413.996568	2530.639066
414.376670	2532.892462
414.756711	2527.906761
415.136691	2530.911288
415.516609	2531.155784
415.896466	2529.792152
416.276262	2532.196783
416.655997	2529.751823
417.035670	2528.592358
417.415283	2530.230733
417.794834	2525.960875
418.174324	2530.155115
418.553753	2532.910106
418.933121	2532.612678
419.312428	2531.175949
419.691674	2533.051258
420.070859	2532.620240
420.449983	2531.828778
420.829045	2530.727286
421.208047	2531.186031
421.586988	2531.738038
421.965867	2533.240302
422.344686	2534.193080
422.723444	2534.906403
423.102141	2533.764582
423.480777	2532.660569
423.859352	2532.360620
424.237866	2534.430014
424.616319	2534.102339
424.994712	2534.402287
425.373044	2535.034952
425.751314	2535.937319
426.129524	2533.109232
426.507673	2534.782895
426.885762	2535.284489
427.263789	2536.343132
427.641756	2536.146527
428.019662	2534.641742
428.397508	2534.261135
428.775292	2535.047555
429.153016	2534.394726
429.530679	2537.018646
429.908282	2533.794828
430.285824	2537.144675
430.663305	2536.746424
431.040726	2535.062679
431.418086	2536.547298
431.795385	2535.241640
432.172624	2533.643594
432.549802	2536.748945
432.926920	2536.295241
433.303977	2536.275076
433.680974	2537.016126
434.057910	2535.130734
434.434786	2536.781712
434.811601	2538.432690
435.188355	2538.808256
435.565050	2537.855478
435.941683	2537.921013
436.318257	2535.239119
436.694770	2531.183511
437.071222	2533.109232
437.447614	2535.534027
437.823946	2535.549150
438.200218	2534.750127
438.576429	2538.278935
438.952580	2538.271373
439.328670	2536.973276
439.704700	2538.137783
440.080670	2535.874304
440.456580	2538.636857
440.832429	2541.366642
441.208218	2539.501415
441.583947	2538.462937
441.959616	2537.343801
442.335224	2538.089892
442.710773	2536.484284
443.086261	2540.000489
443.461689	2539.004861
443.837057	2537.036290
444.212365	2538.536034
444.587612	2536.759027
444.962800	2538.833462
445.337927	2542.221117
445.712995	2538.677186
446.088002	2539.612320
446.462949	2539.312371
446.837837	2540.945705
447.212664	2540.882691
447.587431	2539.960160
447.962139	2539.244316
448.336786	2543.022661
448.711374	2541.986703
449.085901	2541.596014
449.460369	2540.789429
449.834776	2541.807742
450.209124	2542.510983
450.583412	2538.906558
450.957640	2540.290355
451.331808	2537.737011
451.705917	2541.883360
452.079965	2541.641384
452.453954	2538.737680
452.827883	2540.113915
453.201752	2541.333874
453.575562	2541.260777
453.949311	2538.530993
454.323001	2544.358566
454.696632	2540.660880
455.070202	2542.818494
455.443713	2542.793288
455.817164	2538.147865
456.190556	2536.832124
456.563888	2540.658359
456.937160	2537.918492
457.310373	2543.506611
457.683526	2542.929399
458.056619	2543.582229
458.429653	2541.848072
458.802628	2543.541899
459.175542	2542.526107
459.548398	2543.176416
459.921194	2542.780685
460.293930	2542.823535
460.666607	2542.095088
461.039224	2540.282793
461.411782	2543.196580
461.784280	2542.931920
462.156719	2543.302445
462.529099	2543.609955
462.901419	2544.275387
463.273680	2543.108360
463.645882	2541.076775
464.018024	2541.202804
464.390106	2541.459903
464.762130	2542.679862
465.134094	2546.017106
465.505999	2544.703885
465.877845	2542.836138
466.249631	2544.963505
466.621358	2543.599873
466.993026	2546.430481
467.364634	2548.512477
467.736184	2542.155582
468.107674	2543.302445
468.479105	2544.008206
468.850477	2543.940151
469.221790	2546.213711
469.593043	2543.988042
469.964238	2547.189174
470.335373	2545.792775
470.706449	2544.124153
471.077467	2546.223793
471.448425	2547.075748
471.819324	2545.563402
472.190164	2547.171530
472.560945	2543.846889
472.931667	2546.367466
473.302330	2546.624565
473.672934	2544.298073
474.043479	2543.902342
474.413965	2544.366128
474.784393	2543.872095
475.154761	2543.867054
475.525070	2541.769934
475.895321	2541.928730
476.265513	2543.042825
476.635645	2542.735315
477.005719	2543.937630
477.375734	2546.425439
477.745691	2547.557178
478.115588	2544.877805
478.485427	2547.978115
478.855207	2548.550286
479.224928	2547.559699
479.594591	2548.285625
479.964194	2547.443752
480.333739	2550.823846
480.703226	2548.814946
481.072653	2548.946016
481.442022	2549.515667
481.811333	2548.376366
482.180584	2546.916952
482.549777	2548.802343
482.918912	2551.577499
483.287988	2550.244113
483.657005	2548.409133
484.025964	2550.085317
484.394864	2547.877292
484.763706	2547.917621
485.132489	2547.136242
485.501213	2549.780327
485.869879	2548.462066
486.238487	2545.805377
486.607036	2547.471479
486.975527	2549.820657
487.343959	2547.632796
487.712333	2547.330327
488.080648	2548.991387
488.448905	2548.235214
488.817104	2545.888557
489.185244	2548.247817
489.553326	2548.179761
489.921350	2549.911397
490.289315	2550.085317
490.657222	2548.749411
491.025070	2548.948537
491.392861	2549.906356
491.760593	2549.679504
492.128267	2550.864175
492.495883	2549.445091
492.863440	2548.482230
493.230939	2549.170348
493.598380	2551.411141
493.965763	2545.419729
494.333088	2547.279915
494.700354	2549.261088
495.067563	2550.791079
495.434713	2544.605583
495.801805	2548.903167
496.168839	2550.473486
496.535815	2549.918959
496.902733	2549.971891
497.269593	2551.829556
497.636395	2548.706562
498.003139	2551.907694
498.369825	2551.779145
498.736453	2551.106151
499.103023	2551.358208
499.469535	2550.060111
499.835989	2552.842828
500.202385	2550.581871
500.568723	2551.653116
500.935003	2552.852911
501.301226	2550.909546
501.667390	2552.673950
502.033497	2552.036244
502.399546	2551.877447
502.765537	2553.029351
503.131470	2549.550955
503.497345	2554.718138
503.863163	2550.657488
504.228923	2551.806871
504.594625	2551.514484
504.960269	2552.174875
505.325856	2548.847714
505.691385	2550.241593
506.056856	2554.014897
506.422270	2552.689073
506.787625	2551.615307
507.152924	2551.968188
507.518164	2554.524053
507.883347	2551.043136
508.248472	2551.796789
508.613540	2553.435164
508.978550	2550.491130
509.343503	2550.728064
509.708398	2552.878116
510.073236	2553.697304
510.438016	2552.971378
510.802738	2555.580175
511.167403	2552.351316
511.532010	2552.555483
511.896561	2552.883158
512.261053	2554.576985
512.625488	2550.428116
512.989866	2550.733105
513.354186	2551.942982
513.718449	2551.774104
514.082655	2553.833415
514.446803	2553.475493
514.810894	2553.709907
515.174927	2555.189485
515.538904	2554.024979
515.902822	2553.513302
516.266684	2555.567572
516.630488	2556.248128
516.994235	2555.585216
517.357925	2556.616132
517.721558	2553.916594
518.085133	2556.691749
518.448651	2556.001111
518.812112	2556.913560
519.175516	2557.145453
519.538863	2557.636966
519.902152	2557.795762
520.265385	2556.805175
520.628560	2560.946483
520.991678	2560.943962
521.354739	2562.042934
521.717743	2559.534960
522.080690	2561.929508
522.443580	2555.849877
522.806413	2562.831875
523.169189	2561.571586
523.531908	2561.158212
523.894569	2559.292985
524.257174	2560.497820
524.619722	2563.910682
524.982213	2561.133006
525.344647	2563.204920
525.707025	2562.042934
526.069345	2562.254662
526.431608	2561.223747
526.793815	2562.940259
527.155964	2562.005125
527.518057	2563.177194
527.880093	2565.241546
528.242072	2563.162070
528.603995	2566.161557
528.965860	2565.748182
529.327669	2565.559139
529.689421	2564.898748
530.051117	2564.024107
530.412755	2564.245918
530.774337	2567.131979
531.135862	2566.648028
531.497331	2566.214489
531.858743	2561.874055
532.220098	2564.238357
532.581396	2565.296999
532.942638	2564.092163
533.303824	2566.859757
533.664953	2566.660631
534.026025	2566.348079
534.387040	2569.158523
534.747999	2569.491239
535.108902	2569.765982
535.469748	2569.685323
535.830537	2568.304047
536.191270	2569.009809
536.551947	2570.015519
536.912567	2571.651373
537.273131	2568.082236
537.633638	2568.309088
537.994089	2570.101218
538.354483	2570.587690
538.714821	2572.248750
539.075103	2573.960222
539.435328	2569.211455
539.795497	2571.658935
540.155609	2573.695561
540.515665	2574.890315
540.875665	2571.658935
541.235609	2572.520972
541.595496	2573.067938
541.955328	2570.663307
542.315102	2573.065417
542.674821	2571.691702
543.034483	2574.194635
543.394090	2574.983576
543.753640	2574.212279
544.113134	2573.614903
544.472571	2572.241188
544.831953	2576.251426
545.191278	2576.044739
545.550548	2576.117836
545.909761	2573.536765
546.268918	2573.191446
546.628019	2575.583473
546.987064	2575.134811
547.346053	2574.930644
547.704986	2576.690007
548.063863	2574.907959
548.422684	2574.983576
548.781449	2572.868812
549.140158	2577.340315
549.498811	2577.655387
549.857408	2572.780592
550.215949	2574.048442
550.574434	2569.481157
550.932864	2574.247567
551.291237	2571.651373
551.649555	2577.547003
552.007817	2575.792681
552.366022	2578.262847
552.724173	2578.290573
553.082267	2575.147413
553.440305	2578.792168
553.798288	2575.800243
554.156215	2576.276632
554.514086	2579.528176
554.871902	2577.607497
555.229661	2579.427353
555.587365	2577.589852
555.945014	2578.076324
556.302606	2578.174626
556.660143	2576.458113
557.017625	2578.683783
557.375050	2576.090109
557.732421	2578.028433
558.089735	2581.232086
558.446994	2581.819381
558.804197	2579.820563
559.161345	2577.070614
559.518437	2579.084555
559.875474	2580.115471
560.232455	2579.792837
560.589381	2580.397775
560.946251	2583.803075
561.303065	2581.232086
561.659825	2581.756366
562.016528	2581.332909
562.373177	2580.889288
562.729770	2582.242837
563.086307	2582.326017
563.442789	2584.370204
563.799216	2580.117991
564.155587	2580.997673
564.511904	2581.698393
564.868164	2581.390882
565.224370	2581.839545
565.580520	2586.185020
565.936615	2582.555389
566.292654	2582.308372
566.648638	2582.263002
567.004567	2583.119998
567.360441	2584.536562
567.716260	2584.017324
568.072023	2582.320975
568.427732	2584.420616
568.783385	2583.447673
569.138982	2584.425657
569.494525	2585.832139
569.850013	2582.149576
570.205445	2589.050916
570.560823	2590.026379
570.916145	2589.746595
571.271412	2591.533684
571.626625	2591.584096
571.981782	2593.504775
572.336884	2596.194231
572.691931	2595.385126
573.046923	2596.027873
573.401860	2593.829930
573.756743	2596.995774
574.111570	2597.373861
574.466342	2597.550301
574.821059	2598.966865
575.175722	2600.247318
575.530330	2600.222113
575.884882	2604.509614
576.239380	2602.909048
576.593823	2603.962649
576.948211	2608.250150
577.302544	2605.802670
577.656823	2607.574636
578.011047	2607.625047
578.365216	2608.197218
578.719330	2611.312651
579.073389	2615.373301
579.427394	2611.337857
579.781344	2614.163424
580.135239	2617.692231
580.489080	2619.852366
580.842866	2616.442025
581.196597	2622.614918
581.550273	2624.926287
581.903895	2625.337141
582.257463	2629.082718
582.610975	2630.716052
582.964434	2632.056999
583.317837	2635.742083
583.671186	2636.460447
584.024481	2640.591673
584.377721	2639.936323
584.730906	2640.304327
585.084037	2645.693320
585.437113	2647.495533
585.790135	2651.218425
586.143103	2652.206491
586.496016	2653.479382
586.848874	2648.899494
587.201679	2658.502892
587.554428	2656.584733
587.907124	2664.335507
588.259765	2664.038079
588.612352	2672.103925
588.964884	2672.111487
589.317362	2678.569205
589.669786	2682.576922
590.022155	2686.597243
590.374470	2688.404496
590.726731	2689.127902
591.078937	2692.087059
591.431090	2699.106866
591.783188	2699.679037
592.135232	2705.698175
592.487222	2704.142979
592.839157	2712.019782
593.191038	2715.631768
593.542866	2717.958261
593.894639	2719.873899
594.246358	2725.111658
594.598022	2732.254973
594.949633	2732.955693
595.301190	2739.156313
595.652692	2742.584297
596.004141	2755.429157
596.355535	2749.689804
596.706876	2754.085690
597.058162	2754.655340
597.409395	2765.085487
597.760573	2771.906169
598.111698	2771.661673
598.462768	2779.886315
598.813785	2782.434618
599.164748	2788.494085
599.515657	2793.641103
599.866511	2801.389357
600.217312	2806.702733
600.568060	2809.848413
600.918753	2820.512974
601.269392	2824.470280
601.619978	2827.840291
601.970510	2841.015347
602.320988	2847.591532
602.671412	2857.835157
603.021783	2862.387318
603.372100	2867.035262
603.722363	2876.658825
604.072572	2883.229969
604.422728	2894.512071
604.772830	2893.569376
605.122878	2901.310067
605.472872	2909.144020
605.822813	2920.862183
606.172701	2927.982812
606.522534	2941.621654
606.872314	2951.741770
607.222041	2959.437092
607.571714	2973.756489
607.921333	2980.466265
608.270899	2991.975219
608.620411	3005.775378
608.969870	3013.221162
609.319276	3021.143335
609.668627	3035.939122
610.017926	3050.429919
610.367171	3072.361458
610.716362	3074.909762
611.065500	3090.252513
611.414585	3103.354472
611.763616	3108.115842
612.112594	3121.802575
612.461518	3139.134062
612.810389	3152.583860
613.159207	3159.218019
613.507971	3168.944925
613.856682	3192.865200
614.205340	3201.215871
614.553945	3223.633882
614.902496	3227.893657
615.250994	3248.103643
615.599439	3257.487751
615.947830	3275.346039
616.296169	3285.085548
616.644454	3305.774443
616.992686	3317.911021
617.340864	3342.700895
617.688990	3342.915144
618.037063	3375.349928
618.385082	3386.720251
618.733048	3416.957091
619.080961	3417.549427
619.428821	3436.846964
619.776628	3455.259778
620.124382	3467.287971
620.472083	3478.960763
620.819731	3491.619100
621.167326	3494.006087
621.514868	3508.978314
621.862357	3499.155625
622.209793	3515.834283
622.557176	3520.441897
622.904506	3528.212836
623.251783	3522.498688
623.599007	3535.134340
623.946179	3542.590207
624.293297	3556.808781
624.640363	3551.071948
624.987376	3565.955955
625.334336	3568.705904
625.681243	3577.394333
626.028097	3585.016558
626.374899	3594.516612
626.721647	3611.205352
627.068343	3608.374744
627.414987	3620.470993
627.761577	3626.336375
628.108115	3647.184067
628.454600	3640.749034
628.801032	3673.609795
629.147412	3668.727438
629.493739	3688.229142
629.840014	3688.652598
630.186236	3722.448494
630.532405	3705.585834
630.878521	3736.165473
631.224585	3741.012543
631.570597	3733.463415
631.916556	3764.658075
632.262462	3775.685599
632.608316	3779.247174
632.954117	3789.667239
633.299866	3796.838281
633.645562	3816.234120
633.991206	3806.020742
634.336797	3800.193168
634.682336	3801.894558
635.027823	3810.444355
635.373257	3815.672031
635.718639	3813.872339
636.063968	3832.887572
636.409245	3811.054334
636.754470	3822.512877
637.099642	3823.919359
637.444762	3823.876509
637.789829	3840.373685
638.134845	3833.091738
638.479808	3844.152030
638.824719	3857.201057
639.169577	3845.140096
639.514383	3862.582488
639.859137	3851.764172
640.203839	3864.513250
640.548489	3875.689488
640.893086	3876.062534
641.237632	3881.885067
641.582125	3902.402563
641.926566	3902.657141
642.270955	3923.739246
642.615292	3935.908592
642.959576	3959.375163
643.303809	3962.447746
643.647990	3980.671517
643.992118	3989.750635
644.336195	3978.735714
644.680219	4005.836957
645.024192	4009.564891
645.368112	4066.618149
645.711981	4083.569029
646.055797	4129.168786
646.399562	4129.420844
646.743274	4193.357798
647.086935	4227.945155
647.430544	4239.149119
647.774101	4266.731792
648.117606	4274.227988
648.461059	4287.037560
648.804460	4287.829021
649.147810	4253.352570
649.491108	4256.097478
649.834354	4260.992439
650.177548	4236.099221
650.520690	4213.592990
650.863781	4215.727918
651.206820	4242.496445
651.549807	4215.954770
651.892742	4204.765929
652.235626	4219.072724
652.578458	4225.336358
652.921238	4196.478272
653.263967	4224.504567
653.606644	4202.913305
653.949269	4222.167992
654.291843	4200.357440
654.634365	4232.008325
654.976836	4233.961772
655.319255	4235.960589
655.661622	4242.992999
656.003938	4253.929782
656.346203	4236.137030
656.688416	4271.465436
657.030577	4252.145214
657.372687	4249.639760
657.714746	4256.047067
658.056753	4289.283394
658.398708	4264.024693
658.740612	4265.295063
659.082465	4309.901713
659.424266	4311.071261
659.766016	4323.583405
660.107715	4323.172551
660.449362	4338.195189
660.790958	4348.940409
661.132503	4353.928630
661.473996	4384.462899
661.815438	4388.142942
662.156829	4395.455135
662.498168	4402.573244
662.839456	4395.692069
663.180693	4426.062501
663.521879	4434.501392
663.863013	4435.948203
664.204097	4464.536587
664.545129	4490.075072
664.886110	4500.386753
665.227040	4534.399417
665.567918	4518.229917
665.908746	4548.691089
666.249522	4558.304569
666.590248	4557.772727
666.930922	4584.407664
667.271545	4605.761991
667.612118	4615.798929
667.952639	4602.621352
668.293109	4630.859376
668.633528	4615.357828
668.973896	4622.329743
669.314213	4629.435250
669.654480	4633.387514
669.994695	4632.752329
670.334859	4638.242146
670.674973	4648.894104
671.015035	4657.726205
671.355047	4670.117361
671.695008	4667.231301
672.034918	4657.582532
672.374777	4676.302857
672.714585	4669.396476
673.054342	4679.325029
673.394049	4684.003220
673.733705	4720.118046
674.073310	4724.029981
674.412864	4698.526784
674.752368	4708.795614
675.091820	4719.883632
675.431223	4681.553219
675.770574	4699.396383
676.109875	4668.801620
676.449125	4687.862223
676.788324	4671.574255
677.127473	4639.396570
677.466571	4645.274555
677.805619	4650.020802
678.144616	4650.540040
678.483562	4643.910923
678.822458	4627.940548
679.161303	4633.533708
679.500098	4635.202330
679.838842	4630.884582
680.177535	4638.242146
680.516179	4655.127490
680.854771	4672.864790
681.193314	4735.511209
681.531805	4811.761182
681.870247	4926.976753
682.208638	5002.715048
682.546978	5021.722719
682.885268	5012.928426
683.223508	4962.539573
683.561697	4928.065642
683.899836	4920.324950
684.237925	4887.766658
684.575963	4867.400397
684.913951	4844.629505
685.251889	4899.878030
685.589776	4873.643866
685.927614	4855.233572
686.265401	4922.258233
686.603137	4908.382457
686.940824	4973.529288
687.278460	4990.550744
687.616046	5003.198999
687.953582	5052.141041
688.291068	5043.525709
688.628504	5101.970326
688.965889	5069.979164
689.303224	5037.985481
689.640510	5009.996995
689.977745	4964.772804
690.314930	4895.151948
690.652065	4860.284808
690.989150	4799.100324
691.326185	4750.841358
691.663170	4724.299683
692.000105	4671.743133
692.336990	4617.175164
692.673825	4604.698308
693.010610	4556.459507
693.347345	4504.172659
693.684030	4510.620295
694.020665	4479.670131
694.357251	4409.668668
694.693786	4421.671656
695.030272	4396.987646
695.366707	4377.410325
695.703093	4351.551726
696.039429	4379.058782
696.375716	4368.197616
696.711952	4345.262887
697.048139	4338.424562
697.384276	4327.071883
697.720363	4337.350796
698.056400	4354.357128
698.392388	4314.441272
698.728326	4300.091628
699.064214	4285.076551
699.400053	4283.067651
699.735842	4260.395062
700.071581	4249.430552
700.407270	4233.417327
700.742910	4220.212025
701.078501	4179.550078
701.414042	4179.865150
701.749533	4161.107016
702.084974	4109.334366
702.420366	4163.284795
702.755709	4115.577835
703.091002	4069.967996
703.426246	4118.055562
703.761440	4081.633226
704.096584	4051.925706
704.431679	4079.173143
704.766725	4063.613622
705.101721	4059.658836
705.436668	4087.546499
705.771565	4040.134447
706.106413	4069.536977
706.441212	4105.359417
706.775961	4110.856795
707.110661	4093.540431
707.445311	4117.755614
707.779913	4141.907782
708.114465	4151.914472
708.448967	4175.007998
708.783421	4233.646700
709.117825	4267.757667
709.452180	4269.300260
709.786485	4310.388185
710.120742	4383.366448
710.454949	4367.655692
710.789107	4422.584105
711.123216	4490.990042
711.457275	4482.493177
711.791286	4545.497518
712.125247	4559.791709
712.459159	4474.255932
712.793023	4540.970562
713.126837	4515.621119
713.460602	4514.028115
713.794318	4441.536322
714.127985	4457.826811
714.461602	4391.149990
714.795171	4369.934294
715.128691	4314.736180
715.462162	4269.779170
715.795584	4227.960278
716.128957	4220.252354
716.462281	4178.201569
716.795556	4154.850944
717.128782	4125.549238
717.461960	4062.217222
717.795088	4075.024273
718.128167	4038.357441
718.461198	3988.666787
718.794180	3984.679235
719.127113	3969.732213
719.459997	3953.852579
719.792833	3913.306578
720.125619	3908.784663
720.458357	3875.881052
720.791046	3884.493864
721.123686	3858.617621
721.456278	3821.807116
721.788821	3838.914271
722.121315	3817.612876
722.453761	3792.003814
722.786158	3803.263231
723.118506	3830.016635
723.450805	3784.719347
723.783056	3808.818583
724.115259	3822.230572
724.447412	3825.121674
724.779518	3822.275943
725.111574	3827.249041
725.443582	3851.275180
725.775542	3839.045341
726.107453	3890.276067
726.439315	3886.119636
726.771129	3900.411307
727.102895	3933.244342
727.434612	3980.525324
727.766281	3989.458248
728.097901	3986.703258
728.429473	3995.132067
728.760996	4004.755630
729.092471	4002.340917
729.423897	3989.029750
729.755276	3999.323787
730.086606	4000.619363
730.417887	4030.919218
730.749120	4091.536573
731.080305	4156.970750
731.411442	4180.500335
731.742530	4155.496212
732.073570	4156.816994
732.404562	4211.609296
732.735506	4201.942883
733.066401	4165.029034
733.397249	4112.127166
733.728048	4038.634704
734.058798	3968.441678
734.389501	3899.960124
734.720156	3843.678162
735.050762	3803.449754
735.381320	3801.597130
735.711831	3748.629726
736.042293	3721.145356
736.372707	3746.983790
736.703073	3718.140828
737.033391	3708.819734
737.363661	3729.876634
737.693883	3753.055859
738.024056	3761.739247
738.354182	3757.897888
738.684260	3817.196980
739.014290	3829.918332
739.344272	3827.070080
739.674207	3870.194631
740.004093	3874.204869
740.333931	3866.312942
740.663722	3871.429713
740.993464	3868.410062
741.323159	3850.335005
741.652806	3820.952640
741.982405	3797.889361
742.311956	3770.536060
742.641460	3760.191613
742.970915	3739.595979
743.300323	3701.126934
743.629683	3669.029907
743.958996	3657.427692
744.288260	3635.942294
744.617477	3605.153447
744.946647	3593.959565
745.275768	3571.211358
745.604842	3571.670103
745.933869	3522.034902
746.262847	3514.064838
746.591778	3552.846434
746.920662	3523.121271
747.249498	3493.741426
747.578286	3538.146430
747.907027	3554.880540
748.235720	3549.665466
748.564365	3577.568253
748.892963	3577.590938
749.221514	3560.022517
749.550017	3540.455278
749.878473	3536.843292
750.206881	3512.144158
750.535242	3507.793643
750.863555	3509.563088
751.191821	3503.322139
751.520039	3485.617607
751.848210	3464.477528
752.176334	3499.810975
752.504411	3505.706605
752.832440	3464.175059
753.160421	3448.434056
753.488356	3459.748926
753.816243	3471.429279
754.144082	3428.607198
754.471875	3415.737132
754.799620	3434.961572
755.127318	3424.743153
755.454969	3426.051333
755.782572	3431.236160
756.110129	3412.790578
756.437638	3399.771798
756.765100	3414.958274
757.092515	3424.314655
757.419882	3429.938063
757.747203	3403.958476
758.074477	3408.009043
758.401703	3424.183585
758.728882	3442.503138
759.056014	3448.222328
759.383099	3452.497226
759.710138	3449.832976
760.037129	3465.561376
760.364073	3493.335613
760.690970	3479.270794
761.017820	3458.730613
761.344623	3475.825165
761.671379	3521.339223
761.998088	3569.026018
762.324751	3692.441026
762.651366	3933.072943
762.977935	4389.010020
763.304456	4809.044000
763.630931	4894.400817
763.957359	4546.772930
764.283740	4223.574474
764.610074	4040.646125
764.936362	3848.346270
765.262602	3698.747509
765.588796	3593.205912
765.914943	3507.125690
766.241044	3423.452618
766.567097	3395.496899
766.893104	3351.646423
767.219064	3320.217349
767.544978	3293.985705
767.870845	3241.373703
768.196665	3227.603791
768.522438	3233.242322
768.848165	3227.533215
769.173846	3191.781352
769.499479	3178.596214
769.825066	3161.239521
770.150607	3146.249650
770.476101	3157.009993
770.801548	3156.407575
771.126949	3110.396964
771.452303	3093.826692
771.777611	3101.494287
772.102872	3107.089967
772.428087	3084.104826
772.753256	3074.531675
773.078378	3068.056313
773.403453	3035.245963
773.728482	3022.514529
774.053465	3043.954557
774.378401	3031.611291
774.703291	3000.577948
775.028135	3001.722290
775.352932	2995.733399
775.677683	2983.916935
776.002388	2983.432984
776.327046	2983.622027
776.651658	2973.075933
776.976224	2962.169397
777.300743	2961.229222
777.625216	2954.726133
777.949643	2949.874023
778.274024	2952.528190
778.598359	2937.563525
778.922647	2943.428908
779.246889	2942.677776
779.571086	2926.135229
779.895236	2922.843356
780.219339	2934.511107
780.543397	2948.732202
780.867409	2950.105916
781.191374	2941.089812
781.515294	2937.681992
781.839167	2940.154678
782.162995	2932.834923
782.486776	2939.844647
782.810511	2937.944132
783.134201	2923.914601
783.457844	2929.588420
783.781441	2923.171031
784.104993	2901.884759
784.428498	2903.331570
784.751958	2918.565937
785.075372	2912.093095
785.398739	2895.608522
785.722061	2911.571336
786.045337	2924.804365
786.368568	2906.966242
786.691752	2899.031466
787.014891	2947.565174
787.337983	2976.493836
787.661030	3003.829493
787.984031	3069.281313
788.306987	3111.485853
788.629897	3101.711056
788.952760	3090.701176
789.275579	3073.926737
789.598351	3015.714013
789.921078	2972.760861
790.243759	2963.984213
790.566395	2949.979887
790.888984	2927.672781
791.211529	2909.738877
791.534027	2900.279151
791.856480	2890.232132
792.178888	2875.953063
792.501249	2868.436703
792.823566	2865.101980
793.145836	2861.598378
793.468062	2857.522605
793.790241	2858.770291
794.112375	2864.383615
794.434464	2873.467775
794.756507	2876.313506
795.078505	2882.534290
795.400457	2899.399470
795.722364	2934.044800
796.044226	2959.605970
796.366042	2957.839046
796.687812	2950.274795
797.009538	2971.248515
797.331218	2953.934672
797.652852	2944.479988
797.974442	2925.724375
798.295986	2923.271854
798.617484	2917.744229
798.938938	2901.647825
799.260346	2883.771893
799.581709	2882.569578
799.903026	2871.456354
800.224299	2869.729759
800.545526	2859.029910
800.866708	2842.736901
801.187845	2835.147444
801.508936	2835.916220
801.829983	2846.185050
802.150984	2830.287771
802.471940	2820.157573
802.792851	2818.171358
803.113717	2816.701862
803.434538	2825.483552
803.755314	2816.369146
804.076045	2809.563588
804.396731	2809.866057
804.717372	2811.050728
805.037967	2805.767599
805.358518	2809.704740
805.679024	2826.113696
805.999485	2820.581030
806.319901	2822.852069
806.640272	2814.438384
806.960598	2820.122285
807.280879	2827.842812
807.601115	2833.206599
807.921306	2825.355002
808.241453	2818.735967
808.561554	2826.121258
808.881611	2830.149140
809.201623	2822.536997
809.521590	2822.970537
809.841513	2817.652119
810.161390	2821.957265
810.481223	2816.762356
810.801011	2809.225831
811.120755	2802.846250
811.440453	2806.974955
811.760107	2805.593679
812.079716	2803.960345
812.399281	2794.377112
812.718801	2788.277316
813.038276	2783.546193
813.357707	2790.550876
813.677093	2795.884417
813.996434	2790.949127
814.315731	2785.504681
814.634983	2780.549227
814.954191	2781.194495
815.273354	2793.477266
815.592473	2804.955973
815.911547	2807.312713
816.230577	2814.420740
816.549562	2822.910043
816.868502	2821.070022
817.187399	2830.244922
817.506250	2848.743436
817.825058	2840.652384
818.143821	2852.335258
818.462539	2866.720190
818.781213	2891.240363
819.099843	2930.906682
819.418429	2982.891060
819.736970	3043.631923
820.055466	3113.429218
820.373919	3214.763972
820.692327	3355.684387
821.010691	3512.663397
821.329011	3942.273048
821.647286	4812.164474
821.965517	6143.276106
822.283704	6837.889133
822.601847	6810.263609
822.919945	6198.673345
823.237999	5718.405139
823.556010	5160.546013
823.873976	4632.033965
824.191897	4237.896392
824.509775	3955.286787
824.827609	3695.848846
825.145398	3573.915937
825.463144	3568.042993
825.780845	3657.775531
826.098502	3760.504164
826.416116	4037.457595
826.733685	4336.186289
827.051210	4394.643509
827.368692	4281.018422
827.686129	4025.583157
828.003522	3712.340980
828.320872	3466.146150
828.638177	3275.177160
828.955439	3145.309475
829.272656	3065.639080
829.589830	3000.285561
829.906960	2954.181689
830.224046	2911.130235
830.541088	2877.440204
830.858086	2863.632483
831.175041	2846.822756
831.491952	2847.788137
831.808819	2862.969572
832.125642	2883.706358
832.442421	2928.681012
832.759157	3005.452744
833.075849	3177.731656
833.392497	3449.351546
833.709101	3648.154489
834.025662	3592.258175
834.342179	3438.094649
834.658653	3272.028959
834.975083	3126.768111
835.291469	3031.442413
835.607811	2951.797223
835.924110	2894.007956
836.240366	2846.031295
836.556578	2804.451858
836.872746	2783.374794
837.188871	2761.178593
837.504952	2747.451531
837.820990	2742.226375
838.136984	2726.525702
838.452935	2720.090669
838.768842	2715.747715
839.084706	2733.714387
839.400526	2813.263795
839.716303	2938.791046
840.032037	3013.566481
840.347727	2996.779439
840.663373	2940.862960
840.978977	2866.034593
841.294537	2796.701084
841.610054	2753.463107
841.925527	2732.567525
842.240957	2711.689586
842.556344	2688.807789
842.871687	2675.789009
843.186987	2665.764674
843.502244	2663.032369
843.817458	2657.766884
844.132629	2646.575522
844.447756	2640.188380
844.762840	2632.513224
845.077881	2633.589510
845.392879	2632.241001
845.707833	2630.521968
846.022745	2621.142901
846.337613	2626.685650
846.652438	2623.227418
846.967221	2625.188427
847.281960	2622.743468
847.596656	2621.374794
847.911309	2619.955709
848.225919	2618.718106
848.540485	2615.315327
848.855009	2614.239041
849.169490	2617.062087
849.483928	2613.024123
849.798323	2614.715430
850.112675	2610.929523
850.426984	2611.811725
850.741251	2608.464399
851.055474	2612.787189
851.369654	2618.524022
851.683792	2613.830708
851.997887	2611.715943
852.311938	2611.441201
852.625947	2612.099071
852.939914	2615.365739
853.253837	2614.291973
853.567718	2610.894235
853.881555	2609.021447
854.195350	2612.905656
854.509103	2613.271139
854.822812	2610.692589
855.136479	2610.029677
855.450103	2614.251644
855.763685	2616.701645
856.077224	2612.656119
856.390720	2608.628237
856.704173	2610.695110
857.017584	2618.413116
857.330953	2615.469082
857.644278	2618.854217
857.957561	2617.863631
858.270802	2611.592435
858.584000	2613.961777
858.897155	2616.250461
859.210268	2620.200205
859.523339	2611.184102
859.836367	2611.514297
860.149352	2609.974225
860.462295	2610.838783
860.775195	2608.532455
861.088054	2607.340222
861.400869	2606.369800
861.713642	2605.845520
862.026373	2604.928030
862.339062	2605.699326
862.651708	2615.441356
862.964312	2614.070162
863.276873	2608.991200
863.589392	2613.392127
863.901869	2621.505864
864.214303	2624.742285
864.526696	2627.598099
864.839045	2627.701442
865.151353	2629.314612
865.463619	2629.422996
865.775842	2631.507513
866.088023	2630.476597
866.400162	2632.924078
866.712258	2631.615898
867.024313	2629.730507
867.336325	2625.863942
867.648296	2630.053141
867.960224	2632.563635
868.272110	2631.968779
868.583954	2624.959055
868.895755	2623.277830
869.207515	2629.289406
869.519233	2638.098822
869.830909	2634.897689
870.142542	2629.717904
870.454134	2631.716721
870.765684	2635.474902
871.077191	2637.493884
871.388657	2640.526138
871.700081	2638.101343
872.011463	2638.025725
872.322803	2639.069244
872.634101	2644.226345
872.945357	2649.033085
873.256571	2656.962820
873.567744	2653.096255
873.878874	2651.238590
874.189963	2650.842859
874.501010	2658.946514
874.812015	2664.597647
875.122979	2660.010197
875.433900	2651.588950
875.744780	2649.983342
876.055618	2657.461894
876.366415	2661.162101
876.677169	2661.310815
876.987882	2656.183962
877.298554	2654.031389
877.609183	2666.001609
877.919771	2670.861281
878.230317	2678.241530
878.540822	2688.593540
878.851285	2700.089891
879.161707	2722.938921
879.472087	2763.575662
879.782425	2805.586117
880.092722	2912.226686
880.402977	3096.062443
880.713191	3344.233406
881.023363	3618.948564
881.333494	3794.277374
881.643583	3962.740133
881.953631	3958.210656
882.263637	3786.786220
882.573602	3573.981472
882.883526	3454.100313
883.193408	3345.854137
883.503248	3250.465424
883.813048	3140.984165
884.122806	3032.266641
884.432522	2950.342850
884.742197	2891.356309
885.051831	2857.726772
885.361424	2822.907522
885.670975	2791.317132
885.980485	2762.015425
886.289954	2745.800553
886.599382	2730.989643
886.908768	2719.352140
887.218113	2703.129707
887.527417	2688.593540
887.836680	2680.560461
888.145901	2678.380162
888.455082	2670.357166
888.764221	2659.488438
889.073319	2652.977788
889.382376	2651.157931
889.691392	2651.122643
890.000366	2655.606749
890.309300	2653.335710
890.618193	2653.169352
890.927044	2654.170021
891.235855	2659.140598
891.544625	2656.602377
891.853353	2652.408137
892.162041	2661.018428
892.470687	2680.822601
892.779293	2690.176462
893.087858	2701.047710
893.396381	2722.964127
893.704864	2759.371340
894.013306	2827.812565
894.321707	2914.926224
894.630068	2960.523460
894.938387	2976.980307
895.246665	2972.750779
895.554903	2929.969027
895.863100	2891.358830
896.171256	2834.648369
896.479371	2778.091664
896.787446	2741.689492
897.095480	2721.340875
897.403473	2716.879454
897.711425	2704.543750
898.019336	2688.122192
898.327207	2673.631395
898.635038	2674.415294
898.942827	2671.304903
899.250576	2662.498007
899.558284	2650.583240
899.865952	2645.630306
900.173579	2643.366828
900.481165	2642.154430
900.788711	2636.815848
901.096216	2631.265538
901.403681	2623.996194
901.711105	2626.047944
902.018489	2623.978550
902.325832	2628.981895
902.633135	2629.619601
902.940397	2644.680048
903.247619	2679.189267
903.554800	2745.868609
903.861941	2864.844881
904.169041	2978.608600
904.476101	3036.576828
904.783121	3029.040303
905.090100	2975.924185
905.397039	2905.960532
905.703938	2842.378979
906.010796	2779.230965
906.317614	2731.239181
906.624391	2699.033769
906.931129	2673.959070
907.237826	2650.825215
907.544483	2634.852319
907.851099	2621.785648
908.157675	2613.762652
908.464211	2607.587238
908.770707	2596.474015
909.077163	2591.616863
909.383578	2588.226687
909.689954	2590.001173
909.996289	2588.937490
910.302584	2586.253075
910.608839	2583.709813
910.915054	2583.823239
911.221229	2589.887747
911.527363	2588.052767
911.833458	2586.981522
912.139513	2587.049578
912.445527	2590.641400
912.751502	2595.450661
913.057436	2600.771598
913.363331	2604.224789
913.669186	2614.803650
913.975000	2629.251597
914.280775	2640.332053
914.586510	2657.366112
914.892205	2693.301977
915.197859	2757.443098
915.503475	2837.428566
915.809050	2896.586506
916.114585	2907.669483
916.420081	2918.833118
916.725536	2930.591609
917.030952	2907.513207
917.336328	2861.827750
917.641665	2820.457521
917.946961	2771.102105
918.252218	2739.284862
918.557435	2714.220245
918.862612	2693.559076
919.167750	2681.150276
919.472848	2664.315343
919.777906	2648.128198
920.082925	2638.678555
920.387904	2627.262862
920.692843	2624.326390
920.997743	2617.001593
921.302603	2610.470778
921.607423	2606.818462
921.912204	2598.855960
922.216946	2602.044490
922.521647	2600.655652
922.826310	2594.303798
923.130932	2590.976637
923.435516	2584.269381
923.740059	2583.051943
924.044564	2581.433732
924.349028	2578.832497
924.653454	2571.111970
924.957840	2571.540468
925.262186	2564.319015
925.566493	2570.565005
925.870761	2565.654921
926.174989	2565.576783
926.479178	2566.017884
926.783328	2561.506051
927.087438	2561.778273
927.391509	2563.615774
927.695541	2558.667882
927.999533	2561.299364
928.303486	2557.957079
928.607400	2559.018242
928.911275	2559.265258
929.215110	2557.208467
929.518906	2556.469938
929.822663	2557.485731
930.126381	2555.781821
930.430060	2556.132181
930.733699	2554.745864
931.037299	2558.171328
931.340861	2559.945814
931.644383	2556.749723
931.947866	2557.342058
932.251309	2556.250648
932.554714	2553.417520
932.858080	2558.428427
933.161407	2556.671585
933.464694	2555.754095
933.767943	2555.963302
934.071153	2556.608570
934.374323	2554.130843
934.677455	2555.638148
934.980548	2552.106820
935.283602	2555.605381
935.586617	2554.642520
935.889593	2554.087993
936.192530	2551.113712
936.495428	2555.370967
936.798287	2553.757798
937.101108	2555.134033
937.403890	2560.248283
937.706632	2562.947821
938.009336	2562.652914
938.312002	2566.761454
938.614628	2569.816393
938.917216	2574.925603
939.219765	2573.443503
939.522275	2575.719584
939.824747	2574.424008
940.127179	2570.804459
940.429573	2566.683316
940.731929	2567.189952
941.034246	2563.285578
941.336524	2564.709704
941.638763	2564.051834
941.940964	2567.931002
942.243126	2565.294478
942.545250	2564.213151
942.847335	2563.588048
943.149381	2559.653427
943.451389	2559.955896
943.753359	2559.779456
944.055290	2558.332645
944.357182	2559.020762
944.659036	2558.710731
944.960851	2553.616645
945.262628	2554.783673
945.564367	2558.725855
945.866067	2557.188303
946.167729	2558.587223
946.469352	2556.835422
946.770937	2557.929352
947.072484	2557.752912
947.373992	2558.602347
947.675462	2557.213509
947.976893	2555.534804
948.278286	2556.180072
948.579641	2552.686553
948.880958	2555.023127
949.182236	2553.656975
949.483476	2552.308466
949.784678	2554.035061
950.085841	2550.377704
950.386967	2556.391801
950.688054	2552.200081
950.989103	2554.198899
951.290114	2556.021276
951.591087	2558.257028
951.892021	2559.668551
952.192917	2561.001936
952.493776	2560.560835
952.794596	2562.557132
953.095378	2562.635270
953.396122	2561.974878
953.696828	2557.485731
953.997496	2560.454971
954.298126	2554.826522
954.598718	2559.419013
954.899272	2556.169990
955.199788	2554.675288
955.500266	2554.672767
955.800706	2549.167827
956.101108	2549.891233
956.401472	2547.547096
956.701798	2544.913093
957.002087	2546.508618
957.302337	2547.930224
957.602550	2549.175389
957.902724	2546.233876
958.202861	2546.032229
958.502960	2545.530635
958.803022	2542.269008
959.103045	2545.147507
959.403031	2545.223124
959.702979	2544.391334
960.002889	2548.184802
960.302762	2544.804708
960.602596	2542.221117
960.902393	2543.539379
961.202153	2541.631302
961.501875	2540.439069
961.801559	2542.354708
962.101205	2541.964018
962.400814	2545.021478
962.700385	2543.322609
962.999918	2543.204142
963.299414	2539.733308
963.598873	2540.907897
963.898293	2543.625078
964.197677	2543.723381
964.497022	2540.441590
964.796331	2543.819163
965.095601	2539.052752
965.394835	2543.546941
965.694030	2539.735828
965.993189	2543.221786
966.292309	2540.454193
966.591393	2540.164326
966.890439	2540.020653
967.189447	2540.058462
967.488419	2539.544264
967.787353	2540.194573
968.086249	2543.793957
968.385108	2541.250695
968.683930	2539.647608
968.982714	2541.502753
969.281462	2539.088040
969.580172	2541.018802
969.878844	2543.090716
970.177480	2543.620037
970.476078	2542.120294
970.774639	2542.770603
971.073162	2541.333874
971.371649	2541.485109
971.670098	2538.702392
971.968510	2538.261291
972.266885	2539.350180
972.565223	2542.263967
972.863524	2541.626261
973.161788	2541.714481
973.460014	2541.396888
973.758204	2541.404450
974.056356	2543.922507
974.354471	2542.236241
974.652550	2541.774975
974.950591	2543.879657
975.248595	2544.434184
975.546563	2540.663401
975.844493	2539.808925
976.142386	2542.541230
976.440243	2541.296065
976.738062	2541.533000
977.035845	2538.793132
977.333590	2541.883360
977.631299	2541.611138
977.928971	2540.368493
978.226606	2540.499563
978.524204	2540.739018
978.821765	2537.855478
979.119290	2543.128525
979.416777	2541.207845
979.714228	2541.664070
980.011642	2540.953267
980.309020	2543.312527
980.606360	2540.796991
980.903664	2542.548792
981.200931	2540.567619
981.498162	2540.411343
981.795356	2545.984338
982.092513	2545.644061
982.389633	2548.220090
982.686717	2553.800647
982.983764	2555.847356
983.280775	2557.271482
983.577749	2557.515978
983.874686	2556.023796
984.171587	2550.065152
984.468451	2548.547765
984.765279	2548.290666
985.062070	2546.715306
985.358824	2545.946530
985.655543	2542.579039
985.952224	2543.448638
986.248869	2540.759183
986.545478	2536.191897
986.842050	2540.713812
987.138586	2536.935467
987.435086	2535.723070
987.731549	2537.623585
988.027975	2539.856816
988.324366	2537.230375
988.620719	2538.059645
988.917037	2539.546785
989.213318	2538.404964
989.509563	2539.471168
989.805772	2539.796322
990.101944	2539.133410
990.398080	2536.380940
990.694180	2540.391178
990.990244	2540.771785
991.286271	2538.825900
991.582262	2538.919161
991.878217	2540.398740
992.174136	2541.699358
992.470019	2539.400592
992.765865	2540.882691
993.061676	2539.299768
993.357450	2538.677186
993.653188	2540.431507
993.948890	2538.402443
994.244556	2538.019315
994.540186	2538.586445
994.835780	2536.829603
995.131337	2540.839841
995.426859	2540.814635
995.722345	2539.057793
996.017795	2540.877650
996.313208	2543.980480
996.608586	2542.074924
996.903928	2541.870757
997.199234	2545.328988
997.494504	2541.311189
997.789738	2541.628782
998.084936	2542.838658
998.380099	2543.549461
998.675225	2541.331353
998.970316	2540.497043
999.265371	2538.609130
999.560390	2539.002340
999.855373	2541.515356
1000.150320	2538.843544
1000.445232	2540.030736
1000.740108	2538.571322
1001.034948	2539.062834
1001.329752	2539.400592
1001.624521	2537.915972
1001.919254	2534.737524
1002.213951	2534.959335
1002.508613	2533.615868
1002.803239	2536.007895
1003.097829	2531.246525
1003.392384	2534.561084
1003.686903	2538.430169
1003.981386	2539.216589
1004.275834	2537.424459
1004.570246	2538.034439
1004.864623	2537.363965
1005.158964	2538.377237
1005.453270	2536.857329
1005.747540	2538.079809
1006.041775	2535.236598
1006.335974	2537.006043
1006.630138	2537.910931
1006.924266	2536.370858
1007.218359	2537.384130
1007.512416	2539.140972
1007.806438	2537.187525
1008.100425	2540.348328
1008.394376	2535.458409
1008.688292	2539.556867
1008.982172	2536.794315
1009.276017	2536.517052
1009.569827	2536.897659
1009.863602	2538.888914
1010.157341	2537.371527
1010.451045	2539.193904
1010.744714	2537.580735
1011.038347	2536.837165
1011.331945	2538.566281
1011.625508	2536.320447
1011.919036	2537.658873
1012.212528	2537.333718
1012.505986	2534.359438
1012.799408	2535.163502
1013.092795	2537.190046
1013.386147	2535.917154
1013.679464	2537.464788
1013.972745	2536.748945
1014.265992	2537.001002
1014.559204	2540.428987
1014.852380	2539.579552
1015.145521	2538.392361
1015.438628	2535.443286
1015.731699	2537.550488
1016.024736	2538.228523
1016.317737	2534.936650
1016.610703	2539.529141
1016.903635	2536.141486
1017.196531	2531.871628
1017.489393	2533.255425
1017.782219	2535.022349
1018.075011	2535.181146
1018.367768	2535.216434
1018.660490	2538.168029
1018.953177	2538.168029
1019.245829	2538.168029
