Dividing Wavelength (nm)	Counts (n)	Blue Motor Position (mm): 13.100000	Red Motor Position (mm): 0.000000	
326.493990	2136.753552
326.888308	2136.753552
327.282561	2136.753552
327.676750	2103.605444
328.070874	2105.392533
328.464933	2105.145517
328.858929	2110.547113
329.252859	2122.121603
329.646726	2133.517131
330.040528	2146.614048
330.434265	2162.859167
330.827938	2181.050170
331.221547	2199.977183
331.615091	2217.732126
332.008571	2237.924468
332.401986	2257.282499
332.795338	2274.850920
333.188625	2294.829013
333.581847	2312.520942
333.975006	2332.698160
334.368100	2352.177179
334.761129	2367.497245
335.154095	2386.711603
335.546996	2404.209448
335.939833	2423.138981
336.332606	2437.455858
336.725315	2452.498661
337.117960	2460.383026
337.510540	2466.601289
337.903056	2477.951447
338.295508	2486.513847
338.687896	2493.301760
339.080220	2502.378358
339.472480	2508.820952
339.864676	2513.168948
340.256807	2520.244207
340.648875	2520.299660
341.040879	2524.798889
341.432818	2523.528519
341.824694	2525.537418
342.216506	2528.851977
342.608253	2526.414579
342.999937	2526.041534
343.391557	2526.623787
343.783113	2524.773684
344.174605	2523.871317
344.566033	2520.523991
344.957397	2523.959537
345.348697	2519.649351
345.739934	2517.159021
346.131106	2519.031809
346.522215	2515.243382
346.913260	2511.616272
347.304241	2510.718947
347.695159	2509.241889
348.086012	2507.873215
348.476802	2505.261898
348.867528	2506.103770
349.258191	2500.760147
349.648789	2504.495642
350.039324	2500.440034
350.429796	2497.770743
350.820203	2497.876607
351.210548	2496.205465
351.600828	2497.806031
351.991045	2495.396360
352.381198	2495.217399
352.771288	2495.388798
353.161314	2495.895434
353.551276	2492.409476
353.941175	2494.355361
354.331010	2493.936946
354.720782	2492.424599
355.110490	2492.321256
355.500135	2491.250011
355.889717	2494.131030
356.279235	2494.935094
356.668689	2492.873262
357.058080	2493.664723
357.447408	2491.668426
357.836672	2493.027017
358.225873	2494.786380
358.615010	2490.514002
359.004084	2498.632780
359.393095	2496.838130
359.782043	2496.288644
360.170927	2497.377533
360.559748	2497.503562
360.948505	2498.345435
361.337199	2498.383243
361.725830	2499.439365
362.114398	2499.267966
362.502903	2500.810559
362.891344	2501.246619
363.279722	2504.031856
363.668037	2501.458347
364.056289	2503.694099
364.444478	2501.680158
364.832603	2503.505056
365.220665	2504.369613
365.608665	2504.997237
365.996601	2504.949346
366.384474	2505.123266
366.772284	2505.813904
367.160031	2505.428256
367.547715	2504.354490
367.935336	2505.715602
368.322893	2507.356497
368.710388	2506.360869
369.097820	2508.805829
369.485189	2505.806342
369.872495	2507.543020
370.259738	2503.925992
370.646918	2505.675272
371.034035	2506.711229
371.421090	2507.422032
371.808081	2511.265912
372.195010	2508.964625
372.581875	2507.976559
372.968678	2506.801970
373.355418	2506.774244
373.742096	2510.459327
374.128710	2509.239368
374.515262	2511.021416
374.901751	2509.146107
375.288177	2510.086282
375.674540	2510.676097
376.060841	2512.231293
376.447079	2509.136024
376.833254	2511.273474
377.219367	2505.372803
377.605417	2509.693072
377.991404	2507.235509
378.377329	2509.907321
378.763191	2508.795747
379.148991	2509.370438
379.534727	2512.289266
379.920402	2517.534587
380.306013	2512.092661
380.691563	2513.685666
381.077049	2512.470748
381.462474	2517.443846
381.847835	2516.677591
382.233134	2512.377486
382.618371	2515.261026
383.003545	2513.385717
383.388657	2513.320182
383.773706	2514.633403
384.158693	2513.748680
384.543618	2515.616428
384.928480	2516.465862
385.313280	2516.365039
385.698017	2516.995183
386.082692	2517.171624
386.467305	2514.598115
386.851856	2516.118022
387.236344	2516.544000
387.620770	2517.907632
388.005133	2517.156500
388.389435	2515.714730
388.773674	2516.906963
389.157851	2517.058198
389.541965	2519.057015
389.926018	2519.470390
390.310008	2519.556089
390.693936	2518.981398
391.077802	2519.815709
391.461606	2520.602129
391.845348	2518.046264
392.229027	2519.732530
392.612645	2519.987108
392.996200	2518.487365
393.379694	2518.275636
393.763125	2520.949968
394.146494	2521.179341
394.529801	2522.926101
394.913047	2519.021727
395.296230	2524.256965
395.679351	2518.920904
396.062410	2522.182531
396.445408	2518.817560
396.828343	2522.273271
397.211217	2519.041892
397.594028	2519.787982
397.976778	2517.713548
398.359466	2522.187572
398.742092	2519.687159
399.124656	2521.408713
399.507158	2524.385515
399.889598	2524.582120
400.271977	2524.072963
400.654294	2524.783766
401.036549	2523.788138
401.418742	2523.790659
401.800874	2525.199661
402.182944	2523.677233
402.564952	2525.613036
402.946898	2525.308046
403.328783	2524.471214
403.710606	2524.879548
404.092367	2524.728313
404.474067	2528.511699
404.855705	2525.355937
405.237282	2524.035155
405.618797	2525.245032
406.000250	2527.248890
406.381642	2527.581606
406.762972	2527.105217
407.144240	2526.006246
407.525447	2528.723428
407.906593	2531.244005
408.287677	2525.779394
408.668700	2528.332738
409.049661	2527.372398
409.430560	2527.843746
409.811399	2530.971782
410.192176	2526.013807
410.572891	2526.626308
410.953545	2526.659075
411.334138	2529.361134
411.714669	2526.845598
412.095139	2529.129241
412.475547	2530.482790
412.855894	2527.163191
413.236180	2527.153108
413.616405	2527.909281
413.996568	2527.977337
414.376670	2530.671834
414.756711	2528.867101
415.136691	2526.550690
415.516609	2531.649818
415.896466	2530.051772
416.276262	2531.763243
416.655997	2528.864580
417.035670	2525.766791
417.415283	2532.206865
417.794834	2527.284178
418.174324	2532.960518
418.553753	2531.039838
418.933121	2529.658562
419.312428	2531.796011
419.691674	2530.755013
420.070859	2532.698378
420.449983	2528.552028
420.829045	2536.080992
421.208047	2533.068902
421.586988	2530.427338
421.965867	2532.048069
422.344686	2532.199303
422.723444	2532.277441
423.102141	2532.358100
423.480777	2531.249046
423.859352	2533.285672
424.237866	2531.924560
424.616319	2531.884231
424.994712	2534.830786
425.373044	2534.737524
425.751314	2534.117462
426.129524	2532.693336
426.507673	2531.022194
426.885762	2534.785415
427.263789	2532.272400
427.641756	2533.315919
428.019662	2536.141486
428.397508	2530.845753
428.775292	2534.361958
429.153016	2535.203831
429.530679	2534.598893
429.908282	2534.137627
430.285824	2537.495035
430.663305	2534.195600
431.040726	2534.677030
431.418086	2535.304654
431.795385	2537.129552
432.172624	2538.160468
432.549802	2535.629808
432.926920	2535.488656
433.303977	2535.894469
433.680974	2534.833306
434.057910	2536.799356
434.434786	2536.133924
434.811601	2537.106867
435.188355	2535.007226
435.565050	2535.723070
435.941683	2536.128883
436.318257	2532.247194
436.694770	2530.911288
437.071222	2535.440765
437.447614	2531.385157
437.823946	2535.496218
438.200218	2537.784902
438.576429	2537.452186
438.952580	2536.683410
439.328670	2537.202648
439.704700	2535.007226
440.080670	2538.014274
440.456580	2536.612833
440.832429	2537.280786
441.208218	2537.805066
441.583947	2540.033256
441.959616	2537.459747
442.335224	2539.879501
442.710773	2535.571835
443.086261	2538.397402
443.461689	2537.507638
443.837057	2537.139634
444.212365	2537.918492
444.587612	2539.594676
444.962800	2538.863709
445.337927	2540.038297
445.712995	2539.007382
446.088002	2540.633154
446.462949	2538.856147
446.837837	2538.611651
447.212664	2538.122659
447.587431	2540.103832
447.962139	2538.997299
448.336786	2541.553164
448.711374	2538.891435
449.085901	2539.808925
449.460369	2539.977804
449.834776	2540.018133
450.209124	2540.043339
450.583412	2542.458051
450.957640	2540.610468
451.331808	2536.476722
451.705917	2539.614841
452.079965	2540.141641
452.453954	2540.111394
452.827883	2541.911086
453.201752	2540.938143
453.575562	2542.427804
453.949311	2540.638195
454.323001	2539.662732
454.696632	2540.935623
455.070202	2542.039636
455.443713	2540.494522
455.817164	2537.114428
456.190556	2535.859181
456.563888	2540.058462
456.937160	2536.191897
457.310373	2539.400592
457.683526	2541.172557
458.056619	2541.848072
458.429653	2541.258257
458.802628	2542.011909
459.175542	2542.009389
459.548398	2541.485109
459.921194	2541.628782
460.293930	2544.083823
460.666607	2542.939482
461.039224	2544.847558
461.411782	2543.569626
461.784280	2543.849410
462.156719	2542.059800
462.529099	2544.285470
462.901419	2542.652136
463.273680	2542.939482
463.645882	2544.285470
464.018024	2540.383617
464.390106	2543.373021
464.762130	2544.731612
465.134094	2542.571477
465.505999	2543.405788
465.877845	2542.737835
466.249631	2544.522404
466.621358	2546.884184
466.993026	2546.334699
467.364634	2548.278063
467.736184	2542.843700
468.107674	2543.665408
468.479105	2545.099616
468.850477	2545.276056
469.221790	2545.134904
469.593043	2543.579708
469.964238	2543.516694
470.335373	2543.488967
470.706449	2545.243289
471.077467	2545.341591
471.448425	2546.198588
471.819324	2548.187323
472.190164	2545.444935
472.560945	2544.028371
472.931667	2545.276056
473.302330	2544.154400
473.672934	2545.855789
474.043479	2540.441590
474.413965	2544.073741
474.784393	2541.790098
475.154761	2544.348484
475.525070	2543.151210
475.895321	2543.753628
476.265513	2541.984183
476.635645	2547.292518
477.005719	2545.029040
477.375734	2546.843855
477.745691	2546.586756
478.115588	2545.641540
478.485427	2546.732950
478.855207	2545.525593
479.224928	2547.733619
479.594591	2543.405788
479.964194	2546.407795
480.333739	2548.401572
480.703226	2547.983156
481.072653	2547.393341
481.442022	2546.412837
481.811333	2548.507436
482.180584	2546.392672
482.549777	2547.441232
482.918912	2546.894267
483.287988	2546.301931
483.657005	2546.120450
484.025964	2547.736139
484.394864	2547.758825
484.763706	2548.426777
485.132489	2548.444422
485.501213	2548.202446
485.869879	2548.605738
486.238487	2547.438711
486.607036	2548.630944
486.975527	2549.324103
487.343959	2547.163968
487.712333	2548.464586
488.080648	2547.108516
488.448905	2549.162786
488.817104	2547.829401
489.185244	2547.307641
489.553326	2550.266799
489.921350	2549.629093
490.289315	2548.567930
490.657222	2550.203784
491.025070	2548.525080
491.392861	2550.269319
491.760593	2551.746377
492.128267	2550.062632
492.495883	2549.109854
492.863440	2549.913918
493.230939	2547.947868
493.598380	2547.698331
493.965763	2543.360418
494.333088	2545.654143
494.700354	2545.747404
495.067563	2546.788402
495.434713	2546.153217
495.801805	2549.654298
496.168839	2548.648588
496.535815	2549.324103
496.902733	2547.874771
497.269593	2552.585729
497.636395	2553.152859
498.003139	2551.373332
498.369825	2553.122612
498.736453	2550.160934
499.103023	2551.141439
499.469535	2549.308979
499.835989	2552.774773
500.202385	2553.455328
500.568723	2549.911397
500.935003	2550.851572
501.301226	2548.789741
501.667390	2550.415513
502.033497	2550.440718
502.399546	2552.270657
502.765537	2549.603887
503.131470	2552.860472
503.497345	2550.173537
503.863163	2552.910884
504.228923	2551.716130
504.594625	2552.704197
504.960269	2550.385266
505.325856	2549.961809
505.691385	2553.548590
506.056856	2552.956254
506.422270	2553.931717
506.787625	2551.592622
507.152924	2550.823846
507.518164	2555.711245
507.883347	2551.133877
508.248472	2551.978270
508.613540	2551.496840
508.978550	2553.740154
509.343503	2551.471634
509.708398	2552.341233
510.073236	2552.691594
510.438016	2553.719989
510.802738	2552.502550
511.167403	2553.021789
511.532010	2553.253682
511.896561	2552.789896
512.261053	2556.288457
512.625488	2549.402241
512.989866	2550.108002
513.354186	2552.250493
513.718449	2550.483568
514.082655	2552.159752
514.446803	2555.333158
514.810894	2552.805020
515.174927	2554.655123
515.538904	2556.711914
515.902822	2554.776111
516.266684	2555.396173
516.630488	2554.372818
516.994235	2555.890206
517.357925	2557.183262
517.721558	2556.779969
518.085133	2557.024465
518.448651	2557.064795
518.812112	2557.407593
519.175516	2557.914229
519.538863	2556.159908
519.902152	2559.378684
520.265385	2555.552448
520.628560	2559.051009
520.991678	2560.679302
521.354739	2558.597305
521.717743	2560.560835
522.080690	2557.785680
522.443580	2559.572769
522.806413	2557.994888
523.169189	2560.215516
523.531908	2561.896741
523.894569	2562.065619
524.257174	2563.189797
524.619722	2560.840619
524.982213	2560.644014
525.344647	2563.958573
525.707025	2565.450754
526.069345	2561.329611
526.431608	2562.042934
526.793815	2563.646021
527.155964	2564.936556
527.518057	2563.767009
527.880093	2565.811197
528.242072	2564.684499
528.603995	2567.285734
528.965860	2566.743810
529.327669	2567.303378
529.689421	2566.665672
530.051117	2567.021073
530.412755	2567.144582
530.774337	2568.382185
531.135862	2565.720456
531.497331	2564.001422
531.858743	2563.963614
532.220098	2567.479818
532.581396	2561.926987
532.942638	2565.917061
533.303824	2566.393450
533.664953	2567.794891
534.026025	2569.708008
534.387040	2570.232288
534.747999	2569.667679
535.108902	2572.699933
535.469748	2568.104922
535.830537	2571.132134
536.191270	2568.467885
536.551947	2569.697926
536.912567	2569.672720
537.273131	2572.110118
537.633638	2569.158523
537.994089	2568.745148
538.354483	2573.168761
538.714821	2572.951991
539.075103	2575.182702
539.435328	2571.323698
539.795497	2572.251271
540.155609	2572.359655
540.515665	2572.034501
540.875665	2571.580797
541.235609	2575.739749
541.595496	2573.987948
541.955328	2574.547516
542.315102	2572.901579
542.674821	2576.717733
543.034483	2574.459296
543.394090	2575.923751
543.753640	2574.665983
544.113134	2575.578432
544.472571	2576.458113
544.831953	2573.642629
545.191278	2575.351580
545.550548	2573.831672
545.909761	2575.142372
546.268918	2576.548854
546.628019	2578.673701
546.987064	2578.398958
547.346053	2577.728484
547.704986	2575.187743
548.063863	2577.657908
548.422684	2578.595563
548.781449	2579.124884
549.140158	2579.475244
549.498811	2579.565985
549.857408	2577.040367
550.215949	2577.451221
550.574434	2575.815366
550.932864	2577.736046
551.291237	2574.918041
551.649555	2577.894842
552.007817	2582.673856
552.366022	2580.183526
552.724173	2578.635892
553.082267	2580.904411
553.440305	2582.305852
553.798288	2579.939030
554.156215	2579.102199
554.514086	2581.395924
554.871902	2579.089596
555.229661	2581.872313
555.587365	2585.358271
555.945014	2580.470872
556.302606	2582.699062
556.660143	2582.426840
557.017625	2585.333065
557.375050	2584.314752
557.732421	2583.150245
558.089735	2584.123188
558.446994	2584.836511
558.804197	2584.241655
559.161345	2584.350040
559.518437	2582.545307
559.875474	2588.418251
560.232455	2590.152408
560.589381	2585.980853
560.946251	2590.654003
561.303065	2589.413879
561.659825	2587.500761
562.016528	2591.271544
562.373177	2588.332551
562.729770	2591.745412
563.086307	2588.650144
563.442789	2592.569641
563.799216	2591.319435
564.155587	2595.317070
564.511904	2596.988212
564.868164	2596.287492
565.224370	2599.725559
565.580520	2601.767226
565.936615	2595.785897
566.292654	2597.537698
566.648638	2601.525251
567.004567	2598.971907
567.360441	2602.664552
567.716260	2604.454161
568.072023	2603.861826
568.427732	2604.197062
568.783385	2605.563215
569.138982	2605.049017
569.494525	2609.076899
569.850013	2604.423914
570.205445	2614.914556
570.560823	2618.077880
570.916145	2617.452777
571.271412	2617.672067
571.626625	2621.452932
571.981782	2622.183899
572.336884	2625.914353
572.691931	2625.440485
573.046923	2628.656741
573.401860	2628.568521
573.756743	2632.528347
574.111570	2633.352576
574.466342	2634.885087
574.821059	2638.751652
575.175722	2639.255767
575.530330	2641.665438
575.884882	2645.315234
576.239380	2645.264822
576.593823	2648.959988
576.948211	2651.437715
577.302544	2649.312869
577.656823	2655.659682
578.011047	2661.451967
578.365216	2661.227636
578.719330	2664.418686
579.073389	2667.118224
579.427394	2665.905827
579.781344	2673.195335
580.135239	2673.273473
580.489080	2679.973167
580.842866	2682.539114
581.196597	2685.732685
581.550273	2690.015145
581.903895	2694.806762
582.257463	2697.108048
582.610975	2702.681044
582.964434	2705.597352
583.317837	2711.480378
583.671186	2713.663198
584.024481	2716.360215
584.377721	2722.666698
584.730906	2725.603171
585.084037	2732.658265
585.437113	2731.629870
585.790135	2742.914493
586.143103	2745.198136
586.496016	2747.607807
586.848874	2754.330186
587.201679	2762.995929
587.554428	2760.762698
587.907124	2772.483381
588.259765	2773.171498
588.612352	2787.432922
588.964884	2785.023251
589.317362	2796.075981
589.669786	2804.073771
590.022155	2811.645584
590.374470	2821.042295
590.726731	2822.257213
591.078937	2822.980619
591.431090	2839.175326
591.783188	2839.505521
592.135232	2849.381142
592.487222	2849.645802
592.839157	2866.067361
593.191038	2868.214892
593.542866	2871.753782
593.894639	2879.736449
594.246358	2886.965464
594.598022	2902.169584
594.949633	2901.610016
595.301190	2909.242323
595.652692	2917.794640
596.004141	2933.878442
596.355535	2929.785025
596.706876	2935.501693
597.058162	2943.547375
597.409395	2956.001545
597.760573	2970.343628
598.111698	2971.586273
598.462768	2982.684373
598.813785	2989.189982
599.164748	2998.160715
599.515657	3001.676920
599.866511	3015.144362
600.217312	3027.938811
600.568060	3029.950231
600.918753	3048.007644
601.269392	3056.116340
601.619978	3060.149263
601.970510	3081.559044
602.320988	3088.309149
602.671412	3108.652725
603.021783	3110.638940
603.372100	3121.248048
603.722363	3135.118783
604.072572	3144.641522
604.422728	3156.596619
604.772830	3161.317659
605.122878	3174.170081
605.472872	3184.484282
605.822813	3201.934236
606.172701	3210.766337
606.522534	3236.362796
606.872314	3246.641709
607.222041	3259.405910
607.571714	3279.938530
607.921333	3288.657205
608.270899	3306.676810
608.620411	3330.266889
608.969870	3335.754185
609.319276	3350.660877
609.668627	3372.826831
610.017926	3388.482134
610.367171	3420.576640
610.716362	3429.428906
611.065500	3445.739559
611.414585	3464.033907
611.763616	3475.139568
612.112594	3488.554079
612.461518	3508.239785
612.810389	3537.470915
613.159207	3546.093809
613.507971	3552.833832
613.856682	3591.184409
614.205340	3599.172118
614.553945	3629.850059
614.902496	3631.483393
615.250994	3656.207732
615.599439	3670.602747
615.947830	3694.812888
616.296169	3709.258315
616.644454	3729.947210
616.992686	3745.995723
617.340864	3783.267494
617.688990	3778.473357
618.037063	3814.857885
618.385082	3825.177127
618.733048	3868.531050
619.080961	3867.122047
619.428821	3896.632962
619.776628	3915.277670
620.124382	3925.717899
620.472083	3944.216413
620.819731	3965.548056
621.167326	3960.380873
621.514868	3977.167915
621.862357	3966.752892
622.209793	3985.790809
622.557176	3988.223166
622.904506	3999.515350
623.251783	3990.456397
623.599007	4002.270341
623.946179	4016.057897
624.293297	4027.836553
624.640363	4018.969163
624.987376	4032.292933
625.334336	4030.528529
625.681243	4039.390877
626.028097	4051.109039
626.374899	4062.804516
626.721647	4082.142382
627.068343	4078.205241
627.414987	4082.134821
627.761577	4088.963064
628.108115	4115.290490
628.454600	4097.323817
628.801032	4138.565497
629.147412	4132.170793
629.493739	4153.129390
629.840014	4145.237464
630.186236	4180.679296
630.532405	4160.691121
630.878521	4192.790668
631.224585	4198.199826
631.570597	4185.329761
631.916556	4221.926017
632.262462	4229.117223
632.608316	4235.277513
632.954117	4242.962752
633.299866	4252.278804
633.645562	4269.224643
633.991206	4252.951798
634.336797	4246.887290
634.682336	4246.582300
635.027823	4251.363835
635.373257	4258.968415
635.718639	4249.624637
636.063968	4271.646917
636.409245	4240.172473
636.754470	4255.179988
637.099642	4250.085902
637.444762	4245.032146
637.789829	4264.596864
638.134845	4253.554216
638.479808	4263.268520
638.824719	4277.134213
639.169577	4258.386162
639.514383	4286.813229
639.859137	4268.909571
640.203839	4281.164616
640.548489	4290.793220
640.893086	4293.099548
641.237632	4293.696924
641.582125	4319.520235
641.926566	4317.997806
642.270955	4340.234336
642.615292	4353.434597
642.959576	4375.754306
643.303809	4380.820666
643.647990	4399.261206
643.992118	4405.456784
644.336195	4393.572264
644.680219	4425.059311
645.024192	4426.042336
645.368112	4491.189167
645.711981	4511.005943
646.055797	4564.011155
646.399562	4561.346905
646.743274	4639.411693
647.086935	4674.246066
647.430544	4688.809960
647.774101	4716.087643
648.117606	4728.942586
648.461059	4740.678392
648.804460	4739.027414
649.147810	4695.428995
649.491108	4696.868244
649.834354	4694.133418
650.177548	4662.732071
650.520690	4628.696721
650.863781	4629.084890
651.206820	4659.031864
651.549807	4624.568016
651.892742	4608.484214
652.235626	4618.470740
652.578458	4624.656236
652.921238	4581.077982
653.263967	4614.732725
653.606644	4588.269188
653.949269	4604.574800
654.291843	4577.173608
654.634365	4621.250937
654.976836	4610.546046
655.319255	4612.459164
655.661622	4618.508549
656.003938	4626.660095
656.346203	4603.105303
656.688416	4642.635511
657.030577	4619.247078
657.372687	4612.002940
657.714746	4615.388075
658.056753	4654.840145
658.398708	4626.103047
658.740612	4625.798057
659.082465	4669.252803
659.424266	4667.758101
659.766016	4683.403322
660.107715	4681.833003
660.449362	4695.968398
660.790958	4704.104821
661.132503	4708.377198
661.473996	4742.314246
661.815438	4744.050924
662.156829	4748.799691
662.498168	4756.497532
662.839456	4743.551849
663.180693	4782.129279
663.521879	4785.403509
663.863013	4790.348881
664.204097	4819.711081
664.545129	4849.315257
664.886110	4861.880333
665.227040	4892.848141
665.567918	4871.687898
665.908746	4908.415224
666.249522	4915.155247
666.590248	4917.065844
666.930922	4944.162046
667.271545	4964.442608
667.612118	4972.889061
667.952639	4959.829952
668.293109	4988.763655
668.633528	4970.252538
668.973896	4976.160770
669.314213	4979.641687
669.654480	4978.570442
669.994695	4982.885669
670.334859	4983.457840
670.674973	4991.354808
671.015035	4998.273792
671.355047	5010.180997
671.695008	5006.511037
672.034918	4989.189632
672.374777	5012.033621
672.714585	5005.487683
673.054342	5011.879866
673.394049	5017.042007
673.733705	5048.246750
674.073310	5048.254311
674.412864	5020.349004
674.752368	5025.223800
675.091820	5039.155029
675.431223	4992.733563
675.770574	5000.176827
676.109875	4975.588599
676.449125	4987.216021
676.788324	4972.526098
677.127473	4929.930869
677.466571	4933.676446
677.805619	4934.241055
678.144616	4931.276857
678.483562	4919.931740
678.822458	4902.748967
679.161303	4906.547477
679.500098	4903.711828
679.838842	4897.770828
680.177535	4912.559053
680.516179	4925.847534
680.854771	4939.002425
681.193314	5007.312580
681.531805	5095.394141
681.870247	5216.359148
682.208638	5299.911232
682.546978	5321.003420
682.885268	5309.827182
683.223508	5249.199745
683.561697	5214.814034
683.899836	5199.927507
684.237925	5167.162528
684.575963	5132.660871
684.913951	5106.328404
685.251889	5163.858051
685.589776	5138.553980
685.927614	5117.948263
686.265401	5186.243295
686.603137	5172.896840
686.940824	5239.888734
687.278460	5259.287094
687.616046	5270.962406
687.953582	5324.769162
688.291068	5314.339014
688.628504	5375.780597
688.965889	5343.106359
689.303224	5302.575482
689.640510	5272.366367
689.977745	5218.105908
690.314930	5144.003467
690.652065	5102.391263
690.989150	5032.218401
691.326185	4976.861491
691.663170	4938.820944
692.000105	4877.439854
692.336990	4818.511287
692.673825	4802.372032
693.010610	4748.172067
693.347345	4694.947565
693.684030	4691.219631
694.020665	4653.758817
694.357251	4577.090429
694.693786	4592.654991
695.030272	4566.075508
695.366707	4538.548287
695.703093	4508.054348
696.039429	4532.771125
696.375716	4525.279970
696.711952	4498.632431
697.048139	4493.382069
697.384276	4478.198114
697.720363	4490.828725
698.056400	4504.157536
698.392388	4453.793888
698.728326	4446.254842
699.064214	4423.466307
699.400053	4423.239455
699.735842	4397.159045
700.071581	4378.902507
700.407270	4361.966750
700.742910	4343.952187
701.078501	4298.274292
701.414042	4303.817041
701.749533	4278.533133
702.084974	4219.082806
702.420366	4277.497176
702.755709	4225.855596
703.091002	4180.906148
703.426246	4227.574630
703.761440	4184.520655
704.096584	4152.988238
704.431679	4175.030683
704.766725	4162.770597
705.101721	4154.792971
705.436668	4182.184081
705.771565	4134.739261
706.106413	4164.023324
706.441212	4199.324004
706.775961	4206.137123
707.110661	4186.002755
707.445311	4214.722208
707.779913	4233.225763
708.114465	4253.118156
708.448967	4274.318729
708.783421	4332.105475
709.117825	4367.514540
709.452180	4370.650138
709.786485	4413.767127
710.120742	4493.147656
710.454949	4480.512003
710.789107	4539.846384
711.123216	4602.828040
711.457275	4593.943006
711.791286	4662.810209
712.125247	4678.193290
712.459159	4588.765741
712.793023	4657.930372
713.126837	4631.678563
713.460602	4623.640443
713.794318	4552.056059
714.127985	4568.606167
714.461602	4489.061800
714.795171	4462.537769
715.128691	4406.747320
715.462162	4356.078683
715.795584	4313.276766
716.128957	4296.043581
716.462281	4252.246037
716.795556	4225.026327
717.128782	4193.619938
717.461960	4130.497130
717.795088	4139.518275
718.128167	4103.973099
718.461198	4049.049728
718.794180	4048.273390
719.127113	4030.110113
719.459997	4013.852392
719.792833	3970.997543
720.125619	3961.313487
720.458357	3929.534053
720.791046	3937.902368
721.123686	3907.922626
721.456278	3871.669168
721.788821	3887.299266
722.121315	3863.820092
722.453761	3836.860001
722.786158	3854.977908
723.118506	3875.586145
723.450805	3827.309535
723.783056	3851.617979
724.115259	3864.614073
724.447412	3870.655896
724.779518	3864.820761
725.111574	3871.948952
725.443582	3896.711100
725.775542	3886.711971
726.107453	3935.593520
726.439315	3934.242490
726.771129	3945.711115
727.102895	3984.356601
727.434612	4029.757232
727.766281	4037.288716
728.097901	4038.125548
728.429473	4042.707957
728.760996	4049.546282
729.092471	4048.202814
729.423897	4033.056667
729.755276	4041.266187
730.086606	4041.208213
730.417887	4076.196342
730.749120	4139.717401
731.080305	4202.147050
731.411442	4225.719485
731.742530	4197.388201
732.073570	4204.463460
732.404562	4256.886419
732.735506	4252.382148
733.066401	4209.708781
733.397249	4153.426818
733.728048	4079.558791
734.058798	4003.757481
734.389501	3934.605453
734.720156	3874.550188
735.050762	3834.321780
735.381320	3828.312725
735.711831	3775.889766
736.042293	3753.433946
736.372707	3773.217954
736.703073	3746.305754
737.033391	3736.954414
737.363661	3752.768514
737.693883	3780.081485
738.024056	3788.590953
738.354182	3784.999131
738.684260	3844.467102
739.014290	3867.200185
739.344272	3859.545193
739.674207	3900.928025
740.004093	3905.533119
740.333931	3898.604053
740.663722	3900.300402
740.993464	3901.008684
741.323159	3875.805435
741.652806	3849.157896
741.982405	3824.052950
742.311956	3793.364926
742.641460	3788.563227
742.970915	3762.666819
743.300323	3722.350191
743.629683	3689.711241
743.958996	3681.642874
744.288260	3656.928617
744.617477	3625.847383
744.946647	3607.873149
745.275768	3587.955550
745.604842	3587.827001
745.933869	3538.269938
746.262847	3527.650747
746.591778	3567.294381
746.920662	3537.947304
747.249498	3509.797501
747.578286	3553.595046
747.907027	3570.061975
748.235720	3566.704566
748.564365	3594.713217
748.892963	3594.902260
749.221514	3576.076071
749.550017	3556.748287
749.878473	3555.450190
750.206881	3527.320552
750.535242	3521.765200
750.863555	3522.783513
751.191821	3521.873585
751.520039	3500.257118
751.848210	3480.268943
752.176334	3513.177595
752.504411	3519.743698
752.832440	3480.392451
753.160421	3459.209522
753.488356	3471.280565
753.816243	3483.467555
754.144082	3444.943057
754.471875	3425.980757
754.799620	3447.587142
755.127318	3437.696398
755.454969	3437.550205
755.782572	3443.745783
756.110129	3419.472627
756.437638	3411.232861
756.765100	3424.838935
757.092515	3433.383691
757.419882	3441.008436
757.747203	3416.195877
758.074477	3416.722678
758.401703	3431.813372
758.728882	3452.018316
759.056014	3459.005356
759.383099	3463.570120
759.710138	3457.684573
760.037129	3476.140238
760.364073	3509.185001
760.690970	3488.314624
761.017820	3468.399546
761.344623	3489.400993
761.671379	3530.007487
761.998088	3582.377514
762.324751	3707.972821
762.651366	3954.951550
762.977935	4410.772681
763.304456	4839.099359
763.630931	4928.678142
763.957359	4575.142023
764.283740	4239.648193
764.610074	4058.121284
764.936362	3864.556100
765.262602	3710.984910
765.588796	3601.647324
765.914943	3515.856968
766.241044	3432.584668
766.567097	3401.949576
766.893104	3360.639841
767.219064	3328.068946
767.544978	3300.456026
767.870845	3247.012233
768.196665	3230.167218
768.522438	3237.244998
768.848165	3234.547981
769.173846	3199.814431
769.499479	3182.538396
769.825066	3166.343690
770.150607	3149.680156
770.476101	3164.622136
770.801548	3162.157011
771.126949	3117.245372
771.452303	3099.893720
771.777611	3107.362190
772.102872	3111.374948
772.428087	3086.196905
772.753256	3076.437231
773.078378	3070.206365
773.403453	3039.157899
773.728482	3027.044006
774.053465	3046.782644
774.378401	3033.557177
774.703291	3004.613392
775.028135	3006.624812
775.352932	2997.034017
775.677683	2987.680156
776.002388	2984.088334
776.327046	2987.574292
776.651658	2976.025008
776.976224	2965.073102
777.300743	2964.687453
777.625216	2957.266875
777.949643	2952.979374
778.274024	2951.167079
778.598359	2941.321705
778.922647	2948.623817
779.246889	2946.889660
779.571086	2930.715118
779.895236	2927.163625
780.219339	2937.069492
780.543397	2948.676749
780.867409	2951.010803
781.191374	2943.814556
781.515294	2941.109977
781.839167	2941.798094
782.162995	2934.344748
782.486776	2940.948660
782.810511	2940.071499
783.134201	2927.198913
783.457844	2935.042948
783.781441	2923.838984
784.104993	2903.946591
784.428498	2906.376427
784.751958	2918.888571
785.075372	2915.435380
785.398739	2898.058523
785.722061	2914.931265
786.045337	2924.635486
786.368568	2909.494381
786.691752	2903.664286
787.014891	2949.165741
787.337983	2978.772437
787.661030	3005.767816
787.984031	3072.616037
788.306987	3113.013323
788.629897	3105.023094
788.952760	3091.742174
789.275579	3076.724577
789.598351	3019.323479
789.921078	2974.812611
790.243759	2967.331539
790.566395	2952.535752
790.888984	2926.208326
791.211529	2910.462282
791.534027	2902.467012
791.856480	2893.153480
792.178888	2876.517673
792.501249	2871.421066
792.823566	2866.677340
793.145836	2866.309336
793.468062	2860.201978
793.790241	2860.194417
794.112375	2865.477546
794.434464	2877.054556
794.756507	2882.133518
795.078505	2885.518653
795.400457	2900.286713
795.722364	2936.754420
796.044226	2959.742082
796.366042	2961.241825
796.687812	2952.094651
797.009538	2973.585090
797.331218	2958.194447
797.652852	2945.205914
797.974442	2925.600867
798.295986	2924.680857
798.617484	2917.890422
798.938938	2905.736200
799.260346	2889.112996
799.581709	2883.799619
799.903026	2876.447097
800.224299	2870.377547
800.545526	2860.907740
800.866708	2844.738239
801.187845	2835.961590
801.508936	2837.151302
801.829983	2846.144721
802.150984	2833.226764
802.471940	2818.960299
802.792851	2819.729075
803.113717	2820.654126
803.434538	2825.377687
803.755314	2816.976605
804.076045	2812.631130
804.396731	2812.195070
804.717372	2810.526448
805.037967	2806.422949
805.358518	2810.896973
805.679024	2827.968841
805.999485	2822.000114
806.319901	2824.157728
806.640272	2813.541058
806.960598	2821.402738
807.280879	2831.205261
807.601115	2839.742455
807.921306	2827.265600
808.241453	2820.107161
808.561554	2826.834581
808.881611	2829.156032
809.201623	2822.650423
809.521590	2824.147646
809.841513	2818.756132
810.161390	2824.739982
810.481223	2819.401400
810.801011	2809.823207
811.120755	2803.604944
811.440453	2806.657363
811.760107	2805.339101
812.079716	2805.933957
812.399281	2797.545477
812.718801	2786.502830
813.038276	2783.936882
813.357707	2789.686318
813.677093	2796.610343
813.996434	2790.059364
814.315731	2786.991822
814.634983	2782.174999
814.954191	2781.683487
815.273354	2796.950621
815.592473	2807.169040
815.911547	2805.507980
816.230577	2813.268836
816.549562	2819.673622
816.868502	2821.649754
817.187399	2832.289109
817.506250	2845.098681
817.825058	2841.758917
818.143821	2852.635206
818.462539	2869.127341
818.781213	2894.396125
819.099843	2930.599171
819.418429	2987.163438
819.736970	3047.133004
820.055466	3115.344857
820.373919	3219.941237
820.692327	3357.862165
821.010691	3518.652288
821.329011	3951.067341
821.647286	4829.639634
821.965517	6167.143449
822.283704	6874.094699
822.601847	6841.733012
822.919945	6226.485391
823.237999	5745.498820
823.556010	5170.895502
823.873976	4646.703722
824.191897	4250.942898
824.509775	3965.222901
824.827609	3699.859083
825.145398	3585.147628
825.463144	3572.738827
825.780845	3666.045544
826.098502	3770.084877
826.416116	4046.350190
826.733685	4343.488401
827.051210	4405.572731
827.368692	4295.574754
827.686129	4034.483314
828.003522	3719.438925
828.320872	3469.506079
828.638177	3282.202008
828.955439	3150.307779
829.272656	3067.451375
829.589830	3001.792866
829.906960	2956.059519
830.224046	2913.073600
830.541088	2878.506408
830.858086	2866.339583
831.175041	2845.791840
831.491952	2852.305011
831.808819	2860.804396
832.125642	2882.269629
832.442421	2928.456681
832.759157	3008.280831
833.075849	3180.567305
833.392497	3454.783389
833.709101	3655.060870
834.025662	3598.516768
834.342179	3444.398612
834.658653	3270.062909
834.975083	3128.366157
835.291469	3034.855274
835.607811	2954.025413
835.924110	2896.233625
836.240366	2848.269567
836.556578	2805.054276
836.872746	2786.318827
837.188871	2764.147833
837.504952	2746.486150
837.820990	2740.998854
838.136984	2726.429920
838.452935	2718.353991
838.768842	2714.994062
839.084706	2736.313102
839.400526	2811.189360
839.716303	2940.028649
840.032037	3016.422295
840.347727	3002.823782
840.663373	2943.186932
840.978977	2869.467619
841.294537	2800.159315
841.610054	2753.861358
841.925527	2732.857391
842.240957	2714.273177
842.556344	2690.007583
842.871687	2675.806653
843.186987	2669.762309
843.502244	2663.907009
843.817458	2659.896771
844.132629	2647.750111
844.447756	2637.057824
844.762840	2633.276958
845.077881	2635.172432
845.392879	2633.118162
845.707833	2628.631535
846.022745	2622.239352
846.337613	2626.635238
846.652438	2622.264558
846.967221	2623.177007
847.281960	2621.062243
847.596656	2619.502006
847.911309	2618.919752
848.225919	2614.801130
848.540485	2613.031685
848.855009	2615.884978
849.169490	2616.091665
849.483928	2613.014041
849.798323	2612.008330
850.112675	2612.948506
850.426984	2612.772065
850.741251	2609.845675
851.055474	2609.137393
851.369654	2613.727364
851.683792	2612.484719
851.997887	2611.579832
852.311938	2611.622682
852.625947	2612.454472
852.939914	2614.803650
853.253837	2613.641664
853.567718	2613.586212
853.881555	2609.896087
854.195350	2613.896242
854.509103	2611.242075
854.822812	2609.782661
855.136479	2609.694441
855.450103	2610.221241
855.763685	2613.923969
856.077224	2612.003289
856.390720	2608.789554
856.704173	2610.954729
857.017584	2615.650564
857.330953	2614.952364
857.644278	2619.943107
857.957561	2616.973867
858.270802	2615.983280
858.584000	2613.956736
858.897155	2618.382869
859.210268	2614.486057
859.523339	2611.347939
859.836367	2608.124121
860.149352	2610.725357
860.462295	2611.668052
860.775195	2608.855089
861.088054	2607.867022
861.400869	2605.127155
861.713642	2605.220417
862.026373	2603.329984
862.339062	2604.842330
862.651708	2613.618979
862.964312	2613.132508
863.276873	2611.191663
863.589392	2615.728702
863.901869	2622.325052
864.214303	2624.432254
864.526696	2628.084570
864.839045	2628.324025
865.151353	2630.910137
865.463619	2629.700260
865.775842	2631.585651
866.088023	2631.966258
866.400162	2627.456946
866.712258	2630.680764
867.024313	2630.257307
867.336325	2625.697584
867.648296	2627.474590
867.960224	2629.964920
868.272110	2630.819396
868.583954	2623.093828
868.895755	2625.180865
869.207515	2630.169087
869.519233	2636.856178
869.830909	2636.309212
870.142542	2630.663120
870.454134	2631.968779
870.765684	2634.454068
871.077191	2636.455406
871.388657	2643.944040
871.700081	2637.365334
872.011463	2636.493215
872.322803	2642.898001
872.634101	2643.540748
872.945357	2651.251192
873.256571	2655.750422
873.567744	2652.864362
873.878874	2652.206491
874.189963	2651.072232
874.501010	2658.386946
874.812015	2664.501865
875.122979	2661.799807
875.433900	2653.189516
875.744780	2651.097437
876.055618	2658.250835
876.366415	2662.248470
876.677169	2660.431134
876.987882	2658.124806
877.298554	2656.206647
877.609183	2664.915240
877.919771	2669.099398
878.230317	2677.263546
878.540822	2687.124043
878.851285	2698.980837
879.161707	2724.307594
879.472087	2765.329983
879.782425	2804.270376
880.092722	2914.631316
880.402977	3097.352979
880.713191	3344.561081
881.023363	3619.906383
881.333494	3801.813899
881.643583	3967.151143
881.953631	3964.630566
882.263637	3790.867034
882.573602	3579.103284
882.883526	3458.448308
883.193408	3350.083665
883.503248	3253.532966
883.813048	3144.379382
884.122806	3033.642876
884.432522	2954.007769
884.742197	2892.664488
885.051831	2857.552852
885.361424	2824.697132
885.670975	2791.591874
885.980485	2761.544077
886.289954	2744.769637
886.599382	2733.207751
886.908768	2722.979250
887.218113	2701.844212
887.527417	2688.623787
887.836680	2684.477437
888.145901	2677.588701
888.455082	2669.429593
888.764221	2656.632624
889.073319	2654.038951
889.382376	2650.119453
889.691392	2651.273878
890.000366	2652.710607
890.309300	2651.336892
890.618193	2652.705565
890.927044	2656.125988
891.235855	2656.783859
891.544625	2655.871410
891.853353	2656.504075
892.162041	2661.280568
892.470687	2682.713034
892.779293	2692.243335
893.087858	2702.910417
893.396381	2723.148129
893.704864	2761.382760
894.013306	2829.796259
894.321707	2914.895977
894.630068	2961.907257
894.938387	2982.485247
895.246665	2974.444607
895.554903	2936.373813
895.863100	2892.636762
896.171256	2840.168433
896.479371	2779.893877
896.787446	2741.709657
897.095480	2725.456977
897.403473	2720.685525
897.711425	2706.214893
898.019336	2687.678570
898.327207	2672.683658
898.635038	2675.214317
898.942827	2671.645180
899.250576	2661.076401
899.558284	2652.854279
899.865952	2647.361942
900.173579	2646.378917
900.481165	2641.499080
900.788711	2636.261322
901.096216	2630.441309
901.403681	2627.235136
901.711105	2628.550877
902.018489	2623.262706
902.325832	2630.388377
902.633135	2629.949797
902.940397	2647.014103
903.247619	2680.731860
903.554800	2744.600759
903.861941	2866.611805
904.169041	2982.507932
904.476101	3039.165460
904.783121	3032.369985
905.090100	2982.790237
905.397039	2908.818866
905.703938	2843.132631
906.010796	2779.034360
906.317614	2729.757081
906.624391	2700.193235
906.931129	2674.712722
907.237826	2652.955102
907.544483	2633.922226
907.851099	2621.437809
908.157675	2609.848196
908.464211	2608.033381
908.770707	2597.671289
909.077163	2594.200454
909.383578	2587.717531
909.689954	2588.624938
909.996289	2587.243662
910.302584	2585.385997
910.608839	2585.789289
910.915054	2585.519587
911.221229	2585.456573
911.527363	2586.631162
911.833458	2587.987232
912.139513	2588.186358
912.445527	2589.834815
912.751502	2593.570310
913.057436	2597.298243
913.363331	2604.560026
913.669186	2613.132508
913.975000	2629.002060
914.280775	2641.236940
914.586510	2659.380053
914.892205	2693.165866
915.197859	2759.651124
915.503475	2837.657938
915.809050	2899.132289
916.114585	2910.595873
916.420081	2919.571647
916.725536	2931.118410
917.030952	2908.294586
917.336328	2863.221629
917.641665	2820.555824
917.946961	2768.909203
918.252218	2737.412073
918.557435	2713.625389
918.862612	2692.906247
919.167750	2681.916531
919.472848	2662.351813
919.777906	2647.092241
920.082925	2637.476240
920.387904	2628.077008
920.692843	2625.538787
920.997743	2620.666512
921.302603	2612.633433
921.607423	2605.001127
921.912204	2598.949221
922.216946	2598.782863
922.521647	2596.113572
922.826310	2593.565269
923.130932	2590.936307
923.435516	2581.806778
923.740059	2582.797364
924.044564	2580.435584
924.349028	2579.054308
924.653454	2569.135838
924.957840	2569.468554
925.262186	2565.516289
925.566493	2568.914027
925.870761	2560.097049
926.174989	2564.344221
926.479178	2563.719118
926.783328	2563.409087
927.087438	2557.115206
927.391509	2562.249621
927.695541	2557.818447
927.999533	2559.996226
928.303486	2555.824671
928.607400	2557.861297
928.911275	2556.316183
929.215110	2555.673436
929.518906	2553.500699
929.822663	2556.215360
930.126381	2555.920453
930.430060	2554.887016
930.733699	2554.372818
931.037299	2555.784342
931.340861	2558.703170
931.644383	2555.766698
931.947866	2557.117727
932.251309	2556.535473
932.554714	2559.141750
932.858080	2556.336348
933.161407	2554.304763
933.464694	2556.545556
933.767943	2555.310473
934.071153	2551.718651
934.374323	2554.367777
934.677455	2556.134702
934.980548	2552.394166
935.283602	2554.435833
935.586617	2550.929710
935.889593	2551.101110
936.192530	2549.311500
936.495428	2552.860472
936.798287	2553.621687
937.101108	2553.238559
937.403890	2557.042109
937.706632	2561.959755
938.009336	2565.715415
938.312002	2565.949828
938.614628	2570.396126
938.917216	2570.343194
939.219765	2573.390571
939.522275	2576.871488
939.824747	2574.000551
940.127179	2568.099880
940.429573	2562.310115
940.731929	2564.545867
941.034246	2563.497307
941.336524	2565.239026
941.638763	2564.455126
941.940964	2564.775239
942.243126	2563.530074
942.545250	2565.430589
942.847335	2557.344579
943.149381	2557.649568
943.451389	2555.471790
943.753359	2556.414486
944.055290	2557.057233
944.357182	2557.911708
944.659036	2555.688560
944.960851	2557.205947
945.262628	2555.529763
945.564367	2557.589075
945.866067	2558.924980
946.167729	2555.575134
946.469352	2558.297357
946.770937	2557.233673
947.072484	2558.292316
947.373992	2555.292829
947.675462	2556.273333
947.976893	2556.182593
948.278286	2554.569423
948.579641	2553.110009
948.880958	2550.723023
949.182236	2554.551779
949.483476	2552.401727
949.784678	2553.427602
950.085841	2556.033879
950.386967	2552.293343
950.688054	2552.474824
950.989103	2555.572613
951.290114	2554.836605
951.591087	2558.141081
951.892021	2555.761656
952.192917	2559.237532
952.493776	2557.437840
952.794596	2558.335165
953.095378	2562.088304
953.396122	2559.955896
953.696828	2555.844835
953.997496	2560.583520
954.298126	2555.721327
954.598718	2555.917932
954.899272	2555.433981
955.199788	2553.488096
955.500266	2552.653785
955.800706	2550.357539
956.101108	2544.277908
956.401472	2544.797147
956.701798	2545.661705
957.002087	2546.848896
957.302337	2546.070038
957.602550	2547.267312
957.902724	2544.499719
958.202861	2545.107178
958.502960	2544.892929
958.803022	2544.456869
959.103045	2544.681200
959.403031	2543.879657
959.702979	2544.948381
960.002889	2542.664739
960.302762	2542.319420
960.602596	2545.739843
960.902393	2541.890922
961.202153	2544.091385
961.501875	2539.428318
961.801559	2543.897301
962.101205	2540.149203
962.400814	2543.226827
962.700385	2539.319933
962.999918	2538.969573
963.299414	2541.036446
963.598873	2540.428987
963.898293	2540.159285
964.197677	2542.251364
964.497022	2539.471168
964.796331	2540.897814
965.095601	2540.096271
965.394835	2542.422763
965.694030	2540.542413
965.993189	2540.781868
966.292309	2538.888914
966.591393	2539.733308
966.890439	2537.356404
967.189447	2540.489481
967.488419	2539.488812
967.787353	2538.722556
968.086249	2542.299255
968.385108	2540.857485
968.683930	2539.753472
968.982714	2539.604758
969.281462	2541.406971
969.580172	2540.176929
969.878844	2539.947557
970.177480	2539.713143
970.476078	2540.802032
970.774639	2539.939995
971.073162	2539.909748
971.371649	2538.848585
971.670098	2539.766075
971.968510	2541.994265
972.266885	2539.004861
972.565223	2540.897814
972.863524	2540.313040
973.161788	2540.315561
973.460014	2544.787064
973.758204	2539.100643
974.056356	2542.074924
974.354471	2539.612320
974.652550	2543.126004
974.950591	2543.557023
975.248595	2543.284801
975.546563	2542.453010
975.844493	2539.677855
976.142386	2542.657177
976.440243	2540.872608
976.738062	2541.729605
977.035845	2539.486291
977.333590	2539.624923
977.631299	2540.857485
977.928971	2541.671631
978.226606	2539.609799
978.524204	2540.189532
978.821765	2540.514687
979.119290	2541.464944
979.416777	2539.105684
979.714228	2540.812115
980.011642	2540.129038
980.309020	2543.531817
980.606360	2541.356559
980.903664	2542.785726
981.200931	2543.209183
981.498162	2540.867567
981.795356	2542.563916
982.092513	2544.439225
982.389633	2547.579864
982.686717	2549.525749
982.983764	2553.548590
983.280775	2553.742674
983.577749	2555.370967
983.874686	2552.111861
984.171587	2548.262940
984.468451	2549.591284
984.765279	2548.303269
985.062070	2543.904862
985.358824	2543.788916
985.655543	2544.436704
985.952224	2540.595345
986.248869	2542.878988
986.545478	2536.456558
986.842050	2537.510159
987.138586	2533.946063
987.435086	2534.142668
987.731549	2534.167874
988.027975	2537.928575
988.324366	2538.750283
988.620719	2537.893287
988.917037	2538.823379
989.213318	2537.757175
989.509563	2537.671476
989.805772	2538.530992
990.101944	2537.376568
990.398080	2538.341949
990.694180	2538.735159
990.990244	2537.603420
991.286271	2537.850437
991.582262	2536.368338
991.878217	2539.778678
992.174136	2535.871784
992.470019	2537.926054
992.765865	2537.986548
993.061676	2539.748431
993.357450	2536.668286
993.653188	2537.842875
993.948890	2538.392361
994.244556	2538.205838
994.540186	2539.476209
994.835780	2538.674665
995.131337	2539.168698
995.426859	2540.416384
995.722345	2540.655839
996.017795	2541.487629
996.313208	2545.021478
996.608586	2541.616179
996.903928	2539.451003
997.199234	2540.819676
997.494504	2541.462423
997.789738	2540.648277
998.084936	2541.717002
998.380099	2539.645087
998.675225	2541.348997
998.970316	2539.924872
999.265371	2539.892104
999.560390	2538.689789
999.855373	2538.168029
1000.150320	2538.793132
1000.445232	2535.987730
1000.740108	2535.851619
1001.034948	2539.491332
1001.329752	2535.649973
1001.624521	2535.458409
1001.919254	2531.034797
1002.213951	2533.593182
1002.508613	2531.617050
1002.803239	2536.247350
1003.097829	2531.009591
1003.392384	2539.970242
1003.686903	2538.001671
1003.981386	2539.282124
1004.275834	2539.055272
1004.570246	2537.797505
1004.864623	2536.343132
1005.158964	2537.565612
1005.453270	2533.757020
1005.747540	2539.324974
1006.041775	2534.850950
1006.335974	2537.134593
1006.630138	2534.435055
1006.924266	2537.918492
1007.218359	2536.282638
1007.512416	2538.122659
1007.806438	2536.259953
1008.100425	2535.917154
1008.394376	2533.217616
1008.688292	2537.096784
1008.982172	2534.939170
1009.276017	2536.244829
1009.569827	2536.524613
1009.863602	2537.817669
1010.157341	2534.298944
1010.451045	2536.547298
1010.744714	2533.777184
1011.038347	2535.662576
1011.331945	2534.021680
1011.625508	2537.295910
1011.919036	2535.158461
1012.212528	2538.984696
1012.505986	2535.723070
1012.799408	2535.045035
1013.092795	2534.868594
1013.386147	2537.154758
1013.679464	2535.564273
1013.972745	2538.929244
1014.265992	2535.488656
1014.559204	2537.336239
1014.852380	2535.014788
1015.145521	2535.649973
1015.438628	2533.073943
1015.731699	2537.477391
1016.024736	2533.575538
1016.317737	2538.291538
1016.610703	2537.293389
1016.903635	2532.854653
1017.196531	2530.641587
1017.489393	2534.997144
1017.782219	2532.529499
1018.075011	2535.750796
1018.367768	2534.954294
1018.660490	2537.326157
1018.953177	2537.326157
1019.245829	2537.326157
