Dividing Wavelength (nm)	Counts (n)	Blue Motor Position (mm): 9.100000	Red Motor Position (mm): 0.000000	
326.493990	2140.819242
326.888308	2140.819242
327.282561	2140.819242
327.676750	2108.205497
328.070874	2107.161978
328.464933	2111.825046
328.858929	2117.493823
329.252859	2126.192334
329.646726	2137.696247
330.040528	2148.673360
330.434265	2163.960659
330.827938	2183.936231
331.221547	2201.139168
331.615091	2222.778321
332.008571	2239.444376
332.401986	2261.068405
332.795338	2279.072886
333.188625	2296.217851
333.581847	2317.105872
333.975006	2335.543892
334.368100	2352.822447
334.761129	2371.497401
335.154095	2387.412324
335.546996	2409.389234
335.939833	2424.391708
336.332606	2437.692792
336.725315	2449.229473
337.117960	2456.544187
337.510540	2468.186732
337.903056	2480.141828
338.295508	2487.209526
338.687896	2494.403252
339.080220	2502.862308
339.472480	2508.273987
339.864676	2515.951664
340.256807	2518.542818
340.648875	2521.247397
341.040879	2523.213447
341.432818	2524.251924
341.824694	2528.355423
342.216506	2528.002543
342.608253	2526.459950
342.999937	2527.364837
343.391557	2528.519261
343.783113	2522.754702
344.174605	2528.330218
344.566033	2521.023065
344.957397	2521.464166
345.348697	2521.292767
345.739934	2515.717251
346.131106	2518.142046
346.522215	2513.549555
346.913260	2512.112826
347.304241	2509.846827
347.695159	2508.548730
348.086012	2509.040243
348.476802	2505.677793
348.867528	2506.428925
349.258191	2502.995899
349.648789	2502.698471
350.039324	2501.584376
350.429796	2502.907679
350.820203	2499.343583
351.210548	2498.859632
351.600828	2494.461226
351.991045	2494.567090
352.381198	2495.749240
352.771288	2495.595485
353.161314	2494.766215
353.551276	2495.834940
353.941175	2494.080618
354.331010	2494.587254
354.720782	2491.529795
355.110490	2494.428458
355.500135	2495.315701
355.889717	2493.442912
356.279235	2495.764364
356.668689	2494.708242
357.058080	2493.188334
357.447408	2495.177069
357.836672	2489.568786
358.225873	2494.030207
358.615010	2492.442243
359.004084	2496.311329
359.393095	2496.386946
359.782043	2498.857112
360.170927	2497.067502
360.559748	2498.342914
360.948505	2501.198728
361.337199	2498.476505
361.725830	2499.920795
362.114398	2502.005312
362.502903	2503.187463
362.891344	2501.428100
363.279722	2502.816938
363.668037	2506.733915
364.056289	2501.080261
364.444478	2501.463388
364.832603	2501.521362
365.220665	2503.550426
365.608665	2504.236023
365.996601	2505.708040
366.384474	2505.914727
366.772284	2503.880622
367.160031	2503.510097
367.547715	2506.580159
367.935336	2508.248781
368.322893	2505.340036
368.710388	2504.203255
369.097820	2510.000582
369.485189	2506.922958
369.872495	2507.482526
370.259738	2508.210973
370.646918	2510.232475
371.034035	2508.536127
371.421090	2510.141735
371.808081	2507.767351
372.195010	2507.467402
372.581875	2509.622496
372.968678	2509.519152
373.355418	2509.572084
373.742096	2511.432270
374.128710	2510.706344
374.515262	2508.974708
374.901751	2509.688031
375.288177	2511.298679
375.674540	2506.804491
376.060841	2510.363545
376.447079	2510.875222
376.833254	2514.300687
377.219367	2507.517814
377.605417	2508.475633
377.991404	2508.377331
378.377329	2511.480161
378.763191	2507.686693
379.148991	2514.973681
379.534727	2512.657270
379.920402	2512.526200
380.306013	2513.519308
380.691563	2515.071983
381.077049	2512.889163
381.462474	2514.877899
381.847835	2516.985101
382.233134	2514.608197
382.618371	2513.940244
383.003545	2515.835718
383.388657	2513.050480
383.773706	2515.442508
384.158693	2515.961747
384.543618	2517.879906
384.928480	2515.747498
385.313280	2518.525173
385.698017	2513.567199
386.082692	2521.403672
386.467305	2519.034330
386.851856	2519.185565
387.236344	2515.956706
387.620770	2521.713703
388.005133	2518.250431
388.389435	2519.881244
388.773674	2516.889319
389.157851	2517.113650
389.541965	2517.889988
389.926018	2518.744464
390.310008	2518.154649
390.693936	2522.558097
391.077802	2517.849659
391.461606	2519.946779
391.845348	2522.270751
392.229027	2520.990298
392.612645	2520.087931
392.996200	2520.960051
393.379694	2521.703621
393.763125	2520.781090
394.146494	2520.574403
394.529801	2520.602129
394.913047	2525.179497
395.296230	2521.880061
395.679351	2523.105062
396.062410	2522.348889
396.445408	2520.897036
396.828343	2520.856707
397.211217	2519.735050
397.594028	2518.416789
397.976778	2521.605318
398.359466	2521.045750
398.742092	2518.366377
399.124656	2524.554393
399.507158	2523.699918
399.889598	2524.239321
400.271977	2523.606657
400.654294	2525.900382
401.036549	2522.553055
401.418742	2521.358302
401.800874	2525.786956
402.182944	2527.516071
402.564952	2524.380474
402.946898	2527.939528
403.328783	2524.526667
403.710606	2526.631349
404.092367	2523.594054
404.474067	2524.824095
404.855705	2525.633200
405.237282	2525.587830
405.618797	2523.825947
406.000250	2527.992460
406.381642	2526.729651
406.762972	2524.544311
407.144240	2527.412728
407.525447	2526.742254
407.906593	2526.200330
408.287677	2525.310567
408.668700	2525.819723
409.049661	2526.623787
409.430560	2528.241997
409.811399	2527.866432
410.192176	2528.362985
410.572891	2529.189734
410.953545	2526.890968
411.334138	2529.383819
411.714669	2527.115300
412.095139	2528.247039
412.475547	2529.041020
412.855894	2529.272913
413.236180	2529.373737
413.616405	2529.003212
413.996568	2528.365506
414.376670	2529.524971
414.756711	2530.989426
415.136691	2530.429858
415.516609	2527.785773
415.896466	2531.493542
416.276262	2532.688295
416.655997	2529.661082
417.035670	2525.613036
417.415283	2529.051103
417.794834	2526.039013
418.174324	2530.497914
418.553753	2531.027235
418.933121	2531.969931
419.312428	2533.530168
419.691674	2531.367513
420.070859	2532.637884
420.449983	2533.169725
420.829045	2531.425486
421.208047	2534.697195
421.586988	2531.916999
421.965867	2532.073274
422.344686	2532.060672
422.723444	2532.842050
423.102141	2532.887421
423.480777	2534.281300
423.859352	2533.799870
424.237866	2534.873635
424.616319	2530.956659
424.994712	2533.315919
425.373044	2534.639222
425.751314	2533.878007
426.129524	2531.241484
426.507673	2537.076620
426.885762	2533.305837
427.263789	2535.894469
427.641756	2533.126876
428.019662	2532.683254
428.397508	2536.998482
428.775292	2533.494880
429.153016	2534.528316
429.530679	2535.954963
429.908282	2535.415559
430.285824	2537.643749
430.663305	2535.039993
431.040726	2535.334901
431.418086	2534.477905
431.795385	2535.773481
432.172624	2536.905220
432.549802	2533.507483
432.926920	2534.538399
433.303977	2536.280117
433.680974	2537.936136
434.057910	2536.156609
434.434786	2537.603420
434.811601	2536.806918
435.188355	2537.507638
435.565050	2536.905220
435.941683	2536.776671
436.318257	2532.204344
436.694770	2531.596885
437.071222	2532.227030
437.447614	2530.397091
437.823946	2532.912627
438.200218	2534.742565
438.576429	2538.044521
438.952580	2536.030580
439.328670	2534.919006
439.704700	2536.108718
440.080670	2540.305479
440.456580	2539.438400
440.832429	2536.983358
441.208218	2536.239788
441.583947	2539.128369
441.959616	2538.117618
442.335224	2538.654501
442.710773	2536.464119
443.086261	2538.634336
443.461689	2537.827752
443.837057	2540.396219
444.212365	2538.331867
444.587612	2536.935467
444.962800	2537.802546
445.337927	2539.085519
445.712995	2540.451672
446.088002	2539.511497
446.462949	2539.082999
446.837837	2539.617361
447.212664	2536.756506
447.587431	2539.773637
447.962139	2542.531148
448.336786	2539.077958
448.711374	2541.217927
449.085901	2543.259595
449.460369	2540.441590
449.834776	2541.086857
450.209124	2537.938657
450.583412	2540.691127
450.957640	2540.476878
451.331808	2540.849923
451.705917	2541.386806
452.079965	2540.005530
452.453954	2541.623740
452.827883	2541.780016
453.201752	2539.519059
453.575562	2542.427804
453.949311	2541.187681
454.323001	2543.216745
454.696632	2541.318751
455.070202	2542.079965
455.443713	2542.004347
455.817164	2538.659542
456.190556	2537.197607
456.563888	2539.690458
456.937160	2533.641073
457.310373	2541.848072
457.683526	2543.728422
458.056619	2542.596683
458.429653	2544.398896
458.802628	2541.429656
459.175542	2543.529297
459.548398	2543.930068
459.921194	2542.047197
460.293930	2545.286139
460.666607	2544.454348
461.039224	2542.657177
461.411782	2543.436035
461.784280	2543.713299
462.156719	2545.180274
462.529099	2542.110212
462.901419	2543.962836
463.273680	2544.179605
463.645882	2541.742207
464.018024	2542.911755
464.390106	2542.120294
464.762130	2544.759338
465.134094	2543.965356
465.505999	2541.343956
465.877845	2544.557692
466.249631	2544.096426
466.621358	2543.766231
466.993026	2543.065510
467.364634	2546.448125
467.736184	2543.448638
468.107674	2543.506611
468.479105	2542.644574
468.850477	2546.443083
469.221790	2542.934440
469.593043	2542.400078
469.964238	2542.011909
470.335373	2544.469472
470.706449	2543.781354
471.077467	2544.454348
471.448425	2546.531304
471.819324	2544.119112
472.190164	2544.943340
472.560945	2543.461241
472.931667	2541.989224
473.302330	2544.330840
473.672934	2544.895449
474.043479	2543.347815
474.413965	2545.434853
474.784393	2539.277083
475.154761	2541.921168
475.525070	2544.343443
475.895321	2543.211704
476.265513	2542.004347
476.635645	2545.210521
477.005719	2546.685059
477.375734	2543.027702
477.745691	2547.504246
478.115588	2545.238248
478.485427	2546.571633
478.855207	2546.004503
479.224928	2544.489636
479.594591	2548.242775
479.964194	2547.819318
480.333739	2548.499874
480.703226	2545.535676
481.072653	2547.726057
481.442022	2545.497867
481.811333	2546.516180
482.180584	2546.521221
482.549777	2546.377548
482.918912	2549.550955
483.287988	2549.024154
483.657005	2546.375028
484.025964	2546.460727
484.394864	2544.887887
484.763706	2545.414688
485.132489	2545.576005
485.501213	2548.318393
485.869879	2546.327137
486.238487	2546.150697
486.607036	2548.852755
486.975527	2548.477189
487.343959	2546.047353
487.712333	2546.954761
488.080648	2546.014585
488.448905	2546.969884
488.817104	2546.463248
489.185244	2545.306303
489.553326	2548.628424
489.921350	2545.649102
490.289315	2550.818805
490.657222	2546.294369
491.025070	2547.562220
491.392861	2548.043650
491.760593	2548.512477
492.128267	2549.119936
492.495883	2549.334185
492.863440	2548.270502
493.230939	2548.477189
493.598380	2546.833773
493.965763	2544.865202
494.333088	2545.918803
494.700354	2543.831766
495.067563	2544.650953
495.434713	2542.563916
495.801805	2544.333361
496.168839	2548.693959
496.535815	2548.212528
496.902733	2546.455686
497.269593	2550.826367
497.636395	2547.506767
498.003139	2548.467107
498.369825	2548.603218
498.736453	2548.000800
499.103023	2547.942827
499.469535	2548.739329
499.835989	2549.155224
500.202385	2548.741850
500.568723	2549.215718
500.935003	2545.868392
501.301226	2548.371325
501.667390	2549.452652
502.033497	2552.237890
502.399546	2551.073383
502.765537	2548.920811
503.131470	2550.009700
503.497345	2547.771427
503.863163	2552.540359
504.228923	2549.674463
504.594625	2547.307641
504.960269	2550.723023
505.325856	2550.622200
505.691385	2550.027344
506.056856	2548.908208
506.422270	2550.546583
506.787625	2548.716644
507.152924	2547.713454
507.518164	2550.329813
507.883347	2550.027344
508.248472	2548.920811
508.613540	2546.712785
508.978550	2546.947199
509.343503	2549.193033
509.708398	2548.736808
510.073236	2547.443753
510.438016	2550.889381
510.802738	2550.528939
511.167403	2550.702858
511.532010	2548.787220
511.896561	2550.828887
512.261053	2549.510626
512.625488	2548.020965
512.989866	2547.252189
513.354186	2547.743701
513.718449	2541.883360
514.082655	2547.078269
514.446803	2549.830739
514.810894	2550.138249
515.174927	2550.188661
515.538904	2552.104299
515.902822	2548.661191
516.266684	2550.886861
516.630488	2548.275543
516.994235	2550.712941
517.357925	2548.560368
517.721558	2549.127498
518.085133	2550.811243
518.448651	2550.972560
518.812112	2550.594474
519.175516	2551.834597
519.538863	2551.005328
519.902152	2551.365770
520.265385	2548.900646
520.628560	2551.595143
520.991678	2550.211346
521.354739	2552.031203
521.717743	2548.900646
522.080690	2551.350647
522.443580	2549.987015
522.806413	2549.193033
523.169189	2550.662529
523.531908	2551.181768
523.894569	2550.077755
524.257174	2551.355688
524.619722	2551.345606
524.982213	2551.398538
525.344647	2552.227807
525.707025	2551.222097
526.069345	2555.388611
526.431608	2552.106820
526.793815	2548.913249
527.155964	2552.295863
527.518057	2550.619679
527.880093	2551.368291
528.242072	2552.835267
528.603995	2554.166131
528.965860	2550.183620
529.327669	2550.027344
529.689421	2550.317210
530.051117	2553.591440
530.412755	2551.390976
530.774337	2554.130843
531.135862	2552.046326
531.497331	2550.854093
531.858743	2548.341078
532.220098	2550.760832
532.581396	2549.682025
532.942638	2549.341747
533.303824	2554.382901
533.664953	2555.166800
534.026025	2551.401058
534.387040	2554.453477
534.747999	2553.818292
535.108902	2555.917932
535.469748	2553.334341
535.830537	2555.643189
536.191270	2554.977757
536.551947	2555.812068
536.912567	2554.090514
537.273131	2552.805020
537.633638	2554.854249
537.994089	2556.767367
538.354483	2556.880793
538.714821	2554.012376
539.075103	2556.462377
539.435328	2551.481717
539.795497	2557.919270
540.155609	2559.832388
540.515665	2555.343241
540.875665	2557.163097
541.235609	2555.630586
541.595496	2556.575803
541.955328	2556.875751
542.315102	2560.250804
542.674821	2555.267623
543.034483	2562.085784
543.394090	2557.725186
543.753640	2558.783828
544.113134	2560.233160
544.472571	2559.265258
544.831953	2559.182079
545.191278	2560.291133
545.550548	2561.763150
545.909761	2558.108313
546.268918	2557.999929
546.628019	2561.475804
546.987064	2559.073694
547.346053	2559.540001
547.704986	2559.746688
548.063863	2560.822975
548.422684	2559.166956
548.781449	2559.570248
549.140158	2559.446740
549.498811	2559.098900
549.857408	2559.514795
550.215949	2558.710731
550.574434	2556.306101
550.932864	2558.211657
551.291237	2557.165618
551.649555	2558.166287
552.007817	2560.616288
552.366022	2558.630073
552.724173	2558.758622
553.082267	2563.474622
553.440305	2561.659806
553.798288	2560.926318
554.156215	2561.080074
554.514086	2561.838767
554.871902	2558.715772
555.229661	2561.649724
555.587365	2562.932698
555.945014	2561.380022
556.302606	2562.050496
556.660143	2559.469425
557.017625	2564.702143
557.375050	2564.487894
557.732421	2559.066133
558.089735	2560.422203
558.446994	2559.771894
558.804197	2563.404046
559.161345	2561.266596
559.518437	2562.363047
559.875474	2559.650907
560.232455	2561.785835
560.589381	2561.826164
560.946251	2564.848336
561.303065	2560.754919
561.659825	2562.216854
562.016528	2560.699467
562.373177	2559.618139
562.729770	2559.310629
563.086307	2560.381874
563.442789	2559.948335
563.799216	2563.393963
564.155587	2561.140567
564.511904	2560.417162
564.868164	2560.003787
565.224370	2561.992523
565.580520	2559.464384
565.936615	2560.018911
566.292654	2562.385732
566.648638	2561.785835
567.004567	2562.305074
567.360441	2557.659651
567.716260	2563.227605
568.072023	2557.931873
568.427732	2556.840463
568.783385	2557.145453
569.138982	2558.645196
569.494525	2556.220401
569.850013	2555.920453
570.205445	2559.703839
570.560823	2558.075546
570.916145	2560.028993
571.271412	2559.290464
571.626625	2557.997408
571.981782	2557.727706
572.336884	2558.435988
572.691931	2559.431616
573.046923	2560.452450
573.401860	2560.149981
573.756743	2558.385577
574.111570	2557.614280
574.466342	2559.683674
574.821059	2558.766184
575.175722	2556.951369
575.530330	2558.728375
575.884882	2559.839950
576.239380	2559.628221
576.593823	2559.119065
576.948211	2558.977912
577.302544	2557.629404
577.656823	2556.515309
578.011047	2559.192162
578.365216	2557.624363
578.719330	2557.770556
579.073389	2558.778787
579.427394	2557.299208
579.781344	2559.633262
580.135239	2556.270813
580.489080	2557.435319
580.842866	2558.619991
581.196597	2562.705846
581.550273	2558.337686
581.903895	2553.767880
582.257463	2557.717624
582.610975	2558.448591
582.964434	2557.889023
583.317837	2557.500854
583.671186	2557.584033
584.024481	2554.796275
584.377721	2558.115875
584.730906	2555.854918
585.084037	2556.043961
585.437113	2555.675957
585.790135	2556.759805
586.143103	2557.836091
586.496016	2561.808520
586.848874	2555.058415
587.201679	2554.536656
587.554428	2553.745195
587.907124	2555.050854
588.259765	2552.154711
588.612352	2557.084959
588.964884	2555.287788
589.317362	2555.607901
589.669786	2558.075546
590.022155	2558.453632
590.374470	2555.401214
590.726731	2556.684188
591.078937	2556.711914
591.431090	2558.070505
591.783188	2556.164949
592.135232	2557.019424
592.487222	2557.533622
592.839157	2556.785011
593.191038	2557.589075
593.542866	2555.101265
593.894639	2556.432130
594.246358	2554.899619
594.598022	2556.059084
594.949633	2555.071018
595.301190	2556.381718
595.652692	2559.028324
596.004141	2557.238714
596.355535	2556.109496
596.706876	2556.011193
597.058162	2556.006152
597.409395	2554.461039
597.760573	2556.691749
598.111698	2555.507078
598.462768	2558.496482
598.813785	2556.104455
599.164748	2555.307953
599.515657	2554.554300
599.866511	2555.330638
600.217312	2556.376677
600.568060	2556.984136
600.918753	2554.690411
601.269392	2554.778631
601.619978	2557.790721
601.970510	2556.361554
602.320988	2557.770556
602.671412	2556.908519
603.021783	2557.024465
603.372100	2558.683005
603.722363	2555.985988
604.072572	2557.770556
604.422728	2558.216698
604.772830	2552.923487
605.122878	2553.420040
605.472872	2555.134033
605.822813	2552.028682
606.172701	2555.993549
606.522534	2557.989846
606.872314	2557.667213
607.222041	2556.732078
607.571714	2557.994887
607.921333	2559.534960
608.270899	2558.022614
608.620411	2558.546894
608.969870	2559.051009
609.319276	2559.035886
609.668627	2565.228943
610.017926	2564.558470
610.367171	2565.942267
610.716362	2564.855898
611.065500	2562.993192
611.414585	2561.269117
611.763616	2564.480332
612.112594	2557.848694
612.461518	2562.415979
612.810389	2562.700805
613.159207	2563.620815
613.507971	2560.515464
613.856682	2562.884807
614.205340	2559.905485
614.553945	2562.673078
614.902496	2561.392625
615.250994	2559.313149
615.599439	2558.514126
615.947830	2561.097718
616.296169	2558.499003
616.644454	2559.388767
616.992686	2560.719631
617.340864	2564.936556
617.688990	2561.811041
618.037063	2562.050496
618.385082	2560.941442
618.733048	2562.708366
619.080961	2561.742985
619.428821	2562.904971
619.776628	2562.310115
620.124382	2565.733059
620.472083	2560.780125
620.819731	2562.534447
621.167326	2560.356668
621.514868	2563.247770
621.862357	2561.042265
622.209793	2562.529405
622.557176	2563.371278
622.904506	2562.496638
623.251783	2556.767367
623.599007	2558.756102
623.946179	2560.782646
624.293297	2561.377502
624.640363	2564.727348
624.987376	2562.867163
625.334336	2561.942111
625.681243	2561.415310
626.028097	2564.825651
626.374899	2562.846998
626.721647	2563.870352
627.068343	2564.266083
627.414987	2566.083419
627.761577	2567.255487
628.108115	2564.981927
628.454600	2563.293140
628.801032	2564.402194
629.147412	2564.513099
629.493739	2563.164591
629.840014	2564.555949
630.186236	2566.373285
630.532405	2564.669375
630.878521	2564.586196
631.224585	2568.364541
631.570597	2564.082081
631.916556	2567.542833
632.262462	2567.694068
632.608316	2569.881928
632.954117	2569.380333
633.299866	2569.697926
633.645562	2568.974521
633.991206	2570.023081
634.336797	2569.607185
634.682336	2568.956877
635.027823	2569.934860
635.373257	2568.475446
635.718639	2568.402350
636.063968	2568.621640
636.409245	2570.005437
636.754470	2568.175498
637.099642	2569.695406
637.444762	2571.021229
637.789829	2570.464182
638.134845	2570.002916
638.479808	2572.551219
638.824719	2571.452248
639.169577	2571.636250
639.514383	2574.928123
639.859137	2572.384861
640.203839	2574.262691
640.548489	2573.269584
640.893086	2573.425859
641.237632	2571.270766
641.582125	2574.489543
641.926566	2568.815724
642.270955	2575.028946
642.615292	2577.171437
642.959576	2577.166396
643.303809	2577.441138
643.647990	2578.865264
643.992118	2578.023392
644.336195	2581.489185
644.680219	2582.542786
645.024192	2582.893146
645.368112	2584.765935
645.711981	2584.256778
646.055797	2585.514546
646.399562	2586.101841
646.743274	2589.197109
647.086935	2591.352202
647.430544	2592.615012
647.774101	2597.565425
648.117606	2595.559045
648.461059	2598.646752
648.804460	2598.193048
649.147810	2595.644745
649.491108	2594.644076
649.834354	2598.374530
650.177548	2598.114910
650.520690	2598.218254
650.863781	2597.124324
651.206820	2602.818307
651.549807	2601.416866
651.892742	2600.615323
652.235626	2601.247987
652.578458	2600.383430
652.921238	2602.147833
653.263967	2607.027670
653.606644	2604.779316
653.949269	2606.271497
654.291843	2608.071189
654.634365	2608.736622
654.976836	2610.153186
655.319255	2612.482199
655.661622	2613.679473
656.003938	2613.795419
656.346203	2613.361880
656.688416	2617.074690
657.030577	2617.997221
657.372687	2617.840945
657.714746	2616.565533
658.056753	2622.367902
658.398708	2617.104937
658.740612	2618.793723
659.082465	2621.105092
659.424266	2624.623818
659.766016	2622.985443
660.107715	2631.966258
660.449362	2634.774181
660.790958	2638.628143
661.132503	2637.647639
661.473996	2644.186015
661.815438	2639.149903
662.156829	2643.606283
662.498168	2646.066366
662.839456	2649.272540
663.180693	2649.396048
663.521879	2650.313538
663.863013	2651.331851
664.204097	2654.739671
664.545129	2658.041627
664.886110	2666.873728
665.227040	2667.576969
665.567918	2663.725528
665.908746	2670.899090
666.249522	2674.710202
666.590248	2677.152641
666.930922	2679.925276
667.271545	2684.522808
667.612118	2686.337623
667.952639	2685.233611
668.293109	2691.396421
668.633528	2688.099507
668.973896	2687.555062
669.314213	2690.990608
669.654480	2700.268852
669.994695	2694.380784
670.334859	2697.390353
670.674973	2701.340097
671.015035	2702.842361
671.355047	2708.599359
671.695008	2709.277394
672.034918	2709.867209
672.374777	2714.565564
672.714585	2719.876420
673.054342	2720.052860
673.394049	2722.724672
673.733705	2732.164232
674.073310	2736.986096
674.412864	2729.555435
674.752368	2736.799573
675.091820	2738.974831
675.431223	2732.925447
675.770574	2738.810994
676.109875	2735.614902
676.449125	2736.774367
676.788324	2736.930643
677.127473	2737.704460
677.466571	2736.600448
677.805619	2743.816859
678.144616	2749.886409
678.483562	2747.844741
678.822458	2746.468506
679.161303	2750.824063
679.500098	2755.260279
679.838842	2751.640730
680.177535	2758.320259
680.516179	2761.828902
680.854771	2765.035076
681.193314	2776.932199
681.531805	2785.469393
681.870247	2808.325985
682.208638	2822.398366
682.546978	2822.262254
682.885268	2826.350630
683.223508	2822.849549
683.561697	2820.901143
683.899836	2821.616987
684.237925	2821.947182
684.575963	2824.424909
684.913951	2825.110506
685.251889	2843.049452
685.589776	2835.505366
685.927614	2833.977896
686.265401	2853.096472
686.603137	2850.525483
686.940824	2868.416538
687.278460	2873.815614
687.616046	2881.508415
687.953582	2894.373440
688.291068	2895.220353
688.628504	2914.079310
688.965889	2907.367014
689.303224	2903.833165
689.640510	2906.094122
689.977745	2901.247053
690.314930	2889.969992
690.652065	2884.187788
690.989150	2872.152033
691.326185	2869.933926
691.663170	2867.872094
692.000105	2862.478059
692.336990	2848.322499
692.673825	2857.699045
693.010610	2854.155114
693.347345	2836.465705
693.684030	2849.063549
694.020665	2845.118846
694.357251	2828.735096
694.693786	2838.744307
695.030272	2838.749348
695.366707	2839.439986
695.703093	2833.703153
696.039429	2839.954184
696.375716	2848.264526
696.711952	2844.660101
697.048139	2839.707167
697.384276	2841.143896
697.720363	2853.035978
698.056400	2860.131402
698.392388	2855.443129
698.728326	2851.092613
699.064214	2843.561129
699.400053	2850.122191
699.735842	2857.320959
700.071581	2850.722088
700.407270	2850.142356
700.742910	2846.905935
701.078501	2842.081551
701.414042	2847.815863
701.749533	2845.875019
702.084974	2830.260045
702.420366	2847.105061
702.755709	2839.306396
703.091002	2833.889676
703.426246	2849.744105
703.761440	2835.797752
704.096584	2829.501351
704.431679	2842.540296
704.766725	2844.967611
705.101721	2846.454752
705.436668	2857.474714
705.771565	2841.257322
706.106413	2843.873681
706.441212	2868.008205
706.775961	2873.273690
707.110661	2859.319776
707.445311	2864.436548
707.779913	2885.087634
708.114465	2887.562841
708.448967	2888.440002
708.783421	2906.389030
709.117825	2915.987387
709.452180	2919.992583
709.786485	2925.658840
710.120742	2951.494754
710.454949	2946.640123
710.789107	2965.123513
711.123216	2986.177892
711.457275	2980.811584
711.791286	3003.030470
712.125247	3016.863396
712.459159	2982.054228
712.793023	2998.042248
713.126837	3020.523273
713.460602	3019.610825
713.794318	2982.470124
714.127985	2995.514109
714.461602	2992.776763
714.795171	2973.774133
715.128691	2965.990592
715.462162	2961.761064
715.795584	2957.864252
716.128957	2956.079683
716.462281	2932.038421
716.795556	2936.290634
717.128782	2936.590583
717.461960	2925.802513
717.795088	2927.685384
718.128167	2922.626586
718.461198	2902.247722
718.794180	2902.492218
719.127113	2912.191398
719.459997	2908.776016
719.792833	2893.468553
720.125619	2890.811864
720.458357	2888.187944
720.791046	2899.626322
721.123686	2892.694735
721.456278	2879.421377
721.788821	2890.239693
722.121315	2883.978580
722.453761	2872.608258
722.786158	2891.381515
723.118506	2897.075498
723.450805	2875.000285
723.783056	2884.160062
724.115259	2904.387692
724.447412	2903.548340
724.779518	2894.141547
725.111574	2903.805438
725.443582	2913.328178
725.775542	2913.093764
726.107453	2930.324428
726.439315	2932.071188
726.771129	2930.412648
727.102895	2940.131993
727.434612	2964.057309
727.766281	2966.693833
728.097901	2960.803244
728.429473	2965.899851
728.760996	2970.101653
729.092471	2967.293730
729.423897	2973.020481
729.755276	2980.761173
730.086606	2978.684217
730.417887	2984.216883
730.749120	3007.932992
731.080305	3043.089999
731.411442	3045.439176
731.742530	3030.635828
732.073570	3033.826878
732.404562	3059.236814
732.735506	3061.936352
733.066401	3048.428581
733.397249	3030.250180
733.728048	3011.716378
734.058798	3001.934019
734.389501	2982.873416
734.720156	2955.704117
735.050762	2948.530555
735.381320	2959.522791
735.711831	2931.735951
736.042293	2930.478183
736.372707	2943.668363
736.703073	2934.367434
737.033391	2927.158584
737.363661	2938.833896
737.693883	2955.744447
738.024056	2952.084569
738.354182	2947.466872
738.684260	2971.878659
739.014290	2980.030205
739.344272	2973.214565
739.674207	2993.790035
740.004093	2993.361537
740.333931	2991.266937
740.663722	2997.520488
740.993464	3001.210613
741.323159	2991.818943
741.652806	2989.192502
741.982405	2981.933241
742.311956	2975.709936
742.641460	2973.373362
742.970915	2972.181129
743.300323	2958.915332
743.629683	2944.457303
743.958996	2946.100719
744.288260	2942.463527
744.617477	2933.628905
744.946647	2924.461566
745.275768	2924.174221
745.604842	2929.699325
745.933869	2901.393246
746.262847	2902.381313
746.591778	2931.559511
746.920662	2915.720206
747.249498	2898.827299
747.578286	2926.667071
747.907027	2930.740323
748.235720	2918.273550
748.564365	2939.600151
748.892963	2948.374280
749.221514	2936.225099
749.550017	2924.280085
749.878473	2926.258738
750.206881	2920.771442
750.535242	2920.993253
750.863555	2926.536001
751.191821	2922.162800
751.520039	2911.767941
751.848210	2903.250912
752.176334	2924.567431
752.504411	2934.964810
752.832440	2912.408168
753.160421	2903.281158
753.488356	2915.934455
753.816243	2924.474169
754.144082	2899.485170
754.471875	2896.888975
754.799620	2906.409194
755.127318	2903.379461
755.454969	2904.715367
755.782572	2912.186357
756.110129	2899.591034
756.437638	2894.408728
756.765100	2906.053793
757.092515	2915.828590
757.419882	2916.753642
757.747203	2903.119842
758.074477	2902.197310
758.401703	2909.552354
758.728882	2921.883016
759.056014	2928.335693
759.383099	2927.145981
759.710138	2919.042326
760.037129	2928.832247
760.364073	2952.132460
760.690970	2946.352777
761.017820	2931.594799
761.344623	2939.048145
761.671379	2961.980354
761.998088	2988.101093
762.324751	3041.144113
762.651366	3131.128709
762.977935	3299.762867
763.304456	3482.809684
763.630931	3548.445507
763.957359	3404.404618
764.283740	3271.547529
764.610074	3209.170812
764.936362	3134.680202
765.262602	3061.154973
765.588796	3017.571678
765.914943	2982.956595
766.241044	2940.147117
766.567097	2934.748041
766.893104	2912.750966
767.219064	2900.223699
767.544978	2895.041393
767.870845	2862.767926
768.196665	2852.214270
768.522438	2867.743544
768.848165	2868.416538
769.173846	2848.660257
769.499479	2839.563494
769.825066	2833.009994
770.150607	2824.792914
770.476101	2839.772702
770.801548	2842.499967
771.126949	2815.053404
771.452303	2807.098464
771.777611	2816.507777
772.102872	2822.010197
772.428087	2808.073927
772.753256	2804.867753
773.078378	2801.999337
773.403453	2785.353447
773.728482	2777.572426
774.053465	2797.222843
774.378401	2786.268416
774.703291	2769.889707
775.028135	2774.696447
775.352932	2771.200407
775.677683	2768.485746
776.002388	2768.049686
776.327046	2769.796446
776.651658	2764.583893
776.976224	2759.242790
777.300743	2758.915115
777.625216	2754.312542
777.949643	2752.548138
778.274024	2754.244486
778.598359	2748.762231
778.922647	2753.115268
779.246889	2753.659712
779.571086	2742.924575
779.895236	2741.878536
780.219339	2749.946902
780.543397	2757.062491
780.867409	2759.469642
781.191374	2753.188364
781.515294	2751.832294
781.839167	2754.506626
782.162995	2751.282808
782.486776	2757.349837
782.810511	2755.013262
783.134201	2748.555544
783.457844	2756.515526
783.781441	2750.125863
784.104993	2735.244377
784.428498	2738.831158
784.751958	2748.540421
785.075372	2745.059504
785.398739	2736.739079
785.722061	2747.111253
786.045337	2756.253386
786.368568	2741.818042
786.691752	2736.560118
787.014891	2769.781322
787.337983	2783.863786
787.661030	2788.955351
787.984031	2818.935093
788.306987	2845.454083
788.629897	2842.724298
788.952760	2843.354442
789.275579	2838.527537
789.598351	2810.642395
789.921078	2781.968312
790.243759	2786.003755
790.566395	2777.143927
790.888984	2762.398552
791.211529	2752.220463
791.534027	2752.051584
791.856480	2750.536717
792.178888	2737.175139
792.501249	2731.468553
792.823566	2731.692884
793.145836	2732.212123
793.468062	2729.202554
793.790241	2731.221537
794.112375	2735.695561
794.434464	2742.017167
794.756507	2741.623957
795.078505	2743.282497
795.400457	2748.500091
795.722364	2768.531116
796.044226	2779.979577
796.366042	2779.546037
796.687812	2772.362393
797.009538	2791.977523
797.331218	2786.028961
797.652852	2780.660132
797.974442	2769.730911
798.295986	2766.764192
798.617484	2767.994233
798.938938	2759.003335
799.260346	2749.936820
799.581709	2748.643764
799.903026	2746.123187
800.224299	2741.744945
800.545526	2739.209245
800.866708	2727.246587
801.187845	2720.292315
801.508936	2724.305073
801.829983	2733.578276
802.150984	2721.653427
802.471940	2714.121943
802.792851	2712.365101
803.113717	2715.541027
803.434538	2719.861296
803.755314	2718.084290
804.076045	2713.285111
804.396731	2711.762683
804.717372	2709.398382
805.037967	2706.242619
805.358518	2710.081458
805.679024	2720.950186
805.999485	2718.427088
806.319901	2718.759804
806.640272	2712.062631
806.960598	2715.478013
807.280879	2724.199209
807.601115	2725.724158
807.921306	2716.145966
808.241453	2714.658826
808.561554	2721.454301
808.881611	2722.197871
809.201623	2720.740978
809.521590	2722.117213
809.841513	2717.796944
810.161390	2721.146791
810.481223	2721.958416
810.801011	2710.842672
811.120755	2709.350491
811.440453	2715.662015
811.760107	2717.267623
812.079716	2715.704865
812.399281	2706.058617
812.718801	2702.534851
813.038276	2700.087370
813.357707	2709.572301
813.677093	2714.994062
813.996434	2710.744370
814.315731	2706.192208
814.634983	2703.464943
814.954191	2704.374872
815.273354	2716.468600
815.592473	2723.891699
815.911547	2721.625700
816.230577	2728.169118
816.549562	2730.856053
816.868502	2730.777915
817.187399	2739.168916
817.506250	2749.901532
817.825058	2749.382293
818.143821	2754.824219
818.462539	2765.713111
818.781213	2784.342695
819.099843	2805.056796
819.418429	2840.886797
819.736970	2880.492623
820.055466	2924.806885
820.373919	3002.874194
820.692327	3100.327259
821.010691	3199.242260
821.329011	3443.216462
821.647286	3886.023854
821.965517	4565.619283
822.283704	4936.597795
822.601847	4962.612669
822.919945	4707.333680
823.237999	4525.383314
823.556010	4233.170311
823.873976	3923.870316
824.191897	3682.330992
824.509775	3508.300278
824.827609	3333.909123
825.145398	3254.193357
825.463144	3253.704365
825.780845	3312.194353
826.098502	3369.474463
826.416116	3532.215512
826.733685	3709.044066
827.051210	3753.040736
827.368692	3705.979044
827.686129	3559.115109
828.003522	3355.765045
828.320872	3189.540559
828.638177	3060.582802
828.955439	2970.648618
829.272656	2916.821698
829.589830	2871.295037
829.906960	2838.651046
830.224046	2805.641570
830.541088	2787.558951
830.858086	2778.590739
831.175041	2766.242432
831.491952	2767.021291
831.808819	2779.394803
832.125642	2798.009263
832.442421	2824.848366
832.759157	2878.188815
833.075849	2992.943121
833.392497	3179.685103
833.709101	3313.343736
834.025662	3283.777368
834.342179	3180.181657
834.658653	3070.072775
834.975083	2968.682568
835.291469	2906.736869
835.607811	2846.011130
835.924110	2805.354224
836.240366	2772.168309
836.556578	2738.770664
836.872746	2726.356823
837.188871	2708.095243
837.504952	2698.547298
837.820990	2694.849612
838.136984	2681.674556
838.452935	2676.409071
838.768842	2675.196673
839.084706	2687.920546
839.400526	2740.930799
839.716303	2827.056392
840.032037	2880.200236
840.347727	2872.141951
840.663373	2833.584686
840.978977	2787.753036
841.294537	2737.797722
841.610054	2703.162474
841.925527	2688.535566
842.240957	2672.141734
842.556344	2657.552635
842.871687	2646.484782
843.186987	2639.613689
843.502244	2638.187042
843.817458	2631.560446
844.132629	2624.661627
844.447756	2615.441356
844.762840	2610.001951
845.077881	2615.884978
845.392879	2612.923300
845.707833	2612.565378
846.022745	2603.640015
846.337613	2606.528596
846.652438	2605.439707
846.967221	2606.044645
847.281960	2603.675303
847.596656	2604.733945
847.911309	2603.985334
848.225919	2604.030704
848.540485	2601.651280
848.855009	2602.190683
849.169490	2601.653800
849.483928	2601.147164
849.798323	2599.533995
850.112675	2598.853439
850.426984	2597.986361
850.741251	2599.009715
851.055474	2598.765219
851.369654	2600.469129
851.683792	2599.110538
851.997887	2597.000815
852.311938	2600.557349
852.625947	2597.724221
852.939914	2599.526433
853.253837	2601.111876
853.567718	2596.847060
853.881555	2598.503079
854.195350	2602.127669
854.509103	2600.055755
854.822812	2597.870414
855.136479	2598.243460
855.450103	2599.796135
855.763685	2599.965014
856.077224	2598.722369
856.390720	2599.279417
856.704173	2600.217072
857.017584	2603.113214
857.330953	2601.810076
857.644278	2605.500201
857.957561	2604.922989
858.270802	2599.251691
858.584000	2601.210179
858.897155	2605.762341
859.210268	2605.946343
859.523339	2600.756475
859.836367	2596.572317
860.149352	2599.108018
860.462295	2598.760178
860.775195	2595.896803
861.088054	2596.579879
861.400869	2596.388315
861.713642	2590.606112
862.026373	2594.674323
862.339062	2594.286154
862.651708	2602.629264
862.964312	2601.255549
863.276873	2599.735641
863.589392	2600.655652
863.901869	2607.804008
864.214303	2608.706375
864.526696	2611.393310
864.839045	2612.305758
865.151353	2614.692745
865.463619	2615.335492
865.775842	2613.225769
866.088023	2613.752570
866.400162	2617.039402
866.712258	2616.736933
867.024313	2612.272991
867.336325	2610.682507
867.648296	2612.819956
867.960224	2618.650051
868.272110	2616.008486
868.583954	2609.218052
868.895755	2611.665532
869.207515	2617.160390
869.519233	2621.954527
869.830909	2620.167438
870.142542	2612.905656
870.454134	2617.823301
870.765684	2617.634258
871.077191	2624.744806
871.388657	2625.765639
871.700081	2622.922428
872.011463	2621.059722
872.322803	2622.695577
872.634101	2627.593058
872.945357	2630.073305
873.256571	2637.335087
873.567744	2630.859725
873.878874	2632.246042
874.189963	2631.245373
874.501010	2636.931795
874.812015	2644.039822
875.122979	2643.089564
875.433900	2634.827113
875.744780	2634.484315
876.055618	2638.360962
876.366415	2643.664256
876.677169	2643.679379
876.987882	2635.792494
877.298554	2636.404994
877.609183	2643.563433
877.919771	2650.696666
878.230317	2658.016421
878.540822	2663.050013
878.851285	2675.753721
879.161707	2695.273068
879.472087	2728.658110
879.782425	2763.837802
880.092722	2850.475072
880.402977	2991.934890
880.713191	3159.235663
881.023363	3323.683142
881.333494	3430.729524
881.643583	3562.737178
881.953631	3591.713731
882.263637	3479.018736
882.573602	3332.774863
882.883526	3250.193202
883.193408	3178.240813
883.503248	3110.815380
883.813048	3025.128368
884.122806	2939.708536
884.432522	2878.675287
884.742197	2829.249294
885.051831	2800.527320
885.361424	2777.532096
885.670975	2750.375401
885.980485	2725.119220
886.289954	2709.688248
886.599382	2700.717515
886.908768	2693.291895
887.218113	2677.349246
887.527417	2667.617298
887.836680	2662.848367
888.145901	2656.362922
888.455082	2649.118784
888.764221	2640.049749
889.073319	2636.866260
889.382376	2636.992289
889.691392	2635.290899
890.000366	2636.233595
890.309300	2635.563122
890.618193	2637.756024
890.927044	2640.304327
891.235855	2639.533030
891.544625	2637.940026
891.853353	2638.686117
892.162041	2644.354894
892.470687	2661.270486
892.779293	2669.827844
893.087858	2674.780778
893.396381	2691.212419
893.704864	2725.462018
894.013306	2778.457148
894.321707	2849.093796
894.630068	2885.173334
894.938387	2900.362330
895.246665	2900.909296
895.554903	2866.432844
895.863100	2834.618122
896.171256	2790.301339
896.479371	2742.165882
896.787446	2711.538351
897.095480	2696.374561
897.403473	2694.143850
897.711425	2682.511387
898.019336	2666.692247
898.327207	2654.427119
898.635038	2656.491472
898.942827	2654.018786
899.250576	2645.380769
899.558284	2632.997174
899.865952	2633.561784
900.173579	2631.741927
900.481165	2629.803603
900.788711	2621.616770
901.096216	2616.341202
901.403681	2614.208794
901.711105	2613.621500
902.018489	2612.777106
902.325832	2616.648712
902.633135	2618.892026
902.940397	2630.418624
903.247619	2659.765701
903.554800	2712.065152
903.861941	2808.351190
904.169041	2899.409552
904.476101	2942.939916
904.783121	2940.873043
905.090100	2899.336456
905.397039	2842.290759
905.703938	2792.436268
906.010796	2743.408526
906.317614	2700.911599
906.624391	2677.558454
906.931129	2652.435864
907.237826	2636.278966
907.544483	2621.553755
907.851099	2610.203597
908.157675	2601.953749
908.464211	2596.587441
908.770707	2589.595360
909.077163	2584.624783
909.383578	2583.956830
909.689954	2583.220821
909.996289	2580.793506
910.302584	2582.091603
910.608839	2578.288052
910.915054	2579.540779
911.221229	2579.331571
911.527363	2582.830132
911.833458	2580.962384
912.139513	2581.572364
912.445527	2584.236614
912.751502	2585.330544
913.057436	2593.472008
913.363331	2596.184148
913.669186	2604.996085
913.975000	2616.620986
914.280775	2630.718573
914.586510	2643.926396
914.892205	2670.173163
915.197859	2721.061091
915.503475	2787.727830
915.809050	2839.407219
916.114585	2845.683455
916.420081	2852.468848
916.725536	2865.170035
917.030952	2848.362828
917.336328	2813.843527
917.641665	2774.981272
917.946961	2734.399984
918.252218	2708.526262
918.557435	2689.253931
918.862612	2673.109636
919.167750	2657.877789
919.472848	2646.704072
919.777906	2632.563635
920.082925	2623.890330
920.387904	2614.357508
920.692843	2610.924482
920.997743	2606.586569
921.302603	2605.175046
921.607423	2598.578697
921.912204	2595.155753
922.216946	2590.253231
922.521647	2588.317428
922.826310	2583.737540
923.130932	2584.430698
923.435516	2578.230079
923.740059	2575.528021
924.044564	2575.555747
924.349028	2576.581622
924.653454	2567.941084
924.957840	2565.153326
925.262186	2563.020918
925.566493	2565.296999
925.870761	2562.705846
926.174989	2563.938408
926.479178	2561.369940
926.783328	2560.402038
927.087438	2559.124106
927.391509	2560.903633
927.695541	2557.410114
927.999533	2554.985319
928.303486	2556.086811
928.607400	2555.872562
928.911275	2555.431461
929.215110	2555.882644
929.518906	2555.733930
929.822663	2553.798127
930.126381	2553.067160
930.430060	2553.609084
930.733699	2553.483055
931.037299	2556.782490
931.340861	2554.821481
931.644383	2554.834084
931.947866	2556.207798
932.251309	2556.235525
932.554714	2556.447253
932.858080	2555.859959
933.161407	2555.980947
933.464694	2554.282078
933.767943	2553.188147
934.071153	2557.389949
934.374323	2552.651264
934.677455	2554.982798
934.980548	2551.164124
935.283602	2552.447098
935.586617	2555.433981
935.889593	2555.076059
936.192530	2553.699824
936.495428	2552.840308
936.798287	2554.304763
937.101108	2552.686552
937.403890	2555.832232
937.706632	2561.304405
938.009336	2560.863304
938.312002	2563.789694
938.614628	2566.905127
938.917216	2569.004767
939.219765	2571.316137
939.522275	2572.551219
939.824747	2570.829665
940.127179	2564.261042
940.429573	2562.962945
940.731929	2564.739951
941.034246	2559.839950
941.336524	2564.878583
941.638763	2565.065106
941.940964	2561.760629
942.243126	2559.492110
942.545250	2562.131154
942.847335	2559.991184
943.149381	2558.065464
943.451389	2559.681153
943.753359	2556.278375
944.055290	2558.171328
944.357182	2555.247459
944.659036	2553.803168
944.960851	2557.611760
945.262628	2557.331976
945.564367	2555.431461
945.866067	2555.360885
946.167729	2556.444733
946.469352	2554.019938
946.770937	2560.444888
947.072484	2557.150494
947.373992	2555.411296
947.675462	2555.391132
947.976893	2555.330638
948.278286	2554.098076
948.579641	2554.624876
948.880958	2553.220915
949.182236	2554.191337
949.483476	2553.903991
949.784678	2554.045143
950.085841	2553.485575
950.386967	2554.990360
950.688054	2552.709238
950.989103	2553.170503
951.290114	2556.490103
951.591087	2556.374157
951.892021	2559.683674
952.192917	2558.516647
952.493776	2556.623694
952.794596	2558.713252
953.095378	2562.463870
953.396122	2562.103428
953.696828	2559.131668
953.997496	2557.200906
954.298126	2557.208467
954.598718	2556.651420
954.899272	2556.038920
955.199788	2555.764177
955.500266	2553.674619
955.800706	2548.744370
956.101108	2546.185985
956.401472	2546.833773
956.701798	2546.987528
957.002087	2549.167827
957.302337	2548.827549
957.602550	2546.294369
957.902724	2546.128011
958.202861	2541.285983
958.502960	2544.174564
958.803022	2544.739173
959.103045	2545.124822
959.403031	2543.390665
959.702979	2543.957795
960.002889	2541.285983
960.302762	2543.070552
960.602596	2540.202135
960.902393	2542.949564
961.202153	2543.892260
961.501875	2544.126673
961.801559	2542.684903
962.101205	2541.096940
962.400814	2545.308824
962.700385	2541.961498
962.999918	2544.955943
963.299414	2541.646426
963.598873	2542.372352
963.898293	2542.715150
964.197677	2543.113401
964.497022	2541.835469
964.796331	2544.759338
965.095601	2541.863195
965.394835	2544.015768
965.694030	2540.769265
965.993189	2542.745397
966.292309	2539.330015
966.591393	2543.042825
966.890439	2542.120294
967.189447	2542.722712
967.488419	2543.695655
967.787353	2543.796478
968.086249	2540.814635
968.385108	2541.031405
968.683930	2544.116591
968.982714	2542.261446
969.281462	2541.848072
969.580172	2543.788916
969.878844	2541.147351
970.177480	2546.919473
970.476078	2540.597866
970.774639	2542.228679
971.073162	2541.888401
971.371649	2542.543751
971.670098	2538.009233
971.968510	2539.241795
972.266885	2539.755993
972.565223	2544.073741
972.863524	2543.350336
973.161788	2542.647095
973.460014	2543.947712
973.758204	2543.423432
974.056356	2542.629451
974.354471	2543.985521
974.652550	2544.484595
974.950591	2542.528627
975.248595	2540.628113
975.546563	2543.085675
975.844493	2543.468803
976.142386	2541.477547
976.440243	2545.339071
976.738062	2542.324461
977.035845	2543.599873
977.333590	2543.914945
977.631299	2542.258926
977.928971	2542.571477
978.226606	2542.132897
978.524204	2540.010571
978.821765	2542.576518
979.119290	2544.381252
979.416777	2540.731456
979.714228	2539.675334
980.011642	2541.729605
980.309020	2543.748587
980.606360	2544.368649
980.903664	2544.151879
981.200931	2543.592311
981.498162	2544.371169
981.795356	2546.281767
982.092513	2547.479041
982.389633	2548.729247
982.686717	2551.582540
982.983764	2551.776624
983.280775	2556.076728
983.577749	2552.361398
983.874686	2553.069680
984.171587	2552.038764
984.468451	2551.171686
984.765279	2546.954761
985.062070	2546.150697
985.358824	2546.433001
985.655543	2544.033412
985.952224	2541.437218
986.248869	2540.537372
986.545478	2536.234747
986.842050	2538.591486
987.138586	2535.947401
987.435086	2540.844882
987.731549	2536.668286
988.027975	2540.234902
988.324366	2543.330171
988.620719	2540.207176
988.917037	2540.602907
989.213318	2540.517207
989.509563	2539.670293
989.805772	2543.365459
990.101944	2540.829759
990.398080	2540.043339
990.694180	2538.352032
990.990244	2543.317568
991.286271	2540.963349
991.582262	2541.331353
991.878217	2539.138452
992.174136	2540.194573
992.470019	2540.786909
992.765865	2539.211548
993.061676	2538.301620
993.357450	2543.083154
993.653188	2540.875129
993.948890	2542.831097
994.244556	2541.167516
994.540186	2541.888401
994.835780	2541.901004
995.131337	2542.894111
995.426859	2544.446787
995.722345	2542.082485
996.017795	2545.185316
996.313208	2545.444935
996.608586	2540.635674
996.903928	2547.849565
997.199234	2543.793957
997.494504	2544.408978
997.789738	2544.696324
998.084936	2543.892260
998.380099	2541.013761
998.675225	2542.362269
998.970316	2540.958308
999.265371	2542.271529
999.560390	2541.147351
999.855373	2541.434697
1000.150320	2538.135262
1000.445232	2538.566281
1000.740108	2538.029398
1001.034948	2539.385468
1001.329752	2541.898483
1001.624521	2541.676672
1001.919254	2534.724921
1002.213951	2537.610982
1002.508613	2536.761548
1002.803239	2540.388658
1003.097829	2536.335570
1003.392384	2540.330684
1003.686903	2537.482433
1003.981386	2538.762886
1004.275834	2539.670293
1004.570246	2541.510314
1004.864623	2539.589635
1005.158964	2539.340098
1005.453270	2537.928575
1005.747540	2539.816487
1006.041775	2538.034439
1006.335974	2541.384286
1006.630138	2535.839016
1006.924266	2540.015612
1007.218359	2539.519059
1007.512416	2540.978473
1007.806438	2538.659542
1008.100425	2538.127700
1008.394376	2538.596528
1008.688292	2539.362783
1008.982172	2537.938657
1009.276017	2539.912269
1009.569827	2538.679707
1009.863602	2540.771785
1010.157341	2542.674821
1010.451045	2538.924203
1010.744714	2538.029398
1011.038347	2540.030736
1011.331945	2537.051414
1011.625508	2541.414533
1011.919036	2538.162988
1012.212528	2538.321785
1012.505986	2538.115097
1012.799408	2537.855478
1013.092795	2541.835469
1013.386147	2538.689789
1013.679464	2542.586601
1013.972745	2537.537885
1014.265992	2540.555016
1014.559204	2541.008720
1014.852380	2536.615354
1015.145521	2538.092412
1015.438628	2536.166691
1015.731699	2542.349667
1016.024736	2540.083668
1016.317737	2538.775488
1016.610703	2541.860675
1016.903635	2535.022349
1017.196531	2534.671989
1017.489393	2534.835827
1017.782219	2531.629653
1018.075011	2535.914634
1018.367768	2536.756506
1018.660490	2541.175078
1018.953177	2541.175078
1019.245829	2541.175078
