Dividing Wavelength (nm)	Counts (n)	Blue Motor Position (mm): 0.400000	Red Motor Position (mm): 0.000000	
326.493990	2144.428708
326.888308	2144.428708
327.282561	2144.428708
327.676750	2112.808071
328.070874	2108.336567
328.464933	2114.527104
328.858929	2119.220418
329.252859	2128.995216
329.646726	2141.114150
330.040528	2153.583444
330.434265	2171.920641
330.827938	2191.177848
331.221547	2207.601928
331.615091	2222.755636
332.008571	2242.791702
332.401986	2266.245670
332.795338	2284.184616
333.188625	2303.267904
333.581847	2321.864721
333.975006	2340.340550
334.368100	2358.055164
334.761129	2380.150542
335.154095	2393.872562
335.546996	2410.778072
335.939833	2428.011256
336.332606	2438.146496
336.725315	2448.932045
337.117960	2464.504169
337.510540	2468.259828
337.903056	2481.891108
338.295508	2487.068373
338.687896	2497.334683
339.080220	2505.881960
339.472480	2514.678773
339.864676	2515.427384
340.256807	2522.210257
340.648875	2520.801254
341.040879	2524.196472
341.432818	2523.861235
341.824694	2527.899199
342.216506	2526.096987
342.608253	2528.710825
342.999937	2529.106555
343.391557	2528.733510
343.783113	2528.567152
344.174605	2525.736544
344.566033	2525.502130
344.957397	2524.204033
345.348697	2524.224198
345.739934	2521.817047
346.131106	2517.398476
346.522215	2516.236490
346.913260	2514.683814
347.304241	2514.333454
347.695159	2510.111488
348.086012	2509.304903
348.476802	2509.042763
348.867528	2506.733915
349.258191	2506.091168
349.648789	2502.532113
350.039324	2503.550426
350.429796	2502.045642
350.820203	2500.775271
351.210548	2499.590600
351.600828	2498.635301
351.991045	2498.905003
352.381198	2499.598161
352.771288	2498.650424
353.161314	2496.379385
353.551276	2498.368120
353.941175	2496.938953
354.331010	2495.194713
354.720782	2498.839468
355.110490	2496.896103
355.500135	2495.325783
355.889717	2496.767553
356.279235	2495.845022
356.668689	2498.789056
357.058080	2497.450630
357.447408	2493.193375
357.836672	2494.264621
358.225873	2496.981802
358.615010	2493.705052
359.004084	2498.332832
359.393095	2497.627070
359.782043	2500.303923
360.170927	2499.094046
360.559748	2501.723008
360.948505	2500.651763
361.337199	2502.932885
361.725830	2502.706033
362.114398	2503.502535
362.502903	2501.967504
362.891344	2501.919613
363.279722	2504.432628
363.668037	2504.760303
364.056289	2504.959428
364.444478	2503.799963
364.832603	2503.056393
365.220665	2505.881960
365.608665	2507.437156
365.996601	2505.826507
366.384474	2507.038904
366.772284	2507.293483
367.160031	2508.541168
367.547715	2508.558812
367.935336	2509.511590
368.322893	2509.032681
368.710388	2505.095540
369.097820	2510.582836
369.485189	2509.259533
369.872495	2510.406395
370.259738	2508.578977
370.646918	2510.613083
371.034035	2511.701972
371.421090	2512.470748
371.808081	2509.836745
372.195010	2512.349760
372.581875	2511.467558
372.968678	2512.977384
373.355418	2513.811695
373.742096	2513.670542
374.128710	2513.410923
374.515262	2513.234483
374.901751	2512.468227
375.288177	2514.661129
375.674540	2514.494771
376.060841	2513.930162
376.447079	2514.179699
376.833254	2514.257837
377.219367	2507.298524
377.605417	2512.296828
377.991404	2512.208608
378.377329	2514.298166
378.763191	2513.058042
379.148991	2514.116684
379.534727	2514.386386
379.920402	2516.241531
380.306013	2517.527025
380.691563	2516.511233
381.077049	2516.039885
381.462474	2518.988960
381.847835	2519.326717
382.233134	2515.939062
382.618371	2518.137005
383.003545	2516.733043
383.388657	2516.233969
383.773706	2515.087107
384.158693	2515.132477
384.543618	2521.539783
384.928480	2515.750018
385.313280	2521.670853
385.698017	2517.847138
386.082692	2519.843435
386.467305	2515.119874
386.851856	2519.500637
387.236344	2517.148938
387.620770	2521.829650
388.005133	2516.062570
388.389435	2518.850328
388.773674	2520.967612
389.157851	2520.292098
389.541965	2521.837212
389.926018	2520.793693
390.310008	2522.091790
390.693936	2523.021883
391.077802	2520.869310
391.461606	2520.614732
391.845348	2522.545494
392.229027	2521.358302
392.612645	2521.431399
392.996200	2522.479959
393.379694	2522.656399
393.763125	2522.346368
394.146494	2522.570699
394.529801	2523.687315
394.913047	2524.546832
395.296230	2525.789476
395.679351	2522.777387
396.062410	2524.151101
396.445408	2523.959537
396.828343	2523.190761
397.211217	2520.768487
397.594028	2523.258817
397.976778	2517.993332
398.359466	2524.456091
398.742092	2518.994001
399.124656	2526.061698
399.507158	2525.507172
399.889598	2526.142357
400.271977	2526.568334
400.654294	2529.580424
401.036549	2526.228057
401.418742	2526.641431
401.800874	2527.188396
402.182944	2527.692512
402.564952	2526.112110
402.946898	2528.499096
403.328783	2527.546318
403.710606	2528.236956
404.092367	2526.906092
404.474067	2527.858870
404.855705	2528.063037
405.237282	2527.720238
405.618797	2529.247708
406.000250	2527.417769
406.381642	2528.501617
406.762972	2528.937677
407.144240	2530.134951
407.525447	2527.747964
407.906593	2528.685619
408.287677	2528.032790
408.668700	2531.811134
409.049661	2528.622605
409.430560	2527.997502
409.811399	2530.933974
410.192176	2530.949097
410.572891	2528.060516
410.953545	2530.528161
411.334138	2529.414066
411.714669	2533.265507
412.095139	2530.868439
412.475547	2532.191742
412.855894	2530.583613
413.236180	2531.115455
413.616405	2532.219468
413.996568	2531.579241
414.376670	2530.069416
414.756711	2530.956659
415.136691	2532.925229
415.516609	2534.268697
415.896466	2532.864736
416.276262	2534.354397
416.655997	2531.289375
417.035670	2528.748633
417.415283	2531.347348
417.794834	2529.847605
418.174324	2531.571680
418.553753	2532.053110
418.933121	2537.104346
419.312428	2534.563604
419.691674	2531.745599
420.070859	2534.598892
420.449983	2530.944056
420.829045	2533.230219
421.208047	2533.058820
421.586988	2534.404808
421.965867	2535.465971
422.344686	2533.449509
422.723444	2535.697864
423.102141	2532.834489
423.480777	2536.154088
423.859352	2537.152237
424.237866	2536.791794
424.616319	2538.107536
424.994712	2532.615198
425.373044	2535.667617
425.751314	2537.986548
426.129524	2534.208203
426.507673	2537.273225
426.885762	2535.846578
427.263789	2536.116280
427.641756	2536.948070
428.019662	2534.525796
428.397508	2537.091743
428.775292	2537.812628
429.153016	2539.534182
429.530679	2535.289531
429.908282	2537.628626
430.285824	2535.592000
430.663305	2539.231713
431.040726	2537.447144
431.418086	2536.612833
431.795385	2537.305992
432.172624	2536.096115
432.549802	2539.975283
432.926920	2539.025026
433.303977	2537.459747
433.680974	2536.753986
434.057910	2539.088040
434.434786	2539.249357
434.811601	2540.381096
435.188355	2538.798174
435.565050	2537.149716
435.941683	2539.841693
436.318257	2539.188863
436.694770	2532.975641
437.071222	2537.835313
437.447614	2537.386651
437.823946	2536.872453
438.200218	2539.347659
438.576429	2539.738349
438.952580	2541.220448
439.328670	2541.553164
439.704700	2537.900848
440.080670	2540.837320
440.456580	2539.420756
440.832429	2539.819007
441.208218	2540.933102
441.583947	2541.318751
441.959616	2539.924872
442.335224	2540.638195
442.710773	2538.916641
443.086261	2540.728936
443.461689	2542.004347
443.837057	2541.742208
444.212365	2541.739687
444.587612	2541.918648
444.962800	2541.502753
445.337927	2543.488967
445.712995	2540.250026
446.088002	2540.494522
446.462949	2540.751621
446.837837	2544.298073
447.212664	2540.789429
447.587431	2544.116591
447.962139	2543.758669
448.336786	2544.124153
448.711374	2540.393699
449.085901	2542.387475
449.460369	2543.252033
449.834776	2543.728422
450.209124	2541.774975
450.583412	2542.952084
450.957640	2542.952084
451.331808	2541.928730
451.705917	2544.376210
452.079965	2543.622558
452.453954	2541.096940
452.827883	2541.643905
453.201752	2541.641384
453.575562	2543.126004
453.949311	2544.991231
454.323001	2540.519728
454.696632	2543.362938
455.070202	2544.098947
455.443713	2541.354039
455.817164	2542.266487
456.190556	2539.566950
456.563888	2539.922351
456.937160	2540.643236
457.310373	2545.122301
457.683526	2544.678680
458.056619	2544.252702
458.429653	2545.397044
458.802628	2544.988711
459.175542	2546.286808
459.548398	2546.243958
459.921194	2542.851261
460.293930	2545.081972
460.666607	2546.322096
461.039224	2546.246478
461.411782	2543.252033
461.784280	2546.067518
462.156719	2545.712116
462.529099	2546.425439
462.901419	2545.268495
463.273680	2545.530635
463.645882	2545.941489
464.018024	2541.989224
464.390106	2544.824873
464.762130	2548.167158
465.134094	2545.208001
465.505999	2546.629606
465.877845	2545.649102
466.249631	2544.255223
466.621358	2546.248999
466.993026	2547.499205
467.364634	2552.394166
467.736184	2547.466438
468.107674	2547.002652
468.479105	2548.106664
468.850477	2547.589946
469.221790	2548.759494
469.593043	2545.112219
469.964238	2547.186654
470.335373	2546.372507
470.706449	2545.724719
471.077467	2545.225645
471.448425	2547.542055
471.819324	2547.083310
472.190164	2546.516180
472.560945	2549.644216
472.931667	2548.986346
473.302330	2546.133052
473.672934	2546.014585
474.043479	2547.605069
474.413965	2548.353681
474.784393	2542.715150
475.154761	2546.095244
475.525070	2542.815973
475.895321	2543.819163
476.265513	2541.596014
476.635645	2551.360729
477.005719	2548.668753
477.375734	2545.765048
477.745691	2547.325285
478.115588	2547.360573
478.485427	2545.749925
478.855207	2549.929041
479.224928	2546.221273
479.594591	2546.790923
479.964194	2550.125646
480.333739	2545.591128
480.703226	2548.439380
481.072653	2549.505584
481.442022	2545.334030
481.811333	2547.229503
482.180584	2549.044319
482.549777	2546.259081
482.918912	2546.995090
483.287988	2547.332847
483.657005	2548.104144
484.025964	2548.862837
484.394864	2546.284287
484.763706	2549.573640
485.132489	2548.207487
485.501213	2547.688248
485.869879	2546.601880
486.238487	2547.625234
486.607036	2549.165307
486.975527	2548.860317
487.343959	2548.928372
487.712333	2547.786551
488.080648	2548.192364
488.448905	2549.674463
488.817104	2546.306972
489.185244	2547.567261
489.553326	2548.560368
489.921350	2550.460883
490.289315	2548.149514
490.657222	2552.963816
491.025070	2549.283774
491.392861	2551.572458
491.760593	2551.106151
492.128267	2548.714123
492.495883	2548.232693
492.863440	2548.018444
493.230939	2548.635985
493.598380	2551.839639
493.965763	2546.223793
494.333088	2548.628424
494.700354	2548.358722
495.067563	2548.756973
495.434713	2544.555171
495.801805	2552.938610
496.168839	2548.391489
496.535815	2553.641851
496.902733	2550.942313
497.269593	2552.089176
497.636395	2545.777651
498.003139	2552.310987
498.369825	2549.571119
498.736453	2552.126984
499.103023	2551.098589
499.469535	2552.558003
499.835989	2549.253527
500.202385	2551.433826
500.568723	2549.989535
500.935003	2550.201264
501.301226	2550.070194
501.667390	2551.330482
502.033497	2550.163455
502.399546	2552.888199
502.765537	2550.362581
503.131470	2553.230997
503.497345	2553.021789
503.863163	2551.829556
504.228923	2551.632951
504.594625	2552.933569
504.960269	2552.084135
505.325856	2549.455173
505.691385	2550.798640
506.056856	2552.333672
506.422270	2549.187992
506.787625	2550.029864
507.152924	2553.493137
507.518164	2548.320913
507.883347	2550.763352
508.248472	2548.951058
508.613540	2552.772252
508.978550	2550.420554
509.343503	2552.661347
509.708398	2554.806358
510.073236	2553.034392
510.438016	2549.871068
510.802738	2550.314690
511.167403	2552.953734
511.532010	2550.987684
511.896561	2550.586912
512.261053	2549.568599
512.625488	2547.640358
512.989866	2543.481406
513.354186	2548.666232
513.718449	2547.791592
514.082655	2550.125646
514.446803	2549.503064
514.810894	2551.330482
515.174927	2550.037426
515.538904	2548.449463
515.902822	2551.874927
516.266684	2552.215205
516.630488	2551.040616
516.994235	2550.168496
517.357925	2552.598332
517.721558	2552.933569
518.085133	2553.029351
518.448651	2550.176058
518.812112	2554.488765
519.175516	2551.942982
519.538863	2550.508774
519.902152	2550.339895
520.265385	2551.038095
520.628560	2552.880637
520.991678	2554.551779
521.354739	2552.341233
521.717743	2552.966337
522.080690	2552.381563
522.443580	2551.756460
522.806413	2550.954916
523.169189	2553.306614
523.531908	2552.835267
523.894569	2550.329813
524.257174	2551.902653
524.619722	2551.282591
524.982213	2555.176882
525.344647	2550.793599
525.707025	2552.313507
526.069345	2554.178734
526.431608	2553.432643
526.793815	2552.152190
527.155964	2550.846531
527.518057	2552.623538
527.880093	2552.023641
528.242072	2552.419371
528.603995	2554.405586
528.965860	2552.550441
529.327669	2552.626059
529.689421	2552.437015
530.051117	2549.530790
530.412755	2549.674463
530.774337	2552.699155
531.135862	2550.705379
531.497331	2551.922818
531.858743	2547.713454
532.220098	2550.211346
532.581396	2548.187323
532.942638	2547.791592
533.303824	2553.425082
533.664953	2552.782334
534.026025	2554.151008
534.387040	2551.189330
534.747999	2552.189999
535.108902	2552.063970
535.469748	2553.558672
535.830537	2555.786862
536.191270	2551.630431
536.551947	2553.104968
536.912567	2549.934082
537.273131	2553.576316
537.633638	2552.696635
537.994089	2553.248641
538.354483	2551.007848
538.714821	2554.735782
539.075103	2553.092365
539.435328	2553.162942
539.795497	2554.564382
540.155609	2555.784342
540.515665	2552.754608
540.875665	2555.509599
541.235609	2553.745195
541.595496	2553.961964
541.955328	2551.637992
542.315102	2555.151677
542.674821	2555.343241
543.034483	2556.333827
543.394090	2553.026830
543.753640	2554.329969
544.113134	2552.744526
544.472571	2552.694114
544.831953	2551.015410
545.191278	2554.090514
545.550548	2554.513971
545.909761	2551.874927
546.268918	2553.276367
546.628019	2553.246121
546.987064	2555.093703
547.346053	2554.718137
547.704986	2554.145967
548.063863	2554.786193
548.422684	2551.902653
548.781449	2552.162272
549.140158	2551.557334
549.498811	2555.267623
549.857408	2551.484237
550.215949	2551.166645
550.574434	2550.213867
550.932864	2551.874927
551.291237	2550.085317
551.649555	2552.905843
552.007817	2553.389793
552.366022	2553.762839
552.724173	2554.284598
553.082267	2556.197716
553.440305	2553.157900
553.798288	2553.931717
554.156215	2552.116902
554.514086	2551.834597
554.871902	2554.289639
555.229661	2552.895760
555.587365	2551.648075
555.945014	2554.332489
556.302606	2552.862993
556.660143	2553.432643
557.017625	2551.234700
557.375050	2554.395504
557.732421	2552.484906
558.089735	2556.290978
558.446994	2555.600339
558.804197	2553.568754
559.161345	2554.052705
559.518437	2553.173024
559.875474	2553.286450
560.232455	2554.692932
560.589381	2555.620504
560.946251	2558.894733
561.303065	2550.007179
561.659825	2553.944320
562.016528	2553.195709
562.373177	2555.272664
562.729770	2554.035061
563.086307	2556.038920
563.442789	2552.285781
563.799216	2552.868034
564.155587	2549.994576
564.511904	2554.478683
564.868164	2550.997766
565.224370	2553.223435
565.580520	2556.066646
565.936615	2553.838456
566.292654	2552.920966
566.648638	2555.406255
567.004567	2552.633620
567.360441	2552.802499
567.716260	2552.517674
568.072023	2554.650082
568.427732	2547.655481
568.783385	2552.318548
569.138982	2548.451983
569.494525	2550.266799
569.850013	2547.887374
570.205445	2554.208981
570.560823	2551.443908
570.916145	2554.211502
571.271412	2556.139743
571.626625	2553.150339
571.981782	2552.915925
572.336884	2556.056564
572.691931	2553.339382
573.046923	2552.968857
573.401860	2553.364588
573.756743	2552.096737
574.111570	2551.368291
574.466342	2552.769732
574.821059	2553.011707
575.175722	2554.405586
575.530330	2556.520350
575.884882	2555.118909
576.239380	2555.048333
576.593823	2557.843653
576.948211	2553.513302
577.302544	2553.173024
577.656823	2554.473642
578.011047	2555.507078
578.365216	2554.400545
578.719330	2551.149001
579.073389	2557.861297
579.427394	2551.637992
579.781344	2552.825184
580.135239	2554.294681
580.489080	2555.922973
580.842866	2554.430792
581.196597	2556.485062
581.550273	2552.363919
581.903895	2552.560524
582.257463	2552.971378
582.610975	2554.420709
582.964434	2555.428940
583.317837	2556.575803
583.671186	2553.258723
584.024481	2555.403734
584.377721	2555.817109
584.730906	2553.588919
585.084037	2552.416851
585.437113	2555.706204
585.790135	2554.637479
586.143103	2553.568754
586.496016	2553.402396
586.848874	2549.558517
587.201679	2554.176213
587.554428	2552.555483
587.907124	2552.217725
588.259765	2550.218908
588.612352	2552.258054
588.964884	2557.475649
589.317362	2555.128992
589.669786	2554.887016
590.022155	2555.426420
590.374470	2552.709238
590.726731	2556.127140
591.078937	2554.690411
591.431090	2554.874413
591.783188	2552.931048
592.135232	2554.687891
592.487222	2553.911553
592.839157	2556.674105
593.191038	2554.498847
593.542866	2552.316028
593.894639	2553.437684
594.246358	2558.803993
594.598022	2553.155380
594.949633	2553.649413
595.301190	2554.024979
595.652692	2554.405586
596.004141	2553.777962
596.355535	2554.392983
596.706876	2554.312325
597.058162	2556.303580
597.409395	2556.064126
597.760573	2551.622869
598.111698	2553.944320
598.462768	2552.996583
598.813785	2554.665205
599.164748	2557.647048
599.515657	2553.561193
599.866511	2554.375339
600.217312	2555.184444
600.568060	2553.861141
600.918753	2558.937583
601.269392	2556.729558
601.619978	2553.520863
601.970510	2556.706873
602.320988	2553.498178
602.671412	2555.083621
603.021783	2553.808209
603.372100	2554.650082
603.722363	2553.266285
604.072572	2556.515309
604.422728	2556.074208
604.772830	2550.430636
605.122878	2549.656819
605.472872	2551.305276
605.822813	2549.689587
606.172701	2552.222766
606.522534	2552.394166
606.872314	2554.440874
607.222041	2552.684032
607.571714	2555.040771
607.921333	2554.824002
608.270899	2553.951882
608.620411	2556.076728
608.969870	2556.437171
609.319276	2557.006821
609.668627	2561.876576
610.017926	2561.516133
610.367171	2564.737431
610.716362	2558.693087
611.065500	2558.781308
611.414585	2557.274002
611.763616	2555.169321
612.112594	2556.285936
612.461518	2556.870710
612.810389	2555.832232
613.159207	2557.528581
613.507971	2554.801317
613.856682	2557.362223
614.205340	2557.321893
614.553945	2560.323901
614.902496	2555.207129
615.250994	2556.061605
615.599439	2554.327448
615.947830	2554.879454
616.296169	2553.165462
616.644454	2557.120247
616.992686	2556.243087
617.340864	2554.566903
617.688990	2553.992211
618.037063	2556.457336
618.385082	2552.928528
618.733048	2556.885834
619.080961	2553.846018
619.428821	2556.474980
619.776628	2555.839794
620.124382	2556.333827
620.472083	2555.701162
620.819731	2554.390462
621.167326	2553.614125
621.514868	2553.180586
621.862357	2553.793086
622.209793	2551.300235
622.557176	2556.890875
622.904506	2554.675288
623.251783	2553.110009
623.599007	2553.178065
623.946179	2549.198074
624.293297	2551.509443
624.640363	2554.496327
624.987376	2552.487427
625.334336	2556.860628
625.681243	2555.852397
626.028097	2554.740823
626.374899	2555.068498
626.721647	2553.868703
627.068343	2555.071018
627.414987	2554.239228
627.761577	2552.610935
628.108115	2554.672767
628.454600	2552.525236
628.801032	2553.694783
629.147412	2556.106975
629.493739	2559.597974
629.840014	2555.416337
630.186236	2555.809547
630.532405	2554.024979
630.878521	2552.396686
631.224585	2551.758980
631.570597	2554.879454
631.916556	2554.960113
632.262462	2554.521532
632.608316	2553.770401
632.954117	2553.160421
633.299866	2554.766028
633.645562	2554.987839
633.991206	2554.476162
634.336797	2554.385421
634.682336	2555.413817
635.027823	2554.415668
635.373257	2553.810730
635.718639	2552.260575
636.063968	2552.895760
636.409245	2554.151008
636.754470	2555.993549
637.099642	2555.149156
637.444762	2553.730071
637.789829	2553.021789
638.134845	2556.220401
638.479808	2551.706048
638.824719	2555.055895
639.169577	2554.072870
639.514383	2550.498692
639.859137	2552.799978
640.203839	2554.524053
640.548489	2553.954403
640.893086	2551.577499
641.237632	2549.676984
641.582125	2553.077242
641.926566	2548.850234
642.270955	2555.822150
642.615292	2553.682180
642.959576	2553.167983
643.303809	2552.953734
643.647990	2551.965667
643.992118	2551.859803
644.336195	2553.750236
644.680219	2554.755946
645.024192	2554.400545
645.368112	2554.697973
645.711981	2553.019269
646.055797	2553.467931
646.399562	2555.686039
646.743274	2554.110678
647.086935	2553.856100
647.430544	2552.918446
647.774101	2556.512788
648.117606	2554.919784
648.461059	2551.668239
648.804460	2553.604043
649.147810	2552.074052
649.491108	2555.587737
649.834354	2555.139074
650.177548	2554.957592
650.520690	2553.483055
650.863781	2553.278888
651.206820	2552.772252
651.549807	2551.769062
651.892742	2554.236707
652.235626	2556.664023
652.578458	2552.875596
652.921238	2555.673436
653.263967	2554.758467
653.606644	2554.246790
653.949269	2555.063457
654.291843	2554.244269
654.634365	2553.470452
654.976836	2553.112530
655.319255	2553.301573
655.661622	2553.798127
656.003938	2555.214691
656.346203	2554.297201
656.688416	2552.580688
657.030577	2554.975236
657.372687	2552.726882
657.714746	2553.475493
658.056753	2553.578837
658.398708	2549.266130
658.740612	2550.518856
659.082465	2549.750080
659.424266	2551.292673
659.766016	2548.792261
660.107715	2553.170503
660.449362	2553.924156
660.790958	2553.833415
661.132503	2554.140925
661.473996	2555.476831
661.815438	2553.485575
662.156829	2550.596994
662.498168	2554.443395
662.839456	2552.522715
663.180693	2554.423230
663.521879	2554.100596
663.863013	2555.151677
664.204097	2550.211346
664.545129	2551.673281
664.886110	2555.882644
665.227040	2555.686039
665.567918	2552.759649
665.908746	2551.935421
666.249522	2556.406924
666.590248	2550.503733
666.930922	2556.742161
667.271545	2553.498178
667.612118	2551.985832
667.952639	2554.660164
668.293109	2554.211502
668.633528	2555.307952
668.973896	2553.021789
669.314213	2551.963147
669.654480	2553.273847
669.994695	2552.331151
670.334859	2554.367777
670.674973	2554.186296
671.015035	2552.381563
671.355047	2554.188816
671.695008	2552.121943
672.034918	2555.121430
672.374777	2553.253682
672.714585	2552.865513
673.054342	2552.550441
673.394049	2555.219732
673.733705	2555.839794
674.073310	2555.575134
674.412864	2553.175544
674.752368	2553.969526
675.091820	2552.588250
675.431223	2556.157387
675.770574	2554.299722
676.109875	2549.351829
676.449125	2551.721172
676.788324	2548.595656
677.127473	2553.094886
677.466571	2549.558517
677.805619	2552.527756
678.144616	2551.539690
678.483562	2550.269319
678.822458	2551.804351
679.161303	2554.965154
679.500098	2551.789227
679.838842	2553.906512
680.177535	2553.820812
680.516179	2553.213353
680.854771	2553.732592
681.193314	2553.173024
681.531805	2550.874258
681.870247	2552.661347
682.208638	2551.091027
682.546978	2553.230997
682.885268	2552.671429
683.223508	2555.146636
683.561697	2555.834753
683.899836	2554.569423
684.237925	2553.195709
684.575963	2553.876265
684.913951	2549.498023
685.251889	2554.327448
685.589776	2555.242417
685.927614	2553.924156
686.265401	2552.469783
686.603137	2552.111861
686.940824	2551.577499
687.278460	2552.295863
687.616046	2553.863662
687.953582	2552.192519
688.291068	2553.412479
688.628504	2551.451470
688.965889	2550.647406
689.303224	2550.554144
689.640510	2553.798127
689.977745	2553.770401
690.314930	2552.033723
690.652065	2554.168652
690.989150	2552.338713
691.326185	2554.607232
691.663170	2550.849052
692.000105	2551.814433
692.336990	2554.554300
692.673825	2555.065977
693.010610	2553.510781
693.347345	2547.889895
693.684030	2551.360729
694.020665	2551.408620
694.357251	2548.174720
694.693786	2551.532128
695.030272	2550.907025
695.366707	2551.862324
695.703093	2553.825853
696.039429	2553.276367
696.375716	2551.753939
696.711952	2552.739485
697.048139	2551.658157
697.384276	2552.878116
697.720363	2553.336861
698.056400	2551.345606
698.392388	2550.521377
698.728326	2552.056408
699.064214	2554.244269
699.400053	2553.667057
699.735842	2551.723692
700.071581	2548.925852
700.407270	2550.796120
700.742910	2551.479196
701.078501	2553.712427
701.414042	2553.727551
701.749533	2551.925338
702.084974	2550.980122
702.420366	2552.394166
702.755709	2553.160421
703.091002	2549.714792
703.426246	2553.314176
703.761440	2552.106820
704.096584	2553.987170
704.431679	2550.884340
704.766725	2550.975081
705.101721	2551.920297
705.436668	2551.126315
705.771565	2551.506922
706.106413	2555.567572
706.441212	2551.348126
706.775961	2552.920966
707.110661	2552.603373
707.445311	2553.611604
707.779913	2551.335523
708.114465	2553.190668
708.448967	2553.946841
708.783421	2554.990360
709.117825	2553.795606
709.452180	2554.781152
709.786485	2553.689742
710.120742	2552.033723
710.454949	2554.745864
710.789107	2548.900646
711.123216	2546.962322
711.457275	2551.648075
711.791286	2548.827549
712.125247	2550.201264
712.459159	2551.453990
712.793023	2551.267468
713.126837	2552.066491
713.460602	2551.043136
713.794318	2552.653785
714.127985	2552.671429
714.461602	2553.747715
714.795171	2550.168496
715.128691	2551.149001
715.462162	2553.432643
715.795584	2549.364432
716.128957	2551.448949
716.462281	2550.813764
716.795556	2552.268137
717.128782	2550.738147
717.461960	2551.078424
717.795088	2552.573127
718.128167	2552.406768
718.461198	2554.035061
718.794180	2550.831408
719.127113	2550.796120
719.459997	2552.948692
719.792833	2554.123281
720.125619	2554.816440
720.458357	2551.111192
720.791046	2553.538508
721.123686	2548.731767
721.456278	2554.241748
721.788821	2547.499205
722.121315	2554.559341
722.453761	2551.821995
722.786158	2551.577499
723.118506	2549.757642
723.450805	2550.574309
723.783056	2551.043136
724.115259	2549.523228
724.447412	2550.561706
724.779518	2552.641182
725.111574	2551.829556
725.443582	2550.627241
725.775542	2551.804351
726.107453	2549.208156
726.439315	2551.799309
726.771129	2552.883157
727.102895	2548.010882
727.434612	2551.259906
727.766281	2551.224618
728.097901	2548.948537
728.429473	2548.141952
728.760996	2548.313352
729.092471	2546.775800
729.423897	2552.043805
729.755276	2550.183620
730.086606	2549.276212
730.417887	2551.441388
730.749120	2550.725544
731.080305	2553.193188
731.411442	2551.653116
731.742530	2549.828218
732.073570	2552.689073
732.404562	2550.034906
732.735506	2552.260575
733.066401	2552.391645
733.397249	2551.101110
733.728048	2552.943651
734.058798	2552.084135
734.389501	2553.220915
734.720156	2552.295863
735.050762	2550.586912
735.381320	2549.755122
735.711831	2550.917107
736.042293	2551.627910
736.372707	2551.509443
736.703073	2551.983312
737.033391	2553.677139
737.363661	2551.217056
737.693883	2550.544062
738.024056	2553.407438
738.354182	2551.897612
738.684260	2550.617159
739.014290	2551.897612
739.344272	2551.363250
739.674207	2552.003476
740.004093	2553.024310
740.333931	2551.443908
740.663722	2550.780996
740.993464	2548.114226
741.323159	2552.477345
741.652806	2551.411141
741.982405	2548.633465
742.311956	2548.288146
742.641460	2551.753939
742.970915	2556.149825
743.300323	2549.440049
743.629683	2551.091027
743.958996	2551.728733
744.288260	2553.064639
744.617477	2552.568085
744.946647	2549.863506
745.275768	2549.187992
745.604842	2548.328475
745.933869	2549.213197
746.262847	2548.598177
746.591778	2551.706048
746.920662	2550.793599
747.249498	2553.341903
747.578286	2550.642365
747.907027	2552.056408
748.235720	2550.319731
748.564365	2550.854093
748.892963	2550.990204
749.221514	2551.721172
749.550017	2553.626728
749.878473	2551.060780
750.206881	2553.697304
750.535242	2552.978939
750.863555	2552.192519
751.191821	2549.629093
751.520039	2551.116233
751.848210	2551.237221
752.176334	2547.199257
752.504411	2554.060267
752.832440	2551.690925
753.160421	2549.225800
753.488356	2549.331665
753.816243	2550.304607
754.144082	2550.165976
754.471875	2550.440718
754.799620	2549.644216
755.127318	2549.435008
755.454969	2550.750749
755.782572	2552.326110
756.110129	2552.575647
756.437638	2552.472303
756.765100	2550.975081
757.092515	2551.106151
757.419882	2551.464073
757.747203	2551.325441
758.074477	2549.112374
758.401703	2552.109340
758.728882	2551.396017
759.056014	2553.372149
759.383099	2552.689073
759.710138	2548.898125
760.037129	2549.251006
760.364073	2553.021789
760.690970	2548.852755
761.017820	2548.686397
761.344623	2550.044988
761.671379	2551.534649
761.998088	2550.153373
762.324751	2549.543393
762.651366	2545.059287
762.977935	2548.852755
763.304456	2547.163968
763.630931	2549.500543
763.957359	2550.677653
764.283740	2551.063301
764.610074	2550.123126
764.936362	2549.929041
765.262602	2551.426264
765.588796	2550.627241
765.914943	2549.719833
766.241044	2552.709238
766.567097	2548.026006
766.893104	2549.026675
767.219064	2549.258568
767.544978	2550.244113
767.870845	2550.082797
768.196665	2549.568599
768.522438	2550.075235
768.848165	2549.513146
769.173846	2551.383414
769.499479	2553.392314
769.825066	2549.253527
770.150607	2552.119423
770.476101	2549.785368
770.801548	2549.503064
771.126949	2550.823846
771.452303	2553.725030
771.777611	2551.295194
772.102872	2550.423074
772.428087	2549.760163
772.753256	2549.513146
773.078378	2549.934082
773.403453	2551.496840
773.728482	2549.346788
774.053465	2549.354350
774.378401	2550.105482
774.703291	2553.072201
775.028135	2548.583053
775.352932	2549.087169
775.677683	2550.896943
776.002388	2550.838970
776.327046	2549.099772
776.651658	2549.714792
776.976224	2549.636654
777.300743	2550.385266
777.625216	2547.433670
777.949643	2549.722354
778.274024	2552.215205
778.598359	2545.880995
778.922647	2545.840666
779.246889	2547.710934
779.571086	2545.477702
779.895236	2548.814946
780.219339	2551.504402
780.543397	2550.866696
780.867409	2550.329813
781.191374	2550.002138
781.515294	2550.869217
781.839167	2550.052550
782.162995	2549.503064
782.486776	2551.116233
782.810511	2550.060111
783.134201	2550.286963
783.457844	2548.875440
783.781441	2554.743343
784.104993	2549.374514
784.428498	2553.783003
784.751958	2550.498692
785.075372	2547.854607
785.398739	2548.767055
785.722061	2549.039278
786.045337	2546.574153
786.368568	2551.043136
786.691752	2550.743188
787.014891	2551.514484
787.337983	2548.280584
787.661030	2552.210163
787.984031	2549.243444
788.306987	2550.919628
788.629897	2548.446942
788.952760	2550.899463
789.275579	2551.035575
789.598351	2552.769732
789.921078	2550.750749
790.243759	2548.845193
790.566395	2550.927190
790.888984	2550.314690
791.211529	2548.681356
791.534027	2551.290153
791.856480	2552.048847
792.178888	2552.051367
792.501249	2550.128167
792.823566	2550.418033
793.145836	2549.619010
793.468062	2552.500030
793.790241	2552.542880
794.112375	2548.066335
794.434464	2548.918290
794.756507	2549.946685
795.078505	2547.912580
795.400457	2551.748898
795.722364	2545.023999
796.044226	2548.169679
796.366042	2545.016437
796.687812	2545.790254
797.009538	2547.897456
797.331218	2548.699000
797.652852	2549.172868
797.974442	2551.789227
798.295986	2548.497354
798.617484	2550.773435
798.938938	2547.098433
799.260346	2549.036757
799.581709	2549.077086
799.903026	2550.438198
800.224299	2551.648075
800.545526	2546.279246
800.866708	2549.460214
801.187845	2549.699669
801.508936	2547.942827
801.829983	2545.500388
802.150984	2548.925852
802.471940	2548.714123
802.792851	2550.649926
803.113717	2549.130018
803.434538	2549.273691
803.755314	2552.991542
804.076045	2550.415513
804.396731	2549.631613
804.717372	2549.003990
805.037967	2551.373332
805.358518	2549.089689
805.679024	2550.952396
805.999485	2549.913918
806.319901	2548.958619
806.640272	2548.799823
806.960598	2548.588094
807.280879	2547.728578
807.601115	2551.655637
807.921306	2549.140101
808.241453	2550.533980
808.561554	2550.723023
808.881611	2551.194371
809.201623	2549.979453
809.521590	2548.565409
809.841513	2549.666901
810.161390	2549.510626
810.481223	2553.309135
810.801011	2548.376366
811.120755	2549.155224
811.440453	2551.751418
811.760107	2548.827549
812.079716	2545.576005
812.399281	2544.650953
812.718801	2545.926365
813.038276	2544.061138
813.357707	2550.450801
813.677093	2550.400389
813.996434	2547.506767
814.315731	2548.449463
814.634983	2550.191181
814.954191	2547.519370
815.273354	2547.962991
815.592473	2549.876109
815.911547	2548.038609
816.230577	2548.494833
816.549562	2549.765204
816.868502	2546.942158
817.187399	2547.496685
817.506250	2547.960471
817.825058	2549.140101
818.143821	2547.317724
818.462539	2549.734957
818.781213	2549.324103
819.099843	2549.639175
819.418429	2548.754453
819.736970	2550.044988
820.055466	2550.171017
820.373919	2546.985007
820.692327	2551.511964
821.010691	2550.317210
821.329011	2548.555327
821.647286	2550.876778
821.965517	2549.182951
822.283704	2545.956612
822.601847	2551.113712
822.919945	2548.600697
823.237999	2548.956099
823.556010	2550.072714
823.873976	2546.823691
824.191897	2548.358722
824.509775	2548.656150
824.827609	2549.281253
825.145398	2546.979966
825.463144	2548.061294
825.780845	2546.622044
826.098502	2547.655481
826.416116	2547.438711
826.733685	2548.877961
827.051210	2545.603731
827.368692	2549.185471
827.686129	2547.002652
828.003522	2548.893084
828.320872	2543.617517
828.638177	2545.374359
828.955439	2544.028371
829.272656	2546.596839
829.589830	2543.700696
829.906960	2550.599515
830.224046	2550.188661
830.541088	2546.475851
830.858086	2548.431819
831.175041	2549.273691
831.491952	2548.862837
831.808819	2549.666901
832.125642	2548.043650
832.442421	2544.290511
832.759157	2550.160934
833.075849	2550.203784
833.392497	2549.354350
833.709101	2551.028013
834.025662	2547.209339
834.342179	2550.977601
834.658653	2547.022816
834.975083	2547.544576
835.291469	2552.666388
835.607811	2549.881150
835.924110	2546.196067
836.240366	2544.895449
836.556578	2549.175389
836.872746	2549.344267
837.188871	2550.297046
837.504952	2549.374514
837.820990	2549.619010
838.136984	2548.124308
838.452935	2548.653629
838.768842	2549.840821
839.084706	2549.830739
839.400526	2547.174051
839.716303	2548.353681
840.032037	2546.375028
840.347727	2548.083979
840.663373	2547.965512
840.978977	2547.698331
841.294537	2548.439380
841.610054	2547.453835
841.925527	2548.532642
842.240957	2547.658002
842.556344	2549.377035
842.871687	2547.821839
843.186987	2549.364432
843.502244	2546.150697
843.817458	2549.888712
844.132629	2547.393341
844.447756	2548.194884
844.762840	2542.876467
845.077881	2544.608103
845.392879	2545.883515
845.707833	2545.802857
846.022745	2542.654656
846.337613	2546.228834
846.652438	2546.785882
846.967221	2547.675646
847.281960	2544.827394
847.596656	2547.698331
847.911309	2544.837476
848.225919	2549.021634
848.540485	2547.277394
848.855009	2546.838814
849.169490	2548.192364
849.483928	2546.566592
849.798323	2545.505429
850.112675	2547.806716
850.426984	2548.998948
850.741251	2549.341747
851.055474	2548.010882
851.369654	2547.620193
851.683792	2548.686397
851.997887	2548.688917
852.311938	2549.339226
852.625947	2548.457024
852.939914	2547.302600
853.253837	2548.164637
853.567718	2546.473330
853.881555	2548.575492
854.195350	2545.439894
854.509103	2551.091027
854.822812	2545.142466
855.136479	2551.257385
855.450103	2547.015254
855.763685	2548.227652
856.077224	2549.011551
856.390720	2548.635985
856.704173	2545.961653
857.017584	2549.505584
857.330953	2546.732950
857.644278	2549.523228
857.957561	2552.429454
858.270802	2547.947868
858.584000	2550.269319
858.897155	2547.005172
859.210268	2546.155738
859.523339	2548.966181
859.836367	2547.511808
860.149352	2548.590615
860.462295	2545.760007
860.775195	2545.749925
861.088054	2543.526776
861.400869	2546.856458
861.713642	2545.525593
862.026373	2550.823846
862.339062	2544.434184
862.651708	2549.891233
862.964312	2547.146324
863.276873	2545.538196
863.589392	2547.786551
863.901869	2548.162117
864.214303	2549.092210
864.526696	2547.978115
864.839045	2546.564071
865.151353	2546.851417
865.463619	2545.989380
865.775842	2547.148845
866.088023	2546.284287
866.400162	2549.384597
866.712258	2547.534493
867.024313	2546.216232
867.336325	2545.374359
867.648296	2546.153217
867.960224	2547.821839
868.272110	2544.807229
868.583954	2548.693959
868.895755	2548.336037
869.207515	2548.441901
869.519233	2548.867878
869.830909	2547.494164
870.142542	2547.526932
870.454134	2545.901159
870.765684	2548.154555
871.077191	2547.617672
871.388657	2547.068187
871.700081	2548.383928
872.011463	2546.460727
872.322803	2548.336037
872.634101	2543.166333
872.945357	2547.312683
873.256571	2547.458876
873.567744	2546.642209
873.878874	2546.732950
874.189963	2545.709596
874.501010	2545.565923
874.812015	2546.576674
875.122979	2545.981818
875.433900	2545.717157
875.744780	2548.787220
876.055618	2543.700696
876.366415	2546.319575
876.677169	2548.827549
876.987882	2545.578526
877.298554	2545.533155
877.609183	2544.396375
877.919771	2541.361600
878.230317	2544.081303
878.540822	2547.892415
878.851285	2548.804864
879.161707	2546.657332
879.472087	2547.542055
879.782425	2546.029709
880.092722	2547.330327
880.402977	2547.100954
880.713191	2549.613969
881.023363	2548.701520
881.333494	2548.678835
881.643583	2545.233207
881.953631	2547.899977
882.263637	2547.405944
882.573602	2545.129863
882.883526	2546.279246
883.193408	2547.872251
883.503248	2547.889895
883.813048	2546.037271
884.122806	2549.669422
884.432522	2548.872920
884.742197	2549.152704
885.051831	2547.295038
885.361424	2544.610624
885.670975	2548.053732
885.980485	2544.824873
886.289954	2546.919472
886.599382	2544.555171
886.908768	2547.221942
887.218113	2545.936447
887.527417	2548.998948
887.836680	2546.997610
888.145901	2548.570450
888.455082	2547.224462
888.764221	2547.693290
889.073319	2546.395193
889.382376	2547.388300
889.691392	2547.932744
890.000366	2545.664225
890.309300	2546.899308
890.618193	2549.064483
890.927044	2548.552806
891.235855	2547.547096
891.544625	2546.851417
891.853353	2545.686910
892.162041	2545.906201
892.470687	2547.884853
892.779293	2544.497198
893.087858	2545.419729
893.396381	2541.593493
893.704864	2544.771941
894.013306	2540.479398
894.321707	2548.512477
894.630068	2546.899308
894.938387	2547.292518
895.246665	2546.952240
895.554903	2547.345450
895.863100	2546.208670
896.171256	2543.693134
896.479371	2546.758156
896.787446	2548.288146
897.095480	2544.744215
897.403473	2544.923176
897.711425	2545.681869
898.019336	2546.551468
898.327207	2547.305121
898.635038	2546.168341
898.942827	2548.099103
899.250576	2547.310162
899.558284	2545.581046
899.865952	2548.457024
900.173579	2545.656663
900.481165	2547.317724
900.788711	2545.702034
901.096216	2546.077600
901.403681	2543.579708
901.711105	2548.522559
902.018489	2546.097764
902.325832	2549.480379
902.633135	2546.070038
902.940397	2545.185316
903.247619	2545.840666
903.554800	2545.865871
903.861941	2546.934596
904.169041	2547.940306
904.476101	2546.962322
904.783121	2548.099103
905.090100	2547.867209
905.397039	2546.712785
905.703938	2544.487116
906.010796	2544.880326
906.317614	2543.007537
906.624391	2548.409133
906.931129	2543.927548
907.237826	2548.784699
907.544483	2545.104657
907.851099	2547.000131
908.157675	2544.514842
908.464211	2546.707744
908.770707	2540.923020
909.077163	2544.625748
909.383578	2541.742207
909.689954	2543.554502
909.996289	2542.818494
910.302584	2546.107847
910.608839	2546.911911
910.915054	2546.259081
911.221229	2547.847045
911.527363	2548.086500
911.833458	2547.242106
912.139513	2544.429142
912.445527	2547.917621
912.751502	2547.216901
913.057436	2546.438042
913.363331	2545.026519
913.669186	2543.680531
913.975000	2546.896787
914.280775	2543.945192
914.586510	2544.706406
914.892205	2545.419729
915.197859	2545.328988
915.503475	2546.566592
915.809050	2547.658002
916.114585	2546.407795
916.420081	2543.670449
916.725536	2547.791592
917.030952	2546.518701
917.336328	2546.785882
917.641665	2545.931406
917.946961	2547.844524
918.252218	2544.411498
918.557435	2546.730429
918.862612	2546.987528
919.167750	2546.732950
919.472848	2546.029709
919.777906	2543.960315
920.082925	2547.131201
920.387904	2545.921324
920.692843	2545.858310
920.997743	2546.470810
921.302603	2545.321427
921.607423	2546.392672
921.912204	2542.881508
922.216946	2543.297403
922.521647	2547.421067
922.826310	2544.955943
923.130932	2544.625747
923.435516	2544.550130
923.740059	2547.617672
924.044564	2545.087013
924.349028	2548.020965
924.653454	2543.352856
924.957840	2543.867054
925.262186	2543.425953
925.566493	2542.924358
925.870761	2540.053421
926.174989	2546.473330
926.479178	2547.272353
926.783328	2546.644730
927.087438	2546.395193
927.391509	2545.356715
927.695541	2546.070038
927.999533	2544.860161
928.303486	2544.088865
928.607400	2545.949050
928.911275	2544.787064
929.215110	2546.110367
929.518906	2545.946530
929.822663	2545.644061
930.126381	2542.291693
930.430060	2548.988866
930.733699	2547.857127
931.037299	2546.808567
931.340861	2543.418391
931.644383	2543.423432
931.947866	2544.882846
932.251309	2546.367466
932.554714	2543.506611
932.858080	2546.369987
933.161407	2545.865871
933.464694	2543.410829
933.767943	2546.546427
934.071153	2544.502239
934.374323	2543.776313
934.677455	2547.554658
934.980548	2546.753114
935.283602	2544.930737
935.586617	2547.574822
935.889593	2545.792775
936.192530	2544.303114
936.495428	2545.208001
936.798287	2544.414019
937.101108	2545.714637
937.403890	2545.409647
937.706632	2544.618186
938.009336	2545.258412
938.312002	2546.314534
938.614628	2547.768907
938.917216	2543.821683
939.219765	2544.933258
939.522275	2548.772097
939.824747	2545.361756
940.127179	2541.517876
940.429573	2540.388658
940.731929	2542.256405
941.034246	2542.755479
941.336524	2543.448638
941.638763	2547.010213
941.940964	2545.540717
942.243126	2545.641540
942.545250	2544.519883
942.847335	2543.138607
943.149381	2544.993752
943.451389	2542.357228
943.753359	2544.194729
944.055290	2544.053577
944.357182	2545.170192
944.659036	2544.363607
944.960851	2542.236241
945.262628	2545.555840
945.564367	2546.417878
945.866067	2544.214893
946.167729	2545.646581
946.469352	2545.361756
946.770937	2545.089534
947.072484	2544.103988
947.373992	2545.359235
947.675462	2544.787064
947.976893	2546.417878
948.278286	2542.505942
948.579641	2544.474513
948.880958	2545.510470
949.182236	2546.070038
949.483476	2543.617517
949.784678	2544.514842
950.085841	2546.185985
950.386967	2547.952909
950.688054	2542.684903
950.989103	2543.070552
951.290114	2544.655994
951.591087	2546.692621
951.892021	2543.204142
952.192917	2545.901159
952.493776	2544.368649
952.794596	2547.128680
953.095378	2546.037271
953.396122	2545.911242
953.696828	2544.088865
953.997496	2544.403937
954.298126	2546.241437
954.598718	2547.602549
954.899272	2544.224976
955.199788	2543.352856
955.500266	2544.829914
955.800706	2542.899152
956.101108	2540.696168
956.401472	2539.428318
956.701798	2538.664583
957.002087	2540.565098
957.302337	2546.090203
957.602550	2544.320758
957.902724	2543.277239
958.202861	2547.083310
958.502960	2543.894780
958.803022	2545.833104
959.103045	2541.946374
959.403031	2545.800336
959.702979	2543.347815
960.002889	2546.382590
960.302762	2547.426108
960.602596	2546.674977
960.902393	2545.457538
961.202153	2546.357384
961.501875	2542.871426
961.801559	2546.468289
962.101205	2546.034750
962.400814	2544.693803
962.700385	2544.224976
962.999918	2545.255892
963.299414	2542.848741
963.598873	2545.213042
963.898293	2544.913093
964.197677	2545.646581
964.497022	2545.127342
964.796331	2543.620037
965.095601	2544.640871
965.394835	2544.966025
965.694030	2543.821683
965.993189	2545.918803
966.292309	2543.337733
966.591393	2544.920655
966.890439	2541.197763
967.189447	2545.444935
967.488419	2541.989224
967.787353	2541.482588
968.086249	2544.237579
968.385108	2544.338402
968.683930	2544.431663
968.982714	2543.758669
969.281462	2543.821683
969.580172	2547.927703
969.878844	2542.460572
970.177480	2543.065510
970.476078	2545.092054
970.774639	2544.250182
971.073162	2545.258412
971.371649	2541.843031
971.670098	2538.621733
971.968510	2542.571477
972.266885	2537.424459
972.565223	2545.543237
972.863524	2542.440407
973.161788	2545.787733
973.460014	2544.282949
973.758204	2543.262115
974.056356	2545.089534
974.354471	2546.773279
974.652550	2544.540048
974.950591	2544.219935
975.248595	2545.686910
975.546563	2546.417878
975.844493	2543.360418
976.142386	2545.941489
976.440243	2544.882846
976.738062	2543.035263
977.035845	2543.854451
977.333590	2543.499050
977.631299	2542.924358
977.928971	2545.512991
978.226606	2544.398896
978.524204	2545.328988
978.821765	2543.708257
979.119290	2546.115408
979.416777	2542.571477
979.714228	2544.028371
980.011642	2543.746066
980.309020	2545.560882
980.606360	2542.498381
980.903664	2545.202960
981.200931	2542.155582
981.498162	2543.254554
981.795356	2541.812784
982.092513	2544.540048
982.389633	2542.468134
982.686717	2542.437887
982.983764	2542.957126
983.280775	2543.249512
983.577749	2545.334030
983.874686	2545.079451
984.171587	2543.887218
984.468451	2542.213555
984.765279	2543.562064
985.062070	2544.890408
985.358824	2542.389996
985.655543	2542.684903
985.952224	2545.707075
986.248869	2545.901159
986.545478	2538.558719
986.842050	2542.011909
987.138586	2540.048380
987.435086	2541.159954
987.731549	2540.078627
988.027975	2542.016950
988.324366	2543.990562
988.620719	2544.673638
988.917037	2543.231868
989.213318	2542.117773
989.509563	2539.763555
989.805772	2544.124153
990.101944	2544.933258
990.398080	2541.981662
990.694180	2542.216076
990.990244	2545.439894
991.286271	2542.072403
991.582262	2545.550799
991.878217	2543.186498
992.174136	2542.258926
992.470019	2544.779503
992.765865	2544.197249
993.061676	2546.783361
993.357450	2544.713968
993.653188	2543.332692
993.948890	2543.564585
994.244556	2543.451159
994.540186	2542.942002
994.835780	2540.885211
995.131337	2542.936961
995.426859	2544.497198
995.722345	2543.073072
996.017795	2542.677342
996.313208	2545.490305
996.608586	2541.621220
996.903928	2545.409647
997.199234	2542.911755
997.494504	2545.129863
997.789738	2543.534338
998.084936	2545.074410
998.380099	2544.351005
998.675225	2545.197918
998.970316	2544.784544
999.265371	2540.527289
999.560390	2544.998793
999.855373	2542.500901
1000.150320	2542.659697
1000.445232	2543.163813
1000.740108	2542.911755
1001.034948	2544.756817
1001.329752	2544.222455
1001.624521	2543.302445
1001.919254	2540.093750
1002.213951	2540.827238
1002.508613	2543.778834
1002.803239	2542.899152
1003.097829	2536.874973
1003.392384	2544.955943
1003.686903	2541.354039
1003.981386	2546.967363
1004.275834	2542.505942
1004.570246	2543.932589
1004.864623	2546.228834
1005.158964	2540.983514
1005.453270	2542.316899
1005.747540	2544.177085
1006.041775	2543.138607
1006.335974	2543.952753
1006.630138	2543.700696
1006.924266	2542.001827
1007.218359	2543.219266
1007.512416	2544.119112
1007.806438	2543.010058
1008.100425	2547.615152
1008.394376	2545.177754
1008.688292	2544.726571
1008.982172	2541.893442
1009.276017	2546.082641
1009.569827	2541.447300
1009.863602	2546.642209
1010.157341	2545.709596
1010.451045	2541.744728
1010.744714	2545.041643
1011.038347	2544.792106
1011.331945	2543.320089
1011.625508	2544.023330
1011.919036	2539.463606
1012.212528	2544.779503
1012.505986	2541.878319
1012.799408	2544.071221
1013.092795	2538.858667
1013.386147	2543.526776
1013.679464	2541.616179
1013.972745	2542.637012
1014.265992	2541.921168
1014.559204	2546.281767
1014.852380	2542.727753
1015.145521	2542.619368
1015.438628	2542.289173
1015.731699	2541.933771
1016.024736	2539.635005
1016.317737	2543.630120
1016.610703	2545.318906
1016.903635	2537.353883
1017.196531	2540.033256
1017.489393	2541.714481
1017.782219	2538.752803
1018.075011	2540.232382
1018.367768	2544.507280
1018.660490	2542.024512
1018.953177	2542.024512
1019.245829	2542.024512
