Dividing Wavelength (nm)	Counts (n)	Blue Motor Position (mm): 22.100000	Red Motor Position (mm): 0.000000	
326.493990	2132.261883
326.888308	2132.261883
327.282561	2132.261883
327.676750	2102.997985
328.070874	2100.933633
328.464933	2102.811463
328.858929	2111.139449
329.252859	2119.061622
329.646726	2129.244753
330.040528	2143.518780
330.434265	2160.966213
330.827938	2176.162772
331.221547	2194.925946
331.615091	2212.413709
332.008571	2232.711915
332.401986	2249.536766
332.795338	2274.344284
333.188625	2293.664506
333.581847	2312.578915
333.975006	2328.587099
334.368100	2350.107785
334.761129	2362.574559
335.154095	2380.402599
335.546996	2399.906823
335.939833	2424.704259
336.332606	2439.333688
336.725315	2451.150152
337.117960	2459.881431
337.510540	2468.501804
337.903056	2481.366828
338.295508	2487.378404
338.687896	2497.659838
339.080220	2505.314830
339.472480	2510.514780
339.864676	2514.061232
340.256807	2518.184896
340.648875	2523.861235
341.040879	2526.217974
341.432818	2529.993798
341.824694	2530.442461
342.216506	2533.237781
342.608253	2531.032276
342.999937	2527.737882
343.391557	2529.361134
343.783113	2526.401976
344.174605	2527.712676
344.566033	2525.802079
344.957397	2523.223529
345.348697	2521.756553
345.739934	2516.871675
346.131106	2519.049453
346.522215	2514.986283
346.913260	2512.256499
347.304241	2513.252127
347.695159	2511.293638
348.086012	2510.018226
348.476802	2506.968328
348.867528	2505.650067
349.258191	2505.687875
349.648789	2506.181908
350.039324	2503.036228
350.429796	2500.238388
350.820203	2498.489108
351.210548	2496.500372
351.600828	2497.480877
351.991045	2499.651093
352.381198	2495.197234
352.771288	2497.901813
353.161314	2495.134220
353.551276	2498.060609
353.941175	2494.713283
354.331010	2491.915443
354.720782	2495.754282
355.110490	2494.201606
355.500135	2494.602378
355.889717	2496.535660
356.279235	2495.151864
356.668689	2496.535660
357.058080	2494.884683
357.447408	2495.010711
357.836672	2493.636997
358.225873	2494.912409
358.615010	2489.924187
359.004084	2499.000785
359.393095	2497.972389
359.782043	2500.208141
360.170927	2501.148316
360.559748	2499.875425
360.948505	2499.830054
361.337199	2500.097236
361.725830	2503.623523
362.114398	2502.988337
362.502903	2501.725528
362.891344	2500.747544
363.279722	2502.723677
363.668037	2503.792401
364.056289	2502.418687
364.444478	2505.367762
364.832603	2507.512773
365.220665	2505.980262
365.608665	2505.491270
365.996601	2509.667866
366.384474	2505.382885
366.772284	2506.277690
367.160031	2507.616117
367.547715	2507.968997
367.935336	2508.175685
368.322893	2508.190808
368.710388	2508.382372
369.097820	2510.759276
369.485189	2508.150479
369.872495	2510.471930
370.259738	2510.108967
370.646918	2508.566374
371.034035	2511.674245
371.421090	2509.715757
371.808081	2507.835407
372.195010	2512.082579
372.581875	2508.576456
372.968678	2512.241375
373.355418	2510.081241
373.742096	2511.923783
374.128710	2511.192815
374.515262	2510.103926
374.901751	2514.696417
375.288177	2512.768176
375.674540	2513.736077
376.060841	2513.645337
376.447079	2514.741788
376.833254	2512.768176
377.219367	2509.511590
377.605417	2513.103412
377.991404	2508.836076
378.377329	2509.504029
378.763191	2509.088133
379.148991	2514.988804
379.534727	2515.608866
379.920402	2515.016530
380.306013	2516.347395
380.691563	2517.597601
381.077049	2513.438649
381.462474	2518.056346
381.847835	2516.584329
382.233134	2515.964267
382.618371	2514.396468
383.003545	2519.777900
383.388657	2517.461490
383.773706	2516.733043
384.158693	2518.084072
384.543618	2517.781603
384.928480	2516.017199
385.313280	2517.234638
385.698017	2517.592560
386.082692	2518.081552
386.467305	2519.094824
386.851856	2520.644979
387.236344	2520.408044
387.620770	2518.472241
388.005133	2517.128774
388.389435	2520.748322
388.773674	2518.366377
389.157851	2519.097344
389.541965	2517.779083
389.926018	2518.963754
390.310008	2520.466018
390.693936	2522.275792
391.077802	2519.452746
391.461606	2521.018024
391.845348	2523.319311
392.229027	2521.698580
392.612645	2520.581964
392.996200	2525.091276
393.379694	2523.919208
393.763125	2524.440968
394.146494	2523.720082
394.529801	2524.501461
394.913047	2523.858714
395.296230	2523.019362
395.679351	2524.627490
396.062410	2524.430885
396.445408	2522.106913
396.828343	2526.341482
397.211217	2522.290915
397.594028	2520.428209
397.976778	2522.154804
398.359466	2522.696728
398.742092	2520.599608
399.124656	2523.193282
399.507158	2524.992974
399.889598	2526.457429
400.271977	2526.379291
400.654294	2529.305681
401.036549	2525.761750
401.418742	2528.121010
401.800874	2526.608664
402.182944	2526.941380
402.564952	2526.439785
402.946898	2527.223684
403.328783	2529.013294
403.710606	2527.982378
404.092367	2529.373737
404.474067	2528.141174
404.855705	2527.705115
405.237282	2526.883407
405.618797	2530.263500
406.000250	2529.953469
406.381642	2528.746113
406.762972	2526.961544
407.144240	2529.177132
407.525447	2529.943387
407.906593	2530.540764
408.287677	2528.380629
408.668700	2530.281144
409.049661	2528.146216
409.430560	2530.376926
409.811399	2530.107224
410.192176	2531.521268
410.572891	2530.785260
410.953545	2530.092101
411.334138	2530.220650
411.714669	2531.107893
412.095139	2530.497914
412.475547	2530.001360
412.855894	2531.390198
413.236180	2528.920033
413.616405	2533.457071
413.996568	2531.460774
414.376670	2533.562935
414.756711	2531.846422
415.136691	2529.983716
415.516609	2534.344314
415.896466	2534.548481
416.276262	2531.632173
416.655997	2531.390198
417.035670	2527.523633
417.415283	2532.101001
417.794834	2528.254600
418.174324	2533.212575
418.553753	2533.560415
418.933121	2533.260466
419.312428	2535.957483
419.691674	2533.094108
420.070859	2536.365817
420.449983	2534.775333
420.829045	2535.571835
421.208047	2534.334232
421.586988	2535.493697
421.965867	2533.963707
422.344686	2534.409849
422.723444	2535.740714
423.102141	2536.741383
423.480777	2537.358924
423.859352	2537.227854
424.237866	2537.318595
424.616319	2535.231557
424.994712	2537.459747
425.373044	2537.547968
425.751314	2537.989068
426.129524	2533.099149
426.507673	2535.914634
426.885762	2535.803728
427.263789	2540.313040
427.641756	2536.857329
428.019662	2537.003523
428.397508	2539.077958
428.775292	2537.880684
429.153016	2538.193235
429.530679	2539.294727
429.908282	2538.036959
430.285824	2540.131559
430.663305	2539.481250
431.040726	2537.580735
431.418086	2537.923533
431.795385	2540.136600
432.172624	2541.729605
432.549802	2537.593338
432.926920	2539.834131
433.303977	2542.334543
433.680974	2540.270191
434.057910	2539.103163
434.434786	2543.529297
434.811601	2543.100798
435.188355	2542.427804
435.565050	2542.082485
435.941683	2541.149872
436.318257	2537.530323
436.694770	2537.797505
437.071222	2537.454706
437.447614	2537.268183
437.823946	2539.753472
438.200218	2541.129707
438.576429	2541.767413
438.952580	2542.339584
439.328670	2541.878319
439.704700	2542.435366
440.080670	2543.060469
440.456580	2540.721374
440.832429	2543.592311
441.208218	2540.227341
441.583947	2544.834955
441.959616	2541.976621
442.335224	2541.699358
442.710773	2542.808412
443.086261	2541.953936
443.461689	2542.286652
443.837057	2543.050387
444.212365	2544.230017
444.587612	2543.773793
444.962800	2542.420243
445.337927	2542.994934
445.712995	2544.381252
446.088002	2545.747404
446.462949	2545.399565
446.837837	2544.313196
447.212664	2544.028371
447.587431	2545.639019
447.962139	2543.138607
448.336786	2546.518701
448.711374	2545.190357
449.085901	2546.052394
449.460369	2542.188350
449.834776	2545.490305
450.209124	2545.875954
450.583412	2550.959957
450.957640	2543.252033
451.331808	2545.921324
451.705917	2545.880995
452.079965	2544.829914
452.453954	2545.134904
452.827883	2545.202960
453.201752	2545.596170
453.575562	2548.888043
453.949311	2547.675646
454.323001	2548.676315
454.696632	2547.753783
455.070202	2549.344267
455.443713	2548.898125
455.817164	2545.059287
456.190556	2545.772610
456.563888	2547.562220
456.937160	2544.310675
457.310373	2550.254196
457.683526	2548.404092
458.056619	2550.866696
458.429653	2550.566747
458.802628	2550.702858
459.175542	2552.048847
459.548398	2551.136398
459.921194	2551.138918
460.293930	2553.389793
460.666607	2554.256872
461.039224	2552.550441
461.411782	2553.167983
461.784280	2553.765359
462.156719	2554.929866
462.529099	2552.895760
462.901419	2552.754608
463.273680	2554.206460
463.645882	2552.099258
464.018024	2556.472459
464.390106	2557.596636
464.762130	2556.283416
465.134094	2558.705690
465.505999	2560.931360
465.877845	2560.593602
466.249631	2564.992009
466.621358	2559.358520
466.993026	2563.819941
467.364634	2567.230281
467.736184	2563.583007
468.107674	2568.712381
468.479105	2567.696588
468.850477	2567.671382
469.221790	2566.990827
469.593043	2570.968297
469.964238	2571.600962
470.335373	2575.102043
470.706449	2576.992476
471.077467	2577.741087
471.448425	2588.125864
471.819324	2594.545773
472.190164	2601.656321
472.560945	2597.517534
472.931667	2595.836309
473.302330	2595.448140
473.672934	2599.559201
474.043479	2609.906169
474.413965	2611.917590
474.784393	2611.055552
475.154761	2619.585185
475.525070	2625.443005
475.895321	2629.264200
476.265513	2636.314254
476.635645	2648.997797
477.005719	2658.719662
477.375734	2670.407577
477.745691	2679.453928
478.115588	2693.445650
478.485427	2707.376879
478.855207	2731.715570
479.224928	2767.850560
479.594591	2796.849798
479.964194	2804.393885
480.333739	2808.613330
480.703226	2824.866010
481.072653	2848.836697
481.442022	2879.257540
481.811333	2903.618916
482.180584	2916.544434
482.549777	2924.282605
482.918912	2935.295006
483.287988	2962.852473
483.657005	2984.912563
484.025964	2991.662668
484.394864	3019.502440
484.763706	3042.056562
485.132489	3049.903118
485.501213	3076.066707
485.869879	3100.710387
486.238487	3125.795169
486.607036	3154.050836
486.975527	3171.757889
487.343959	3209.327088
487.712333	3250.835949
488.080648	3270.488887
488.448905	3313.994045
488.817104	3338.607478
489.185244	3397.672157
489.553326	3457.850931
489.921350	3561.197106
490.289315	3736.104980
490.657222	3813.030467
491.025070	3861.012169
491.392861	3888.630130
491.760593	3893.963671
492.128267	3889.151890
492.495883	3887.689955
492.863440	3889.187178
493.230939	3889.643402
493.598380	3936.584106
493.965763	3971.965445
494.333088	3993.060153
494.700354	4039.131258
495.067563	4088.106068
495.434713	4118.945326
495.801805	4198.872820
496.168839	4239.801948
496.535815	4290.952016
496.902733	4338.739634
497.269593	4391.223087
497.636395	4463.016679
498.003139	4533.733985
498.369825	4554.354825
498.736453	4656.745701
499.103023	4692.389179
499.469535	4770.690901
499.835989	4823.554961
500.202385	4884.878077
500.568723	4903.442126
500.935003	5024.339078
501.301226	5059.012134
501.667390	5182.653993
502.033497	5287.043687
502.399546	5304.995236
502.765537	5343.935628
503.131470	5439.185710
503.497345	5572.085649
503.863163	5506.661554
504.228923	5686.560170
504.594625	5772.950424
504.960269	5754.189770
505.325856	5905.535290
505.691385	5909.422020
506.056856	6037.706783
506.422270	6123.650894
506.787625	6135.600949
507.152924	6268.266474
507.518164	6327.752090
507.883347	6369.182812
508.248472	6404.677577
508.613540	6576.409524
508.978550	6607.762980
509.343503	6662.174674
509.708398	6792.538913
510.073236	6918.091370
510.438016	6992.604665
510.802738	7043.394290
511.167403	7135.939792
511.532010	7169.221490
511.896561	7349.016762
512.261053	7466.105122
512.625488	7472.628375
512.989866	7533.281018
513.354186	7598.609330
513.718449	7619.973740
514.082655	7791.161243
514.446803	7806.937533
514.810894	7953.945141
515.174927	7944.679501
515.538904	8027.024228
515.902822	8192.490021
516.266684	8184.270419
516.630488	8220.228970
516.994235	8312.169534
517.357925	8435.766023
517.721558	8555.417810
518.085133	8636.419070
518.448651	8697.611116
518.812112	8682.235596
519.175516	8765.664172
519.538863	8915.567923
519.902152	8902.886900
520.265385	9094.644831
520.628560	9077.323426
520.991678	9133.345769
521.354739	9230.929904
521.717743	9232.361592
522.080690	9276.726267
522.443580	9442.607954
522.806413	9464.267272
523.169189	9537.903406
523.531908	9640.702615
523.894569	9548.870436
524.257174	9603.735834
524.619722	9752.381817
524.982213	9744.905786
525.344647	9852.897384
525.707025	9853.260347
526.069345	9982.833124
526.431608	9964.195978
526.793815	10099.424930
527.155964	9967.545825
527.518057	10045.282938
527.880093	10049.152023
528.242072	10141.042176
528.603995	10105.597823
528.965860	10079.300644
529.327669	10159.802830
529.689421	10139.466815
530.051117	10160.012038
530.412755	10286.076172
530.774337	10219.439680
531.135862	10236.551877
531.497331	10285.599783
531.858743	10187.629999
532.220098	10364.723213
532.581396	10278.859760
532.942638	10290.119177
533.303824	10281.158526
533.664953	10327.091000
534.026025	10277.385223
534.387040	10389.888653
534.747999	10414.706253
535.108902	10487.997069
535.469748	10284.614237
535.830537	10402.821733
536.191270	10408.823227
536.551947	10444.007960
536.912567	10467.187186
537.273131	10411.351366
537.633638	10410.832127
537.994089	10417.783878
538.354483	10383.302386
538.714821	10538.189317
539.075103	10567.816178
539.435328	10547.371779
539.795497	10392.237831
540.155609	10556.866792
540.515665	10651.217027
540.875665	10410.242312
541.235609	10500.625159
541.595496	10501.688842
541.955328	10662.564665
542.315102	10565.293081
542.674821	10527.824705
543.034483	10533.629593
543.394090	10546.033352
543.753640	10487.140072
544.113134	10709.948990
544.472571	10576.630636
544.831953	10722.287214
545.191278	10549.352952
545.550548	10583.065668
545.909761	10717.946781
546.268918	10700.096055
546.628019	10789.190888
546.987064	10660.449901
547.346053	10587.098592
547.704986	10693.265292
548.063863	10685.602738
548.422684	10675.921202
548.781449	10603.535274
549.140158	10707.161232
549.498811	10584.671276
549.857408	10451.045411
550.215949	10682.734321
550.574434	10535.923318
550.932864	10635.879317
551.291237	10700.421209
551.649555	10648.083950
552.007817	10671.996663
552.366022	10629.547628
552.724173	10628.791454
553.082267	10613.514238
553.440305	10749.854764
553.798288	10552.864116
554.156215	10713.971831
554.514086	10686.749600
554.871902	10540.162929
555.229661	10578.740358
555.587365	10554.847810
555.945014	10455.889960
556.302606	10579.373023
556.660143	10477.153547
557.017625	10625.116453
557.375050	10528.172544
557.732421	10662.831846
558.089735	10582.044835
558.446994	10582.415360
558.804197	10619.578746
559.161345	10622.646288
559.518437	10470.355551
559.875474	10561.018182
560.232455	10597.579150
560.589381	10542.449092
560.946251	10537.957424
561.303065	10642.848712
561.659825	10585.417367
562.016528	10517.381954
562.373177	10394.042564
562.729770	10513.369196
563.086307	10433.492113
563.442789	10516.335915
563.799216	10402.209233
564.155587	10448.827303
564.511904	10407.346169
564.868164	10390.478468
565.224370	10417.269680
565.580520	10338.587351
565.936615	10338.725983
566.292654	10213.085305
566.648638	10346.171767
567.004567	10304.486466
567.360441	10287.754876
567.716260	10192.585453
568.072023	10295.193099
568.427732	10244.562270
568.783385	10150.658177
569.138982	10225.799095
569.494525	10239.448019
569.850013	10119.473599
570.205445	10198.652482
570.560823	10096.286812
570.916145	10013.017033
571.271412	10088.810781
571.626625	10027.543118
571.981782	10008.792546
572.336884	9982.407147
572.691931	9991.551800
573.046923	9936.220095
573.401860	9892.092355
573.756743	9825.632303
574.111570	9875.194407
574.466342	9857.444504
574.821059	9886.322754
575.175722	9764.074773
575.530330	9782.059090
575.884882	9774.300754
576.239380	9705.148726
576.593823	9684.449748
576.948211	9694.554741
577.302544	9579.218182
577.656823	9596.254762
578.011047	9599.949928
578.365216	9565.128157
578.719330	9490.382969
579.073389	9505.957614
579.427394	9458.790058
579.781344	9431.711500
580.135239	9379.827945
580.489080	9386.202484
580.842866	9291.577506
581.196597	9299.686202
581.550273	9341.661369
581.903895	9303.114186
582.257463	9373.380309
582.610975	9249.821628
582.964434	9278.669631
583.317837	9199.783135
583.671186	9176.021657
584.024481	9180.641874
584.377721	9097.843443
584.730906	9073.855112
585.084037	9104.946429
585.437113	9041.011995
585.790135	9058.179644
586.143103	8960.756826
586.496016	8933.280017
586.848874	8994.482145
587.201679	8982.206935
587.554428	8870.260552
587.907124	8917.009693
588.259765	8886.520794
588.612352	8884.670691
588.964884	8770.077702
589.317362	8781.904249
589.669786	8775.567519
590.022155	8821.976381
590.374470	8841.659566
590.726731	8777.652036
591.078937	8634.916806
591.431090	8747.185822
591.783188	8621.172100
592.135232	8609.910162
592.487222	8608.826314
592.839157	8659.641145
593.191038	8592.392153
593.542866	8541.179071
593.894639	8439.614944
594.246358	8491.755598
594.598022	8518.877006
594.949633	8412.778362
595.301190	8387.663333
595.652692	8411.961695
596.004141	8519.398765
596.355535	8297.323336
596.706876	8283.359339
597.058162	8215.586067
597.409395	8295.478273
597.760573	8352.949948
598.111698	8263.633304
598.462768	8252.598219
598.813785	8214.724030
599.164748	8181.154986
599.515657	8176.436466
599.866511	8087.429854
600.217312	8212.553813
600.568060	8066.103253
600.918753	8173.867998
601.269392	8135.071278
601.619978	8057.427427
601.970510	8115.607383
602.320988	8119.161397
602.671412	8170.578646
603.021783	8107.528934
603.372100	8086.008249
603.722363	8086.676202
604.072572	8058.458343
604.422728	8069.327071
604.772830	8003.701330
605.122878	8010.897577
605.472872	8004.074375
605.822813	8033.497070
606.172701	7977.580591
606.522534	8051.783855
606.872314	8047.556848
607.222041	8016.871344
607.571714	8077.713030
607.921333	8036.917492
608.270899	8038.888584
608.620411	8130.914847
608.969870	8027.699743
609.319276	8026.656224
609.668627	8046.568782
610.017926	8076.649347
610.367171	8125.107438
610.716362	8099.543747
611.065500	8096.282120
611.414585	8122.460832
611.763616	8111.529090
612.112594	8088.228877
612.461518	8105.890559
612.810389	8164.473808
613.159207	8108.645550
613.507971	8050.054739
613.856682	8174.205756
614.205340	8130.433417
614.553945	8205.254222
614.902496	8104.305117
615.250994	8159.367119
615.599439	8135.436762
615.947830	8156.201275
616.296169	8128.353941
616.644454	8143.411867
616.992686	8138.784088
617.340864	8194.050258
617.688990	8101.194725
618.037063	8186.901902
618.385082	8134.927606
618.733048	8221.852221
619.080961	8165.615630
619.428821	8181.548196
619.776628	8179.718258
620.124382	8135.666135
620.472083	8114.168134
620.819731	8150.088876
621.167326	8041.522587
621.514868	8050.962147
621.862357	7939.655991
622.209793	7952.458001
622.557176	7885.035089
622.904506	7858.228753
623.251783	7794.584186
623.599007	7748.654233
623.946179	7750.587516
624.293297	7709.587812
624.640363	7626.993547
624.987376	7614.189016
625.334336	7563.694299
625.681243	7511.626741
626.028097	7500.193404
626.374899	7473.422357
626.721647	7467.826676
627.068343	7402.969711
627.414987	7368.992334
627.761577	7332.716191
628.108115	7366.295317
628.454600	7256.274655
628.801032	7309.496637
629.147412	7269.913497
629.493739	7258.575942
629.840014	7191.107659
630.186236	7253.945642
630.532405	7135.695296
630.878521	7190.848040
631.224585	7145.530587
631.570597	7066.107208
631.916556	7101.365038
632.262462	7097.407732
632.608316	7059.379788
632.954117	7037.841459
633.299866	7023.506938
633.645562	7014.720207
633.991206	6938.941582
634.336797	6883.451081
634.682336	6836.671694
635.027823	6805.983670
635.373257	6789.690661
635.718639	6730.631023
636.063968	6740.983032
636.409245	6638.801364
636.754470	6637.878833
637.099642	6594.048521
637.444762	6537.138935
637.789829	6548.441202
638.134845	6487.176059
638.479808	6474.169882
638.824719	6479.576520
639.169577	6406.298308
639.514383	6427.811432
639.859137	6354.681933
640.203839	6363.284662
640.548489	6350.729669
640.893086	6330.809549
641.237632	6301.517925
641.582125	6320.631460
641.926566	6289.809845
642.270955	6300.912987
642.615292	6301.006248
642.959576	6312.996632
643.303809	6305.455066
643.647990	6310.728113
643.992118	6301.243182
644.336195	6245.747640
644.680219	6274.532628
645.024192	6264.241113
645.368112	6361.550506
645.711981	6379.897785
646.055797	6451.920750
646.399562	6412.874493
646.743274	6541.081117
647.086935	6585.188693
647.430544	6584.548467
647.774101	6608.435974
648.117606	6614.001408
648.461059	6609.030830
648.804460	6564.431742
649.147810	6478.419575
649.491108	6448.079391
649.834354	6419.702736
650.177548	6336.558985
650.520690	6253.422797
650.863781	6228.799281
651.206820	6251.542446
651.549807	6175.153842
651.892742	6115.469101
652.235626	6126.615092
652.578458	6108.996260
652.921238	6016.443196
653.263967	6052.278238
653.606644	5996.480226
653.949269	6000.077090
654.291843	5940.488131
654.634365	5986.607127
654.976836	5935.825063
655.319255	5941.604746
655.661622	5923.983393
656.003938	5917.807979
656.346203	5881.307505
656.688416	5912.673564
657.030577	5859.718764
657.372687	5834.361760
657.714746	5819.097146
658.056753	5860.046439
658.398708	5804.102234
658.740612	5798.539321
659.082465	5843.554304
659.424266	5832.872099
659.766016	5836.690773
660.107715	5812.372247
660.449362	5826.674000
660.790958	5816.730324
661.132503	5807.013500
661.473996	5841.510116
661.815438	5826.497560
662.156829	5827.052087
662.498168	5821.022867
662.839456	5792.137055
663.180693	5830.202808
663.521879	5826.505122
663.863013	5820.349873
664.204097	5838.994580
664.545129	5878.232401
664.886110	5873.622266
665.227040	5905.089148
665.567918	5877.229212
665.908746	5902.407254
666.249522	5896.259567
666.590248	5890.873094
666.930922	5916.938380
667.271545	5929.006903
667.612118	5932.059321
667.952639	5905.925980
668.293109	5929.891625
668.633528	5885.491663
668.973896	5889.620368
669.314213	5885.332866
669.654480	5861.752869
669.994695	5857.059555
670.334859	5845.621177
670.674973	5839.813768
671.015035	5847.277196
671.355047	5839.206309
671.695008	5825.854813
672.034918	5801.828673
672.374777	5809.367719
672.714585	5800.633920
673.054342	5802.116019
673.394049	5794.871881
673.733705	5827.893959
674.073310	5814.237474
674.412864	5769.214929
674.752368	5765.975987
675.091820	5769.277943
675.431223	5703.921904
675.770574	5703.639599
676.109875	5660.779709
676.449125	5660.895656
676.788324	5626.068845
677.127473	5573.161935
677.466571	5565.418723
677.805619	5556.216096
678.144616	5538.786307
678.483562	5521.643863
678.822458	5491.386858
679.161303	5488.193287
679.500098	5476.318849
679.838842	5455.945026
680.177535	5462.896777
680.516179	5480.813038
680.854771	5489.778730
681.193314	5572.458694
681.531805	5675.192368
681.870247	5824.309699
682.208638	5923.146561
682.546978	5937.750784
682.885268	5916.383853
683.223508	5829.013096
683.561697	5782.452999
683.899836	5747.232977
684.237925	5707.269230
684.575963	5670.791441
684.913951	5628.773424
685.251889	5691.908834
685.589776	5653.280993
685.927614	5631.762828
686.265401	5700.561975
686.603137	5685.524213
686.940824	5762.074134
687.278460	5785.452485
687.616046	5791.070851
687.953582	5861.342015
688.291068	5839.791083
688.628504	5902.790382
688.965889	5866.957861
689.303224	5807.162214
689.640510	5763.909114
689.977745	5687.586045
690.314930	5591.857054
690.652065	5536.608528
690.989150	5445.782060
691.326185	5368.596953
691.663170	5316.264735
692.000105	5238.136933
692.336990	5162.819574
692.673825	5138.559021
693.010610	5068.207198
693.347345	5003.072970
693.684030	4988.385568
694.020665	4944.479639
694.357251	4856.816494
694.693786	4867.725551
695.030272	4835.711703
695.366707	4799.559069
695.703093	4765.690077
696.039429	4788.725629
696.375716	4771.285757
696.711952	4745.497735
697.048139	4733.721599
697.384276	4713.259556
697.720363	4726.381679
698.056400	4736.436261
698.392388	4684.865257
698.728326	4661.507071
699.064214	4640.462774
699.400053	4634.746105
699.735842	4604.002629
700.071581	4581.062858
700.407270	4553.293662
700.742910	4537.983678
701.078501	4484.174402
701.414042	4478.598886
701.749533	4450.615441
702.084974	4385.798805
702.420366	4441.785860
702.755709	4383.641191
703.091002	4329.400896
703.426246	4378.355541
703.761440	4333.005321
704.096584	4296.018376
704.431679	4316.004030
704.766725	4304.502638
705.101721	4292.471924
705.436668	4317.483609
705.771565	4266.739354
706.106413	4296.182213
706.441212	4327.714630
706.775961	4336.087987
707.110661	4315.489832
707.445311	4344.844471
707.779913	4368.076629
708.114465	4383.283269
708.448967	4403.057195
708.783421	4463.533397
709.117825	4506.307588
709.452180	4508.215664
709.786485	4553.349115
710.120742	4642.370851
710.454949	4623.743787
710.789107	4692.222821
711.123216	4763.736629
711.457275	4754.730608
711.791286	4828.439839
712.125247	4838.640614
712.459159	4744.333228
712.793023	4820.439528
713.126837	4785.703457
713.460602	4768.845839
713.794318	4695.055949
714.127985	4704.155232
714.461602	4615.125935
714.795171	4588.947223
715.128691	4522.310731
715.462162	4463.397286
715.795584	4417.328702
716.128957	4402.840426
716.462281	4350.162888
716.795556	4323.197757
717.128782	4285.678969
717.461960	4218.193043
717.795088	4228.630752
718.128167	4188.185574
718.461198	4126.749032
718.794180	4126.393631
719.127113	4103.821865
719.459997	4080.186415
719.792833	4040.386505
720.125619	4030.165566
720.458357	3994.585102
720.791046	4003.202954
721.123686	3973.951659
721.456278	3935.066719
721.788821	3947.173050
722.121315	3924.233279
722.453761	3896.217067
722.786158	3911.542175
723.118506	3934.552521
723.450805	3885.802043
723.783056	3905.568407
724.115259	3923.804781
724.447412	3930.990946
724.779518	3920.275974
725.111574	3926.680760
725.443582	3956.390800
725.775542	3940.763223
726.107453	3989.990090
726.439315	3989.952282
726.771129	4005.002646
727.102895	4041.200652
727.434612	4091.198815
727.766281	4099.766256
728.097901	4102.254066
728.429473	4104.089046
728.760996	4112.414511
729.092471	4106.405456
729.423897	4091.468517
729.755276	4098.601750
730.086606	4098.276595
730.417887	4132.803458
730.749120	4199.054302
731.080305	4262.189713
731.411442	4290.077376
731.742530	4257.128394
732.073570	4262.393879
732.404562	4311.903051
732.735506	4306.448523
733.066401	4267.760188
733.397249	4207.556208
733.728048	4126.988487
734.058798	4048.414543
734.389501	3978.218996
734.720156	3919.355963
735.050762	3873.738562
735.381320	3866.116337
735.711831	3815.160354
736.042293	3786.072897
736.372707	3807.424704
736.703073	3781.543420
737.033391	3772.310547
737.363661	3788.490130
737.693883	3812.536434
738.024056	3824.851972
738.354182	3819.137825
738.684260	3884.304820
739.014290	3900.048344
739.344272	3895.836460
739.674207	3939.240794
740.004093	3942.452009
740.333931	3938.923202
740.663722	3940.695167
740.993464	3935.391873
741.323159	3914.496291
741.652806	3880.987741
741.982405	3854.867002
742.311956	3825.494720
742.641460	3819.694872
742.970915	3794.703352
743.300323	3751.722474
743.629683	3715.721074
743.958996	3709.026422
744.288260	3682.840148
744.617477	3650.037360
744.946647	3640.146616
745.275768	3611.364148
745.604842	3610.517234
745.933869	3561.113927
746.262847	3553.935324
746.591778	3592.827826
746.920662	3564.385636
747.249498	3529.183258
747.578286	3576.436514
747.907027	3593.997373
748.235720	3593.362188
748.564365	3615.815487
748.892963	3615.525621
749.221514	3600.268569
749.550017	3578.629416
749.878473	3575.017429
750.206881	3544.911658
750.535242	3543.860578
750.863555	3542.449055
751.191821	3536.901265
751.520039	3519.279912
751.848210	3496.138495
752.176334	3532.792724
752.504411	3537.833878
752.832440	3495.775532
753.160421	3480.702482
753.488356	3489.295128
753.816243	3501.540091
754.144082	3456.003348
754.471875	3444.791822
754.799620	3464.056592
755.127318	3456.905715
755.454969	3457.495530
755.782572	3463.799493
756.110129	3436.874690
756.437638	3427.863628
756.765100	3439.415432
757.092515	3449.316258
757.419882	3458.539049
757.747203	3430.137188
758.074477	3433.240018
758.401703	3451.637709
758.728882	3471.842654
759.056014	3476.659476
759.383099	3480.256340
759.710138	3477.667707
760.037129	3488.791013
760.364073	3521.840818
760.690970	3510.183149
761.017820	3485.567195
761.344623	3505.762058
761.671379	3549.073131
761.998088	3599.749330
762.324751	3724.787589
762.651366	3971.703305
762.977935	4442.042958
763.304456	4877.081932
763.630931	4968.142815
763.957359	4610.674596
764.283740	4275.367289
764.610074	4084.277311
764.936362	3884.761045
765.262602	3728.850759
765.588796	3621.272536
765.914943	3532.754916
766.241044	3448.623099
766.567097	3420.327103
766.893104	3370.956563
767.219064	3340.145030
767.544978	3315.995383
767.870845	3260.164604
768.196665	3241.393868
768.522438	3248.058273
768.848165	3244.569794
769.173846	3210.080740
769.499479	3190.942000
769.825066	3179.128056
770.150607	3161.536949
770.476101	3173.832324
770.801548	3170.205213
771.126949	3124.925570
771.452303	3109.497118
771.777611	3116.562295
772.102872	3118.203191
772.428087	3096.770725
772.753256	3085.559199
773.078378	3077.616861
773.403453	3043.344577
773.728482	3030.993750
774.053465	3055.219015
774.378401	3041.179401
774.703291	3009.357118
775.028135	3012.732170
775.352932	3003.887466
775.677683	2995.113338
776.002388	2989.537821
776.327046	2994.236177
776.651658	2984.015237
776.976224	2967.588638
777.300743	2968.738021
777.625216	2961.219140
777.949643	2956.450208
778.274024	2958.156639
778.598359	2948.943930
778.922647	2953.828808
779.246889	2950.408385
779.571086	2936.091508
779.895236	2931.078081
780.219339	2942.067796
780.543397	2952.472738
780.867409	2959.232925
781.191374	2951.419137
781.515294	2948.291101
781.839167	2949.387552
782.162995	2941.326747
782.486776	2948.603652
782.810511	2942.705502
783.134201	2934.480860
783.457844	2939.559822
783.781441	2932.179573
784.104993	2909.638053
784.428498	2909.915317
784.751958	2927.599685
785.075372	2920.262285
785.398739	2904.425500
785.722061	2918.510484
786.045337	2930.483225
786.368568	2916.171389
786.691752	2905.597569
787.014891	2954.665640
787.337983	2985.530104
787.661030	3007.696058
787.984031	3079.509815
788.306987	3123.892133
788.629897	3116.937861
788.952760	3100.113010
789.275579	3086.481730
789.598351	3024.848583
789.921078	2981.497181
790.243759	2973.010398
790.566395	2958.905250
790.888984	2932.353493
791.211529	2917.840011
791.534027	2907.024215
791.856480	2897.188924
792.178888	2883.618138
792.501249	2876.623537
792.823566	2871.300078
793.145836	2868.484594
793.468062	2864.731455
793.790241	2863.241794
794.112375	2867.070550
794.434464	2883.804661
794.756507	2883.953375
795.078505	2891.620970
795.400457	2906.444483
795.722364	2941.815738
796.044226	2965.761219
796.366042	2967.661734
796.687812	2956.528346
797.009538	2977.262612
797.331218	2963.684264
797.652852	2947.970987
797.974442	2931.161260
798.295986	2926.576330
798.617484	2923.614653
798.938938	2907.760224
799.260346	2894.219684
799.581709	2886.904970
799.903026	2880.835421
800.224299	2876.316027
800.545526	2866.904192
800.866708	2850.976667
801.187845	2839.976869
801.508936	2845.789319
801.829983	2850.522963
802.150984	2837.292455
802.471940	2823.459528
802.792851	2823.520022
803.113717	2823.152018
803.434538	2830.711228
803.755314	2820.165134
804.076045	2816.500216
804.396731	2816.608600
804.717372	2817.427788
805.037967	2812.666418
805.358518	2814.763538
805.679024	2827.535301
805.999485	2825.924653
806.319901	2830.156701
806.640272	2820.767552
806.960598	2824.291319
807.280879	2834.567711
807.601115	2841.590038
807.921306	2830.330621
808.241453	2824.934066
808.561554	2830.333142
808.881611	2835.109635
809.201623	2828.956907
809.521590	2826.290136
809.841513	2824.460197
810.161390	2828.364571
810.481223	2819.146821
810.801011	2807.673155
811.120755	2806.105356
811.440453	2809.125007
811.760107	2810.433187
812.079716	2809.971921
812.399281	2800.280303
812.718801	2794.125054
813.038276	2788.610032
813.357707	2794.984571
813.677093	2803.473874
813.996434	2793.958696
814.315731	2790.505506
814.634983	2787.664816
814.954191	2788.065587
815.273354	2801.470015
815.592473	2811.839669
815.911547	2812.137097
816.230577	2820.192861
816.549562	2829.413131
816.868502	2827.409272
817.187399	2837.446210
817.506250	2852.047912
817.825058	2849.194619
818.143821	2856.647965
818.462539	2874.032384
818.781213	2899.986764
819.099843	2934.591765
819.418429	2993.222905
819.736970	3050.659291
820.055466	3121.600929
820.373919	3228.181003
820.692327	3368.199051
821.010691	3529.357178
821.329011	3968.141729
821.647286	4856.864385
821.965517	6218.192693
822.283704	6938.558454
822.601847	6913.879486
822.919945	6287.760616
823.237999	5791.580008
823.556010	5220.437442
823.873976	4677.779915
824.191897	4277.144296
824.509775	3989.856500
824.827609	3723.418916
825.145398	3601.702777
825.463144	3589.150304
825.780845	3682.555323
826.098502	3785.364614
826.416116	4065.194023
826.733685	4374.075602
827.051210	4435.759160
827.368692	4320.359587
827.686129	4063.948858
828.003522	3738.673448
828.320872	3487.092144
828.638177	3292.289357
828.955439	3160.879079
829.272656	3074.854309
829.589830	3013.735360
829.906960	2964.712659
830.224046	2917.855134
830.541088	2885.493447
830.858086	2870.017105
831.175041	2852.347861
831.491952	2855.042357
831.808819	2867.115921
832.125642	2888.916391
832.442421	2936.053700
832.759157	3013.112777
833.075849	3190.987370
833.392497	3468.175214
833.709101	3668.351872
834.025662	3613.226855
834.342179	3459.459059
834.658653	3285.062863
834.975083	3137.467960
835.291469	3046.434804
835.607811	2960.306691
835.924110	2903.802918
836.240366	2854.137470
836.556578	2811.935451
836.872746	2790.576082
837.188871	2768.205962
837.504952	2751.255082
837.820990	2740.509862
838.136984	2727.927142
838.452935	2722.437326
838.768842	2719.064794
839.084706	2737.835530
839.400526	2817.077428
839.716303	2945.253805
840.032037	3025.488810
840.347727	3007.595234
840.663373	2947.774382
840.978977	2873.969369
841.294537	2805.099646
841.610054	2761.876793
841.925527	2737.331415
842.240957	2716.927345
842.556344	2693.508665
842.871687	2680.237827
843.186987	2668.890190
843.502244	2667.899603
843.817458	2660.451298
844.132629	2650.008548
844.447756	2637.693009
844.762840	2634.615385
845.077881	2635.348873
845.392879	2635.169912
845.707833	2628.603809
846.022745	2624.477624
846.337613	2627.088942
846.652438	2624.906122
846.967221	2624.560803
847.281960	2621.463014
847.596656	2623.320680
847.911309	2620.570730
848.225919	2619.355812
848.540485	2616.081583
848.855009	2616.956223
849.169490	2614.168465
849.483928	2615.900101
849.798323	2613.906325
850.112675	2614.493619
850.426984	2614.236520
850.741251	2609.049173
851.055474	2612.585542
851.369654	2617.644340
851.683792	2615.290122
851.997887	2612.189812
852.311938	2611.390789
852.625947	2613.563526
852.939914	2618.720627
853.253837	2618.435802
853.567718	2613.649226
853.881555	2611.199225
854.195350	2614.927158
854.509103	2611.673094
854.822812	2610.992538
855.136479	2611.105964
855.450103	2615.335492
855.763685	2616.489916
856.077224	2612.325923
856.390720	2605.641353
856.704173	2610.410285
857.017584	2618.781121
857.330953	2616.933538
857.644278	2620.782459
857.957561	2623.217336
858.270802	2616.298352
858.584000	2613.737446
858.897155	2620.243055
859.210268	2620.716924
859.523339	2616.043774
859.836367	2608.033381
860.149352	2611.945316
860.462295	2616.358846
860.775195	2611.519338
861.088054	2608.640840
861.400869	2609.346601
861.713642	2606.064810
862.026373	2608.398864
862.339062	2609.223093
862.651708	2613.961777
862.964312	2614.922117
863.276873	2613.601335
863.589392	2617.150307
863.901869	2621.765484
864.214303	2627.736730
864.526696	2630.431227
864.839045	2630.650517
865.151353	2632.314098
865.463619	2632.296454
865.775842	2632.636732
866.088023	2630.905096
866.400162	2635.573204
866.712258	2632.752678
867.024313	2632.283851
867.336325	2629.034827
867.648296	2632.936681
867.960224	2632.286372
868.272110	2633.276958
868.583954	2626.980557
868.895755	2628.850825
869.207515	2633.637401
869.519233	2640.261477
869.830909	2634.527165
870.142542	2631.136989
870.454134	2634.307874
870.765684	2639.273411
871.077191	2640.546302
871.388657	2643.553351
871.700081	2641.849441
872.011463	2642.366159
872.322803	2641.872126
872.634101	2642.542599
872.945357	2650.731954
873.256571	2660.065650
873.567744	2655.931904
873.878874	2657.199754
874.189963	2655.740340
874.501010	2657.345947
874.812015	2666.752741
875.122979	2664.146464
875.433900	2657.774446
875.744780	2655.203457
876.055618	2662.790394
876.366415	2666.359531
876.677169	2665.656290
876.987882	2660.811741
877.298554	2659.218736
877.609183	2669.792556
877.919771	2674.596776
878.230317	2680.668846
878.540822	2694.476566
878.851285	2706.358566
879.161707	2728.451422
879.472087	2766.113883
879.782425	2812.830256
880.092722	2924.025507
880.402977	3106.424535
880.713191	3360.070191
881.023363	3648.777072
881.333494	3832.217098
881.643583	3999.338910
881.953631	3996.624249
882.263637	3822.903567
882.573602	3606.360803
882.883526	3480.856237
883.193408	3370.651573
883.503248	3272.825462
883.813048	3159.923780
884.122806	3048.942778
884.432522	2964.014459
884.742197	2903.253432
885.051831	2868.416538
885.361424	2833.801456
885.670975	2800.565128
885.980485	2766.219747
886.289954	2751.761718
886.599382	2736.648339
886.908768	2727.448233
887.218113	2709.441231
887.527417	2695.305836
887.836680	2686.733354
888.145901	2682.208918
888.455082	2675.168947
888.764221	2661.383912
889.073319	2655.581544
889.382376	2655.488282
889.691392	2658.031544
890.000366	2656.486431
890.309300	2656.801503
890.618193	2657.169507
890.927044	2657.088849
891.235855	2661.270486
891.544625	2659.576658
891.853353	2659.246462
892.162041	2663.004643
892.470687	2686.496420
892.779293	2697.216433
893.087858	2702.658359
893.396381	2730.183059
893.704864	2768.374840
894.013306	2836.304388
894.321707	2926.515837
894.630068	2975.341932
894.938387	2993.341372
895.246665	2986.417347
895.554903	2945.916717
895.863100	2903.240829
896.171256	2848.962726
896.479371	2786.165072
896.787446	2747.854824
897.095480	2729.429406
897.403473	2724.093345
897.711425	2711.795450
898.019336	2695.078984
898.327207	2679.123732
898.635038	2677.664318
898.942827	2678.919565
899.250576	2667.128307
899.558284	2655.836122
899.865952	2649.973260
900.173579	2650.986532
900.481165	2648.327323
900.788711	2638.484470
901.096216	2632.203193
901.403681	2630.441309
901.711105	2631.688995
902.018489	2626.947790
902.325832	2632.666979
902.633135	2630.156484
902.940397	2647.682056
903.247619	2684.719413
903.554800	2753.193406
903.861941	2875.496839
904.169041	2995.050323
904.476101	3057.863100
904.783121	3046.429763
905.090100	2992.481855
905.397039	2919.652306
905.703938	2849.474403
906.010796	2789.404014
906.317614	2738.742938
906.624391	2705.189018
906.931129	2680.346212
907.237826	2657.774446
907.544483	2639.422125
907.851099	2624.959055
908.157675	2616.005965
908.464211	2610.042280
908.770707	2602.145313
909.077163	2596.660537
909.383578	2590.366657
909.689954	2590.613673
909.996289	2590.233066
910.302584	2590.258272
910.608839	2585.073445
910.915054	2590.374219
911.221229	2590.691811
911.527363	2591.649631
911.833458	2587.954465
912.139513	2590.419589
912.445527	2594.099631
912.751502	2596.461412
913.057436	2601.419387
913.363331	2608.063627
913.669186	2620.651389
913.975000	2631.862915
914.280775	2648.223980
914.586510	2662.555980
914.892205	2699.096784
915.197859	2767.800149
915.503475	2845.809484
915.809050	2911.465472
916.114585	2920.002666
916.420081	2933.591096
916.725536	2945.858744
917.030952	2920.090886
917.336328	2876.794936
917.641665	2831.006136
917.946961	2778.255502
918.252218	2747.476737
918.557435	2722.097048
918.862612	2697.516382
919.167750	2683.648168
919.472848	2669.505211
919.777906	2654.984167
920.082925	2639.154944
920.387904	2632.009108
920.692843	2627.777060
920.997743	2621.629372
921.302603	2616.210132
921.607423	2610.652260
921.912204	2601.991558
922.216946	2603.299737
922.521647	2599.440734
922.826310	2595.100300
923.130932	2590.482603
923.435516	2585.136460
923.740059	2583.558579
924.044564	2583.760225
924.349028	2582.880543
924.653454	2575.462486
924.957840	2569.418142
925.262186	2570.207083
925.566493	2571.255643
925.870761	2564.976886
926.174989	2569.045097
926.479178	2565.448233
926.783328	2563.709035
927.087438	2563.376319
927.391509	2564.434962
927.695541	2562.486556
927.999533	2559.227450
928.303486	2558.849363
928.607400	2559.350958
928.911275	2555.900288
929.215110	2559.408931
929.518906	2556.797613
929.822663	2556.895916
930.126381	2558.080587
930.430060	2556.835422
930.733699	2556.210319
931.037299	2554.965154
931.340861	2556.505227
931.644383	2560.034034
931.947866	2559.177038
932.251309	2558.735937
932.554714	2559.076215
932.858080	2560.530588
933.161407	2553.011707
933.464694	2554.229146
933.767943	2557.097562
934.071153	2556.369115
934.374323	2552.464742
934.677455	2555.638148
934.980548	2553.057077
935.283602	2554.937428
935.586617	2552.870555
935.889593	2554.468600
936.192530	2556.119578
936.495428	2552.802499
936.798287	2554.960113
937.101108	2559.436658
937.403890	2559.187120
937.706632	2562.423541
938.009336	2567.689026
938.312002	2569.211455
938.614628	2570.663307
938.917216	2573.718246
939.219765	2576.019533
939.522275	2575.699420
939.824747	2573.647670
940.127179	2572.810839
940.429573	2570.317988
940.731929	2568.094839
941.034246	2564.999571
941.336524	2567.038717
941.638763	2568.170457
941.940964	2567.673903
942.243126	2566.587534
942.545250	2564.379509
942.847335	2560.943963
943.149381	2562.058057
943.451389	2561.816082
943.753359	2559.832388
944.055290	2559.905485
944.357182	2560.303736
944.659036	2561.410269
944.960851	2556.326266
945.262628	2558.801472
945.564367	2557.523540
945.866067	2557.072356
946.167729	2559.277861
946.469352	2558.360371
946.770937	2557.026986
947.072484	2558.206616
947.373992	2557.757953
947.675462	2558.927501
947.976893	2555.025648
948.278286	2558.148643
948.579641	2555.106306
948.880958	2556.351471
949.182236	2555.466749
949.483476	2553.500699
949.784678	2555.096224
950.085841	2551.673281
950.386967	2556.674105
950.688054	2555.678477
950.989103	2552.694114
951.290114	2556.979095
951.591087	2554.387942
951.892021	2557.931873
952.192917	2557.659651
952.493776	2560.704508
952.794596	2563.671227
953.095378	2562.781463
953.396122	2561.879097
953.696828	2561.765671
953.997496	2558.897254
954.298126	2556.767367
954.598718	2555.265103
954.899272	2555.675957
955.199788	2556.878272
955.500266	2551.953065
955.800706	2548.696479
956.101108	2546.254040
956.401472	2549.765204
956.701798	2542.846220
957.002087	2547.398382
957.302337	2548.083979
957.602550	2545.679349
957.902724	2543.975439
958.202861	2545.233207
958.502960	2544.693803
958.803022	2546.196067
959.103045	2545.797816
959.403031	2542.195911
959.702979	2544.532486
960.002889	2543.322609
960.302762	2542.657177
960.602596	2543.768751
960.902393	2543.741025
961.202153	2542.599204
961.501875	2540.383617
961.801559	2541.351518
962.101205	2543.670449
962.400814	2541.222969
962.700385	2541.853113
962.999918	2540.721374
963.299414	2539.418236
963.598873	2541.946374
963.898293	2538.420087
964.197677	2543.267157
964.497022	2540.388658
964.796331	2541.016281
965.095601	2540.492001
965.394835	2540.199614
965.694030	2541.558205
965.993189	2539.962680
966.292309	2540.549975
966.591393	2540.212217
966.890439	2540.940664
967.189447	2540.996117
967.488419	2542.616848
967.787353	2538.520910
968.086249	2538.984696
968.385108	2539.168698
968.683930	2539.483771
968.982714	2540.950746
969.281462	2539.972762
969.580172	2539.582073
969.878844	2539.072917
970.177480	2540.013092
970.476078	2541.228010
970.774639	2542.750438
971.073162	2540.907897
971.371649	2540.267670
971.670098	2536.428831
971.968510	2539.009902
972.266885	2536.580066
972.565223	2542.828576
972.863524	2541.167516
973.161788	2541.049049
973.460014	2540.474357
973.758204	2540.003009
974.056356	2541.447300
974.354471	2542.127856
974.652550	2542.137938
974.950591	2542.339584
975.248595	2541.346477
975.546563	2542.440407
975.844493	2540.804553
976.142386	2541.868236
976.440243	2543.093237
976.738062	2539.612320
977.035845	2540.476878
977.333590	2538.999820
977.631299	2537.457227
977.928971	2539.967721
978.226606	2539.002340
978.524204	2542.518545
978.821765	2539.196425
979.119290	2540.033256
979.416777	2540.398740
979.714228	2537.684079
980.011642	2540.015612
980.309020	2543.136087
980.606360	2538.962011
980.903664	2539.456044
981.200931	2537.840354
981.498162	2540.842362
981.795356	2543.226827
982.092513	2544.214893
982.389633	2549.797971
982.686717	2552.474824
982.983764	2555.192006
983.280775	2552.999104
983.577749	2553.838456
983.874686	2553.183106
984.171587	2550.009700
984.468451	2547.244627
984.765279	2547.796633
985.062070	2543.897301
985.358824	2542.616848
985.655543	2541.515356
985.952224	2540.486960
986.248869	2541.820345
986.545478	2537.396733
986.842050	2536.779192
987.138586	2534.941691
987.435086	2536.350693
987.731549	2533.131917
988.027975	2536.174253
988.324366	2539.209028
988.620719	2537.553009
988.917037	2535.692823
989.213318	2536.196938
989.509563	2535.954963
989.805772	2537.883204
990.101944	2532.834489
990.398080	2538.556198
990.694180	2537.474871
990.990244	2539.103163
991.286271	2534.603934
991.582262	2536.277597
991.878217	2534.853471
992.174136	2536.607792
992.470019	2538.168029
992.765865	2539.052752
993.061676	2535.508821
993.357450	2537.931095
993.653188	2538.536034
993.948890	2538.006713
994.244556	2537.079140
994.540186	2539.907228
994.835780	2536.885056
995.131337	2540.212217
995.426859	2537.185004
995.722345	2536.685930
996.017795	2538.730118
996.313208	2543.128525
996.608586	2542.294214
996.903928	2541.507794
997.199234	2541.104502
997.494504	2539.564429
997.789738	2539.526620
998.084936	2538.546116
998.380099	2539.471168
998.675225	2535.556712
998.970316	2539.561908
999.265371	2536.824562
999.560390	2537.948739
999.855373	2538.084850
1000.150320	2536.514531
1000.445232	2536.660724
1000.740108	2538.241126
1001.034948	2539.808925
1001.329752	2536.932947
1001.624521	2536.111239
1001.919254	2531.158305
1002.213951	2534.266176
1002.508613	2532.045548
1002.803239	2534.898841
1003.097829	2531.962369
1003.392384	2537.358924
1003.686903	2536.055786
1003.981386	2535.798687
1004.275834	2534.787936
1004.570246	2538.662062
1004.864623	2534.745086
1005.158964	2539.382948
1005.453270	2535.818852
1005.747540	2535.024870
1006.041775	2536.348173
1006.335974	2532.857174
1006.630138	2532.809283
1006.924266	2533.358769
1007.218359	2536.007895
1007.512416	2536.887576
1007.806438	2534.843388
1008.100425	2536.509490
1008.394376	2534.591331
1008.688292	2534.026722
1008.982172	2533.474715
1009.276017	2537.127031
1009.569827	2535.135775
1009.863602	2534.309026
1010.157341	2534.457740
1010.451045	2534.666948
1010.744714	2535.554191
1011.038347	2534.571166
1011.331945	2535.463450
1011.625508	2536.207021
1011.919036	2532.000178
1012.212528	2536.564942
1012.505986	2533.174767
1012.799408	2535.879346
1013.092795	2537.658873
1013.386147	2535.962525
1013.679464	2534.964376
1013.972745	2535.619726
1014.265992	2535.138296
1014.559204	2533.751979
1014.852380	2535.047555
1015.145521	2537.046373
1015.438628	2535.150899
1015.731699	2533.799870
1016.024736	2534.097298
1016.317737	2533.641073
1016.610703	2534.372041
1016.903635	2533.351207
1017.196531	2530.805424
1017.489393	2532.269879
1017.782219	2528.168901
1018.075011	2535.002185
1018.367768	2534.787936
1018.660490	2534.729963
1018.953177	2534.729963
1019.245829	2534.729963
