Dividing Wavelength (nm)	Counts (n)	Blue Motor Position (mm): 15.200000	Red Motor Position (mm): 0.000000	
326.493990	2138.248254
326.888308	2138.248254
327.282561	2138.248254
327.676750	2104.149889
328.070874	2101.004209
328.464933	2103.136617
328.858929	2112.356888
329.252859	2120.211005
329.646726	2134.316154
330.040528	2143.982566
330.434265	2164.419404
330.827938	2178.375838
331.221547	2197.272603
331.615091	2217.144832
332.008571	2237.962277
332.401986	2256.352406
332.795338	2273.807401
333.188625	2295.214661
333.581847	2311.369038
333.975006	2330.280927
334.368100	2350.977384
334.761129	2368.094622
335.154095	2386.159597
335.546996	2403.004612
335.939833	2423.817016
336.332606	2439.968873
336.725315	2449.988166
337.117960	2459.132819
337.510540	2464.967955
337.903056	2479.214256
338.295508	2484.310862
338.687896	2494.224291
339.080220	2503.898266
339.472480	2507.928668
339.864676	2514.759432
340.256807	2517.622807
340.648875	2525.648324
341.040879	2524.803931
341.432818	2524.821575
341.824694	2527.856349
342.216506	2526.739734
342.608253	2528.685619
342.999937	2528.156298
343.391557	2525.489528
343.783113	2527.586648
344.174605	2526.775022
344.566033	2522.651358
344.957397	2521.746471
345.348697	2520.092972
345.739934	2517.111130
346.131106	2516.493588
346.522215	2515.422343
346.913260	2513.839421
347.304241	2511.223062
347.695159	2510.910511
348.086012	2504.914058
348.476802	2504.059583
348.867528	2504.513286
349.258191	2503.129490
349.648789	2503.822648
350.039324	2502.050683
350.429796	2499.958604
350.820203	2499.247801
351.210548	2501.085302
351.600828	2496.714621
351.991045	2495.129178
352.381198	2492.800165
352.771288	2495.603047
353.161314	2493.672285
353.551276	2491.068529
353.941175	2490.292191
354.331010	2492.406955
354.720782	2492.154898
355.110490	2492.545587
355.500135	2493.631956
355.889717	2492.706904
356.279235	2492.820330
356.668689	2499.209993
357.058080	2494.403252
357.447408	2494.156236
357.836672	2490.687922
358.225873	2491.408807
358.615010	2492.520381
359.004084	2494.715804
359.393095	2498.358038
359.782043	2497.279231
360.170927	2495.635814
360.559748	2499.651093
360.948505	2497.954745
361.337199	2498.393326
361.725830	2499.908192
362.114398	2499.845178
362.502903	2501.912051
362.891344	2498.521875
363.279722	2499.850219
363.668037	2501.985148
364.056289	2505.246774
364.444478	2502.567401
364.832603	2503.928512
365.220665	2505.219048
365.608665	2503.026146
365.996601	2504.233502
366.384474	2505.622340
366.772284	2505.917248
367.160031	2504.230982
367.547715	2506.073523
367.935336	2505.143431
368.322893	2505.206445
368.710388	2504.735097
369.097820	2510.063597
369.485189	2506.708709
369.872495	2508.689882
370.259738	2508.815911
370.646918	2506.602845
371.034035	2506.527227
371.421090	2510.227434
371.808081	2507.404388
372.195010	2508.798267
372.581875	2508.236178
372.968678	2509.662825
373.355418	2512.896725
373.742096	2509.725839
374.128710	2510.207270
374.515262	2510.855058
374.901751	2507.757269
375.288177	2512.916890
375.674540	2508.021929
376.060841	2511.858248
376.447079	2511.142404
376.833254	2515.281191
377.219367	2508.974708
377.605417	2510.756755
377.991404	2508.200890
378.377329	2510.184584
378.763191	2508.727691
379.148991	2509.884636
379.534727	2510.378669
379.920402	2513.231962
380.306013	2514.880419
380.691563	2512.725326
381.077049	2513.599966
381.462474	2511.764986
381.847835	2516.589370
382.233134	2516.415451
382.618371	2516.796058
383.003545	2513.594925
383.388657	2516.622138
383.773706	2516.617097
384.158693	2518.263033
384.543618	2516.450739
384.928480	2517.995852
385.313280	2515.203053
385.698017	2516.579288
386.082692	2518.603311
386.467305	2515.008969
386.851856	2518.585667
387.236344	2518.381501
387.620770	2520.748322
388.005133	2516.914525
388.389435	2521.088600
388.773674	2519.256141
389.157851	2516.934689
389.541965	2520.506347
389.926018	2517.592560
390.310008	2516.823784
390.693936	2518.386542
391.077802	2518.570544
391.461606	2519.795544
391.845348	2519.089783
392.229027	2520.967613
392.612645	2519.372087
392.996200	2515.747498
393.379694	2521.436440
393.763125	2519.760256
394.146494	2522.822757
394.529801	2523.352078
394.913047	2520.816378
395.296230	2521.907788
395.679351	2521.010462
396.062410	2520.831501
396.445408	2521.436440
396.828343	2521.126409
397.211217	2516.034843
397.594028	2520.622293
397.976778	2518.169772
398.359466	2520.057684
398.742092	2518.101717
399.124656	2525.136647
399.507158	2522.815195
399.889598	2524.380474
400.271977	2522.243024
400.654294	2524.249404
401.036549	2521.983405
401.418742	2524.680422
401.800874	2523.732685
402.182944	2526.943900
402.564952	2524.067922
402.946898	2523.813344
403.328783	2525.509692
403.710606	2523.457942
404.092367	2524.819054
404.474067	2525.335772
404.855705	2526.522964
405.237282	2525.360978
405.618797	2527.919364
406.000250	2526.396935
406.381642	2524.914836
406.762972	2527.684950
407.144240	2525.940711
407.525447	2530.896165
407.906593	2526.974147
408.287677	2526.533046
408.668700	2525.905423
409.049661	2528.615043
409.430560	2527.889117
409.811399	2529.466998
410.192176	2526.215454
410.572891	2529.257790
410.953545	2528.947759
411.334138	2528.783922
411.714669	2528.978006
412.095139	2528.088242
412.475547	2530.066895
412.855894	2528.791483
413.236180	2527.382481
413.616405	2529.880372
413.996568	2531.155784
414.376670	2530.109745
414.756711	2529.285516
415.136691	2531.165867
415.516609	2529.991278
415.896466	2527.904240
416.276262	2529.741741
416.655997	2528.206709
417.035670	2524.095648
417.415283	2530.782739
417.794834	2526.666637
418.174324	2531.049920
418.553753	2532.645445
418.933121	2530.359282
419.312428	2531.344828
419.691674	2532.037986
420.070859	2528.998171
420.449983	2533.464633
420.829045	2530.767616
421.208047	2530.114786
421.586988	2533.739376
421.965867	2531.581762
422.344686	2533.210055
422.723444	2533.532688
423.102141	2530.583613
423.480777	2533.457071
423.859352	2532.310209
424.237866	2532.080836
424.616319	2533.182328
424.994712	2532.700898
425.373044	2534.246012
425.751314	2534.765251
426.129524	2533.242822
426.507673	2533.888090
426.885762	2531.927081
427.263789	2534.296423
427.641756	2535.440765
428.019662	2533.736855
428.397508	2535.982689
428.775292	2537.542926
429.153016	2531.465815
429.530679	2535.586959
429.908282	2533.061341
430.285824	2534.235929
430.663305	2535.191228
431.040726	2536.733821
431.418086	2535.947401
431.795385	2538.583925
432.172624	2536.050745
432.549802	2534.782895
432.926920	2537.351363
433.303977	2535.249201
433.680974	2535.929757
434.057910	2537.626105
434.434786	2537.185004
434.811601	2539.375386
435.188355	2536.023018
435.565050	2536.416228
435.941683	2537.152237
436.318257	2532.050589
436.694770	2532.894983
437.071222	2534.278779
437.447614	2532.915147
437.823946	2532.582431
438.200218	2537.651311
438.576429	2537.784902
438.952580	2536.338091
439.328670	2538.309182
439.704700	2535.864222
440.080670	2536.648122
440.456580	2539.272042
440.832429	2538.886394
441.208218	2540.179450
441.583947	2537.797505
441.959616	2539.766075
442.335224	2540.386137
442.710773	2536.713657
443.086261	2538.278935
443.461689	2538.588966
443.837057	2540.592824
444.212365	2536.617875
444.587612	2541.240613
444.962800	2539.710623
445.337927	2538.911600
445.712995	2539.982845
446.088002	2539.335057
446.462949	2539.955118
446.837837	2538.064686
447.212664	2541.659028
447.587431	2539.156096
447.962139	2539.289686
448.336786	2542.694986
448.711374	2538.422608
449.085901	2539.085519
449.460369	2538.984696
449.834776	2541.197763
450.209124	2540.451672
450.583412	2540.781868
450.957640	2538.311702
451.331808	2539.148534
451.705917	2538.294058
452.079965	2542.447969
452.453954	2538.490663
452.827883	2541.860675
453.201752	2542.667259
453.575562	2543.604914
453.949311	2543.173895
454.323001	2541.258257
454.696632	2540.176929
455.070202	2544.161961
455.443713	2540.247505
455.817164	2538.778009
456.190556	2537.994110
456.563888	2539.030067
456.937160	2537.321116
457.310373	2541.036446
457.683526	2543.206663
458.056619	2545.462579
458.429653	2541.190201
458.802628	2542.659698
459.175542	2543.123484
459.548398	2544.338402
459.921194	2544.197249
460.293930	2542.982331
460.666607	2545.417209
461.039224	2541.550644
461.411782	2543.688093
461.784280	2545.860830
462.156719	2543.047866
462.529099	2542.957126
462.901419	2543.030222
463.273680	2542.974770
463.645882	2540.285314
464.018024	2541.868236
464.390106	2544.802188
464.762130	2547.111036
465.134094	2544.643392
465.505999	2545.205480
465.877845	2543.325130
466.249631	2546.201108
466.621358	2545.245809
466.993026	2548.845193
467.364634	2548.827549
467.736184	2547.620193
468.107674	2546.236396
468.479105	2547.466438
468.850477	2545.097095
469.221790	2544.804708
469.593043	2542.107691
469.964238	2545.621375
470.335373	2544.466951
470.706449	2548.237734
471.077467	2546.818649
471.448425	2546.158258
471.819324	2547.027857
472.190164	2546.354863
472.560945	2548.315872
472.931667	2546.276725
473.302330	2545.301262
473.672934	2545.026519
474.043479	2546.377548
474.413965	2550.455842
474.784393	2542.042156
475.154761	2543.947712
475.525070	2543.710778
475.895321	2543.428473
476.265513	2542.473175
476.635645	2548.267981
477.005719	2546.269164
477.375734	2548.872920
477.745691	2546.785882
478.115588	2544.814791
478.485427	2548.988866
478.855207	2549.240924
479.224928	2549.374514
479.594591	2551.214536
479.964194	2549.301418
480.333739	2549.578681
480.703226	2547.637837
481.072653	2549.371994
481.442022	2549.261088
481.811333	2548.517518
482.180584	2551.393497
482.549777	2553.815771
482.918912	2549.624052
483.287988	2549.694628
483.657005	2549.034237
484.025964	2548.711603
484.394864	2547.741181
484.763706	2548.550286
485.132489	2548.845193
485.501213	2549.671942
485.869879	2551.504402
486.238487	2549.293856
486.607036	2549.563558
486.975527	2550.425595
487.343959	2550.317210
487.712333	2551.199412
488.080648	2547.531973
488.448905	2550.639844
488.817104	2549.621531
489.185244	2548.651109
489.553326	2551.272509
489.921350	2549.485420
490.289315	2552.769732
490.657222	2553.104968
491.025070	2550.211346
491.392861	2553.031872
491.760593	2551.017931
492.128267	2553.702345
492.495883	2551.053219
492.863440	2550.788558
493.230939	2550.392827
493.598380	2551.932900
493.965763	2548.267981
494.333088	2547.310162
494.700354	2548.159596
495.067563	2551.963147
495.434713	2546.503577
495.801805	2553.972047
496.168839	2550.864175
496.535815	2553.530946
496.902733	2552.759649
497.269593	2553.959444
497.636395	2553.205791
498.003139	2550.460883
498.369825	2551.489278
498.736453	2551.935421
499.103023	2554.685370
499.469535	2554.685370
499.835989	2553.329300
500.202385	2552.494989
500.568723	2553.553631
500.935003	2553.054557
501.301226	2551.713610
501.667390	2550.246634
502.033497	2553.818292
502.399546	2554.703014
502.765537	2552.550441
503.131470	2553.031872
503.497345	2554.529094
503.863163	2554.766028
504.228923	2551.978270
504.594625	2556.066646
504.960269	2552.283260
505.325856	2552.552962
505.691385	2553.286450
506.056856	2556.182593
506.422270	2554.599670
506.787625	2556.207798
507.152924	2555.113868
507.518164	2553.656975
507.883347	2556.175031
508.248472	2556.139743
508.613540	2558.740978
508.978550	2557.475649
509.343503	2556.495144
509.708398	2557.987326
510.073236	2558.756102
510.438016	2557.699980
510.802738	2558.466235
511.167403	2559.802141
511.532010	2559.406411
511.896561	2558.786349
512.261053	2560.825495
512.625488	2555.809547
512.989866	2555.963302
513.354186	2557.962120
513.718449	2557.203426
514.082655	2558.292316
514.446803	2562.463870
514.810894	2563.247770
515.174927	2562.957903
515.538904	2560.079405
515.902822	2561.054868
516.266684	2564.881104
516.630488	2559.461863
516.994235	2562.191648
517.357925	2562.385733
517.721558	2562.773901
518.085133	2563.799776
518.448651	2564.021587
518.812112	2563.119220
519.175516	2567.038717
519.538863	2567.507545
519.902152	2567.295816
520.265385	2565.443192
520.628560	2567.971331
520.991678	2567.978893
521.354739	2568.246074
521.717743	2564.971844
522.080690	2571.139696
522.443580	2570.076013
522.806413	2570.081054
523.169189	2570.028122
523.531908	2569.279510
523.894569	2568.624160
524.257174	2572.957032
524.619722	2570.633060
524.982213	2574.171950
525.344647	2568.946794
525.707025	2573.015005
526.069345	2573.791343
526.431608	2574.176991
526.793815	2572.795715
527.155964	2574.640777
527.518057	2574.010633
527.880093	2575.966601
528.242072	2576.778227
528.603995	2578.192270
528.965860	2573.667835
529.327669	2576.160685
529.689421	2578.192270
530.051117	2578.459452
530.412755	2579.800398
530.774337	2581.466500
531.135862	2580.770821
531.497331	2581.731160
531.858743	2577.173957
532.220098	2579.381983
532.581396	2579.016499
532.942638	2581.406006
533.303824	2584.571851
533.664953	2587.536049
534.026025	2585.983374
534.387040	2587.228539
534.747999	2588.730802
535.108902	2590.626276
535.469748	2591.803386
535.830537	2593.552666
536.191270	2591.768098
536.551947	2594.578541
536.912567	2592.887234
537.273131	2598.843357
537.633638	2602.374685
537.994089	2604.681013
538.354483	2601.905858
538.714821	2606.092536
539.075103	2606.929368
539.435328	2607.693103
539.795497	2610.508587
540.155609	2612.888012
540.515665	2615.050667
540.875665	2618.261882
541.235609	2620.142232
541.595496	2623.451750
541.955328	2623.839918
542.315102	2630.474077
542.674821	2630.428707
543.034483	2633.458440
543.394090	2634.696043
543.753640	2636.163019
544.113134	2643.694503
544.472571	2645.373207
544.831953	2646.227683
545.191278	2652.955102
545.550548	2653.670946
545.909761	2657.910557
546.268918	2661.691422
546.628019	2668.103770
546.987064	2672.159378
547.346053	2674.241375
547.704986	2679.267405
548.063863	2685.145390
548.422684	2688.646472
548.781449	2691.966072
549.140158	2697.269365
549.498811	2702.413863
549.857408	2703.558205
550.215949	2712.355018
550.574434	2711.238403
550.932864	2724.310115
551.291237	2727.206257
551.649555	2737.883421
552.007817	2739.920047
552.366022	2746.435739
552.724173	2753.818509
553.082267	2760.359406
553.440305	2777.085954
553.798288	2773.962959
554.156215	2790.540794
554.514086	2796.020528
554.871902	2798.790642
555.229661	2807.219451
555.587365	2816.752273
555.945014	2819.598005
556.302606	2838.318329
556.660143	2838.779595
557.017625	2857.265506
557.375050	2864.161805
557.732421	2882.907335
558.089735	2890.660630
558.446994	2897.935015
558.804197	2911.626789
559.161345	2920.663057
559.518437	2924.632966
559.875474	2943.396140
560.232455	2958.600260
560.589381	2964.551342
560.946251	2988.413644
561.303065	2996.522340
561.659825	3010.168743
562.016528	3018.138808
562.373177	3018.642923
562.729770	3046.762479
563.086307	3051.372614
563.442789	3073.417580
563.799216	3088.021803
564.155587	3101.217023
564.511904	3119.594549
564.868164	3132.875469
565.224370	3150.078407
565.580520	3167.490552
565.936615	3174.790143
566.292654	3188.396217
566.648638	3212.051832
567.004567	3230.978844
567.360441	3246.392172
567.716260	3257.180241
568.072023	3279.590690
568.427732	3299.004174
568.783385	3303.972231
569.138982	3337.342149
569.494525	3355.669263
569.850013	3362.260572
570.205445	3400.056623
570.560823	3403.469484
570.916145	3421.206784
571.271412	3451.504119
571.626625	3466.446099
571.981782	3479.729539
572.336884	3503.974968
572.691931	3517.906197
573.046923	3546.918037
573.401860	3559.563772
573.756743	3575.047676
574.111570	3606.854836
574.466342	3620.070221
574.821059	3650.561640
575.175722	3655.418792
575.530330	3685.824511
575.884882	3703.453426
576.239380	3726.050398
576.593823	3738.660845
576.948211	3771.035135
577.302544	3764.433744
577.656823	3804.248777
578.011047	3825.093948
578.365216	3851.779296
578.719330	3860.873537
579.073389	3893.930904
579.427394	3902.208478
579.781344	3924.281170
580.135239	3943.213224
580.489080	3972.777070
580.842866	3981.236127
581.196597	4009.390971
581.550273	4044.331208
581.903895	4068.289292
582.257463	4104.041155
582.610975	4116.437352
582.964434	4133.703304
583.317837	4157.225328
583.671186	4170.339890
584.024481	4205.280127
584.377721	4206.978996
584.730906	4225.817788
585.084037	4270.885703
585.437113	4274.835447
585.790135	4312.835665
586.143103	4311.993792
586.496016	4331.301411
586.848874	4372.293554
587.201679	4396.256679
587.554428	4395.175351
587.907124	4432.449643
588.259765	4451.452272
588.612352	4492.928365
588.964884	4472.670489
589.317362	4507.396477
589.669786	4534.732134
590.022155	4570.685643
590.374470	4614.059731
590.726731	4608.491776
591.078937	4600.425930
591.431090	4664.652751
591.783188	4644.462929
592.135232	4675.733207
592.487222	4690.566802
592.839157	4744.673506
593.191038	4745.265842
593.542866	4753.185494
593.894639	4747.090739
594.246358	4793.320641
594.598022	4826.498995
594.949633	4818.143282
595.301190	4833.168441
595.652692	4871.135892
596.004141	4944.081388
596.355535	4885.987131
596.706876	4902.756529
597.058162	4903.215274
597.409395	4960.573523
597.760573	5011.889948
598.111698	4999.098020
598.462768	5024.858316
598.813785	5026.073234
599.164748	5053.776895
599.515657	5055.659766
599.866511	5060.095982
600.217312	5128.075941
600.568060	5094.829532
600.918753	5168.034647
601.269392	5182.233057
601.619978	5164.231097
601.970510	5222.889963
602.320988	5239.225822
602.671412	5299.782682
603.021783	5290.532165
603.372100	5305.645544
603.722363	5337.477910
604.072572	5341.689794
604.422728	5377.960896
604.772830	5365.630234
605.122878	5392.988576
605.472872	5415.285599
605.822813	5456.161795
606.172701	5449.895641
606.522534	5516.496845
606.872314	5541.203540
607.222041	5550.012957
607.571714	5606.357933
607.921333	5610.085866
608.270899	5642.240866
608.620411	5712.532195
608.969870	5686.290468
609.319276	5703.067428
609.668627	5742.496813
610.017926	5784.580366
610.367171	5841.794941
610.716362	5842.258727
611.065500	5862.536769
611.414585	5903.657461
611.763616	5917.155150
612.112594	5927.136635
612.461518	5962.356656
612.810389	6018.653742
613.159207	6005.612277
613.507971	5991.812118
613.856682	6096.148879
614.205340	6084.329894
614.553945	6153.179452
614.902496	6113.276199
615.250994	6170.616804
615.599439	6182.889493
615.947830	6214.920984
616.296169	6217.388629
616.644454	6246.718062
616.992686	6263.159785
617.340864	6326.461554
617.688990	6289.865298
618.037063	6364.834817
618.385082	6345.227249
618.733048	6430.450476
619.080961	6405.393421
619.428821	6440.673936
619.776628	6468.407844
620.124382	6450.196675
620.472083	6462.880218
620.819731	6499.610065
621.167326	6452.001408
621.514868	6476.060315
621.862357	6417.676192
622.209793	6446.950172
622.557176	6423.929743
622.904506	6423.511327
623.251783	6391.953704
623.599007	6382.080605
623.946179	6402.335961
624.293297	6394.050824
624.640363	6348.451067
624.987376	6359.549167
625.334336	6332.536145
625.681243	6314.619884
626.028097	6323.731769
626.374899	6319.562735
626.721647	6341.522001
627.068343	6299.715712
627.414987	6292.280011
627.761577	6272.443070
628.108115	6314.070398
628.454600	6245.946766
628.801032	6302.692514
629.147412	6278.527743
629.493739	6290.019053
629.840014	6249.533547
630.186236	6311.635521
630.532405	6231.932358
630.878521	6283.921777
631.224585	6264.483088
631.570597	6210.820006
631.916556	6255.280462
632.262462	6255.109063
632.608316	6241.137505
632.954117	6235.390589
633.299866	6230.483026
633.645562	6243.403503
633.991206	6185.629360
634.336797	6156.320091
634.682336	6128.994517
635.027823	6114.007167
635.373257	6121.982272
635.718639	6076.574079
636.063968	6101.822698
636.409245	6021.559967
636.754470	6030.669332
637.099642	6000.185474
637.444762	5968.015351
637.789829	5987.083516
638.134845	5946.421569
638.479808	5942.615498
638.824719	5949.189162
639.169577	5899.959774
639.514383	5935.275578
639.859137	5877.917329
640.203839	5889.937960
640.548489	5893.585235
640.893086	5877.133430
641.237632	5858.902097
641.582125	5886.404112
641.926566	5871.293253
642.270955	5884.191045
642.615292	5891.346963
642.959576	5906.934211
643.303809	5903.763325
643.647990	5918.743113
643.992118	5913.225571
644.336195	5874.713676
644.680219	5903.153345
645.024192	5896.473816
645.368112	5991.996120
645.711981	6012.982443
646.055797	6087.982210
646.399562	6056.275873
646.743274	6171.867010
647.086935	6221.918106
647.430544	6221.787036
647.774101	6251.620584
648.117606	6260.301451
648.461059	6258.917654
648.804460	6233.328758
649.147810	6154.172560
649.491108	6136.226052
649.834354	6118.017404
650.177548	6048.404111
650.520690	5973.490044
650.863781	5966.727336
651.206820	5989.145348
651.549807	5920.618423
651.892742	5874.877513
652.235626	5880.049737
652.578458	5875.081680
652.921238	5792.709226
653.263967	5832.254558
653.606644	5781.921157
653.949269	5785.999450
654.291843	5738.766359
654.634365	5784.580366
654.976836	5749.899748
655.319255	5746.116362
655.661622	5735.754270
656.003938	5729.803188
656.346203	5697.988466
656.688416	5734.748560
657.030577	5689.491601
657.372687	5667.154248
657.714746	5652.232433
658.056753	5701.537438
658.398708	5646.490559
658.740612	5639.473273
659.082465	5687.752403
659.424266	5685.549419
659.766016	5692.314647
660.107715	5666.362787
660.449362	5679.694119
660.790958	5681.093039
661.132503	5667.950751
661.473996	5708.375763
661.815438	5698.772365
662.156829	5697.086099
662.498168	5693.590059
662.839456	5671.661040
663.180693	5711.271906
663.521879	5716.262649
663.863013	5705.517429
664.204097	5722.075099
664.545129	5767.737871
664.886110	5767.324496
665.227040	5798.650226
665.567918	5771.473366
665.908746	5797.770545
666.249522	5798.365401
666.590248	5789.636643
666.930922	5819.381971
667.271545	5830.709444
667.612118	5838.568603
667.952639	5808.208254
668.293109	5830.522921
668.633528	5793.329288
668.973896	5799.487058
669.314213	5792.850378
669.654480	5782.508451
669.994695	5775.907060
670.334859	5770.008910
670.674973	5765.083703
671.015035	5763.341984
671.355047	5763.173106
671.695008	5756.191108
672.034918	5731.524742
672.374777	5739.341051
672.714585	5726.649946
673.054342	5731.741512
673.394049	5722.523762
673.733705	5764.052787
674.073310	5746.678450
674.412864	5707.871648
674.752368	5699.221028
675.091820	5709.124375
675.431223	5645.268079
675.770574	5647.150950
676.109875	5602.330051
676.449125	5605.889106
676.788324	5574.084466
677.127473	5522.359707
677.466571	5514.308984
677.805619	5507.470659
678.144616	5491.442311
678.483562	5472.764836
678.822458	5442.691832
679.161303	5439.853663
679.500098	5429.123567
679.838842	5417.987658
680.177535	5419.633595
680.516179	5439.556235
680.854771	5448.514365
681.193314	5524.900449
681.531805	5637.270288
681.870247	5788.336025
682.208638	5880.246342
682.546978	5892.914762
682.885268	5870.980701
683.223508	5786.417866
683.561697	5736.976750
683.899836	5708.721083
684.237925	5670.551986
684.575963	5634.238034
684.913951	5592.507363
685.251889	5654.586652
685.589776	5625.524400
685.927614	5596.063897
686.265401	5663.887581
686.603137	5649.437113
686.940824	5724.779678
687.278460	5750.108956
687.616046	5757.093474
687.953582	5824.249205
688.291068	5804.613911
688.628504	5869.483479
688.965889	5826.545451
689.303224	5776.227174
689.640510	5735.184620
689.977745	5661.641747
690.314930	5565.932920
690.652065	5505.749105
690.989150	5414.496659
691.326185	5340.764743
691.663170	5292.425118
692.000105	5213.410073
692.336990	5137.772601
692.673825	5117.582780
693.010610	5047.462850
693.347345	4978.807376
693.684030	4969.997960
694.020665	4925.960960
694.357251	4840.672199
694.693786	4848.100339
695.030272	4817.248477
695.366707	4781.909989
695.703093	4749.659207
696.039429	4771.404224
696.375716	4758.508953
696.711952	4727.639447
697.048139	4718.981266
697.384276	4695.716341
697.720363	4710.547415
698.056400	4722.474785
698.392388	4667.374974
698.728326	4653.070700
699.064214	4629.566320
699.400053	4619.915031
699.735842	4592.743212
700.071581	4567.209767
700.407270	4539.385119
700.742910	4522.446842
701.078501	4469.718893
701.414042	4469.668482
701.749533	4439.298050
702.084974	4375.285479
702.420366	4432.258079
702.755709	4374.967886
703.091002	4315.391530
703.426246	4366.481103
703.761440	4318.857323
704.096584	4282.984472
704.431679	4308.255777
704.766725	4290.808343
705.101721	4286.127632
705.436668	4306.451043
705.771565	4256.543620
706.106413	4286.767858
706.441212	4318.065862
706.775961	4326.708920
707.110661	4310.483967
707.445311	4335.092359
707.779913	4360.600598
708.114465	4367.890106
708.448967	4391.853231
708.783421	4453.483857
709.117825	4490.246472
709.452180	4497.956916
709.786485	4538.898647
710.120742	4630.143532
710.454949	4609.071509
710.789107	4679.834185
711.123216	4752.459568
711.457275	4744.086212
711.791286	4815.219413
712.125247	4830.161393
712.459159	4733.630859
712.793023	4809.603568
713.126837	4768.240900
713.460602	4759.600363
713.794318	4680.534906
714.127985	4693.079817
714.461602	4608.045634
714.795171	4577.299637
715.128691	4515.532899
715.462162	4455.091985
715.795584	4409.121703
716.128957	4391.076893
716.462281	4342.674254
716.795556	4316.682065
717.128782	4275.510962
717.461960	4211.596693
717.795088	4220.254874
718.128167	4179.887835
718.461198	4121.322230
718.794180	4113.916775
719.127113	4097.646451
719.459997	4077.529727
719.792833	4031.899723
720.125619	4023.390255
720.458357	3986.730984
720.791046	3995.066532
721.123686	3965.951348
721.456278	3926.501799
721.788821	3945.325467
722.121315	3914.856733
722.453761	3892.952920
722.786158	3907.473963
723.118506	3928.641768
723.450805	3877.988255
723.783056	3900.552459
724.115259	3918.025098
724.447412	3921.274122
724.779518	3918.808998
725.111574	3919.950819
725.443582	3949.943164
725.775542	3935.706946
726.107453	3985.410202
726.439315	3984.336436
726.771129	3998.623066
727.102895	4035.405845
727.434612	4081.378648
727.766281	4096.302984
728.097901	4092.728806
728.429473	4098.266513
728.760996	4103.884879
729.092471	4098.528653
729.423897	4087.395265
729.755276	4094.339454
730.086606	4088.131273
730.417887	4126.050833
730.749120	4190.335626
731.080305	4258.655864
731.411442	4279.057413
731.742530	4254.141511
732.073570	4254.196963
732.404562	4309.364830
732.735506	4300.593223
733.066401	4261.977984
733.397249	4198.222512
733.728048	4124.765338
734.058798	4040.759551
734.389501	3968.640804
734.720156	3911.935385
735.050762	3866.743961
735.381320	3859.925800
735.711831	3812.140703
736.042293	3779.776495
736.372707	3804.581493
736.703073	3773.512862
737.033391	3764.060698
737.363661	3785.384779
737.693883	3808.566525
738.024056	3819.725119
738.354182	3812.909479
738.684260	3874.275445
739.014290	3895.823857
739.344272	3888.854462
739.674207	3933.657717
740.004093	3939.709622
740.333931	3933.398097
740.663722	3932.659568
740.993464	3932.067232
741.323159	3906.876587
741.652806	3878.878018
741.982405	3853.410109
742.311956	3819.344512
742.641460	3809.889828
742.970915	3785.125160
743.300323	3747.934047
743.629683	3711.990620
743.958996	3704.045762
744.288260	3677.952749
744.617477	3641.487563
744.946647	3632.108496
745.275768	3609.602265
745.604842	3603.492387
745.933869	3555.447670
746.262847	3549.836866
746.591778	3586.559151
746.920662	3553.844583
747.249498	3528.664019
747.578286	3571.914599
747.907027	3589.815736
748.235720	3586.891867
748.564365	3614.668625
748.892963	3611.444807
749.221514	3593.405038
749.550017	3570.984506
749.878473	3569.857808
750.206881	3537.788508
750.535242	3534.990668
750.863555	3539.021070
751.191821	3537.980072
751.520039	3515.171371
751.848210	3492.302177
752.176334	3528.021272
752.504411	3534.652910
752.832440	3493.524657
753.160421	3477.166112
753.488356	3484.019561
753.816243	3498.787621
754.144082	3453.513018
754.471875	3440.002726
754.799620	3460.999132
755.127318	3449.099488
755.454969	3449.114612
755.782572	3457.157773
756.110129	3431.954524
756.437638	3423.356836
756.765100	3435.942077
757.092515	3446.553706
757.419882	3453.596198
757.747203	3428.372784
758.074477	3429.048299
758.401703	3444.186884
758.728882	3466.511634
759.056014	3473.342397
759.383099	3475.646204
759.710138	3471.663693
760.037129	3489.327896
760.364073	3519.486599
760.690970	3503.833816
761.017820	3480.800784
761.344623	3500.264679
761.671379	3547.336453
761.998088	3595.502158
762.324751	3721.715006
762.651366	3968.555104
762.977935	4435.983492
763.304456	4869.260582
763.630931	4959.983708
763.957359	4602.041620
764.283740	4259.850617
764.610074	4076.077874
764.936362	3881.055797
765.262602	3726.983012
765.588796	3615.412195
765.914943	3528.522867
766.241044	3442.031791
766.567097	3414.799478
766.893104	3365.615460
767.219064	3338.761233
767.544978	3308.365596
767.870845	3255.655292
768.196665	3236.267014
768.522438	3247.667583
768.848165	3239.745410
769.173846	3205.337015
769.499479	3187.892102
769.825066	3174.152437
770.150607	3156.190806
770.476101	3172.370389
770.801548	3166.394101
771.126949	3121.943727
771.452303	3106.086778
771.777611	3112.766307
772.102872	3117.389045
772.428087	3093.582196
772.753256	3079.610638
773.078378	3074.393043
773.403453	3040.692930
773.728482	3030.131713
774.053465	3050.601318
774.378401	3040.529092
774.703291	3008.933661
775.028135	3011.189577
775.352932	3004.842764
775.677683	2992.587719
776.002388	2990.074704
776.327046	2993.273316
776.651658	2980.781337
776.976224	2964.175776
777.300743	2968.816158
777.625216	2961.506485
777.949643	2956.213274
778.274024	2956.598922
778.598359	2946.415791
778.922647	2952.356791
779.246889	2951.850155
779.571086	2934.881631
779.895236	2927.720672
780.219339	2939.597631
780.543397	2952.918880
780.867409	2954.368212
781.191374	2948.608693
781.515294	2945.503343
781.839167	2944.593414
782.162995	2938.276848
782.486776	2946.362859
782.810511	2944.661470
783.134201	2930.490786
783.457844	2934.581683
783.781441	2926.853594
784.104993	2907.190573
784.428498	2910.174936
784.751958	2923.594488
785.075372	2916.521749
785.398739	2899.598596
785.722061	2916.441091
786.045337	2929.001125
786.368568	2914.593508
786.691752	2905.458937
787.014891	2952.477779
787.337983	2978.769917
787.661030	3008.696727
787.984031	3076.359093
788.306987	3124.423975
788.629897	3113.456945
788.952760	3098.822475
789.275579	3082.048036
789.598351	3024.210878
789.921078	2977.625575
790.243759	2970.799853
790.566395	2954.322841
790.888984	2929.391815
791.211529	2913.267684
791.534027	2904.987589
791.856480	2895.923594
792.178888	2880.989176
792.501249	2871.325284
792.823566	2868.033411
793.145836	2867.224306
793.468062	2862.541074
793.790241	2861.013604
794.112375	2866.516023
794.434464	2878.980276
794.756507	2880.742160
795.078505	2889.191133
795.400457	2905.469019
795.722364	2938.649894
796.044226	2962.887762
796.366042	2965.559573
796.687812	2953.165896
797.009538	2976.708085
797.331218	2963.911116
797.652852	2945.336984
797.974442	2928.960796
798.295986	2926.911567
798.617484	2921.104158
798.938938	2907.339287
799.260346	2890.718603
799.581709	2884.570916
799.903026	2877.790564
800.224299	2871.131200
800.545526	2863.982844
800.866708	2847.972139
801.187845	2838.656087
801.508936	2839.243381
801.829983	2846.439628
802.150984	2833.355313
802.471940	2823.819971
802.792851	2822.799137
803.113717	2820.500371
803.434538	2827.971361
803.755314	2821.223777
804.076045	2814.025009
804.396731	2815.912921
804.717372	2812.847900
805.037967	2810.057621
805.358518	2817.190854
805.679024	2826.685867
805.999485	2825.022286
806.319901	2825.291988
806.640272	2820.389466
806.960598	2824.329127
807.280879	2836.564008
807.601115	2843.291428
807.921306	2828.218378
808.241453	2822.799137
808.561554	2831.129644
808.881611	2831.061588
809.201623	2825.654951
809.521590	2822.484065
809.841513	2820.230669
810.161390	2825.687718
810.481223	2817.347129
810.801011	2809.125007
811.120755	2807.894966
811.440453	2809.087199
811.760107	2807.784061
812.079716	2808.668783
812.399281	2796.925415
812.718801	2789.875362
813.038276	2786.465021
813.357707	2792.794190
813.677093	2799.186373
813.996434	2795.468522
814.315731	2789.517440
814.634983	2785.459311
814.954191	2788.058026
815.273354	2796.567493
815.592473	2808.167188
815.911547	2807.413536
816.230577	2817.105154
816.549562	2825.647389
816.868502	2824.606391
817.187399	2834.653411
817.506250	2849.799557
817.825058	2842.570543
818.143821	2855.422964
818.462539	2872.603217
818.781213	2897.725807
819.099843	2932.103956
819.418429	2988.806854
819.736970	3051.720454
820.055466	3121.550517
820.373919	3224.153121
820.692327	3360.130685
821.010691	3524.749563
821.329011	3960.017910
821.647286	4843.565821
821.965517	6190.945257
822.283704	6907.855307
822.601847	6875.501181
822.919945	6262.159116
823.237999	5770.255927
823.556010	5197.835428
823.873976	4661.280219
824.191897	4264.821195
824.509775	3974.607009
824.827609	3714.738049
825.145398	3594.650203
825.463144	3583.552102
825.780845	3674.118952
826.098502	3780.648615
826.416116	4057.574319
826.733685	4361.850804
827.051210	4417.472375
827.368692	4304.973985
827.686129	4048.991755
828.003522	3730.350503
828.320872	3478.922954
828.638177	3287.124695
828.955439	3152.969508
829.272656	3072.202662
829.589830	3008.628671
829.906960	2959.910960
830.224046	2915.422778
830.541088	2884.190309
830.858086	2866.843698
831.175041	2848.982890
831.491952	2853.053622
831.808819	2865.074253
832.125642	2889.070146
832.442421	2934.054882
832.759157	3009.253774
833.075849	3183.050073
833.392497	3462.241776
833.709101	3658.312414
834.025662	3603.205041
834.342179	3451.163841
834.658653	3279.694034
834.975083	3134.894451
835.291469	3041.496994
835.607811	2954.693366
835.924110	2899.089439
836.240366	2849.290401
836.556578	2807.804225
836.872746	2784.262037
837.188871	2765.904675
837.504952	2746.105543
837.820990	2740.817373
838.136984	2729.782287
838.452935	2720.834239
838.768842	2717.035730
839.084706	2737.296127
839.400526	2815.620534
839.716303	2944.117025
840.032037	3019.091586
840.347727	3008.414422
840.663373	2946.065431
840.978977	2873.185470
841.294537	2801.044038
841.610054	2754.191554
841.925527	2735.020046
842.240957	2714.356356
842.556344	2691.807275
842.871687	2675.552075
843.186987	2667.685354
843.502244	2666.377175
843.817458	2660.968017
844.132629	2645.738691
844.447756	2637.062865
844.762840	2631.658748
845.077881	2637.246867
845.392879	2633.261835
845.707833	2630.320322
846.022745	2625.299332
846.337613	2625.909312
846.652438	2624.018879
846.967221	2627.585496
847.281960	2624.918725
847.596656	2623.565176
847.911309	2621.294136
848.225919	2616.200050
848.540485	2614.768362
848.855009	2614.133177
849.169490	2613.495471
849.483928	2617.276336
849.798323	2613.694596
850.112675	2611.796602
850.426984	2613.104781
850.741251	2609.911210
851.055474	2611.884822
851.369654	2615.713578
851.683792	2614.690224
851.997887	2611.970522
852.311938	2611.368104
852.625947	2615.625358
852.939914	2616.273147
853.253837	2617.903960
853.567718	2612.305758
853.881555	2608.078751
854.195350	2613.886160
854.509103	2613.092178
854.822812	2612.073865
855.136479	2611.799122
855.450103	2611.781478
855.763685	2615.897581
856.077224	2610.564040
856.390720	2609.354163
856.704173	2614.443208
857.017584	2615.103599
857.330953	2616.447066
857.644278	2619.275154
857.957561	2618.655092
858.270802	2615.065790
858.584000	2615.970677
858.897155	2619.202057
859.210268	2617.724999
859.523339	2615.101078
859.836367	2611.148814
860.149352	2610.775768
860.462295	2613.019082
860.775195	2609.076899
861.088054	2609.583535
861.400869	2605.364090
861.713642	2602.936774
862.026373	2605.706888
862.339062	2608.272835
862.651708	2615.040584
862.964312	2617.412447
863.276873	2611.668052
863.589392	2617.374639
863.901869	2619.683487
864.214303	2623.996194
864.526696	2627.648510
864.839045	2629.291926
865.151353	2630.080867
865.463619	2629.700260
865.775842	2630.854684
866.088023	2631.570528
866.400162	2631.227729
866.712258	2629.942235
867.024313	2628.777729
867.336325	2624.676750
867.648296	2628.019035
867.960224	2631.862915
868.272110	2629.780918
868.583954	2624.994343
868.895755	2627.368726
869.207515	2634.244860
869.519233	2638.807104
869.830909	2635.590848
870.142542	2628.550877
870.454134	2634.073461
870.765684	2636.268883
871.077191	2641.400778
871.388657	2645.587456
871.700081	2639.860705
872.011463	2639.739718
872.322803	2637.798873
872.634101	2644.170892
872.945357	2648.715492
873.256571	2658.069353
873.567744	2654.354023
873.878874	2652.514002
874.189963	2652.612304
874.501010	2659.070022
874.812015	2665.132010
875.122979	2662.492966
875.433900	2653.844866
875.744780	2654.714465
876.055618	2660.300064
876.366415	2664.637977
876.677169	2664.431289
876.987882	2656.120947
877.298554	2658.901143
877.609183	2666.535971
877.919771	2676.716581
878.230317	2681.551048
878.540822	2687.119002
878.851285	2701.819007
879.161707	2725.958572
879.472087	2764.825868
879.782425	2808.136941
880.092722	2919.846390
880.402977	3102.079060
880.713191	3349.345136
881.023363	3633.832571
881.333494	3813.277483
881.643583	3980.091785
881.953631	3980.913493
882.263637	3805.181390
882.573602	3590.665171
882.883526	3467.189669
883.193408	3360.115561
883.503248	3262.677619
883.813048	3151.079076
884.122806	3038.953732
884.432522	2955.822584
884.742197	2898.842423
885.051831	2862.140302
885.361424	2829.796259
885.670975	2794.666978
885.980485	2765.516506
886.289954	2749.765421
886.599382	2731.070302
886.908768	2724.471432
887.218113	2704.231199
887.527417	2690.917512
887.836680	2682.541634
888.145901	2678.801098
888.455082	2671.773730
888.764221	2658.893582
889.073319	2653.053405
889.382376	2654.054074
889.691392	2653.486944
890.000366	2654.568272
890.309300	2652.019968
890.618193	2652.917294
890.927044	2657.817295
891.235855	2657.797131
891.544625	2653.696152
891.853353	2656.914929
892.162041	2664.217040
892.470687	2684.938703
892.779293	2692.565969
893.087858	2704.485777
893.396381	2723.304404
893.704864	2764.755292
894.013306	2832.057216
894.321707	2920.839497
894.630068	2965.793987
894.938387	2987.077738
895.246665	2975.972076
895.554903	2941.155347
895.863100	2896.326887
896.171256	2839.182887
896.479371	2780.087961
896.787446	2744.169740
897.095480	2727.392780
897.403473	2719.959599
897.711425	2705.635160
898.019336	2692.001360
898.327207	2675.700789
898.635038	2674.725325
898.942827	2672.918072
899.250576	2663.707884
899.558284	2651.082314
899.865952	2648.773465
900.173579	2648.246665
900.481165	2646.434370
900.788711	2636.669655
901.096216	2628.228243
901.403681	2628.878552
901.711105	2629.712863
902.018489	2627.865280
902.325832	2629.302009
902.633135	2632.092287
902.940397	2648.201294
903.247619	2681.508198
903.554800	2747.242323
903.861941	2867.441075
904.169041	2987.596977
904.476101	3046.606203
904.783121	3040.791232
905.090100	2983.266626
905.397039	2911.531007
905.703938	2844.675224
906.010796	2783.679783
906.317614	2736.182032
906.624391	2701.335056
906.931129	2674.619461
907.237826	2654.273364
907.544483	2636.578914
907.851099	2624.661627
908.157675	2616.517642
908.464211	2610.874071
908.770707	2600.438882
909.077163	2592.801534
909.383578	2588.617377
909.689954	2591.475711
909.996289	2589.040833
910.302584	2590.497727
910.608839	2582.079000
910.915054	2587.997315
911.221229	2588.365319
911.527363	2589.822212
911.833458	2588.319948
912.139513	2587.525967
912.445527	2592.675505
912.751502	2596.146340
913.057436	2601.227823
913.363331	2607.839296
913.669186	2614.493619
913.975000	2630.675723
914.280775	2646.729277
914.586510	2662.782832
914.892205	2697.670137
915.197859	2760.974427
915.503475	2840.821262
915.809050	2901.610016
916.114585	2913.948240
916.420081	2926.425096
916.725536	2939.123762
917.030952	2916.105854
917.336328	2867.796477
917.641665	2821.518684
917.946961	2775.356838
918.252218	2740.083885
918.557435	2716.773590
918.862612	2698.542257
919.167750	2680.336130
919.472848	2666.667041
919.777906	2649.186840
920.082925	2636.634367
920.387904	2629.307050
920.692843	2622.965278
920.997743	2622.133488
921.302603	2615.244751
921.607423	2606.299224
921.912204	2602.352000
922.216946	2598.119952
922.521647	2596.955445
922.826310	2593.330855
923.130932	2590.901019
923.435516	2585.348188
923.740059	2582.482292
924.044564	2580.460790
924.349028	2582.149576
924.653454	2571.674058
924.957840	2571.255643
925.262186	2564.903789
925.566493	2571.132134
925.870761	2564.984447
926.174989	2569.201373
926.479178	2563.983778
926.783328	2563.406566
927.087438	2562.378171
927.391509	2565.753223
927.695541	2560.011349
927.999533	2558.791390
928.303486	2558.062943
928.607400	2557.770556
928.911275	2555.370967
929.215110	2556.396842
929.518906	2554.506409
929.822663	2555.396173
930.126381	2555.953220
930.430060	2557.896585
930.733699	2557.826009
931.037299	2555.902809
931.340861	2557.452963
931.644383	2559.434137
931.947866	2558.335165
932.251309	2558.922460
932.554714	2556.444733
932.858080	2555.786862
933.161407	2556.686708
933.464694	2556.575803
933.767943	2553.483055
934.071153	2554.745864
934.374323	2551.824515
934.677455	2555.449105
934.980548	2553.432643
935.283602	2553.074721
935.586617	2553.946841
935.889593	2554.990360
936.192530	2553.372149
936.495428	2554.760987
936.798287	2554.090514
937.101108	2555.731409
937.403890	2560.255845
937.706632	2561.964796
938.009336	2566.718604
938.312002	2571.492577
938.614628	2572.094995
938.917216	2573.526682
939.219765	2573.766137
939.522275	2577.337795
939.824747	2576.122877
940.127179	2569.450910
940.429573	2565.493604
940.731929	2567.626012
941.034246	2564.412276
941.336524	2564.979406
941.638763	2567.270611
941.940964	2565.281875
942.243126	2563.522513
942.545250	2561.889179
942.847335	2562.368088
943.149381	2562.632749
943.451389	2559.224929
943.753359	2560.200392
944.055290	2556.686708
944.357182	2558.274672
944.659036	2555.232335
944.960851	2558.279713
945.262628	2556.149825
945.564367	2556.245607
945.866067	2553.994732
946.167729	2555.068498
946.469352	2559.439178
946.770937	2557.644527
947.072484	2554.017417
947.373992	2556.144784
947.675462	2556.250648
947.976893	2555.481872
948.278286	2557.016904
948.579641	2553.619166
948.880958	2556.459856
949.182236	2555.202088
949.483476	2554.503888
949.784678	2552.474824
950.085841	2553.029351
950.386967	2555.834753
950.688054	2554.808878
950.989103	2556.734599
951.290114	2554.884496
951.591087	2558.677964
951.892021	2558.554456
952.192917	2562.398335
952.493776	2560.684343
952.794596	2562.642831
953.095378	2562.027811
953.396122	2564.056875
953.696828	2561.518654
953.997496	2560.747357
954.298126	2557.707542
954.598718	2555.917932
954.899272	2553.682180
955.199788	2555.285267
955.500266	2553.959444
955.800706	2550.153373
956.101108	2545.361756
956.401472	2545.588608
956.701798	2545.560882
957.002087	2546.317055
957.302337	2548.666232
957.602550	2546.322096
957.902724	2545.548279
958.202861	2547.332847
958.502960	2546.150697
958.803022	2545.341591
959.103045	2543.463762
959.403031	2543.967877
959.702979	2545.422250
960.002889	2541.018802
960.302762	2542.904193
960.602596	2542.379913
960.902393	2542.236241
961.202153	2545.001313
961.501875	2541.903524
961.801559	2542.160623
962.101205	2540.597866
962.400814	2541.689275
962.700385	2543.148689
962.999918	2543.788916
963.299414	2540.171888
963.598873	2543.899821
963.898293	2540.335726
964.197677	2541.018802
964.497022	2543.078113
964.796331	2541.616179
965.095601	2541.432177
965.394835	2542.047197
965.694030	2538.999820
965.993189	2540.686086
966.292309	2541.396888
966.591393	2540.676003
966.890439	2542.042156
967.189447	2538.934285
967.488419	2539.433359
967.787353	2540.509645
968.086249	2541.444779
968.385108	2539.808925
968.683930	2539.070396
968.982714	2542.957126
969.281462	2541.578370
969.580172	2542.677342
969.878844	2538.931764
970.177480	2541.301107
970.476078	2541.543082
970.774639	2542.127856
971.073162	2542.057280
971.371649	2537.253060
971.670098	2537.500077
971.968510	2541.606096
972.266885	2536.970755
972.565223	2542.415202
972.863524	2541.659028
973.161788	2543.930068
973.460014	2541.996786
973.758204	2542.246323
974.056356	2543.047866
974.354471	2543.630120
974.652550	2542.173226
974.950591	2540.713812
975.248595	2542.316899
975.546563	2540.403781
975.844493	2545.565923
976.142386	2541.268339
976.440243	2539.423277
976.738062	2540.842362
977.035845	2540.786909
977.333590	2538.583925
977.631299	2541.976621
977.928971	2539.385468
978.226606	2540.524769
978.524204	2539.100643
978.821765	2536.814480
979.119290	2541.487629
979.416777	2541.354039
979.714228	2540.396219
980.011642	2538.750283
980.309020	2539.609799
980.606360	2538.014274
980.903664	2542.203473
981.200931	2541.510314
981.498162	2544.240099
981.795356	2544.434184
982.092513	2546.896787
982.389633	2547.398382
982.686717	2553.656975
982.983764	2552.005997
983.280775	2555.577654
983.577749	2554.824002
983.874686	2554.597150
984.171587	2551.554813
984.468451	2549.871068
984.765279	2548.419216
985.062070	2544.585418
985.358824	2544.764379
985.655543	2543.816642
985.952224	2541.911086
986.248869	2538.460416
986.545478	2537.116949
986.842050	2539.561908
987.138586	2533.867925
987.435086	2535.387833
987.731549	2534.697195
988.027975	2539.168698
988.324366	2539.791281
988.620719	2540.698689
988.917037	2537.225334
989.213318	2538.389840
989.509563	2537.931095
989.805772	2540.633154
990.101944	2538.692309
990.398080	2535.231557
990.694180	2536.774150
990.990244	2535.879346
991.286271	2539.090561
991.582262	2538.651980
991.878217	2537.454706
992.174136	2537.046373
992.470019	2535.813811
992.765865	2536.953111
993.061676	2538.251208
993.357450	2540.373534
993.653188	2536.406146
993.948890	2536.869932
994.244556	2538.538554
994.540186	2538.001671
994.835780	2540.073586
995.131337	2541.701878
995.426859	2538.924203
995.722345	2538.054603
996.017795	2539.123328
996.313208	2543.282280
996.608586	2543.045346
996.903928	2542.518545
997.199234	2538.097453
997.494504	2541.865716
997.789738	2540.663401
998.084936	2540.003009
998.380099	2535.909592
998.675225	2540.093750
998.970316	2539.209028
999.265371	2540.134079
999.560390	2537.142155
999.855373	2538.147865
1000.150320	2535.874304
1000.445232	2536.330529
1000.740108	2537.595858
1001.034948	2536.953111
1001.329752	2536.640560
1001.624521	2537.295910
1001.919254	2532.353058
1002.213951	2533.913296
1002.508613	2531.528830
1002.803239	2534.624098
1003.097829	2531.874149
1003.392384	2535.793646
1003.686903	2534.785415
1003.981386	2538.815818
1004.275834	2536.995961
1004.570246	2537.318595
1004.864623	2535.314736
1005.158964	2538.558719
1005.453270	2536.852288
1005.747540	2537.338760
1006.041775	2537.119469
1006.335974	2536.363296
1006.630138	2536.270035
1006.924266	2534.278779
1007.218359	2536.459078
1007.512416	2536.128883
1007.806438	2535.465971
1008.100425	2537.225334
1008.394376	2535.778523
1008.688292	2535.256763
1008.982172	2536.239788
1009.276017	2535.324819
1009.569827	2537.058976
1009.863602	2538.780530
1010.157341	2536.108718
1010.451045	2536.149047
1010.744714	2533.998995
1011.038347	2534.956814
1011.331945	2533.227699
1011.625508	2537.560570
1011.919036	2534.351876
1012.212528	2533.646114
1012.505986	2535.612164
1012.799408	2534.424973
1013.092795	2536.638039
1013.386147	2536.030580
1013.679464	2534.460261
1013.972745	2535.382792
1014.265992	2537.144675
1014.559204	2534.127545
1014.852380	2535.985210
1015.145521	2534.180477
1015.438628	2535.395395
1015.731699	2536.385982
1016.024736	2534.982020
1016.317737	2535.569315
1016.610703	2536.065868
1016.903635	2532.920188
1017.196531	2531.866587
1017.489393	2533.691485
1017.782219	2531.750641
1018.075011	2537.154757
1018.367768	2537.495035
1018.660490	2537.187525
1018.953177	2537.187525
1019.245829	2537.187525
