Dividing Wavelength (nm)	Counts (n)	Blue Motor Position (mm): 10.100000	Red Motor Position (mm): 0.000000	
326.493990	2135.848664
326.888308	2135.848664
327.282561	2135.848664
327.676750	2106.471340
328.070874	2106.839345
328.464933	2108.374376
328.858929	2117.665223
329.252859	2122.063629
329.646726	2137.981073
330.040528	2149.968936
330.434265	2165.946873
330.827938	2181.987825
331.221547	2202.258305
331.615091	2222.634648
332.008571	2240.624006
332.401986	2258.973806
332.795338	2279.675304
333.188625	2298.690537
333.581847	2316.379945
333.975006	2333.671103
334.368100	2353.878568
334.761129	2372.891280
335.154095	2387.702190
335.546996	2407.473595
335.939833	2425.099990
336.332606	2439.401743
336.725315	2450.673763
337.117960	2460.866976
337.510540	2468.736218
337.903056	2478.246354
338.295508	2485.550986
338.687896	2495.431648
339.080220	2500.664365
339.472480	2508.793226
339.864676	2514.550224
340.256807	2518.857890
340.648875	2522.787469
341.040879	2524.133457
341.432818	2524.992974
341.824694	2526.044054
342.216506	2525.812161
342.608253	2526.041534
342.999937	2528.025228
343.391557	2524.519105
343.783113	2523.495751
344.174605	2524.284692
344.566033	2523.861235
344.957397	2523.563807
345.348697	2518.729340
345.739934	2520.995339
346.131106	2515.369411
346.522215	2516.672549
346.913260	2514.267919
347.304241	2513.184071
347.695159	2507.031343
348.086012	2509.201559
348.476802	2502.980776
348.867528	2505.715602
349.258191	2502.887514
349.648789	2502.080930
350.039324	2497.942142
350.429796	2501.970024
350.820203	2497.448109
351.210548	2495.038438
351.600828	2495.320742
351.991045	2495.282934
352.381198	2494.846874
352.771288	2494.075577
353.161314	2494.718324
353.551276	2496.956597
353.941175	2493.717655
354.331010	2490.720689
354.720782	2493.926863
355.110490	2491.151708
355.500135	2494.330156
355.889717	2494.698160
356.279235	2493.820999
356.668689	2494.730927
357.058080	2494.398211
357.447408	2490.219095
357.836672	2492.716986
358.225873	2494.037769
358.615010	2494.226812
359.004084	2495.794611
359.393095	2497.468274
359.782043	2500.124962
360.170927	2497.271669
360.559748	2497.269148
360.948505	2500.059427
361.337199	2497.569097
361.725830	2502.186794
362.114398	2501.927174
362.502903	2502.116218
362.891344	2500.427431
363.279722	2503.512617
363.668037	2502.479181
364.056289	2502.665703
364.444478	2506.068482
364.832603	2505.410612
365.220665	2504.578821
365.608665	2502.844664
365.996601	2503.691578
366.384474	2503.515138
366.772284	2508.873884
367.160031	2501.576814
367.547715	2505.743328
367.935336	2506.590242
368.322893	2506.280211
368.710388	2506.527227
369.097820	2511.122239
369.485189	2504.460354
369.872495	2510.398833
370.259738	2507.613596
370.646918	2506.711229
371.034035	2507.671569
371.421090	2510.056035
371.808081	2507.406909
372.195010	2510.403875
372.581875	2510.393792
372.968678	2510.040912
373.355418	2510.265243
373.742096	2511.137363
374.128710	2511.938906
374.515262	2511.523011
374.901751	2510.605521
375.288177	2511.417147
375.674540	2512.654750
376.060841	2512.117867
376.447079	2510.802126
376.833254	2510.968484
377.219367	2509.635099
377.605417	2508.725170
377.991404	2509.410767
378.377329	2509.899759
378.763191	2505.428256
379.148991	2512.846314
379.534727	2515.359329
379.920402	2513.093330
380.306013	2514.058711
380.691563	2513.589884
381.077049	2512.863958
381.462474	2517.433764
381.847835	2516.158352
382.233134	2514.973681
382.618371	2514.066273
383.003545	2516.294463
383.388657	2516.112981
383.773706	2516.808661
384.158693	2513.930162
384.543618	2516.281860
384.928480	2516.891840
385.313280	2514.711541
385.698017	2516.102899
386.082692	2517.133815
386.467305	2513.902435
386.851856	2517.070801
387.236344	2518.873013
387.620770	2518.941069
388.005133	2516.518794
388.389435	2520.690349
388.773674	2520.715555
389.157851	2518.237828
389.541965	2520.891995
389.926018	2518.179854
390.310008	2516.753208
390.693936	2520.140863
391.077802	2520.138343
391.461606	2519.548528
391.845348	2517.290091
392.229027	2522.043899
392.612645	2519.624145
392.996200	2519.162879
393.379694	2521.386028
393.763125	2520.924763
394.146494	2520.594567
394.529801	2521.469207
394.913047	2523.548683
395.296230	2522.089269
395.679351	2521.857376
396.062410	2522.303518
396.445408	2521.108765
396.828343	2526.099507
397.211217	2520.466018
397.594028	2520.370236
397.976778	2519.175482
398.359466	2522.946265
398.742092	2518.144566
399.124656	2522.447191
399.507158	2525.857532
399.889598	2523.115144
400.271977	2523.079856
400.654294	2523.475587
401.036549	2524.972809
401.418742	2523.946934
401.800874	2523.462984
402.182944	2523.168076
402.564952	2524.977850
402.946898	2524.219157
403.328783	2526.119672
403.710606	2526.160001
404.092367	2526.288550
404.474067	2527.528674
404.855705	2528.186545
405.237282	2525.434075
405.618797	2528.015146
406.000250	2525.141688
406.381642	2527.884076
406.762972	2528.763757
407.144240	2525.600433
407.525447	2529.242667
407.906593	2528.509179
408.287677	2529.681247
408.668700	2524.970289
409.049661	2529.734179
409.430560	2529.799714
409.811399	2528.042872
410.192176	2526.558252
410.572891	2530.548325
410.953545	2528.378109
411.334138	2528.163860
411.714669	2526.160001
412.095139	2529.366175
412.475547	2526.563293
412.855894	2528.594878
413.236180	2530.583613
413.616405	2532.703419
413.996568	2527.657224
414.376670	2529.499765
414.756711	2530.165198
415.136691	2531.599406
415.516609	2531.390198
415.896466	2530.313912
416.276262	2531.750641
416.655997	2526.265865
417.035670	2524.405679
417.415283	2532.907585
417.794834	2527.500948
418.174324	2531.110414
418.553753	2530.255938
418.933121	2531.977493
419.312428	2532.179139
419.691674	2531.957328
420.070859	2531.342307
420.449983	2530.901206
420.829045	2531.790970
421.208047	2533.598223
421.586988	2532.209386
421.965867	2533.457071
422.344686	2531.102852
422.723444	2532.408511
423.102141	2532.708460
423.480777	2533.043697
423.859352	2535.019829
424.237866	2533.086546
424.616319	2534.742565
424.994712	2532.189221
425.373044	2533.149561
425.751314	2535.042514
426.129524	2535.483615
426.507673	2533.346166
426.885762	2534.561084
427.263789	2533.643594
427.641756	2533.421783
428.019662	2534.099818
428.397508	2533.446989
428.775292	2535.465971
429.153016	2533.996475
429.530679	2534.755168
429.908282	2534.971938
430.285824	2532.113604
430.663305	2532.650487
431.040726	2533.933460
431.418086	2534.775333
431.795385	2534.182997
432.172624	2535.347504
432.549802	2536.164171
432.926920	2532.000178
433.303977	2537.023687
433.680974	2540.285314
434.057910	2534.109901
434.434786	2536.126362
434.811601	2536.567463
435.188355	2537.064017
435.565050	2534.389685
435.941683	2537.535365
436.318257	2532.824406
436.694770	2531.788449
437.071222	2537.290869
437.447614	2530.334076
437.823946	2534.286341
438.200218	2536.204500
438.576429	2534.790456
438.952580	2538.379758
439.328670	2537.681558
439.704700	2536.663245
440.080670	2538.725077
440.456580	2540.648277
440.832429	2539.221631
441.208218	2537.898328
441.583947	2539.130890
441.959616	2537.774819
442.335224	2539.065355
442.710773	2536.683410
443.086261	2537.689120
443.461689	2538.382278
443.837057	2539.261960
444.212365	2538.226003
444.587612	2539.607279
444.962800	2540.993596
445.337927	2537.966383
445.712995	2539.511497
446.088002	2539.831610
446.462949	2539.282124
446.837837	2542.294214
447.212664	2541.260777
447.587431	2537.505118
447.962139	2540.048380
448.336786	2541.727084
448.711374	2540.451672
449.085901	2540.865047
449.460369	2540.292876
449.834776	2540.302958
450.209124	2537.873122
450.583412	2540.068544
450.957640	2540.315561
451.331808	2541.270860
451.705917	2541.933771
452.079965	2541.822866
452.453954	2540.078627
452.827883	2542.440407
453.201752	2539.236754
453.575562	2542.165664
453.949311	2536.960673
454.323001	2542.810932
454.696632	2541.437218
455.070202	2539.733308
455.443713	2542.453010
455.817164	2539.710622
456.190556	2538.450334
456.563888	2538.803215
456.937160	2539.549306
457.310373	2542.374872
457.683526	2542.987372
458.056619	2540.880170
458.429653	2543.153731
458.802628	2543.930068
459.175542	2541.369162
459.548398	2540.968390
459.921194	2540.796991
460.293930	2542.803370
460.666607	2543.814122
461.039224	2543.743546
461.411782	2543.085675
461.784280	2540.363452
462.156719	2543.806560
462.529099	2542.006868
462.901419	2541.379244
463.273680	2542.677342
463.645882	2542.097609
464.018024	2541.843031
464.390106	2542.861344
464.762130	2544.482075
465.134094	2544.250182
465.505999	2543.057949
465.877845	2543.226827
466.249631	2543.630120
466.621358	2544.187167
466.993026	2546.276725
467.364634	2550.380225
467.736184	2543.804039
468.107674	2542.286652
468.479105	2543.098278
468.850477	2545.921324
469.221790	2546.097764
469.593043	2545.535676
469.964238	2546.213711
470.335373	2546.117929
470.706449	2546.377548
471.077467	2543.657846
471.448425	2545.495347
471.819324	2545.989380
472.190164	2546.997610
472.560945	2543.758669
472.931667	2544.129194
473.302330	2544.308155
473.672934	2546.972405
474.043479	2544.633309
474.413965	2546.180943
474.784393	2542.415202
475.154761	2544.209852
475.525070	2543.373021
475.895321	2543.988042
476.265513	2538.445293
476.635645	2544.540048
477.005719	2547.652960
477.375734	2546.433001
477.745691	2546.168341
478.115588	2544.764379
478.485427	2545.500388
478.855207	2547.673125
479.224928	2546.760676
479.594591	2546.536345
479.964194	2547.506767
480.333739	2545.986859
480.703226	2543.995603
481.072653	2549.135060
481.442022	2545.407126
481.811333	2546.047353
482.180584	2550.435677
482.549777	2544.661036
482.918912	2547.491643
483.287988	2545.172713
483.657005	2545.218083
484.025964	2545.656663
484.394864	2544.323278
484.763706	2550.866696
485.132489	2548.081458
485.501213	2548.421736
485.869879	2545.969215
486.238487	2546.629606
486.607036	2545.858310
486.975527	2548.436860
487.343959	2548.762014
487.712333	2549.414844
488.080648	2546.125491
488.448905	2548.325954
488.817104	2547.380738
489.185244	2547.789072
489.553326	2545.449976
489.921350	2549.845862
490.289315	2546.846376
490.657222	2549.326623
491.025070	2548.517518
491.392861	2550.138249
491.760593	2547.297559
492.128267	2550.052550
492.495883	2548.905687
492.863440	2550.145811
493.230939	2549.523228
493.598380	2549.346788
493.965763	2545.573484
494.333088	2544.144317
494.700354	2544.338402
495.067563	2546.843855
495.434713	2541.396888
495.801805	2550.564227
496.168839	2547.116077
496.535815	2552.167314
496.902733	2549.823177
497.269593	2549.936603
497.636395	2550.584391
498.003139	2548.504915
498.369825	2550.521377
498.736453	2550.309648
499.103023	2550.135729
499.469535	2548.056253
499.835989	2547.297559
500.202385	2549.984494
500.568723	2547.534493
500.935003	2551.655637
501.301226	2551.317879
501.667390	2547.342929
502.033497	2548.651109
502.399546	2549.064483
502.765537	2547.373176
503.131470	2550.864175
503.497345	2549.911397
503.863163	2550.637323
504.228923	2550.138249
504.594625	2549.455173
504.960269	2548.756973
505.325856	2548.895605
505.691385	2547.476520
506.056856	2548.139432
506.422270	2548.847714
506.787625	2551.179248
507.152924	2548.522559
507.518164	2549.044319
507.883347	2547.902498
508.248472	2551.181768
508.613540	2551.446429
508.978550	2549.727395
509.343503	2549.888712
509.708398	2549.563558
510.073236	2550.849052
510.438016	2548.373845
510.802738	2548.303269
511.167403	2552.416851
511.532010	2548.933413
511.896561	2551.764021
512.261053	2551.292673
512.625488	2544.908052
512.989866	2546.095244
513.354186	2550.639844
513.718449	2548.507436
514.082655	2546.556509
514.446803	2550.912066
514.810894	2552.686552
515.174927	2552.063970
515.538904	2551.746377
515.902822	2548.545245
516.266684	2550.024823
516.630488	2550.912066
516.994235	2552.850390
517.357925	2551.446429
517.721558	2550.755791
518.085133	2552.000956
518.448651	2551.375852
518.812112	2550.743188
519.175516	2551.171686
519.538863	2550.259237
519.902152	2551.784186
520.265385	2551.428785
520.628560	2548.169679
520.991678	2551.053219
521.354739	2551.794268
521.717743	2551.030533
522.080690	2551.083466
522.443580	2552.038764
522.806413	2549.261088
523.169189	2552.545400
523.531908	2553.528425
523.894569	2552.893240
524.257174	2553.130174
524.619722	2552.868034
524.982213	2555.144115
525.344647	2549.961809
525.707025	2552.623538
526.069345	2556.250648
526.431608	2551.806871
526.793815	2550.765873
527.155964	2553.553631
527.518057	2554.536656
527.880093	2555.817109
528.242072	2553.460370
528.603995	2554.087993
528.965860	2553.510781
529.327669	2555.454146
529.689421	2554.486244
530.051117	2553.707386
530.412755	2554.350133
530.774337	2553.097407
531.135862	2555.174362
531.497331	2554.108158
531.858743	2549.369473
532.220098	2556.359033
532.581396	2552.638662
532.942638	2554.450956
533.303824	2557.944476
533.664953	2553.447767
534.026025	2557.299208
534.387040	2556.797613
534.747999	2552.414330
535.108902	2556.434650
535.469748	2557.541184
535.830537	2557.392470
536.191270	2557.243756
536.551947	2561.218705
536.912567	2558.756102
537.273131	2562.244580
537.633638	2560.553273
537.994089	2560.180228
538.354483	2557.669733
538.714821	2559.981102
539.075103	2559.494631
539.435328	2558.612429
539.795497	2559.103941
540.155609	2563.250290
540.515665	2560.389436
540.875665	2559.887841
541.235609	2560.354148
541.595496	2561.574107
541.955328	2561.954714
542.315102	2561.795918
542.674821	2560.497820
543.034483	2564.624005
543.394090	2559.572769
543.753640	2564.039231
544.113134	2565.380178
544.472571	2563.429251
544.831953	2563.837585
545.191278	2563.325908
545.550548	2562.645352
545.909761	2562.985630
546.268918	2562.421021
546.628019	2562.557132
546.987064	2563.058727
547.346053	2563.179714
547.704986	2565.397822
548.063863	2566.365723
548.422684	2563.918243
548.781449	2562.955383
549.140158	2564.296330
549.498811	2564.898748
549.857408	2561.354817
550.215949	2563.537636
550.574434	2559.119065
550.932864	2562.678119
551.291237	2561.284240
551.649555	2566.801783
552.007817	2566.930333
552.366022	2563.315825
552.724173	2564.737431
553.082267	2566.080898
553.440305	2565.092832
553.798288	2566.794222
554.156215	2564.245918
554.514086	2567.366393
554.871902	2565.808676
555.229661	2567.845302
555.587365	2563.625856
555.945014	2565.382698
556.302606	2564.553429
556.660143	2564.029149
557.017625	2566.453944
557.375050	2566.796742
557.732421	2568.349417
558.089735	2566.564849
558.446994	2565.173491
558.804197	2565.385219
559.161345	2564.036710
559.518437	2565.231464
559.875474	2565.334807
560.232455	2564.127451
560.589381	2566.559808
560.946251	2566.917730
561.303065	2565.017215
561.659825	2564.560990
562.016528	2564.601320
562.373177	2560.921277
562.729770	2566.080898
563.086307	2567.983934
563.442789	2565.579303
563.799216	2568.213306
564.155587	2562.564693
564.511904	2564.041752
564.868164	2564.543346
565.224370	2564.550908
565.580520	2564.566032
565.936615	2562.983109
566.292654	2565.070147
566.648638	2561.974878
567.004567	2565.506207
567.360441	2564.215671
567.716260	2565.952349
568.072023	2564.535785
568.427732	2562.158881
568.783385	2562.252142
569.138982	2558.746019
569.494525	2561.271637
569.850013	2560.429765
570.205445	2564.608881
570.560823	2562.577296
570.916145	2566.895045
571.271412	2562.060578
571.626625	2565.957390
571.981782	2563.129303
572.336884	2561.793397
572.691931	2561.894220
573.046923	2561.400187
573.401860	2561.808520
573.756743	2562.375650
574.111570	2563.814900
574.466342	2562.988150
574.821059	2565.647359
575.175722	2563.242729
575.530330	2562.458829
575.884882	2563.767009
576.239380	2560.003787
576.593823	2564.560990
576.948211	2560.732234
577.302544	2561.208623
577.656823	2561.528736
578.011047	2561.274158
578.365216	2562.826833
578.719330	2562.264745
579.073389	2561.347255
579.427394	2561.357337
579.781344	2561.924467
580.135239	2563.819941
580.489080	2560.124775
580.842866	2562.655434
581.196597	2567.943605
581.550273	2558.912377
581.903895	2559.182079
582.257463	2563.638459
582.610975	2563.164591
582.964434	2560.001267
583.317837	2562.675599
583.671186	2561.092677
584.024481	2559.663509
584.377721	2563.169632
584.730906	2561.359858
585.084037	2561.465722
585.437113	2559.340876
585.790135	2559.623180
586.143103	2559.015721
586.496016	2561.380022
586.848874	2556.159907
587.201679	2558.196534
587.554428	2557.455484
587.907124	2557.097562
588.259765	2558.987995
588.612352	2559.721483
588.964884	2558.778787
589.317362	2563.000753
589.669786	2558.259548
590.022155	2563.542677
590.374470	2560.631411
590.726731	2560.117213
591.078937	2560.351627
591.431090	2560.255845
591.783188	2560.044117
592.135232	2563.935887
592.487222	2561.415310
592.839157	2562.118551
593.191038	2558.751061
593.542866	2561.412790
593.894639	2563.426731
594.246358	2562.027811
594.598022	2561.778273
594.949633	2561.518654
595.301190	2560.641493
595.652692	2561.148129
596.004141	2563.436813
596.355535	2563.232646
596.706876	2561.921946
597.058162	2562.630228
597.409395	2563.527554
597.760573	2561.692574
598.111698	2561.611915
598.462768	2561.896741
598.813785	2560.427244
599.164748	2562.552091
599.515657	2562.300033
599.866511	2563.043603
600.217312	2561.420352
600.568060	2564.437482
600.918753	2563.499828
601.269392	2564.583676
601.619978	2564.911351
601.970510	2565.463357
602.320988	2564.336659
602.671412	2565.168449
603.021783	2561.768191
603.372100	2564.681978
603.722363	2563.298181
604.072572	2562.993192
604.422728	2565.254149
604.772830	2561.909343
605.122878	2559.885320
605.472872	2562.400856
605.822813	2559.731565
606.172701	2565.163408
606.522534	2565.680127
606.872314	2565.738100
607.222041	2566.879921
607.571714	2565.387740
607.921333	2568.299006
608.270899	2564.560990
608.620411	2568.919068
608.969870	2570.466702
609.319276	2568.346897
609.668627	2571.979048
610.017926	2575.500294
610.367171	2577.541962
610.716362	2577.214287
611.065500	2574.560119
611.414585	2574.880232
611.763616	2574.436611
612.112594	2574.615572
612.461518	2573.940057
612.810389	2572.221024
613.159207	2571.164902
613.507971	2577.441138
613.856682	2576.362332
614.205340	2575.180181
614.553945	2576.929461
614.902496	2573.874522
615.250994	2578.283011
615.599439	2574.764286
615.947830	2577.153793
616.296169	2578.154462
616.644454	2579.855851
616.992686	2578.222517
617.340864	2578.792168
617.688990	2581.007755
618.037063	2582.149576
618.385082	2580.906932
618.733048	2584.486151
619.080961	2586.132088
619.428821	2585.249886
619.776628	2586.681573
620.124382	2587.001687
620.472083	2589.194589
620.819731	2588.912284
621.167326	2588.307346
621.514868	2589.854980
621.862357	2588.080494
622.209793	2589.340782
622.557176	2588.912284
622.904506	2589.154259
623.251783	2589.562593
623.599007	2592.506627
623.946179	2588.080494
624.293297	2592.045361
624.640363	2593.290526
624.987376	2596.589961
625.334336	2595.702718
625.681243	2596.340424
626.028097	2596.277410
626.374899	2599.133223
626.721647	2601.033738
627.068343	2601.852926
627.414987	2599.498707
627.761577	2601.545416
628.108115	2603.007350
628.454600	2603.450972
628.801032	2610.874071
629.147412	2609.054214
629.493739	2609.618823
629.840014	2609.840634
630.186236	2614.095368
630.532405	2614.896912
630.878521	2616.661315
631.224585	2616.852879
631.570597	2618.859258
631.916556	2622.768673
632.262462	2622.244393
632.608316	2625.372429
632.954117	2628.636576
633.299866	2629.687657
633.645562	2628.770167
633.991206	2632.649335
634.336797	2631.295785
634.682336	2632.107411
635.027823	2632.104890
635.373257	2632.982051
635.718639	2636.110087
636.063968	2635.913482
636.409245	2638.204686
636.754470	2637.846764
637.099642	2637.342649
637.444762	2641.584780
637.789829	2644.221303
638.134845	2643.530665
638.479808	2646.827580
638.824719	2649.126346
639.169577	2649.857313
639.514383	2649.552324
639.859137	2649.905204
640.203839	2657.207316
640.548489	2656.194044
640.893086	2656.267141
641.237632	2657.902995
641.582125	2659.833757
641.926566	2659.682522
642.270955	2668.020591
642.615292	2670.384892
642.959576	2671.975376
643.303809	2678.375121
643.647990	2680.938547
643.992118	2682.932324
644.336195	2684.830318
644.680219	2687.406348
645.024192	2687.789476
645.368112	2697.186186
645.711981	2703.855633
646.055797	2710.668752
646.399562	2717.524722
646.743274	2728.882441
647.086935	2734.636918
647.430544	2737.979203
647.774101	2750.423292
648.117606	2748.258116
648.461059	2753.090062
648.804460	2756.276071
649.147810	2750.856831
649.491108	2754.070566
649.834354	2755.792120
650.177548	2754.809095
650.520690	2755.109044
650.863781	2756.326483
651.206820	2762.973244
651.549807	2760.422420
651.892742	2762.358223
652.235626	2768.248812
652.578458	2769.093205
652.921238	2768.611775
653.263967	2774.172167
653.606644	2771.558329
653.949269	2781.489402
654.291843	2777.138886
654.634365	2784.075514
654.976836	2793.285702
655.319255	2793.046247
655.661622	2798.324335
656.003938	2805.450006
656.346203	2801.459933
656.688416	2809.714822
657.030577	2805.823052
657.372687	2810.458393
657.714746	2814.047694
658.056753	2821.347285
658.398708	2820.328972
658.740612	2820.301246
659.082465	2834.081240
659.424266	2833.009994
659.766016	2837.284893
660.107715	2846.053980
660.449362	2852.937676
660.790958	2857.658716
661.132503	2859.549149
661.473996	2876.202601
661.815438	2873.863505
662.156829	2877.631768
662.498168	2880.611090
662.839456	2878.667725
663.180693	2892.223387
663.521879	2891.525188
663.863013	2898.779408
664.204097	2913.860020
664.545129	2919.569127
664.886110	2924.544745
665.227040	2939.453958
665.567918	2935.007660
665.908746	2949.150617
666.249522	2952.969291
666.590248	2954.963068
666.930922	2966.358596
667.271545	2972.929740
667.612118	2977.038280
667.952639	2973.630460
668.293109	2991.216526
668.633528	2989.731906
668.973896	2990.422544
669.314213	2995.476301
669.654480	3005.440141
669.994695	3001.631549
670.334859	3003.045593
670.674973	3016.548324
671.015035	3016.384486
671.355047	3029.040303
671.695008	3032.107845
672.034918	3027.888399
672.374777	3041.025646
672.714585	3046.918755
673.054342	3049.174671
673.394049	3057.343861
673.733705	3072.129565
674.073310	3081.448138
674.412864	3069.687126
674.752368	3080.757500
675.091820	3088.472986
675.431223	3074.632498
675.770574	3085.208839
676.109875	3075.492015
676.449125	3086.587595
676.788324	3086.517018
677.127473	3079.706420
677.466571	3081.493509
677.805619	3093.677978
678.144616	3094.172011
678.483562	3099.742486
678.822458	3096.737958
679.161303	3105.277673
679.500098	3107.311778
679.838842	3102.121910
680.177535	3115.347377
680.516179	3120.310393
680.854771	3127.098307
681.193314	3151.900784
681.531805	3181.406657
681.870247	3232.521437
682.208638	3257.429778
682.546978	3265.566200
682.885268	3266.420676
683.223508	3260.855242
683.561697	3254.140425
683.899836	3253.170003
684.237925	3252.570106
684.575963	3247.123139
684.913951	3241.812283
685.251889	3275.280504
685.589776	3260.489758
685.927614	3256.383738
686.265401	3288.294242
686.603137	3289.751136
686.940824	3318.447904
687.278460	3326.506188
687.616046	3343.734332
687.953582	3357.481558
688.291068	3360.828884
688.628504	3394.365160
688.965889	3385.676732
689.303224	3371.455637
689.640510	3369.630739
689.977745	3355.031558
690.314930	3338.068075
690.652065	3328.419306
690.989150	3304.519196
691.326185	3292.218781
691.663170	3291.427319
692.000105	3273.261522
692.336990	3250.536000
692.673825	3258.576640
693.010610	3242.099629
693.347345	3211.893035
693.684030	3229.874831
694.020665	3224.183368
694.357251	3191.652802
694.693786	3207.227447
695.030272	3200.333669
695.366707	3197.558514
695.703093	3186.717513
696.039429	3201.513299
696.375716	3210.191646
696.711952	3200.074050
697.048139	3198.105479
697.384276	3196.262938
697.720363	3209.833724
698.056400	3223.187740
698.392388	3206.294834
698.728326	3198.223947
699.064214	3195.647917
699.400053	3201.588917
699.735842	3203.307950
700.071581	3193.175231
700.407270	3192.610622
700.742910	3191.783872
701.078501	3175.994979
701.414042	3186.326823
701.749533	3180.448838
702.084974	3153.304745
702.420366	3185.011082
702.755709	3168.443330
703.091002	3149.024806
703.426246	3179.455731
703.761440	3159.437309
704.096584	3143.908034
704.431679	3166.721776
704.766725	3164.715397
705.101721	3165.022907
705.436668	3181.116791
705.771565	3161.378153
706.106413	3169.509534
706.441212	3200.376519
706.775961	3206.372972
707.110661	3190.195909
707.445311	3200.883155
707.779913	3226.610684
708.114465	3225.410889
708.448967	3234.278279
708.783421	3264.870521
709.117825	3287.676701
709.452180	3288.571506
709.786485	3303.836120
710.120742	3341.178467
710.454949	3333.115141
710.789107	3364.113196
711.123216	3399.827251
711.457275	3392.504975
711.791286	3424.465890
712.125247	3442.235957
712.459159	3392.391549
712.793023	3424.327258
713.126837	3437.209927
713.460602	3437.366203
713.794318	3387.189078
714.127985	3406.607603
714.461602	3386.574057
714.795171	3367.684854
715.128691	3352.339581
715.462162	3336.454906
715.795584	3323.080724
716.128957	3322.596774
716.462281	3292.924542
716.795556	3292.281795
717.128782	3284.944396
717.461960	3261.424892
717.795088	3269.979730
718.128167	3255.204108
718.461198	3227.976837
718.794180	3231.510685
719.127113	3231.389698
719.459997	3226.557752
719.792833	3206.786346
720.125619	3206.040256
720.458357	3194.700180
720.791046	3205.294165
721.123686	3189.986701
721.456278	3175.541275
721.788821	3186.475537
722.121315	3176.587314
722.453761	3159.160045
722.786158	3177.343487
723.118506	3193.112217
723.450805	3161.620128
723.783056	3176.567150
724.115259	3195.358051
724.447412	3198.390305
724.779518	3190.684901
725.111574	3199.418700
725.443582	3216.677090
725.775542	3211.109136
726.107453	3237.711305
726.439315	3241.214907
726.771129	3243.516193
727.102895	3260.635952
727.434612	3291.538225
727.766281	3295.702218
728.097901	3292.886733
728.429473	3297.804379
728.760996	3308.355514
729.092471	3301.784370
729.423897	3304.451140
729.755276	3316.118891
730.086606	3314.919096
730.417887	3327.917712
730.749120	3364.657641
731.080305	3413.410640
731.411442	3425.214501
731.742530	3402.365472
732.073570	3408.820669
732.404562	3449.094447
732.735506	3446.951957
733.066401	3425.758946
733.397249	3399.507137
733.728048	3363.596478
734.058798	3334.821572
734.389501	3306.999444
734.720156	3267.764143
735.050762	3251.241762
735.381320	3258.422885
735.711831	3225.068091
736.042293	3216.346895
736.372707	3231.177969
736.703073	3218.355794
737.033391	3206.027653
737.363661	3220.921742
737.693883	3240.801532
738.024056	3244.282449
738.354182	3236.408166
738.684260	3276.011471
739.014290	3281.680248
739.344272	3279.862912
739.674207	3305.832417
740.004093	3310.765186
740.333931	3307.511121
740.663722	3314.087306
740.993464	3313.827687
741.323159	3301.169349
741.652806	3291.502937
741.982405	3280.470372
742.311956	3267.471756
742.641460	3265.901437
742.970915	3258.130498
743.300323	3237.383630
743.629683	3217.781103
743.958996	3221.587174
744.288260	3208.407077
744.617477	3190.392514
744.946647	3183.758356
745.275768	3176.352901
745.604842	3177.842562
745.933869	3145.369969
746.262847	3142.965339
746.591778	3178.578570
746.920662	3156.168121
747.249498	3133.850932
747.578286	3172.350224
747.907027	3179.372552
748.235720	3169.910306
748.564365	3193.031558
748.892963	3200.386602
749.221514	3186.099972
749.550017	3173.252591
749.878473	3175.556398
750.206881	3158.668533
750.535242	3159.394459
750.863555	3166.079029
751.191821	3162.840088
751.520039	3148.119918
751.848210	3135.683392
752.176334	3165.390912
752.504411	3174.719567
752.832440	3141.432828
753.160421	3127.148718
753.488356	3144.807880
753.816243	3154.194509
754.144082	3122.016824
754.471875	3112.685648
754.799620	3130.367495
755.127318	3120.675877
755.454969	3125.585961
755.782572	3132.883031
756.110129	3112.920062
756.437638	3111.453086
756.765100	3121.656381
757.092515	3131.295067
757.419882	3136.673979
757.747203	3113.265381
758.074477	3116.930300
758.401703	3128.845067
758.728882	3145.349804
759.056014	3150.365752
759.383099	3151.890702
759.710138	3148.853406
760.037129	3158.456804
760.364073	3188.544931
760.690970	3175.299299
761.017820	3161.168945
761.344623	3174.081861
761.671379	3210.700802
761.998088	3244.378231
762.324751	3329.046930
762.651366	3478.466730
762.977935	3760.630193
763.304456	4050.650294
763.630931	4127.553096
763.957359	3902.957090
764.283740	3691.616797
764.610074	3584.275508
764.936362	3463.406283
765.262602	3349.582070
765.588796	3277.052469
765.914943	3222.509705
766.241044	3161.884789
766.567097	3145.959784
766.893104	3115.740587
767.219064	3095.666713
767.544978	3081.591811
767.870845	3037.214534
768.196665	3028.967206
768.522438	3042.986655
768.848165	3039.762837
769.173846	3014.398272
769.499479	3003.605161
769.825066	2991.385404
770.150607	2981.063642
770.476101	2996.555108
770.801548	2993.777432
771.126949	2960.493213
771.452303	2945.916717
771.777611	2957.501289
772.102872	2962.179479
772.428087	2942.035029
772.753256	2938.095367
773.078378	2934.808535
773.403453	2909.012950
773.728482	2901.327711
774.053465	2922.556010
774.378401	2914.384300
774.703291	2888.523181
775.028135	2889.206257
775.352932	2884.568395
775.677683	2877.883825
776.002388	2879.015564
776.327046	2880.636295
776.651658	2872.298227
776.976224	2865.288503
777.300743	2865.585931
777.625216	2859.561752
777.949643	2854.843232
778.274024	2856.199302
778.598359	2850.076821
778.922647	2855.395238
779.246889	2853.093951
779.571086	2842.056345
779.895236	2835.661641
780.219339	2844.629854
780.543397	2856.577389
780.867409	2859.415558
781.191374	2850.260823
781.515294	2852.050432
781.839167	2847.838548
782.162995	2849.358456
782.486776	2855.503623
782.810511	2852.241996
783.134201	2843.475430
783.457844	2851.150587
783.781441	2843.785461
784.104993	2827.169818
784.428498	2830.312977
784.751958	2843.233454
785.075372	2835.891014
785.398739	2825.712924
785.722061	2840.470902
786.045337	2852.937676
786.368568	2835.507886
786.691752	2829.372802
787.014891	2868.908051
787.337983	2888.586195
787.661030	2902.552712
787.984031	2955.507512
788.306987	2991.657627
788.629897	2986.782831
788.952760	2979.803353
789.275579	2972.355048
789.598351	2928.340734
789.921078	2891.270609
790.243759	2890.285064
790.566395	2877.800646
790.888984	2857.852801
791.211529	2842.497446
791.534027	2837.179029
791.856480	2830.731393
792.178888	2818.100782
792.501249	2812.648774
792.823566	2809.838331
793.145836	2809.608958
793.468062	2803.310037
793.790241	2804.446817
794.112375	2811.885039
794.434464	2822.042964
794.756507	2822.015238
795.078505	2826.214519
795.400457	2835.891014
795.722364	2863.246835
796.044226	2881.309289
796.366042	2883.071173
796.687812	2875.958105
797.009538	2893.491238
797.331218	2885.223745
797.652852	2872.406612
797.974442	2863.057792
798.295986	2858.845908
798.617484	2857.431864
798.938938	2845.751511
799.260346	2834.487052
799.581709	2830.507062
799.903026	2823.300732
800.224299	2819.600525
800.545526	2811.726243
800.866708	2800.459264
801.187845	2789.419137
801.508936	2794.926598
801.829983	2800.577731
802.150984	2791.017183
802.471940	2778.094185
802.792851	2779.742642
803.113717	2778.941099
803.434538	2784.647685
803.755314	2775.989503
804.076045	2770.434152
804.396731	2773.315171
804.717372	2774.492281
805.037967	2766.045827
805.358518	2773.065634
805.679024	2781.600307
805.999485	2779.843465
806.319901	2783.210956
806.640272	2775.205604
806.960598	2779.956891
807.280879	2789.507357
807.601115	2795.413069
807.921306	2782.873199
808.241453	2778.457148
808.561554	2785.234979
808.881611	2789.025927
809.201623	2783.392438
809.521590	2783.543672
809.841513	2783.241203
810.161390	2784.413271
810.481223	2778.205090
810.801011	2770.287958
811.120755	2768.765530
811.440453	2770.839965
811.760107	2767.764861
812.079716	2771.039090
812.399281	2764.344438
812.718801	2759.144488
813.038276	2754.683067
813.357707	2758.300094
813.677093	2766.572628
813.996434	2764.949376
814.315731	2757.601895
814.634983	2753.077459
814.954191	2755.890423
815.273354	2766.287803
815.592473	2776.475975
815.911547	2777.844648
816.230577	2783.901594
816.549562	2790.543314
816.868502	2788.683129
817.187399	2796.572534
817.506250	2812.484937
817.825058	2809.266160
818.143821	2818.418375
818.462539	2832.594099
818.781213	2856.960516
819.099843	2889.906977
819.418429	2933.399532
819.736970	2987.670074
820.055466	3048.534445
820.373919	3142.720843
820.692327	3266.997888
821.010691	3403.124165
821.329011	3760.284874
821.647286	4439.310653
821.965517	5448.680723
822.283704	5995.096430
822.601847	6014.104100
822.919945	5580.451443
823.237999	5245.411318
823.556010	4799.725427
823.873976	4358.390052
824.191897	4030.339486
824.509775	3792.870893
824.827609	3565.930749
825.145398	3461.077270
825.463144	3457.757670
825.780845	3534.690719
826.098502	3621.872433
826.416116	3850.123277
826.733685	4100.507306
827.051210	4148.685613
827.368692	4067.926329
827.686129	3856.838094
828.003522	3582.178388
828.320872	3362.290819
828.638177	3197.737475
828.955439	3083.943509
829.272656	3015.958509
829.589830	2956.145218
829.906960	2912.627458
830.224046	2878.428270
830.541088	2850.273426
830.858086	2836.193483
831.175041	2817.473158
831.491952	2819.497182
831.808819	2833.975375
832.125642	2853.777028
832.442421	2894.451578
832.759157	2963.356589
833.075849	3113.141872
833.392497	3354.915611
833.709101	3528.563196
834.025662	3482.088799
834.342179	3347.200125
834.658653	3201.888865
834.975083	3072.444638
835.291469	2993.689212
835.607811	2918.913777
835.924110	2866.286651
836.240366	2819.734116
836.556578	2786.775052
836.872746	2765.640014
837.188871	2745.510687
837.504952	2731.092987
837.820990	2724.390773
838.136984	2714.104299
838.452935	2706.550130
838.768842	2703.626260
839.084706	2723.465721
839.400526	2788.950310
839.716303	2903.124883
840.032037	2970.073926
840.347727	2953.203705
840.663373	2907.891294
840.978977	2844.163547
841.294537	2777.073351
841.610054	2736.053482
841.925527	2716.203939
842.240957	2699.003522
842.556344	2679.958043
842.871687	2667.365241
843.186987	2657.620690
843.502244	2656.577172
843.817458	2652.377890
844.132629	2635.910961
844.447756	2633.798718
844.762840	2624.649024
845.077881	2631.159674
845.392879	2627.063736
845.707833	2621.919239
846.022745	2616.177365
846.337613	2620.762294
846.652438	2619.232304
846.967221	2621.037037
847.281960	2616.058897
847.596656	2616.321038
847.911309	2612.822477
848.225919	2613.644185
848.540485	2610.223762
848.855009	2610.833742
849.169490	2611.289966
849.483928	2609.989348
849.798323	2608.570263
850.112675	2605.853082
850.426984	2608.902980
850.741251	2606.841148
851.055474	2607.544389
851.369654	2613.190481
851.683792	2610.710233
851.997887	2609.651591
852.311938	2605.611106
852.625947	2608.466920
852.939914	2611.524380
853.253837	2611.796602
853.567718	2606.543720
853.881555	2608.267794
854.195350	2609.805346
854.509103	2607.171343
854.822812	2606.077413
855.136479	2608.348453
855.450103	2609.460027
855.763685	2611.985645
856.077224	2605.757300
856.390720	2606.732763
856.704173	2608.595469
857.017584	2610.765686
857.330953	2610.508587
857.644278	2613.722323
857.957561	2614.314658
858.270802	2609.475151
858.584000	2610.463217
858.897155	2614.246603
859.210268	2616.124432
859.523339	2610.737960
859.836367	2603.289655
860.149352	2608.086313
860.462295	2607.166302
860.775195	2604.693616
861.088054	2604.194542
861.400869	2602.150354
861.713642	2602.372165
862.026373	2601.220261
862.339062	2604.602875
862.651708	2609.971704
862.964312	2611.499174
863.276873	2607.884667
863.589392	2613.513115
863.901869	2614.813733
864.214303	2619.675925
864.526696	2622.554424
864.839045	2621.062243
865.151353	2625.624487
865.463619	2623.807151
865.775842	2622.783797
866.088023	2622.030144
866.400162	2626.216822
866.712258	2627.058695
867.024313	2624.759929
867.336325	2623.030813
867.648296	2621.972171
867.960224	2629.385188
868.272110	2626.632718
868.583954	2620.117026
868.895755	2619.958230
869.207515	2626.791514
869.519233	2632.775364
869.830909	2630.337966
870.142542	2624.384363
870.454134	2625.682460
870.765684	2629.972482
871.077191	2634.038173
871.388657	2637.544295
871.700081	2634.650673
872.011463	2634.254942
872.322803	2634.050776
872.634101	2636.611682
872.945357	2646.308341
873.256571	2651.747746
873.567744	2646.716675
873.878874	2647.510656
874.189963	2647.946716
874.501010	2652.700524
874.812015	2653.812099
875.122979	2656.206647
875.433900	2647.125008
875.744780	2644.226345
876.055618	2651.931748
876.366415	2658.639003
876.677169	2656.355361
876.987882	2651.896460
877.298554	2647.966881
877.609183	2658.666730
877.919771	2666.200734
878.230317	2671.463699
878.540822	2682.781089
878.851285	2693.392718
879.161707	2714.152190
879.472087	2749.999835
879.782425	2792.244704
880.092722	2897.138513
880.402977	3060.255128
880.713191	3279.948612
881.023363	3512.676000
881.333494	3665.180986
881.643583	3819.984738
881.953631	3828.910101
882.263637	3680.475847
882.573602	3490.603308
882.883526	3384.585322
883.193408	3290.088893
883.503248	3207.020760
883.813048	3103.586365
884.122806	3005.062055
884.432522	2927.239242
884.742197	2869.679348
885.051831	2841.617765
885.361424	2810.259267
885.670975	2777.176695
885.980485	2750.065370
886.289954	2735.627505
886.599382	2721.154352
886.908768	2715.596480
887.218113	2693.420444
887.527417	2682.511387
887.836680	2675.736077
888.145901	2673.417146
888.455082	2664.055723
888.764221	2655.435350
889.073319	2647.916469
889.382376	2647.046870
889.691392	2648.710451
890.000366	2648.642395
890.309300	2647.530821
890.618193	2647.518218
890.927044	2648.334885
891.235855	2652.385452
891.544625	2652.309835
891.853353	2650.845380
892.162041	2656.224291
892.470687	2673.956549
892.779293	2684.479958
893.087858	2694.479087
893.396381	2711.525748
893.704864	2749.936820
894.013306	2812.779844
894.321707	2896.049623
894.630068	2935.816765
894.938387	2954.978191
895.246665	2950.597428
895.554903	2909.839700
895.863100	2876.449617
896.171256	2821.125474
896.479371	2767.507762
896.787446	2732.239850
897.095480	2715.130173
897.403473	2710.943495
897.711425	2696.220805
898.019336	2679.922755
898.327207	2667.907165
898.635038	2668.368430
898.942827	2666.687206
899.250576	2658.104641
899.558284	2646.308341
899.865952	2643.013947
900.173579	2640.110242
900.481165	2637.650159
900.788711	2632.364510
901.096216	2624.815382
901.403681	2621.619290
901.711105	2623.958386
902.018489	2619.103754
902.325832	2627.353603
902.633135	2623.424023
902.940397	2640.586632
903.247619	2674.392609
903.554800	2734.863770
903.861941	2847.773013
904.169041	2956.503140
904.476101	3008.016171
904.783121	3003.418638
905.090100	2952.104733
905.397039	2887.446894
905.703938	2823.935917
906.010796	2770.605551
906.317614	2723.296843
906.624391	2691.199816
906.931129	2665.779798
907.237826	2648.266829
907.544483	2626.393263
907.851099	2620.164917
908.157675	2612.104112
908.464211	2603.461054
908.770707	2591.465628
909.077163	2589.597881
909.383578	2588.778693
909.689954	2585.207036
909.996289	2584.705441
910.302584	2585.864907
910.608839	2583.898857
910.915054	2584.213929
911.221229	2585.746439
911.527363	2584.458425
911.833458	2585.706110
912.139513	2585.602767
912.445527	2587.178127
912.751502	2591.901688
913.057436	2595.342276
913.363331	2601.358893
913.669186	2609.744852
913.975000	2623.005607
914.280775	2638.103863
914.586510	2654.089362
914.892205	2689.160669
915.197859	2748.154772
915.503475	2822.663026
915.809050	2877.478013
916.114585	2888.644168
916.420081	2897.859398
916.725536	2905.632857
917.030952	2888.687018
917.336328	2848.476254
917.641665	2802.334573
917.946961	2758.980650
918.252218	2730.329252
918.557435	2705.415870
918.862612	2688.187727
919.167750	2673.220541
919.472848	2657.076246
919.777906	2643.565953
920.082925	2633.261835
920.387904	2623.232459
920.692843	2620.671553
920.997743	2616.278188
921.302603	2609.389451
921.607423	2603.408122
921.912204	2598.238419
922.216946	2598.117431
922.521647	2592.383118
922.826310	2593.474528
923.130932	2585.459094
923.435516	2585.103692
923.740059	2580.861561
924.044564	2580.536407
924.349028	2579.129925
924.653454	2572.815880
924.957840	2565.894376
925.262186	2565.733059
925.566493	2569.395457
925.870761	2565.667524
926.174989	2567.782288
926.479178	2563.625856
926.783328	2561.589230
927.087438	2560.933880
927.391509	2559.603016
927.695541	2557.523540
927.999533	2559.459343
928.303486	2556.432130
928.607400	2554.632438
928.911275	2554.231666
929.215110	2555.557490
929.518906	2558.415824
929.822663	2555.930535
930.126381	2552.668908
930.430060	2556.404403
930.733699	2556.855587
931.037299	2556.671585
931.340861	2557.331976
931.644383	2558.786349
931.947866	2553.896429
932.251309	2557.999929
932.554714	2556.152346
932.858080	2555.862479
933.161407	2554.708055
933.464694	2555.517160
933.767943	2555.786862
934.071153	2550.914587
934.374323	2553.427602
934.677455	2554.934907
934.980548	2553.672098
935.283602	2550.135729
935.586617	2554.478683
935.889593	2554.229146
936.192530	2553.543549
936.495428	2553.984650
936.798287	2552.472303
937.101108	2555.391132
937.403890	2558.725855
937.706632	2562.388253
938.009336	2560.598643
938.312002	2566.703481
938.614628	2570.078533
938.917216	2573.168761
939.219765	2570.139027
939.522275	2575.172619
939.824747	2572.924265
940.127179	2566.864798
940.429573	2566.159036
940.731929	2566.731207
941.034246	2564.064437
941.336524	2563.346072
941.638763	2566.249777
941.940964	2566.547205
942.243126	2564.624005
942.545250	2563.842626
942.847335	2559.761812
943.149381	2559.565207
943.451389	2556.417006
943.753359	2559.507234
944.055290	2558.448591
944.357182	2558.698128
944.659036	2556.066646
944.960851	2556.694270
945.262628	2555.711245
945.564367	2557.682336
945.866067	2556.895916
946.167729	2556.638817
946.469352	2556.190154
946.770937	2556.588406
947.072484	2555.048333
947.373992	2553.694783
947.675462	2556.023796
947.976893	2557.553787
948.278286	2554.067829
948.579641	2553.135215
948.880958	2552.414330
949.182236	2557.495813
949.483476	2556.202757
949.784678	2553.805689
950.085841	2553.036913
950.386967	2558.025134
950.688054	2555.166800
950.989103	2553.145298
951.290114	2554.471121
951.591087	2557.886503
951.892021	2555.368446
952.192917	2560.606205
952.493776	2556.535473
952.794596	2560.119734
953.095378	2563.083932
953.396122	2561.435475
953.696828	2560.938921
953.997496	2559.958417
954.298126	2555.592778
954.598718	2556.238045
954.899272	2553.878785
955.199788	2554.145967
955.500266	2553.346944
955.800706	2549.840821
956.101108	2547.968032
956.401472	2547.592467
956.701798	2545.664225
957.002087	2544.645912
957.302337	2546.816129
957.602550	2549.687066
957.902724	2545.989380
958.202861	2546.627086
958.502960	2544.401416
958.803022	2546.564071
959.103045	2544.003165
959.403031	2544.711447
959.702979	2542.306817
960.002889	2540.822197
960.302762	2544.993752
960.602596	2543.620037
960.902393	2542.475695
961.202153	2543.567105
961.501875	2543.488967
961.801559	2544.224976
962.101205	2543.471323
962.400814	2542.626930
962.700385	2542.014430
962.999918	2541.323792
963.299414	2540.860006
963.598873	2542.369831
963.898293	2541.417053
964.197677	2541.512835
964.497022	2541.585932
964.796331	2541.011240
965.095601	2541.369162
965.394835	2543.211704
965.694030	2540.733977
965.993189	2541.979142
966.292309	2540.905376
966.591393	2540.499563
966.890439	2539.793802
967.189447	2543.753628
967.488419	2540.983514
967.787353	2541.054090
968.086249	2542.944523
968.385108	2543.564585
968.683930	2541.679193
968.982714	2541.250695
969.281462	2542.236241
969.580172	2542.642053
969.878844	2541.031405
970.177480	2543.436035
970.476078	2541.928730
970.774639	2542.700027
971.073162	2543.839327
971.371649	2538.208359
971.670098	2538.021836
971.968510	2541.969059
972.266885	2536.890097
972.565223	2543.488967
972.863524	2542.468134
973.161788	2544.837476
973.460014	2541.217927
973.758204	2544.703885
974.056356	2543.630120
974.354471	2545.157589
974.652550	2544.177085
974.950591	2542.813453
975.248595	2541.754810
975.546563	2542.092568
975.844493	2543.395706
976.142386	2542.672300
976.440243	2541.459903
976.738062	2542.097609
977.035845	2543.148689
977.333590	2539.803884
977.631299	2541.653987
977.928971	2544.703885
978.226606	2541.533000
978.524204	2539.617361
978.821765	2543.592311
979.119290	2543.108360
979.416777	2539.173740
979.714228	2543.788916
980.011642	2539.357742
980.309020	2543.572146
980.606360	2541.071734
980.903664	2541.948895
981.200931	2542.140459
981.498162	2542.621889
981.795356	2543.897301
982.092513	2551.002807
982.389633	2548.436860
982.686717	2551.625390
982.983764	2554.340051
983.280775	2556.376677
983.577749	2555.045813
983.874686	2553.099927
984.171587	2553.919115
984.468451	2550.816284
984.765279	2547.905018
985.062070	2545.384441
985.358824	2546.344781
985.655543	2543.390665
985.952224	2544.658515
986.248869	2540.958308
986.545478	2537.757175
986.842050	2539.887063
987.138586	2537.737011
987.435086	2537.923533
987.731549	2536.058307
988.027975	2541.691796
988.324366	2540.698689
988.620719	2539.375386
988.917037	2537.396733
989.213318	2536.723739
989.509563	2539.415715
989.805772	2542.722712
990.101944	2542.054759
990.398080	2540.242464
990.694180	2540.214738
990.990244	2540.711292
991.286271	2540.582742
991.582262	2538.236085
991.878217	2537.994110
992.174136	2540.849923
992.470019	2538.407484
992.765865	2538.127700
993.061676	2539.448483
993.357450	2540.643236
993.653188	2536.300282
993.948890	2538.941847
994.244556	2541.162475
994.540186	2541.757331
994.835780	2540.713812
995.131337	2539.687937
995.426859	2542.606765
995.722345	2542.019471
996.017795	2545.823022
996.313208	2543.713299
996.608586	2541.464944
996.903928	2542.858823
997.199234	2541.747249
997.494504	2542.916796
997.789738	2542.634492
998.084936	2543.143648
998.380099	2542.737835
998.675225	2540.005530
998.970316	2541.013761
999.265371	2539.322454
999.560390	2539.521579
999.855373	2543.037784
1000.150320	2539.428318
1000.445232	2542.730274
1000.740108	2539.909748
1001.034948	2539.801363
1001.329752	2541.449821
1001.624521	2540.829759
1001.919254	2532.990764
1002.213951	2538.624254
1002.508613	2534.036804
1002.803239	2534.346835
1003.097829	2534.283820
1003.392384	2540.933102
1003.686903	2540.020653
1003.981386	2541.064172
1004.275834	2538.944367
1004.570246	2539.259439
1004.864623	2537.235416
1005.158964	2540.814635
1005.453270	2539.730787
1005.747540	2538.082330
1006.041775	2537.903369
1006.335974	2540.234902
1006.630138	2539.945036
1006.924266	2536.721218
1007.218359	2541.701878
1007.512416	2539.647608
1007.806438	2539.642567
1008.100425	2538.914120
1008.394376	2537.525282
1008.688292	2539.740869
1008.982172	2539.508976
1009.276017	2539.093081
1009.569827	2538.125180
1009.863602	2540.706250
1010.157341	2537.114428
1010.451045	2537.031249
1010.744714	2538.873791
1011.038347	2539.587114
1011.331945	2537.648791
1011.625508	2538.563760
1011.919036	2537.724408
1012.212528	2539.133410
1012.505986	2537.169881
1012.799408	2538.498225
1013.092795	2537.648791
1013.386147	2539.019984
1013.679464	2537.258101
1013.972745	2535.251722
1014.265992	2537.346321
1014.559204	2539.274563
1014.852380	2535.342463
1015.145521	2537.633667
1015.438628	2539.380427
1015.731699	2540.146682
1016.024736	2540.497043
1016.317737	2540.698689
1016.610703	2538.268852
1016.903635	2537.812628
1017.196531	2537.290869
1017.489393	2536.116280
1017.782219	2531.927081
1018.075011	2537.633667
1018.367768	2538.057124
1018.660490	2536.428831
1018.953177	2536.428831
1019.245829	2536.428831
