Dividing Wavelength (nm)	Counts (n)	Blue Motor Position (mm): 13.300000	Red Motor Position (mm): 0.000000	
326.493990	2136.574591
326.888308	2136.574591
327.282561	2136.574591
327.676750	2107.736670
328.070874	2102.604775
328.464933	2106.705754
328.858929	2111.792278
329.252859	2121.589761
329.646726	2134.409415
330.040528	2147.841569
330.434265	2163.479229
330.827938	2182.940603
331.221547	2199.662110
331.615091	2220.048537
332.008571	2237.730384
332.401986	2256.178486
332.795338	2277.295880
333.188625	2295.600309
333.581847	2312.687300
333.975006	2332.846874
334.368100	2351.894874
334.761129	2370.219468
335.154095	2383.888557
335.546996	2404.544685
335.939833	2424.779877
336.332606	2438.585076
336.725315	2451.994546
337.117960	2457.945628
337.510540	2468.000209
337.903056	2480.852631
338.295508	2487.252376
338.687896	2496.404590
339.080220	2503.827689
339.472480	2509.980418
339.864676	2515.891171
340.256807	2516.879237
340.648875	2522.419465
341.040879	2523.405010
341.432818	2523.727644
341.824694	2527.561442
342.216506	2526.916174
342.608253	2530.218130
342.999937	2528.052954
343.391557	2527.753006
343.783113	2525.779394
344.174605	2524.866945
344.566033	2525.789476
344.957397	2520.087931
345.348697	2522.298477
345.739934	2519.432581
346.131106	2516.246572
346.522215	2514.918228
346.913260	2514.595594
347.304241	2510.618124
347.695159	2511.606190
348.086012	2507.265756
348.476802	2508.652074
348.867528	2505.922289
349.258191	2506.605365
349.648789	2504.009171
350.039324	2502.794253
350.429796	2503.220230
350.820203	2499.300733
351.210548	2495.822337
351.600828	2495.076246
351.991045	2497.241422
352.381198	2495.681185
352.771288	2496.167656
353.161314	2494.315032
353.551276	2496.132368
353.941175	2495.822337
354.331010	2495.219919
354.720782	2495.093890
355.110490	2495.905516
355.500135	2492.585916
355.889717	2494.163798
356.279235	2494.625063
356.668689	2497.715290
357.058080	2497.831237
357.447408	2493.175731
357.836672	2490.244300
358.225873	2493.838643
358.615010	2492.575834
359.004084	2498.267297
359.393095	2498.214365
359.782043	2496.868377
360.170927	2495.076246
360.559748	2497.122955
360.948505	2500.311485
361.337199	2500.535816
361.725830	2501.024808
362.114398	2502.164109
362.502903	2500.303923
362.891344	2505.173678
363.279722	2502.902638
363.668037	2502.794253
364.056289	2500.641680
364.444478	2504.205776
364.832603	2505.120745
365.220665	2504.846003
365.608665	2504.251146
365.996601	2505.990344
366.384474	2505.972700
366.772284	2504.112515
367.160031	2506.754079
367.547715	2508.011847
367.935336	2506.295334
368.322893	2507.578308
368.710388	2507.006137
369.097820	2509.100736
369.485189	2505.030005
369.872495	2509.874553
370.259738	2507.560664
370.646918	2507.810201
371.034035	2509.743483
371.421090	2510.676097
371.808081	2510.270284
372.195010	2509.521673
372.581875	2509.425891
372.968678	2510.330778
373.355418	2508.314316
373.742096	2512.894205
374.128710	2510.671056
374.515262	2514.303207
374.901751	2515.432426
375.288177	2511.510408
375.674540	2510.275325
376.060841	2511.979235
376.447079	2512.989987
376.833254	2511.838083
377.219367	2507.351456
377.605417	2509.670387
377.991404	2507.724501
378.377329	2509.219203
378.763191	2505.768534
379.148991	2513.254647
379.534727	2513.625172
379.920402	2514.179699
380.306013	2513.857065
380.691563	2513.418485
381.077049	2517.108609
381.462474	2516.216325
381.847835	2517.499299
382.233134	2515.404699
382.618371	2515.916376
383.003545	2515.843280
383.388657	2513.960409
383.773706	2518.986439
384.158693	2515.969308
384.543618	2516.659947
384.928480	2518.885616
385.313280	2516.826305
385.698017	2517.330420
386.082692	2518.230266
386.467305	2518.313445
386.851856	2516.768331
387.236344	2518.999042
387.620770	2520.471059
388.005133	2519.160359
388.389435	2517.705986
388.773674	2518.341171
389.157851	2518.121881
389.541965	2520.057684
389.926018	2520.551717
390.310008	2522.737057
390.693936	2522.174969
391.077802	2519.813188
391.461606	2523.044568
391.845348	2519.546007
392.229027	2520.728158
392.612645	2519.724968
392.996200	2520.307221
393.379694	2523.430216
393.763125	2522.215298
394.146494	2522.069105
394.529801	2520.874351
394.913047	2522.669002
395.296230	2524.325021
395.679351	2523.316790
396.062410	2521.353261
396.445408	2522.822757
396.828343	2525.303005
397.211217	2522.681605
397.594028	2519.916532
397.976778	2519.994670
398.359466	2519.999711
398.742092	2516.143228
399.124656	2523.490710
399.507158	2524.173786
399.889598	2525.507172
400.271977	2525.035824
400.654294	2525.832326
401.036549	2523.735206
401.418742	2526.273427
401.800874	2526.036493
402.182944	2524.458612
402.564952	2523.100021
402.946898	2526.434744
403.328783	2526.283509
403.710606	2525.681091
404.092367	2528.176463
404.474067	2528.047913
404.855705	2526.449867
405.237282	2522.477438
405.618797	2526.049096
406.000250	2528.776360
406.381642	2527.745444
406.762972	2528.708304
407.144240	2527.954652
407.525447	2529.048582
407.906593	2528.839374
408.287677	2527.269055
408.668700	2528.378109
409.049661	2527.805938
409.430560	2526.613705
409.811399	2530.429858
410.192176	2528.005063
410.572891	2529.658562
410.953545	2527.329549
411.334138	2530.019004
411.714669	2529.741741
412.095139	2529.187214
412.475547	2528.317615
412.855894	2533.628470
413.236180	2531.977493
413.616405	2530.671834
413.996568	2530.833151
414.376670	2532.773995
414.756711	2527.967255
415.136691	2530.555887
415.516609	2531.818696
415.896466	2534.482946
416.276262	2532.544622
416.655997	2529.116638
417.035670	2526.626308
417.415283	2527.327028
417.794834	2524.599764
418.174324	2529.988757
418.553753	2534.084695
418.933121	2536.300282
419.312428	2530.830630
419.691674	2531.886752
420.070859	2531.029756
420.449983	2535.395395
420.829045	2532.642925
421.208047	2534.319108
421.586988	2532.118645
421.965867	2532.761392
422.344686	2531.014632
422.723444	2532.847092
423.102141	2531.493542
423.480777	2534.989582
423.859352	2533.661238
424.237866	2537.099305
424.616319	2534.961856
424.994712	2531.859025
425.373044	2535.571835
425.751314	2533.890610
426.129524	2534.561084
426.507673	2533.315919
426.885762	2533.494880
427.263789	2534.556043
427.641756	2533.371372
428.019662	2535.801208
428.397508	2534.745086
428.775292	2535.092926
429.153016	2538.770447
429.530679	2535.264325
429.908282	2531.264169
430.285824	2536.504449
430.663305	2533.630991
431.040726	2534.760209
431.418086	2536.887576
431.795385	2538.193235
432.172624	2533.867925
432.549802	2536.048224
432.926920	2534.523275
433.303977	2538.122659
433.680974	2539.511497
434.057910	2536.847247
434.434786	2534.132586
434.811601	2537.013605
435.188355	2537.628626
435.565050	2538.841023
435.941683	2540.580222
436.318257	2536.328008
436.694770	2533.590662
437.071222	2536.610313
437.447614	2534.046886
437.823946	2535.639891
438.200218	2536.675848
438.576429	2537.673996
438.952580	2540.701209
439.328670	2538.188194
439.704700	2539.698020
440.080670	2537.424459
440.456580	2539.108205
440.832429	2537.941177
441.208218	2537.091743
441.583947	2541.245654
441.959616	2536.698533
442.335224	2538.835982
442.710773	2536.600231
443.086261	2538.263811
443.461689	2537.968904
443.837057	2537.978986
444.212365	2539.090561
444.587612	2540.277752
444.962800	2539.629964
445.337927	2541.454862
445.712995	2536.237268
446.088002	2538.087371
446.462949	2540.852444
446.837837	2540.073586
447.212664	2539.340098
447.587431	2542.863864
447.962139	2538.450334
448.336786	2540.640715
448.711374	2541.308668
449.085901	2541.515356
449.460369	2542.329502
449.834776	2540.907897
450.209124	2540.532331
450.583412	2545.016437
450.957640	2541.031405
451.331808	2540.149203
451.705917	2543.342774
452.079965	2539.761034
452.453954	2540.242464
452.827883	2541.618699
453.201752	2543.985521
453.575562	2540.247505
453.949311	2542.740356
454.323001	2542.158103
454.696632	2541.137269
455.070202	2541.084337
455.443713	2543.103319
455.817164	2543.186498
456.190556	2539.219110
456.563888	2538.962011
456.937160	2539.009902
457.310373	2538.311702
457.683526	2541.517876
458.056619	2537.835313
458.429653	2541.790098
458.802628	2544.910573
459.175542	2539.629964
459.548398	2542.818494
459.921194	2541.044008
460.293930	2544.829914
460.666607	2541.747249
461.039224	2543.035263
461.411782	2544.083823
461.784280	2542.016950
462.156719	2544.913093
462.529099	2544.403937
462.901419	2544.882846
463.273680	2547.176571
463.645882	2543.430994
464.018024	2547.121119
464.390106	2545.540717
464.762130	2545.785213
465.134094	2543.597352
465.505999	2547.224462
465.877845	2546.624565
466.249631	2545.782692
466.621358	2545.197918
466.993026	2548.625903
467.364634	2546.972405
467.736184	2546.105326
468.107674	2548.424257
468.479105	2543.768751
468.850477	2545.195398
469.221790	2544.275387
469.593043	2546.382590
469.964238	2546.813608
470.335373	2544.842517
470.706449	2544.650953
471.077467	2544.676159
471.448425	2548.439380
471.819324	2547.269833
472.190164	2543.156251
472.560945	2547.353012
472.931667	2544.114070
473.302330	2548.026006
473.672934	2544.290511
474.043479	2547.978115
474.413965	2543.572146
474.784393	2544.068700
475.154761	2543.005017
475.525070	2543.599873
475.895321	2543.801519
476.265513	2541.689275
476.635645	2546.864020
477.005719	2546.178423
477.375734	2545.656663
477.745691	2545.855789
478.115588	2547.461397
478.485427	2548.845193
478.855207	2547.045501
479.224928	2548.535162
479.594591	2548.386448
479.964194	2548.446942
480.333739	2548.719164
480.703226	2549.550955
481.072653	2548.227652
481.442022	2548.691438
481.811333	2548.608259
482.180584	2546.163299
482.549777	2551.315359
482.918912	2545.061807
483.287988	2550.609597
483.657005	2548.598177
484.025964	2547.965512
484.394864	2548.832590
484.763706	2552.076573
485.132489	2551.143959
485.501213	2550.097920
485.869879	2549.140101
486.238487	2548.240255
486.607036	2549.112374
486.975527	2549.553475
487.343959	2549.281253
487.712333	2552.195040
488.080648	2549.850903
488.448905	2550.584391
488.817104	2547.204298
489.185244	2549.666901
489.553326	2548.683876
489.921350	2550.052550
490.289315	2552.086655
490.657222	2550.876778
491.025070	2553.049516
491.392861	2550.995245
491.760593	2551.262427
492.128267	2551.327962
492.495883	2546.566592
492.863440	2551.035575
493.230939	2550.206305
493.598380	2548.651109
493.965763	2548.744370
494.333088	2550.823846
494.700354	2546.198588
495.067563	2551.358208
495.434713	2544.061138
495.801805	2551.002807
496.168839	2549.487940
496.535815	2550.201264
496.902733	2550.753270
497.269593	2553.467931
497.636395	2551.741336
498.003139	2550.980122
498.369825	2552.507592
498.736453	2553.006666
499.103023	2550.196223
499.469535	2549.404761
499.835989	2547.831921
500.202385	2553.745195
500.568723	2551.028013
500.935003	2552.215205
501.301226	2552.736964
501.667390	2553.165462
502.033497	2552.963816
502.399546	2553.478014
502.765537	2550.191181
503.131470	2551.764021
503.497345	2549.540872
503.863163	2553.702345
504.228923	2551.670760
504.594625	2553.798127
504.960269	2552.666388
505.325856	2553.684701
505.691385	2553.936759
506.056856	2553.989691
506.422270	2550.876778
506.787625	2552.058929
507.152924	2551.275029
507.518164	2554.400545
507.883347	2553.321738
508.248472	2551.141439
508.613540	2551.907694
508.978550	2552.505071
509.343503	2553.898950
509.708398	2555.134033
510.073236	2555.262582
510.438016	2556.152346
510.802738	2553.359547
511.167403	2555.265103
511.532010	2554.362736
511.896561	2556.250648
512.261053	2558.398180
512.625488	2553.851059
512.989866	2554.077911
513.354186	2550.932231
513.718449	2551.582540
514.082655	2554.874413
514.446803	2556.560679
514.810894	2556.517829
515.174927	2555.615463
515.538904	2557.432799
515.902822	2558.004970
516.266684	2555.786862
516.630488	2557.742830
516.994235	2557.140412
517.357925	2559.449260
517.721558	2558.894733
518.085133	2555.859959
518.448651	2558.466235
518.812112	2557.669733
519.175516	2558.584703
519.538863	2558.602347
519.902152	2558.267110
520.265385	2561.251473
520.628560	2560.046637
520.991678	2562.342883
521.354739	2561.813562
521.717743	2559.902964
522.080690	2564.056875
522.443580	2562.174004
522.806413	2560.200392
523.169189	2563.451937
523.531908	2564.334138
523.894569	2562.549570
524.257174	2565.937225
524.619722	2564.261042
524.982213	2566.443861
525.344647	2565.430589
525.707025	2562.894889
526.069345	2567.626012
526.431608	2563.008315
526.793815	2566.864798
527.155964	2567.013512
527.518057	2568.019222
527.880093	2566.191804
528.242072	2566.668193
528.603995	2566.317833
528.965860	2567.467216
529.327669	2567.053841
529.689421	2567.351269
530.051117	2568.472926
530.412755	2569.478636
530.774337	2570.832186
531.135862	2571.427042
531.497331	2567.452092
531.858743	2564.399673
532.220098	2569.435786
532.581396	2566.307750
532.942638	2568.248594
533.303824	2567.865467
533.664953	2569.279510
534.026025	2571.974007
534.387040	2572.836044
534.747999	2572.820921
535.108902	2570.728842
535.469748	2569.022412
535.830537	2573.597259
536.191270	2571.520303
536.551947	2573.637588
536.912567	2572.420149
537.273131	2575.185222
537.633638	2573.897207
537.994089	2573.259501
538.354483	2571.321178
538.714821	2577.156313
539.075103	2574.280335
539.435328	2573.115828
539.795497	2575.313772
540.155609	2575.712023
540.515665	2574.708833
540.875665	2575.437280
541.235609	2574.807136
541.595496	2574.751683
541.955328	2576.881570
542.315102	2575.843093
542.674821	2575.734708
543.034483	2579.321489
543.394090	2577.604976
543.753640	2578.025912
544.113134	2577.799060
544.472571	2576.596745
544.831953	2579.313927
545.191278	2579.029102
545.550548	2576.808474
545.909761	2576.102712
546.268918	2579.213104
546.628019	2579.520614
546.987064	2579.092116
547.346053	2578.146900
547.704986	2577.700758
548.063863	2581.453897
548.422684	2582.063877
548.781449	2581.189236
549.140158	2580.972467
549.498811	2581.058166
549.857408	2580.231417
550.215949	2577.070614
550.574434	2577.728484
550.932864	2580.899370
551.291237	2578.320820
551.649555	2583.775348
552.007817	2583.470358
552.366022	2585.537232
552.724173	2585.559917
553.082267	2584.453383
553.440305	2584.670153
553.798288	2581.252251
554.156215	2586.371543
554.514086	2585.764083
554.871902	2583.843404
555.229661	2585.121336
555.587365	2586.903384
555.945014	2587.238621
556.302606	2587.120154
556.660143	2586.646285
557.017625	2588.438416
557.375050	2589.229877
557.732421	2591.016966
558.089735	2590.664085
558.446994	2590.979157
558.804197	2593.368664
559.161345	2592.786411
559.518437	2590.444795
559.875474	2594.565938
560.232455	2595.425455
560.589381	2595.654827
560.946251	2598.946701
561.303065	2597.741865
561.659825	2599.312184
562.016528	2598.556011
562.373177	2597.842688
562.729770	2598.538367
563.086307	2602.495673
563.442789	2600.948039
563.799216	2603.965169
564.155587	2601.439551
564.511904	2604.512135
564.868164	2603.655138
565.224370	2607.952722
565.580520	2608.716457
565.936615	2609.686879
566.292654	2609.734770
566.648638	2612.439349
567.004567	2612.562857
567.360441	2615.244751
567.716260	2620.283384
568.072023	2618.478651
568.427732	2613.603856
568.783385	2618.581995
569.138982	2621.110134
569.494525	2624.275978
569.850013	2620.762294
570.205445	2628.795373
570.560823	2630.849643
570.916145	2633.884417
571.271412	2637.627474
571.626625	2641.683082
571.981782	2639.298617
572.336884	2646.222642
572.691931	2645.206849
573.046923	2650.003507
573.401860	2652.266985
573.756743	2654.931235
574.111570	2656.947696
574.466342	2662.442554
574.821059	2662.583706
575.175722	2664.612771
575.530330	2669.608554
575.884882	2671.234326
576.239380	2674.138031
576.593823	2674.445541
576.948211	2678.632220
577.302544	2678.430573
577.656823	2683.398631
578.011047	2689.261492
578.365216	2692.722245
578.719330	2695.414221
579.073389	2698.968234
579.427394	2699.124510
579.781344	2705.279759
580.135239	2710.446942
580.489080	2715.256202
580.842866	2716.428271
581.196597	2723.226267
581.550273	2729.018552
581.903895	2737.641446
582.257463	2739.451220
582.610975	2746.027405
582.964434	2751.499578
583.317837	2757.422934
583.671186	2761.801176
584.024481	2764.687236
584.377721	2768.558842
584.730906	2777.466561
585.084037	2782.159876
585.437113	2786.210443
585.790135	2794.803089
586.143103	2796.882565
586.496016	2805.202990
586.848874	2811.534679
587.201679	2819.255206
587.554428	2820.903663
587.907124	2831.918585
588.259765	2837.448730
588.612352	2850.800226
588.964884	2851.725278
589.317362	2864.323122
589.669786	2874.440717
590.022155	2882.438508
590.374470	2895.200189
590.726731	2897.327556
591.078937	2899.601116
591.431090	2914.870771
591.783188	2914.664084
592.135232	2926.813265
592.487222	2932.235026
592.839157	2949.009465
593.191038	2949.435443
593.542866	2956.288891
593.894639	2961.388018
594.246358	2974.600883
594.598022	2989.656288
594.949633	2991.491268
595.301190	2996.640807
595.652692	3009.042046
596.004141	3031.432330
596.355535	3022.970754
596.706876	3034.058772
597.058162	3037.940460
597.409395	3051.382697
597.760573	3070.715522
598.111698	3073.500759
598.462768	3087.797472
598.813785	3088.828388
599.164748	3103.586365
599.515657	3108.047787
599.866511	3121.653861
600.217312	3136.225316
600.568060	3139.181953
600.918753	3164.289419
601.269392	3173.998682
601.619978	3179.523786
601.970510	3202.327446
602.320988	3210.836913
602.671412	3233.131416
603.021783	3237.731469
603.372100	3248.396030
603.722363	3267.363372
604.072572	3272.863270
604.422728	3292.299439
604.772830	3297.207002
605.122878	3308.252170
605.472872	3321.674243
605.822813	3340.167715
606.172701	3347.469827
606.522534	3376.348077
606.872314	3389.082031
607.222041	3406.196748
607.571714	3424.775921
607.921333	3440.131276
608.270899	3457.576188
608.620411	3484.816063
608.969870	3492.425685
609.319276	3502.949094
609.668627	3527.771735
610.017926	3550.895508
610.367171	3581.402050
610.716362	3589.054522
611.065500	3608.132769
611.414585	3632.259731
611.763616	3640.544867
612.112594	3658.183865
612.461518	3680.208666
612.810389	3707.869477
613.159207	3713.616392
613.507971	3722.665263
613.856682	3769.671503
614.205340	3776.986217
614.553945	3812.014674
614.902496	3812.627174
615.250994	3840.615661
615.599439	3856.928834
615.947830	3885.917990
616.296169	3898.939290
616.644454	3919.882764
616.992686	3941.746248
617.340864	3976.149602
617.688990	3978.027432
618.037063	4017.771889
618.385082	4030.314280
618.733048	4076.619798
619.080961	4073.617791
619.428821	4098.967233
619.776628	4123.273157
620.124382	4130.103920
620.472083	4146.152433
620.819731	4170.087832
621.167326	4166.806041
621.514868	4183.172147
621.862357	4168.089014
622.209793	4188.926624
622.557176	4192.203374
622.904506	4198.373746
623.251783	4194.015669
623.599007	4200.770815
623.946179	4219.831418
624.293297	4226.442891
624.640363	4215.324626
624.987376	4228.943303
625.334336	4228.963468
625.681243	4238.148450
626.028097	4247.557764
626.374899	4254.529679
626.721647	4277.691261
627.068343	4266.058798
627.414987	4273.665899
627.761577	4280.206797
628.108115	4307.323163
628.454600	4288.602838
628.801032	4335.183100
629.147412	4327.964168
629.493739	4346.939071
629.840014	4340.367927
630.186236	4380.205645
630.532405	4352.837221
630.878521	4391.659146
631.224585	4390.565216
631.570597	4376.384450
631.916556	4413.033639
632.262462	4425.790278
632.608316	4427.889919
632.954117	4436.442237
633.299866	4441.208647
633.645562	4458.257830
633.991206	4444.591262
634.336797	4429.818160
634.682336	4429.924025
635.027823	4435.146660
635.373257	4442.239563
635.718639	4431.680867
636.063968	4453.466213
636.409245	4416.562446
636.754470	4433.757822
637.099642	4428.446967
637.444762	4422.601749
637.789829	4440.747382
638.134845	4430.760856
638.479808	4437.725210
638.824719	4456.248930
639.169577	4433.044499
639.514383	4457.841935
639.859137	4441.949697
640.203839	4457.035350
640.548489	4465.693532
640.893086	4463.132626
641.237632	4467.243687
641.582125	4487.471316
641.926566	4490.959795
642.270955	4510.983258
642.615292	4522.406512
642.959576	4544.726221
643.303809	4549.774937
643.647990	4570.688163
643.992118	4580.289041
644.336195	4557.344229
644.680219	4594.784879
645.024192	4594.134570
645.368112	4664.995549
645.711981	4688.782233
646.055797	4738.135130
646.399562	4728.486361
646.743274	4820.452131
647.086935	4852.188715
647.430544	4867.372670
647.774101	4898.484151
648.117606	4905.448505
648.461059	4919.193211
648.804460	4911.591151
649.147810	4863.065004
649.491108	4868.781673
649.834354	4864.978122
650.177548	4829.506043
650.520690	4795.410199
650.863781	4792.166217
651.206820	4820.459692
651.549807	4784.334784
651.892742	4764.150004
652.235626	4778.575266
652.578458	4783.850833
652.921238	4734.714707
653.263967	4770.847177
653.606644	4742.793156
653.949269	4756.855454
654.291843	4729.983584
654.634365	4775.134678
654.976836	4756.905866
655.319255	4763.784520
655.661622	4765.115385
656.003938	4772.790542
656.346203	4750.566615
656.688416	4788.831493
657.030577	4766.022793
657.372687	4758.090537
657.714746	4757.447790
658.056753	4798.308862
658.398708	4763.822329
658.740612	4766.534470
659.082465	4814.085153
659.424266	4812.726562
659.766016	4821.694775
660.107715	4822.024971
660.449362	4837.279502
660.790958	4845.935163
661.132503	4847.787787
661.473996	4888.956370
661.815438	4879.826841
662.156829	4887.386051
662.498168	4896.744953
662.839456	4883.280031
663.180693	4921.872584
663.521879	4923.750414
663.863013	4930.737453
664.204097	4957.024550
664.545129	4994.445035
664.886110	4997.994008
665.227040	5033.095562
665.567918	5008.908106
665.908746	5040.402714
666.249522	5053.759251
666.590248	5051.158016
666.930922	5078.443261
667.271545	5098.320531
667.612118	5110.257983
667.952639	5095.641158
668.293109	5126.694665
668.633528	5101.922435
668.973896	5109.244711
669.314213	5115.878870
669.654480	5111.755206
669.994695	5114.033807
670.334859	5117.905413
670.674973	5119.604282
671.015035	5131.082990
671.355047	5135.887209
671.695008	5133.104492
672.034918	5119.677379
672.374777	5133.333865
672.714585	5130.220952
673.054342	5129.711796
673.394049	5139.232015
673.733705	5171.190410
674.073310	5168.689997
674.412864	5140.807375
674.752368	5141.777798
675.091820	5153.332122
675.431223	5107.145071
675.770574	5115.069764
676.109875	5084.535496
676.449125	5098.121405
676.788324	5076.908230
677.127473	5037.410789
677.466571	5039.646541
677.805619	5036.389956
678.144616	5032.079769
678.483562	5026.307648
678.822458	5003.864431
679.161303	5002.946941
679.500098	5004.018186
679.838842	4992.267257
680.177535	5006.838712
680.516179	5021.319426
680.854771	5036.319380
681.193314	5102.439153
681.531805	5196.910377
681.870247	5324.958205
682.208638	5413.289302
682.546978	5430.212456
682.885268	5418.058234
683.223508	5355.701682
683.561697	5314.444878
683.899836	5297.945182
684.237925	5267.214308
684.575963	5237.703393
684.913951	5204.328434
685.251889	5268.048619
685.589776	5236.143156
685.927614	5219.953491
686.265401	5284.707112
686.603137	5269.150111
686.940824	5339.259958
687.278460	5359.449779
687.616046	5370.124423
687.953582	5425.491415
688.291068	5413.611936
688.628504	5471.416327
688.965889	5439.725113
689.303224	5401.659361
689.640510	5368.044947
689.977745	5305.993384
690.314930	5226.960695
690.652065	5185.106515
690.989150	5111.919043
691.326185	5053.703799
691.663170	5013.624105
692.000105	4951.668324
692.336990	4889.447883
692.673825	4873.245614
693.010610	4811.829237
693.347345	4753.069548
693.684030	4746.405142
694.020665	4714.015729
694.357251	4637.521261
694.693786	4646.877642
695.030272	4619.778920
695.366707	4594.051391
695.703093	4563.489396
696.039429	4589.395885
696.375716	4574.461467
696.711952	4551.375503
697.048139	4542.717321
697.384276	4532.183830
697.720363	4542.470305
698.056400	4550.216038
698.392388	4505.853884
698.728326	4491.821832
699.064214	4472.362978
699.400053	4469.449191
699.735842	4445.602013
700.071581	4425.172737
700.407270	4403.576434
700.742910	4390.613107
701.078501	4342.676775
701.414042	4345.015870
701.749533	4316.119977
702.084974	4259.911111
702.420366	4312.341632
702.755709	4256.619238
703.091002	4208.614850
703.426246	4260.712655
703.761440	4219.455852
704.096584	4189.793702
704.431679	4209.083678
704.766725	4195.230587
705.101721	4186.080893
705.436668	4218.621541
705.771565	4164.824867
706.106413	4194.769321
706.441212	4229.964137
706.775961	4238.115683
707.110661	4216.731108
707.445311	4246.068103
707.779913	4267.775311
708.114465	4279.622023
708.448967	4308.182680
708.783421	4361.654199
709.117825	4402.419489
709.452180	4403.084922
709.786485	4445.347435
710.120742	4527.747615
710.454949	4512.298999
710.789107	4575.777208
711.123216	4643.305985
711.457275	4634.123523
711.791286	4704.462743
712.125247	4715.250812
712.459159	4623.985762
712.793023	4698.536866
713.126837	4666.094521
713.460602	4658.875588
713.794318	4586.855144
714.127985	4596.985343
714.461602	4519.467520
714.795171	4493.379549
715.128691	4430.975105
715.462162	4383.653794
715.795584	4338.863142
716.128957	4324.037109
716.462281	4273.744037
716.795556	4245.904265
717.128782	4213.356055
717.461960	4151.279287
717.795088	4162.604239
718.128167	4121.455821
718.461198	4073.806835
718.794180	4067.308787
719.127113	4047.371024
719.459997	4031.009959
719.792833	3985.218638
720.125619	3977.034325
720.458357	3942.746917
720.791046	3951.347125
721.123686	3926.443825
721.456278	3890.586098
721.788821	3901.323756
722.121315	3881.832134
722.453761	3855.005634
722.786158	3866.640617
723.118506	3890.036612
723.450805	3842.901824
723.783056	3863.058877
724.115259	3883.180643
724.447412	3885.991086
724.779518	3880.080333
725.111574	3885.943195
725.443582	3911.133841
725.775542	3898.737644
726.107453	3947.231023
726.439315	3949.194553
726.771129	3960.348106
727.102895	3997.745905
727.434612	4046.234244
727.766281	4057.087848
728.097901	4055.013413
728.429473	4061.534146
728.760996	4067.686874
729.092471	4065.100762
729.423897	4053.997621
729.755276	4055.910738
730.086606	4057.181109
730.417887	4091.614711
730.749120	4156.965708
731.080305	4221.656315
731.411442	4242.372937
731.742530	4211.649625
732.073570	4219.569278
732.404562	4276.415849
732.735506	4265.937811
733.066401	4230.697625
733.397249	4169.878624
733.728048	4095.100668
734.058798	4015.402547
734.389501	3948.602217
734.720156	3884.690469
735.050762	3845.845858
735.381320	3839.095753
735.711831	3785.992238
736.042293	3759.498454
736.372707	3786.002320
736.703073	3754.913525
737.033391	3744.090167
737.363661	3762.056840
737.693883	3787.943165
738.024056	3796.719813
738.354182	3792.981798
738.684260	3853.863813
739.014290	3875.722256
739.344272	3865.914691
739.674207	3910.412956
740.004093	3918.120880
740.333931	3909.256011
740.663722	3909.654262
740.993464	3906.755599
741.323159	3885.789440
741.652806	3856.800285
741.982405	3832.257428
742.311956	3803.921102
742.641460	3791.298053
742.970915	3770.911626
743.300323	3727.224987
743.629683	3695.997560
743.958996	3689.010520
744.288260	3662.279802
744.617477	3630.966675
744.946647	3617.249695
745.275768	3594.438474
745.604842	3591.159204
745.933869	3545.637584
746.262847	3537.627191
746.591778	3573.157243
746.920662	3543.384189
747.249498	3516.751773
747.578286	3561.607960
747.907027	3580.350970
748.235720	3571.292016
748.564365	3600.124896
748.892963	3600.893672
749.221514	3583.554623
749.550017	3562.094431
749.878473	3560.065367
750.206881	3530.360368
750.535242	3528.263248
750.863555	3529.480686
751.191821	3526.208978
751.520039	3503.591841
751.848210	3481.788850
752.176334	3518.680014
752.504411	3523.159079
752.832440	3480.722646
753.160421	3466.390646
753.488356	3477.385403
753.816243	3489.592557
754.144082	3442.543468
754.471875	3431.271448
754.799620	3451.834314
755.127318	3440.834517
755.454969	3441.348714
755.782572	3444.527162
756.110129	3427.203237
756.437638	3414.330650
756.765100	3431.815892
757.092515	3440.259825
757.419882	3444.070937
757.747203	3419.888522
758.074477	3419.954057
758.401703	3439.843930
758.728882	3459.774132
759.056014	3462.166159
759.383099	3465.851243
759.710138	3465.170687
760.037129	3481.539313
760.364073	3511.670290
760.690970	3495.102538
761.017820	3471.835092
761.344623	3491.611539
761.671379	3539.527706
761.998088	3586.821291
762.324751	3712.396433
762.651366	3956.680666
762.977935	4419.476233
763.304456	4850.199980
763.630931	4932.277526
763.957359	4579.593362
764.283740	4246.511724
764.610074	4061.856779
764.936362	3869.388046
765.262602	3713.933985
765.588796	3605.198817
765.914943	3523.373328
766.241044	3434.666665
766.567097	3410.048190
766.893104	3361.499358
767.219064	3330.181190
767.544978	3305.318219
767.870845	3253.094386
768.196665	3234.464802
768.522438	3242.848240
768.848165	3237.653331
769.173846	3202.355172
769.499479	3185.784899
769.825066	3170.590862
770.150607	3151.898263
770.476101	3169.771674
770.801548	3163.225736
771.126949	3116.824435
771.452303	3100.087805
771.777611	3109.625668
772.102872	3114.795371
772.428087	3089.501382
772.753256	3078.713312
773.078378	3075.769278
773.403453	3038.663866
773.728482	3028.717669
774.053465	3051.513767
774.378401	3035.034235
774.703291	3004.361334
775.028135	3008.661438
775.352932	3002.112980
775.677683	2985.920793
776.002388	2990.130157
776.327046	2991.760970
776.651658	2977.439052
776.976224	2965.836837
777.300743	2967.268524
777.625216	2956.089766
777.949643	2952.608849
778.274024	2956.634210
778.598359	2944.043928
778.922647	2948.759928
779.246889	2948.548199
779.571086	2932.126641
779.895236	2925.401742
780.219339	2937.492949
780.543397	2953.664971
780.867409	2955.489868
781.191374	2946.955195
781.515294	2943.292797
781.839167	2943.350770
782.162995	2936.066303
782.486776	2948.649023
782.810511	2941.780450
783.134201	2928.960796
783.457844	2937.155192
783.781441	2926.573810
784.104993	2906.573032
784.428498	2906.242836
784.751958	2920.007707
785.075372	2914.285997
785.398739	2897.783780
785.722061	2915.029568
786.045337	2926.225970
786.368568	2913.549989
786.691752	2903.397105
787.014891	2953.271761
787.337983	2981.545072
787.661030	3007.474247
787.984031	3074.269535
788.306987	3115.796040
788.629897	3110.984259
788.952760	3093.090683
789.275579	3077.155596
789.598351	3019.880526
789.921078	2977.686069
790.243759	2972.952425
790.566395	2951.368725
790.888984	2925.651279
791.211529	2914.911100
791.534027	2902.741755
791.856480	2892.057029
792.178888	2878.488764
792.501249	2872.167157
792.823566	2868.666076
793.145836	2866.730272
793.468062	2861.300950
793.790241	2857.000846
794.112375	2866.158102
794.434464	2878.493805
794.756507	2883.476986
795.078505	2887.956051
795.400457	2902.056158
795.722364	2936.789708
796.044226	2962.003039
796.366042	2961.970272
796.687812	2953.269240
797.009538	2970.557877
797.331218	2957.345013
797.652852	2945.825976
797.974442	2926.510795
798.295986	2923.720517
798.617484	2918.243303
798.938938	2904.047414
799.260346	2888.051833
799.581709	2886.242058
799.903026	2876.729401
800.224299	2870.591796
800.545526	2863.539222
800.866708	2844.476099
801.187845	2838.323371
801.508936	2840.319667
801.829983	2845.509535
802.150984	2833.990499
802.471940	2819.819815
802.792851	2819.620690
803.113717	2820.144970
803.434538	2826.065805
803.755314	2821.422902
804.076045	2813.039463
804.396731	2810.339926
804.717372	2811.973259
805.037967	2808.847744
805.358518	2815.736481
805.679024	2826.733758
805.999485	2821.533808
806.319901	2825.095383
806.640272	2816.825370
806.960598	2825.294508
807.280879	2833.161229
807.601115	2839.629029
807.921306	2825.349961
808.241453	2821.664878
808.561554	2831.696774
808.881611	2830.139057
809.201623	2826.930363
809.521590	2822.826864
809.841513	2819.691266
810.161390	2825.297029
810.481223	2819.245124
810.801011	2808.207517
811.120755	2806.927064
811.440453	2808.913279
811.760107	2808.046201
812.079716	2807.320274
812.399281	2798.004222
812.718801	2791.725465
813.038276	2784.388066
813.357707	2792.050619
813.677093	2800.302988
813.996434	2792.794190
814.315731	2787.082562
814.634983	2782.800102
814.954191	2785.212294
815.273354	2797.545477
815.592473	2804.109059
815.911547	2807.892445
816.230577	2814.841676
816.549562	2825.322235
816.868502	2821.596822
817.187399	2833.854388
817.506250	2847.967098
817.825058	2841.794205
818.143821	2854.765094
818.462539	2869.906199
818.781213	2896.899058
819.099843	2933.200407
819.418429	2988.481700
819.736970	3045.776934
820.055466	3119.486165
820.373919	3222.270250
820.692327	3356.357381
821.010691	3523.839635
821.329011	3951.233699
821.647286	4826.325075
821.965517	6163.828890
822.283704	6870.152517
822.601847	6837.337126
822.919945	6227.730556
823.237999	5741.370115
823.556010	5177.970762
823.873976	4642.496879
824.191897	4247.608175
824.509775	3965.633755
824.827609	3701.928477
825.145398	3584.204932
825.463144	3577.837955
825.780845	3669.576872
826.098502	3769.941204
826.416116	4047.544944
826.733685	4349.530224
827.051210	4403.921753
827.368692	4293.026451
827.686129	4039.733676
828.003522	3718.912124
828.320872	3471.366265
828.638177	3281.627316
828.955439	3147.865340
829.272656	3070.818865
829.589830	3004.159688
829.906960	2955.507512
830.224046	2912.236768
830.541088	2880.323744
830.858086	2862.692308
831.175041	2848.365349
831.491952	2849.018178
831.808819	2865.099459
832.125642	2886.350443
832.442421	2929.979109
832.759157	3009.596573
833.075849	3183.297090
833.392497	3456.494861
833.709101	3653.861075
834.025662	3600.185390
834.342179	3444.360804
834.658653	3275.653549
834.975083	3128.129223
835.291469	3035.981972
835.607811	2953.181020
835.924110	2897.503996
836.240366	2850.069259
836.556578	2806.533854
836.872746	2785.260185
837.188871	2764.354520
837.504952	2749.525966
837.820990	2741.407188
838.136984	2726.497975
838.452935	2720.690566
838.768842	2717.663353
839.084706	2738.264028
839.400526	2815.474341
839.716303	2939.590069
840.032037	3015.136801
840.347727	3002.549039
840.663373	2946.534258
840.978977	2869.243288
841.294537	2800.542443
841.610054	2754.622573
841.925527	2734.682289
842.240957	2717.060935
842.556344	2693.407842
842.871687	2675.937723
843.186987	2670.410098
843.502244	2665.106804
843.817458	2659.175886
844.132629	2646.716675
844.447756	2636.939357
844.762840	2635.550519
845.077881	2633.834006
845.392879	2635.585807
845.707833	2631.361320
846.022745	2622.393107
846.337613	2625.639610
846.652438	2623.441667
846.967221	2624.427213
847.281960	2626.539456
847.596656	2622.385546
847.911309	2619.950668
848.225919	2616.285749
848.540485	2615.159052
848.855009	2615.433794
849.169490	2615.360698
849.483928	2614.816253
849.798323	2616.711727
850.112675	2613.334154
850.426984	2612.220059
850.741251	2611.363063
851.055474	2614.100409
851.369654	2615.025461
851.683792	2615.489247
851.997887	2611.078237
852.311938	2609.303751
852.625947	2616.389093
852.939914	2615.343054
853.253837	2617.704834
853.567718	2611.267281
853.881555	2609.797784
854.195350	2614.536469
854.509103	2615.459000
854.822812	2612.058742
855.136479	2609.775099
855.450103	2613.326592
855.763685	2617.543517
856.077224	2610.291817
856.390720	2609.477671
856.704173	2610.921962
857.017584	2615.446397
857.330953	2617.689711
857.644278	2620.588374
857.957561	2621.082407
858.270802	2616.517643
858.584000	2614.279370
858.897155	2617.898919
859.210268	2617.896398
859.523339	2612.540172
859.836367	2611.393310
860.149352	2613.790378
860.462295	2613.324072
860.775195	2608.293000
861.088054	2608.124121
861.400869	2608.809718
861.713642	2606.440376
862.026373	2606.465582
862.339062	2606.856271
862.651708	2614.770883
862.964312	2617.112499
863.276873	2611.552106
863.589392	2616.315996
863.901869	2618.377828
864.214303	2626.310084
864.526696	2628.228243
864.839045	2628.800414
865.151353	2630.768984
865.463619	2631.257976
865.775842	2630.562297
866.088023	2632.992133
866.400162	2632.596403
866.712258	2632.094808
867.024313	2629.780918
867.336325	2626.242028
867.648296	2629.854015
867.960224	2635.116980
868.272110	2631.560446
868.583954	2622.677932
868.895755	2627.983747
869.207515	2633.476084
869.519233	2641.562095
869.830909	2636.704943
870.142542	2629.488531
870.454134	2633.410549
870.765684	2634.638070
871.077191	2635.084212
871.388657	2642.547640
871.700081	2639.878349
872.011463	2640.271559
872.322803	2639.654018
872.634101	2644.979997
872.945357	2651.349495
873.256571	2657.436688
873.567744	2651.233548
873.878874	2651.052067
874.189963	2651.664567
874.501010	2657.502223
874.812015	2662.130002
875.122979	2659.561535
875.433900	2653.923004
875.744780	2654.132212
876.055618	2660.998263
876.366415	2661.658655
876.677169	2661.749395
876.987882	2655.508447
877.298554	2655.009373
877.609183	2666.175528
877.919771	2672.416477
878.230317	2678.604493
878.540822	2688.132274
878.851285	2703.333873
879.161707	2724.683160
879.472087	2761.150867
879.782425	2806.770789
880.092722	2916.541914
880.402977	3098.497321
880.713191	3346.096112
881.023363	3618.641054
881.333494	3795.825009
881.643583	3961.663847
881.953631	3965.197696
882.263637	3788.573309
882.573602	3578.263932
882.883526	3458.100468
883.193408	3350.938141
883.503248	3253.752256
883.813048	3143.532468
884.122806	3034.865356
884.432522	2953.153293
884.742197	2888.687018
885.051831	2858.871114
885.361424	2825.559169
885.670975	2790.208078
885.980485	2761.465939
886.289954	2743.610172
886.599382	2730.321691
886.908768	2723.702656
887.218113	2703.255736
887.527417	2689.705114
887.836680	2683.277643
888.145901	2678.480985
888.455082	2669.963956
888.764221	2657.940804
889.073319	2650.908394
889.382376	2655.820998
889.691392	2655.127840
890.000366	2653.272695
890.309300	2650.913435
890.618193	2654.011224
890.927044	2657.885351
891.235855	2654.525422
891.544625	2657.056081
891.853353	2656.070536
892.162041	2662.780311
892.470687	2680.300842
892.779293	2694.305167
893.087858	2700.465457
893.396381	2722.815412
893.704864	2762.305291
894.013306	2828.828357
894.321707	2916.836821
894.630068	2962.267700
894.938387	2981.633292
895.246665	2972.223978
895.554903	2932.832402
895.863100	2893.428223
896.171256	2837.466374
896.479371	2776.062600
896.787446	2743.874833
897.095480	2725.436812
897.403473	2721.040926
897.711425	2705.254553
898.019336	2687.713858
898.327207	2674.841272
898.635038	2673.091992
898.942827	2671.824141
899.250576	2664.078408
899.558284	2652.022489
899.865952	2646.956129
900.173579	2646.986376
900.481165	2644.266674
900.788711	2635.807618
901.096216	2630.305198
901.403681	2628.266052
901.711105	2628.823099
902.018489	2626.688170
902.325832	2631.875518
902.633135	2629.370064
902.940397	2646.220121
903.247619	2681.036850
903.554800	2746.791140
903.861941	2864.791949
904.169041	2984.516832
904.476101	3038.837785
904.783121	3034.008360
905.090100	2979.586584
905.397039	2906.754513
905.703938	2838.099039
906.010796	2779.112498
906.317614	2732.262535
906.624391	2698.438913
906.931129	2674.707681
907.237826	2652.012407
907.544483	2634.040693
907.851099	2622.166255
908.157675	2615.350615
908.464211	2609.238216
908.770707	2595.309508
909.077163	2592.710793
909.383578	2589.194589
909.689954	2589.214753
909.996289	2587.281471
910.302584	2589.532346
910.608839	2584.476069
910.915054	2585.761563
911.221229	2586.668971
911.527363	2588.415730
911.833458	2587.604105
912.139513	2588.783735
912.445527	2587.750298
912.751502	2594.896134
913.057436	2599.901999
913.363331	2605.807711
913.669186	2614.773403
913.975000	2629.848974
914.280775	2641.819194
914.586510	2662.104797
914.892205	2694.131247
915.197859	2757.843870
915.503475	2837.113494
915.809050	2899.349058
916.114585	2909.975811
916.420081	2918.066863
916.725536	2931.017587
917.030952	2907.666962
917.336328	2865.845550
917.641665	2818.436019
917.946961	2771.863319
918.252218	2740.046076
918.557435	2716.261912
918.862612	2695.341124
919.167750	2680.326047
919.472848	2663.768377
919.777906	2648.750780
920.082925	2638.116466
920.387904	2628.785290
920.692843	2622.682974
920.997743	2619.315483
921.302603	2613.253495
921.607423	2607.282249
921.912204	2602.916609
922.216946	2597.948552
922.521647	2598.858481
922.826310	2594.621391
923.130932	2586.931111
923.435516	2584.776017
923.740059	2585.975812
924.044564	2582.562951
924.349028	2577.761252
924.653454	2571.174984
924.957840	2568.949315
925.262186	2568.659448
925.566493	2566.358162
925.870761	2566.761454
926.174989	2566.728687
926.479178	2562.428582
926.783328	2562.322718
927.087438	2562.249621
927.391509	2561.576627
927.695541	2558.791390
927.999533	2560.270968
928.303486	2560.457491
928.607400	2557.079918
928.911275	2555.779300
929.215110	2558.057902
929.518906	2556.674105
929.822663	2557.697459
930.126381	2555.005483
930.430060	2556.263251
930.733699	2558.272151
931.037299	2552.999104
931.340861	2556.202757
931.644383	2557.813406
931.947866	2560.303736
932.251309	2557.813406
932.554714	2555.890206
932.858080	2560.286092
933.161407	2557.652089
933.464694	2558.831719
933.767943	2554.592109
934.071153	2557.699980
934.374323	2552.530277
934.677455	2554.697973
934.980548	2553.173024
935.283602	2553.462890
935.586617	2555.628066
935.889593	2552.316028
936.192530	2553.604043
936.495428	2556.003632
936.798287	2555.151677
937.101108	2556.936245
937.403890	2559.308108
937.706632	2559.973540
938.009336	2562.489076
938.312002	2569.632391
938.614628	2569.697926
938.917216	2576.344688
939.219765	2572.326888
939.522275	2575.502815
939.824747	2573.967783
940.127179	2569.947463
940.429573	2565.748182
940.731929	2566.418656
941.034246	2560.533108
941.336524	2565.196176
941.638763	2565.644838
941.940964	2564.596278
942.243126	2563.509910
942.545250	2562.065619
942.847335	2562.484035
943.149381	2560.767522
943.451389	2560.414641
943.753359	2557.826009
944.055290	2559.058571
944.357182	2557.636966
944.659036	2555.544887
944.960851	2559.781977
945.262628	2557.987326
945.564367	2561.080074
945.866067	2557.132850
946.167729	2559.275341
946.469352	2557.082439
946.770937	2555.411296
947.072484	2557.946997
947.373992	2555.413817
947.675462	2557.732748
947.976893	2555.292829
948.278286	2556.129661
948.579641	2556.711914
948.880958	2554.597150
949.182236	2553.349464
949.483476	2556.263251
949.784678	2554.332489
950.085841	2558.125957
950.386967	2555.396173
950.688054	2554.448436
950.989103	2555.970864
951.290114	2558.206616
951.591087	2559.280382
951.892021	2557.168138
952.192917	2560.976730
952.493776	2561.034703
952.794596	2563.051165
953.095378	2561.193500
953.396122	2562.395815
953.696828	2560.969168
953.997496	2558.335165
954.298126	2554.032541
954.598718	2557.964641
954.899272	2553.490617
955.199788	2556.905998
955.500266	2552.709238
955.800706	2552.313507
956.101108	2546.236396
956.401472	2547.579864
956.701798	2544.212373
957.002087	2546.140614
957.302337	2547.824360
957.602550	2545.845707
957.902724	2544.368649
958.202861	2545.573484
958.502960	2545.724719
958.803022	2544.771941
959.103045	2542.263967
959.403031	2545.979297
959.702979	2544.945861
960.002889	2543.690613
960.302762	2543.660367
960.602596	2544.386293
960.902393	2541.512835
961.202153	2545.021478
961.501875	2542.274049
961.801559	2542.163144
962.101205	2541.217928
962.400814	2541.137269
962.700385	2542.821014
962.999918	2541.873277
963.299414	2542.117773
963.598873	2539.657690
963.898293	2543.299924
964.197677	2538.760365
964.497022	2540.174409
964.796331	2541.283463
965.095601	2542.420243
965.394835	2541.699358
965.694030	2539.776158
965.993189	2544.212373
966.292309	2539.539223
966.591393	2541.013761
966.890439	2542.783206
967.189447	2539.939995
967.488419	2538.972093
967.787353	2543.055428
968.086249	2542.495860
968.385108	2543.695655
968.683930	2543.123484
968.982714	2539.745911
969.281462	2540.900335
969.580172	2542.571477
969.878844	2542.805891
970.177480	2540.980993
970.476078	2539.778678
970.774639	2542.616848
971.073162	2541.298586
971.371649	2538.447813
971.670098	2538.054603
971.968510	2538.410005
972.266885	2537.484953
972.565223	2541.943854
972.863524	2542.710109
973.161788	2543.042825
973.460014	2541.333874
973.758204	2542.684903
974.056356	2543.322609
974.354471	2543.483926
974.652550	2544.482075
974.950591	2543.020140
975.248595	2545.639019
975.546563	2543.224307
975.844493	2540.849923
976.142386	2540.224820
976.440243	2543.942671
976.738062	2541.825387
977.035845	2543.090716
977.333590	2541.661549
977.631299	2541.689275
977.928971	2541.124666
978.226606	2540.696168
978.524204	2538.735159
978.821765	2541.280942
979.119290	2541.464944
979.416777	2537.737011
979.714228	2540.244985
980.011642	2540.711292
980.309020	2544.451828
980.606360	2542.805891
980.903664	2541.606096
981.200931	2542.750438
981.498162	2544.628268
981.795356	2544.323278
982.092513	2548.814946
982.389633	2548.744370
982.686717	2552.028682
982.983764	2551.995914
983.280775	2553.745195
983.577749	2554.546738
983.874686	2555.650751
984.171587	2550.531459
984.468451	2548.782179
984.765279	2549.435008
985.062070	2546.014585
985.358824	2545.989380
985.655543	2542.800850
985.952224	2544.361087
986.248869	2539.715664
986.545478	2537.381609
986.842050	2539.380427
987.138586	2536.295241
987.435086	2538.127700
987.731549	2536.791794
988.027975	2540.441590
988.324366	2538.392361
988.620719	2539.456044
988.917037	2539.932433
989.213318	2539.307330
989.509563	2540.055942
989.805772	2540.111394
990.101944	2538.213400
990.398080	2536.401105
990.694180	2539.166178
990.990244	2539.100643
991.286271	2536.436393
991.582262	2539.924872
991.878217	2537.212731
992.174136	2538.720036
992.470019	2538.866229
992.765865	2539.851775
993.061676	2536.476722
993.357450	2540.887732
993.653188	2539.493853
993.948890	2538.377237
994.244556	2538.152906
994.540186	2542.508463
994.835780	2540.129038
995.131337	2540.149203
995.426859	2541.260777
995.722345	2540.980993
996.017795	2544.063659
996.313208	2543.703216
996.608586	2540.383617
996.903928	2541.482588
997.199234	2544.605583
997.494504	2541.689275
997.789738	2539.042670
998.084936	2541.636343
998.380099	2539.312371
998.675225	2540.141641
998.970316	2540.408822
999.265371	2538.702392
999.560390	2541.134748
999.855373	2539.022505
1000.150320	2537.943698
1000.445232	2537.313554
1000.740108	2537.936136
1001.034948	2540.711292
1001.329752	2539.670293
1001.624521	2539.203987
1001.919254	2533.409180
1002.213951	2535.760878
1002.508613	2535.143337
1002.803239	2535.798687
1003.097829	2532.612678
1003.392384	2540.469316
1003.686903	2537.616023
1003.981386	2537.147196
1004.275834	2537.348842
1004.570246	2537.031249
1004.864623	2537.653832
1005.158964	2538.886394
1005.453270	2536.333049
1005.747540	2536.723739
1006.041775	2536.668286
1006.335974	2538.982176
1006.630138	2537.442103
1006.924266	2538.281455
1007.218359	2536.207021
1007.512416	2540.645757
1007.806438	2537.915972
1008.100425	2537.542926
1008.394376	2535.052596
1008.688292	2539.135931
1008.982172	2537.563091
1009.276017	2537.046373
1009.569827	2540.739018
1009.863602	2539.665252
1010.157341	2537.810108
1010.451045	2538.495704
1010.744714	2536.259953
1011.038347	2536.663245
1011.331945	2536.010416
1011.625508	2536.940508
1011.919036	2536.726259
1012.212528	2537.633667
1012.505986	2534.929088
1012.799408	2536.978317
1013.092795	2538.707433
1013.386147	2536.537216
1013.679464	2535.980169
1013.972745	2537.684079
1014.265992	2536.932947
1014.559204	2537.797505
1014.852380	2535.758358
1015.145521	2536.542257
1015.438628	2535.055117
1015.731699	2537.361445
1016.024736	2534.687113
1016.317737	2537.253060
1016.610703	2539.811446
1016.903635	2533.643594
1017.196531	2532.068233
1017.489393	2533.741896
1017.782219	2533.971269
1018.075011	2538.462937
1018.367768	2535.274407
1018.660490	2539.561908
1018.953177	2539.561908
1019.245829	2539.561908
