Dividing Wavelength (nm)	Counts (n)	Blue Motor Position (mm): 0.300000	Red Motor Position (mm): 0.000000	
326.493990	2143.251599
326.888308	2143.251599
327.282561	2143.251599
327.676750	2109.548965
328.070874	2111.056270
328.464933	2113.748246
328.858929	2119.467435
329.252859	2130.769702
329.646726	2142.016516
330.040528	2155.473876
330.434265	2173.301917
330.827938	2186.411438
331.221547	2207.788450
331.615091	2224.792262
332.008571	2245.493761
332.401986	2263.515886
332.795338	2284.323248
333.188625	2302.771351
333.581847	2321.882365
333.975006	2338.523214
334.368100	2356.812520
334.761129	2373.597042
335.154095	2392.854249
335.546996	2410.296642
335.939833	2425.019331
336.332606	2440.727567
336.725315	2449.567230
337.117960	2461.645835
337.510540	2469.643625
337.903056	2480.719040
338.295508	2490.206492
338.687896	2495.217399
339.080220	2504.132679
339.472480	2510.673576
339.864676	2515.382014
340.256807	2521.040709
340.648875	2520.919722
341.040879	2523.946934
341.432818	2528.234436
341.824694	2527.911802
342.216506	2528.405835
342.608253	2530.434899
342.999937	2528.118489
343.391557	2531.307019
343.783113	2528.443644
344.174605	2527.097656
344.566033	2524.319980
344.957397	2524.884589
345.348697	2520.657582
345.739934	2516.410409
346.131106	2516.917045
346.522215	2517.761439
346.913260	2514.575429
347.304241	2512.969822
347.695159	2512.861437
348.086012	2509.400685
348.476802	2507.580828
348.867528	2505.115704
349.258191	2505.541682
349.648789	2504.722494
350.039324	2501.133193
350.429796	2500.886176
350.820203	2497.380054
351.210548	2501.659993
351.600828	2496.646566
351.991045	2495.988695
352.381198	2495.058602
352.771288	2496.331494
353.161314	2494.035248
353.551276	2497.150681
353.941175	2495.358551
354.331010	2495.350989
354.720782	2493.321925
355.110490	2494.047851
355.500135	2494.791421
355.889717	2496.495331
356.279235	2494.680516
356.668689	2497.526247
357.058080	2496.334014
357.447408	2491.199599
357.836672	2490.549290
358.225873	2493.773108
358.615010	2492.921153
359.004084	2500.470281
359.393095	2499.572956
359.782043	2499.961124
360.170927	2498.295023
360.559748	2500.321567
360.948505	2500.929026
361.337199	2500.893738
361.725830	2501.080261
362.114398	2503.109325
362.502903	2501.339880
362.891344	2501.284427
363.279722	2504.503204
363.668037	2504.535972
364.056289	2503.537823
364.444478	2504.357011
364.832603	2504.170488
365.220665	2506.464213
365.608665	2505.004799
365.996601	2509.786333
366.384474	2505.750890
366.772284	2509.143586
367.160031	2507.648884
367.547715	2508.503360
367.935336	2505.919768
368.322893	2510.880264
368.710388	2508.198370
369.097820	2508.495798
369.485189	2510.923113
369.872495	2511.626354
370.259738	2508.778103
370.646918	2509.730881
371.034035	2507.578308
371.421090	2510.224914
371.808081	2510.033350
372.195010	2512.808505
372.581875	2513.499143
372.968678	2512.158196
373.355418	2508.354646
373.742096	2511.979235
374.128710	2511.318844
374.515262	2511.245747
374.901751	2510.582836
375.288177	2511.381858
375.674540	2512.385048
376.060841	2513.685666
376.447079	2515.014010
376.833254	2511.956550
377.219367	2510.482013
377.605417	2511.240706
377.991404	2507.532938
378.377329	2511.664163
378.763191	2509.562002
379.148991	2514.550224
379.534727	2514.794720
379.920402	2517.527025
380.306013	2515.959226
380.691563	2516.904443
381.077049	2514.882940
381.462474	2516.964936
381.847835	2516.793537
382.233134	2518.557941
382.618371	2517.136336
383.003545	2518.517612
383.388657	2516.796058
383.773706	2516.501150
384.158693	2518.298322
384.543618	2517.343023
384.928480	2518.290760
385.313280	2515.520646
385.698017	2520.765966
386.082692	2519.117509
386.467305	2516.158352
386.851856	2519.097344
387.236344	2521.312932
387.620770	2520.879392
388.005133	2516.710358
388.389435	2520.294618
388.773674	2519.898888
389.157851	2519.530884
389.541965	2521.985926
389.926018	2521.199506
390.310008	2518.883095
390.693936	2520.143384
391.077802	2522.532891
391.461606	2522.321162
391.845348	2524.551873
392.229027	2523.067253
392.612645	2525.610515
392.996200	2523.226049
393.379694	2525.406348
393.763125	2522.885772
394.146494	2523.379805
394.529801	2526.258303
394.913047	2523.896523
395.296230	2524.856863
395.679351	2522.726975
396.062410	2522.485000
396.445408	2522.968951
396.828343	2522.608508
397.211217	2519.546007
397.594028	2522.132119
397.976778	2520.478621
398.359466	2522.371574
398.742092	2521.406193
399.124656	2525.383663
399.507158	2524.637572
399.889598	2526.480114
400.271977	2524.632531
400.654294	2527.674868
401.036549	2526.351565
401.418742	2528.002543
401.800874	2525.093797
402.182944	2527.395084
402.564952	2528.262162
402.946898	2523.762932
403.328783	2527.742923
403.710606	2526.807789
404.092367	2529.688809
404.474067	2527.281658
404.855705	2528.070598
405.237282	2525.847449
405.618797	2529.973634
406.000250	2525.633200
406.381642	2529.482121
406.762972	2526.785104
407.144240	2528.945238
407.525447	2529.081350
407.906593	2530.273582
408.287677	2527.460619
408.668700	2527.200999
409.049661	2530.691998
409.430560	2527.652183
409.811399	2530.631504
410.192176	2530.024045
410.572891	2527.836185
410.953545	2530.702081
411.334138	2530.941535
411.714669	2531.007070
412.095139	2531.639735
412.475547	2529.204858
412.855894	2529.840043
413.236180	2531.317101
413.616405	2531.052441
413.996568	2530.402132
414.376670	2533.610826
414.756711	2532.736186
415.136691	2533.197452
415.516609	2532.771474
415.896466	2534.543440
416.276262	2533.149561
416.655997	2532.809283
417.035670	2527.362316
417.415283	2531.894313
417.794834	2527.649662
418.174324	2531.594365
418.553753	2532.471526
418.933121	2531.428007
419.312428	2534.218285
419.691674	2533.638553
420.070859	2534.803059
420.449983	2534.409849
420.829045	2532.027904
421.208047	2536.383461
421.586988	2533.820034
421.965867	2531.019673
422.344686	2535.223996
422.723444	2534.072092
423.102141	2532.695857
423.480777	2536.771630
423.859352	2535.259284
424.237866	2535.818852
424.616319	2533.494880
424.994712	2532.486649
425.373044	2536.322967
425.751314	2535.549150
426.129524	2533.706608
426.507673	2534.800539
426.885762	2534.694674
427.263789	2534.770292
427.641756	2536.176774
428.019662	2534.629139
428.397508	2536.201979
428.775292	2536.002854
429.153016	2537.694161
429.530679	2538.460416
429.908282	2535.574356
430.285824	2536.597710
430.663305	2535.624767
431.040726	2536.128883
431.418086	2536.640560
431.795385	2538.896476
432.172624	2537.386651
432.549802	2538.137783
432.926920	2537.933616
433.303977	2539.178781
433.680974	2537.353883
434.057910	2536.524613
434.434786	2537.121990
434.811601	2541.628782
435.188355	2538.727597
435.565050	2536.471681
435.941683	2540.096271
436.318257	2535.463450
436.694770	2535.302133
437.071222	2537.144675
437.447614	2535.095446
437.823946	2535.261804
438.200218	2536.411187
438.576429	2537.558050
438.952580	2540.749100
439.328670	2538.210879
439.704700	2539.090561
440.080670	2538.790612
440.456580	2538.964532
440.832429	2539.093081
441.208218	2539.914789
441.583947	2540.900335
441.959616	2540.123997
442.335224	2541.737166
442.710773	2539.269522
443.086261	2538.997299
443.461689	2540.696168
443.837057	2541.301107
444.212365	2538.377237
444.587612	2541.081816
444.962800	2539.582073
445.337927	2543.254554
445.712995	2540.756662
446.088002	2539.834131
446.462949	2540.834800
446.837837	2538.268853
447.212664	2542.447969
447.587431	2538.684748
447.962139	2539.617361
448.336786	2543.889739
448.711374	2540.229861
449.085901	2542.276570
449.460369	2540.716333
449.834776	2542.707588
450.209124	2543.017619
450.583412	2541.757331
450.957640	2544.313196
451.331808	2545.502908
451.705917	2542.851261
452.079965	2542.924358
452.453954	2540.529810
452.827883	2540.728936
453.201752	2543.695655
453.575562	2542.054759
453.949311	2543.370500
454.323001	2542.309337
454.696632	2540.741538
455.070202	2546.385110
455.443713	2542.488298
455.817164	2541.490150
456.190556	2540.355890
456.563888	2540.902855
456.937160	2536.736342
457.310373	2545.139945
457.683526	2541.837989
458.056619	2544.086344
458.429653	2541.417053
458.802628	2543.612476
459.175542	2544.272867
459.548398	2545.676828
459.921194	2545.646581
460.293930	2542.316899
460.666607	2542.987372
461.039224	2545.192877
461.411782	2545.344112
461.784280	2546.803526
462.156719	2545.797816
462.529099	2544.960984
462.901419	2543.476364
463.273680	2546.080120
463.645882	2544.439225
464.018024	2544.973587
464.390106	2546.155738
464.762130	2544.666077
465.134094	2543.171375
465.505999	2542.692465
465.877845	2543.491488
466.249631	2544.744215
466.621358	2544.161961
466.993026	2546.327137
467.364634	2546.695141
467.736184	2545.137425
468.107674	2544.560213
468.479105	2546.402754
468.850477	2546.909390
469.221790	2544.839997
469.593043	2545.049204
469.964238	2544.809750
470.335373	2544.855120
470.706449	2547.244627
471.077467	2547.254709
471.448425	2547.758825
471.819324	2548.300749
472.190164	2547.390820
472.560945	2545.938968
472.931667	2547.279915
473.302330	2544.887887
473.672934	2546.438042
474.043479	2545.757487
474.413965	2546.649771
474.784393	2543.708257
475.154761	2544.797147
475.525070	2543.826725
475.895321	2543.365459
476.265513	2543.047866
476.635645	2547.289997
477.005719	2546.309493
477.375734	2548.341078
477.745691	2546.057435
478.115588	2547.942827
478.485427	2545.959133
478.855207	2546.097764
479.224928	2548.454504
479.594591	2547.804195
479.964194	2547.388300
480.333739	2544.749256
480.703226	2547.042981
481.072653	2548.295708
481.442022	2548.446942
481.811333	2548.020965
482.180584	2547.053063
482.549777	2547.761345
482.918912	2546.848896
483.287988	2547.741181
483.657005	2545.097095
484.025964	2546.332178
484.394864	2547.839483
484.763706	2548.338557
485.132489	2551.262427
485.501213	2550.087838
485.869879	2546.037271
486.238487	2545.218083
486.607036	2547.473999
486.975527	2548.676315
487.343959	2548.341078
487.712333	2551.701007
488.080648	2547.899977
488.448905	2552.038764
488.817104	2548.661191
489.185244	2548.686397
489.553326	2548.144473
489.921350	2545.828063
490.289315	2549.465255
490.657222	2548.499874
491.025070	2549.283774
491.392861	2548.825029
491.760593	2548.799823
492.128267	2549.349309
492.495883	2550.171017
492.863440	2549.498023
493.230939	2547.905018
493.598380	2548.005841
493.965763	2543.572146
494.333088	2546.992569
494.700354	2543.864533
495.067563	2548.330996
495.434713	2545.371838
495.801805	2550.438198
496.168839	2547.289997
496.535815	2550.962478
496.902733	2550.934752
497.269593	2553.399876
497.636395	2547.836962
498.003139	2550.072714
498.369825	2548.739329
498.736453	2551.159083
499.103023	2551.557334
499.469535	2551.393497
499.835989	2551.078424
500.202385	2550.128167
500.568723	2550.894422
500.935003	2552.968857
501.301226	2548.552806
501.667390	2550.871737
502.033497	2550.488609
502.399546	2549.659340
502.765537	2549.591284
503.131470	2551.267468
503.497345	2547.771427
503.863163	2551.383414
504.228923	2550.327292
504.594625	2551.474155
504.960269	2552.636141
505.325856	2551.176727
505.691385	2551.388455
506.056856	2549.644216
506.422270	2549.545914
506.787625	2549.976932
507.152924	2552.535318
507.518164	2551.098589
507.883347	2550.521377
508.248472	2551.854762
508.613540	2552.043805
508.978550	2550.223949
509.343503	2551.748898
509.708398	2548.759494
510.073236	2553.248641
510.438016	2547.857127
510.802738	2551.499361
511.167403	2549.208156
511.532010	2548.416695
511.896561	2551.421223
512.261053	2554.662685
512.625488	2548.830070
512.989866	2546.329658
513.354186	2550.735626
513.718449	2546.543907
514.082655	2550.160934
514.446803	2551.214536
514.810894	2550.833928
515.174927	2552.550441
515.538904	2552.794937
515.902822	2551.640513
516.266684	2551.227138
516.630488	2551.174206
516.994235	2551.882488
517.357925	2552.230328
517.721558	2551.517005
518.085133	2551.327962
518.448651	2550.062632
518.812112	2549.752601
519.175516	2550.770914
519.538863	2551.010369
519.902152	2550.281922
520.265385	2548.777138
520.628560	2550.949875
520.991678	2551.322920
521.354739	2551.040616
521.717743	2550.140770
522.080690	2552.744526
522.443580	2552.784855
522.806413	2549.523228
523.169189	2552.043805
523.531908	2552.888199
523.894569	2553.606563
524.257174	2552.278219
524.619722	2550.750749
524.982213	2551.600184
525.344647	2550.511295
525.707025	2551.343085
526.069345	2551.751418
526.431608	2551.499361
526.793815	2550.223949
527.155964	2551.779145
527.518057	2551.448949
527.880093	2552.840308
528.242072	2549.787889
528.603995	2553.677139
528.965860	2552.157231
529.327669	2553.384752
529.689421	2553.498178
530.051117	2553.152859
530.412755	2550.657488
530.774337	2552.167314
531.135862	2551.796789
531.497331	2549.818136
531.858743	2547.491643
532.220098	2547.700851
532.581396	2551.983312
532.942638	2548.767055
533.303824	2550.801161
533.664953	2549.868548
534.026025	2553.646892
534.387040	2553.349464
534.747999	2553.969526
535.108902	2551.774104
535.469748	2550.889381
535.830537	2551.680842
536.191270	2554.942469
536.551947	2550.491130
536.912567	2552.232849
537.273131	2552.197561
537.633638	2552.298384
537.994089	2551.637993
538.354483	2553.278888
538.714821	2552.951213
539.075103	2553.606563
539.435328	2552.086655
539.795497	2550.907025
540.155609	2552.999104
540.515665	2551.854762
540.875665	2550.844011
541.235609	2555.048333
541.595496	2552.288301
541.955328	2551.091027
542.315102	2554.279557
542.674821	2550.675132
543.034483	2552.681511
543.394090	2551.247303
543.753640	2553.404917
544.113134	2552.031202
544.472571	2551.595143
544.831953	2552.394166
545.191278	2552.963816
545.550548	2553.407437
545.909761	2554.065308
546.268918	2551.678322
546.628019	2556.260731
546.987064	2551.950544
547.346053	2552.656306
547.704986	2553.225956
548.063863	2551.799309
548.422684	2550.954916
548.781449	2555.237376
549.140158	2554.793755
549.498811	2554.740823
549.857408	2553.883827
550.215949	2546.990049
550.574434	2547.673125
550.932864	2550.549103
551.291237	2547.393341
551.649555	2551.859803
552.007817	2551.479196
552.366022	2551.005328
552.724173	2552.671429
553.082267	2552.467262
553.440305	2552.192519
553.798288	2552.394166
554.156215	2551.751418
554.514086	2554.947510
554.871902	2553.694783
555.229661	2553.893909
555.587365	2551.706048
555.945014	2553.404917
556.302606	2553.951882
556.660143	2551.675801
557.017625	2551.494320
557.375050	2554.907181
557.732421	2553.896429
558.089735	2553.883827
558.446994	2551.837118
558.804197	2552.772252
559.161345	2554.695452
559.518437	2550.886861
559.875474	2551.567416
560.232455	2553.876265
560.589381	2553.082283
560.946251	2557.090000
561.303065	2552.111861
561.659825	2554.030020
562.016528	2551.590102
562.373177	2550.675132
562.729770	2556.696790
563.086307	2555.824671
563.442789	2553.334341
563.799216	2554.299722
564.155587	2553.972047
564.511904	2554.105637
564.868164	2555.617983
565.224370	2557.566389
565.580520	2557.379867
565.936615	2553.465411
566.292654	2553.052036
566.648638	2552.986501
567.004567	2554.317366
567.360441	2554.319886
567.716260	2552.532797
568.072023	2551.935421
568.427732	2550.256716
568.783385	2552.656306
569.138982	2550.667570
569.494525	2552.739485
569.850013	2547.607590
570.205445	2554.942469
570.560823	2550.612118
570.916145	2553.097407
571.271412	2551.940462
571.626625	2555.635627
571.981782	2551.915256
572.336884	2553.561193
572.691931	2552.696635
573.046923	2553.813250
573.401860	2553.664536
573.756743	2550.970040
574.111570	2552.852911
574.466342	2551.658157
574.821059	2552.789896
575.175722	2552.016079
575.530330	2553.520863
575.884882	2553.488096
576.239380	2551.670760
576.593823	2556.270813
576.948211	2554.410627
577.302544	2555.479352
577.656823	2555.106306
578.011047	2556.127140
578.365216	2555.683518
578.719330	2554.458518
579.073389	2550.407951
579.427394	2554.536656
579.781344	2554.612273
580.135239	2552.631100
580.489080	2555.078580
580.842866	2552.540359
581.196597	2556.664023
581.550273	2553.740154
581.903895	2553.316697
582.257463	2556.691749
582.610975	2554.458518
582.964434	2554.468600
583.317837	2556.069167
583.671186	2557.163097
584.024481	2551.143959
584.377721	2554.395504
584.730906	2553.707386
585.084037	2553.084804
585.437113	2552.799978
585.790135	2554.017417
586.143103	2554.108158
586.496016	2555.247459
586.848874	2551.365770
587.201679	2551.693445
587.554428	2550.483568
587.907124	2552.739485
588.259765	2551.511964
588.612352	2553.878785
588.964884	2555.617983
589.317362	2553.725030
589.669786	2552.300904
590.022155	2554.889537
590.374470	2553.407438
590.726731	2553.135215
591.078937	2555.398693
591.431090	2553.230997
591.783188	2554.647561
592.135232	2554.735782
592.487222	2551.048178
592.839157	2552.936090
593.191038	2553.946841
593.542866	2554.077911
593.894639	2552.593291
594.246358	2556.563200
594.598022	2553.803168
594.949633	2555.496996
595.301190	2551.761501
595.652692	2554.748384
596.004141	2554.453477
596.355535	2554.778631
596.706876	2553.747715
597.058162	2553.188147
597.409395	2554.871893
597.760573	2552.711758
598.111698	2551.106151
598.462768	2552.439536
598.813785	2553.873744
599.164748	2555.885165
599.515657	2555.481872
599.866511	2555.202088
600.217312	2553.369629
600.568060	2553.417520
600.918753	2554.400545
601.269392	2554.776111
601.619978	2553.193188
601.970510	2555.527243
602.320988	2556.240566
602.671412	2556.233004
603.021783	2555.640669
603.372100	2555.444064
603.722363	2552.880637
604.072572	2552.923487
604.422728	2553.725030
604.772830	2549.573640
605.122878	2550.735626
605.472872	2550.286963
605.822813	2548.399051
606.172701	2554.450956
606.522534	2554.375339
606.872314	2556.197716
607.222041	2551.980791
607.571714	2552.126984
607.921333	2557.165618
608.270899	2553.387273
608.620411	2552.134546
608.969870	2554.498847
609.319276	2555.882644
609.668627	2559.986143
610.017926	2561.110321
610.367171	2561.359858
610.716362	2560.712069
611.065500	2559.973540
611.414585	2557.972202
611.763616	2559.918088
612.112594	2555.764177
612.461518	2556.293498
612.810389	2554.831563
613.159207	2556.449774
613.507971	2553.919115
613.856682	2555.738971
614.205340	2555.300391
614.553945	2553.384752
614.902496	2554.655123
615.250994	2552.568085
615.599439	2553.888868
615.947830	2557.901626
616.296169	2554.249310
616.644454	2554.811399
616.992686	2555.068498
617.340864	2552.686552
617.688990	2553.266285
618.037063	2555.232335
618.385082	2552.910884
618.733048	2555.504557
619.080961	2553.001625
619.428821	2555.242417
619.776628	2553.530946
620.124382	2554.065308
620.472083	2553.989691
620.819731	2554.382901
621.167326	2554.095555
621.514868	2553.243600
621.862357	2553.692263
622.209793	2554.937428
622.557176	2555.653272
622.904506	2553.001625
623.251783	2551.322920
623.599007	2551.953065
623.946179	2550.362581
624.293297	2550.717982
624.640363	2553.157900
624.987376	2554.710576
625.334336	2552.031202
625.681243	2552.318548
626.028097	2554.425751
626.374899	2554.942469
626.721647	2554.254351
627.068343	2550.665050
627.414987	2554.375339
627.761577	2555.875082
628.108115	2557.097562
628.454600	2551.524567
628.801032	2553.722510
629.147412	2553.767880
629.493739	2552.356357
629.840014	2554.216543
630.186236	2555.749053
630.532405	2552.472303
630.878521	2553.233518
631.224585	2556.293498
631.570597	2552.333672
631.916556	2556.474980
632.262462	2552.381563
632.608316	2553.992211
632.954117	2553.069680
633.299866	2552.948693
633.645562	2555.998591
633.991206	2552.137067
634.336797	2551.973229
634.682336	2556.086811
635.027823	2552.812581
635.373257	2551.038095
635.718639	2551.595143
636.063968	2555.973385
636.409245	2549.961809
636.754470	2553.281409
637.099642	2549.639175
637.444762	2555.885165
637.789829	2553.848538
638.134845	2551.146480
638.479808	2554.498847
638.824719	2553.092365
639.169577	2551.925338
639.514383	2552.326110
639.859137	2551.706048
640.203839	2555.683518
640.548489	2552.192519
640.893086	2553.225956
641.237632	2549.387117
641.582125	2548.857796
641.926566	2549.334185
642.270955	2551.557334
642.615292	2553.702345
642.959576	2552.086655
643.303809	2554.760987
643.647990	2554.488765
643.992118	2553.825853
644.336195	2551.965667
644.680219	2552.126984
645.024192	2552.603373
645.368112	2552.000956
645.711981	2555.744012
646.055797	2553.374670
646.399562	2555.572613
646.743274	2554.627397
647.086935	2554.206460
647.430544	2551.025492
647.774101	2553.125133
648.117606	2552.126984
648.461059	2552.051367
648.804460	2554.846687
649.147810	2552.011038
649.491108	2551.766542
649.834354	2554.793755
650.177548	2554.695452
650.520690	2554.755946
650.863781	2553.745195
651.206820	2553.772921
651.549807	2553.152859
651.892742	2553.074721
652.235626	2554.965154
652.578458	2554.027499
652.921238	2552.406768
653.263967	2554.854249
653.606644	2552.966337
653.949269	2553.336861
654.291843	2552.742005
654.634365	2553.737633
654.976836	2557.896585
655.319255	2553.752757
655.661622	2552.590771
656.003938	2551.784186
656.346203	2552.873075
656.688416	2552.184958
657.030577	2553.261244
657.372687	2554.047664
657.714746	2553.281409
658.056753	2552.537838
658.398708	2549.089689
658.740612	2549.866027
659.082465	2545.969215
659.424266	2552.507592
659.766016	2550.458362
660.107715	2554.657644
660.449362	2553.493137
660.790958	2552.976419
661.132503	2556.094373
661.473996	2552.868034
661.815438	2556.207798
662.156829	2554.498847
662.498168	2553.493137
662.839456	2553.538507
663.180693	2552.046326
663.521879	2553.679660
663.863013	2551.300235
664.204097	2551.098589
664.545129	2554.725699
664.886110	2550.803682
665.227040	2554.087993
665.567918	2554.561862
665.908746	2550.604556
666.249522	2557.329455
666.590248	2553.722510
666.930922	2553.294012
667.271545	2552.621017
667.612118	2552.641182
667.952639	2551.542211
668.293109	2551.738816
668.633528	2554.055226
668.973896	2548.474668
669.314213	2549.906356
669.654480	2552.646223
669.994695	2553.702345
670.334859	2551.859803
670.674973	2553.014228
671.015035	2552.457180
671.355047	2552.426933
671.695008	2553.798127
672.034918	2550.907025
672.374777	2554.072870
672.714585	2552.633620
673.054342	2553.629248
673.394049	2552.197561
673.733705	2551.585060
674.073310	2553.835936
674.412864	2553.614125
674.752368	2553.682180
675.091820	2552.994063
675.431223	2551.859803
675.770574	2550.954916
676.109875	2548.366284
676.449125	2548.845193
676.788324	2547.983156
677.127473	2552.157231
677.466571	2549.049360
677.805619	2555.005483
678.144616	2555.582695
678.483562	2552.336192
678.822458	2551.632951
679.161303	2553.508261
679.500098	2553.699824
679.838842	2551.360729
680.177535	2554.130843
680.516179	2551.131357
680.854771	2551.080945
681.193314	2552.976419
681.531805	2550.228990
681.870247	2553.334341
682.208638	2552.779814
682.546978	2553.793086
682.885268	2552.825184
683.223508	2553.535987
683.561697	2552.976419
683.899836	2553.873744
684.237925	2552.409289
684.575963	2552.134546
684.913951	2551.643034
685.251889	2552.371480
685.589776	2553.034392
685.927614	2553.818292
686.265401	2552.154711
686.603137	2550.463404
686.940824	2550.085317
687.278460	2551.348126
687.616046	2554.249310
687.953582	2551.663198
688.291068	2549.500543
688.628504	2551.474155
688.965889	2550.506253
689.303224	2551.751418
689.640510	2552.769732
689.977745	2553.808209
690.314930	2551.222097
690.652065	2552.038764
690.989150	2547.784030
691.326185	2550.213867
691.663170	2553.150339
692.000105	2553.329300
692.336990	2553.568754
692.673825	2553.387273
693.010610	2554.829043
693.347345	2549.157745
693.684030	2548.671273
694.020665	2549.387117
694.357251	2547.877292
694.693786	2550.254196
695.030272	2551.993394
695.366707	2551.857283
695.703093	2555.096224
696.039429	2550.307128
696.375716	2553.039433
696.711952	2551.340564
697.048139	2551.842159
697.384276	2548.086500
697.720363	2553.399876
698.056400	2551.141439
698.392388	2552.810061
698.728326	2550.511295
699.064214	2552.142108
699.400053	2554.312325
699.735842	2550.685214
700.071581	2553.394835
700.407270	2550.624721
700.742910	2553.329300
701.078501	2554.324927
701.414042	2551.617828
701.749533	2551.680842
702.084974	2550.521377
702.420366	2551.585060
702.755709	2550.866696
703.091002	2550.987684
703.426246	2550.932231
703.761440	2551.204453
704.096584	2552.976419
704.431679	2550.342416
704.766725	2551.653116
705.101721	2549.334185
705.436668	2552.104299
705.771565	2552.956254
706.106413	2551.615307
706.441212	2550.039947
706.775961	2551.690925
707.110661	2551.194371
707.445311	2549.571119
707.779913	2556.709393
708.114465	2555.862479
708.448967	2552.207643
708.783421	2550.995245
709.117825	2555.008004
709.452180	2554.435833
709.786485	2552.016079
710.120742	2549.636654
710.454949	2553.160421
710.789107	2551.587581
711.123216	2548.827549
711.457275	2548.164637
711.791286	2545.339071
712.125247	2549.240924
712.459159	2548.144473
712.793023	2551.431305
713.126837	2553.084804
713.460602	2550.977601
713.794318	2549.939124
714.127985	2547.849565
714.461602	2552.822664
714.795171	2555.386090
715.128691	2549.989535
715.462162	2552.628579
715.795584	2549.956768
716.128957	2552.454659
716.462281	2550.433157
716.795556	2552.189999
717.128782	2553.956923
717.461960	2552.837787
717.795088	2553.329300
718.128167	2549.573640
718.461198	2553.261244
718.794180	2551.867365
719.127113	2553.936759
719.459997	2553.420040
719.792833	2549.593805
720.125619	2550.851573
720.458357	2552.167314
720.791046	2553.551110
721.123686	2553.697304
721.456278	2552.681511
721.788821	2547.985677
722.121315	2551.174206
722.453761	2552.202602
722.786158	2552.555482
723.118506	2551.998435
723.450805	2550.314690
723.783056	2549.974412
724.115259	2550.647406
724.447412	2549.624052
724.779518	2550.995245
725.111574	2551.448949
725.443582	2549.147662
725.775542	2550.657488
726.107453	2549.694628
726.439315	2549.929041
726.771129	2554.667726
727.102895	2550.662529
727.434612	2551.978270
727.766281	2553.099927
728.097901	2549.971891
728.429473	2546.838814
728.760996	2548.726726
729.092471	2543.892260
729.423897	2549.898794
729.755276	2551.443908
730.086606	2551.885009
730.417887	2553.921635
730.749120	2550.150852
731.080305	2550.798640
731.411442	2549.669422
731.742530	2552.174875
732.073570	2552.580688
732.404562	2549.588763
732.735506	2552.641182
733.066401	2551.307797
733.397249	2551.625390
733.728048	2550.652447
734.058798	2553.629248
734.389501	2551.000287
734.720156	2550.740667
735.050762	2550.753270
735.381320	2548.928372
735.711831	2550.271840
736.042293	2549.157745
736.372707	2551.721172
736.703073	2548.716644
737.033391	2551.685883
737.363661	2552.384083
737.693883	2551.020451
738.024056	2552.822664
738.354182	2549.833259
738.684260	2548.527601
739.014290	2549.939124
739.344272	2547.237065
739.674207	2550.813764
740.004093	2551.769063
740.333931	2550.680173
740.663722	2552.880637
740.993464	2549.702189
741.323159	2550.594474
741.652806	2550.702858
741.982405	2550.302087
742.311956	2549.803013
742.641460	2550.637323
742.970915	2549.689587
743.300323	2549.354350
743.629683	2549.316541
743.958996	2550.791079
744.288260	2547.902498
744.617477	2547.479041
744.946647	2550.647406
745.275768	2550.695297
745.604842	2545.686910
745.933869	2549.732436
746.262847	2543.025181
746.591778	2552.442057
746.920662	2548.880481
747.249498	2552.467262
747.578286	2548.444422
747.907027	2550.728064
748.235720	2550.405430
748.564365	2551.625390
748.892963	2552.472303
749.221514	2550.415513
749.550017	2552.038764
749.878473	2550.990204
750.206881	2549.540872
750.535242	2549.629093
750.863555	2550.526418
751.191821	2549.187992
751.520039	2550.360060
751.848210	2549.903836
752.176334	2548.033567
752.504411	2549.845862
752.832440	2551.879968
753.160421	2551.789227
753.488356	2547.710934
753.816243	2552.346275
754.144082	2548.333516
754.471875	2550.057591
754.799620	2551.922818
755.127318	2552.671429
755.454969	2552.729402
755.782572	2550.803682
756.110129	2547.889895
756.437638	2547.421067
756.765100	2549.689587
757.092515	2549.276212
757.419882	2551.380894
757.747203	2550.375183
758.074477	2549.780327
758.401703	2549.634134
758.728882	2549.492982
759.056014	2548.164638
759.383099	2550.647406
759.710138	2550.773435
760.037129	2551.070863
760.364073	2548.802343
760.690970	2549.500543
761.017820	2551.844680
761.344623	2549.354350
761.671379	2550.347457
761.998088	2548.681356
762.324751	2546.420398
762.651366	2545.933927
762.977935	2548.288146
763.304456	2546.395192
763.630931	2549.684545
763.957359	2548.207487
764.283740	2551.524567
764.610074	2549.455173
764.936362	2552.794937
765.262602	2551.322920
765.588796	2549.354350
765.914943	2549.714792
766.241044	2549.540873
766.567097	2551.514484
766.893104	2552.618497
767.219064	2551.718651
767.544978	2550.556665
767.870845	2548.517518
768.196665	2547.302600
768.522438	2548.099103
768.848165	2551.181768
769.173846	2548.104144
769.499479	2549.427447
769.825066	2548.507436
770.150607	2548.777138
770.476101	2547.773948
770.801548	2551.000287
771.126949	2550.481048
771.452303	2549.576161
771.777611	2550.760832
772.102872	2549.608928
772.428087	2550.662529
772.753256	2550.314690
773.078378	2549.755122
773.403453	2548.265461
773.728482	2549.384597
774.053465	2549.387117
774.378401	2550.758311
774.703291	2548.283105
775.028135	2546.778320
775.352932	2549.745039
775.677683	2550.937272
776.002388	2550.402910
776.327046	2547.647919
776.651658	2549.056922
776.976224	2551.854762
777.300743	2552.081614
777.625216	2548.560368
777.949643	2551.164124
778.274024	2549.503064
778.598359	2548.436860
778.922647	2544.716488
779.246889	2546.397713
779.571086	2544.923176
779.895236	2547.615152
780.219339	2546.493495
780.543397	2546.717826
780.867409	2546.969884
781.191374	2549.840821
781.515294	2549.460214
781.839167	2546.753114
782.162995	2548.940975
782.486776	2550.586912
782.810511	2550.317210
783.134201	2552.154711
783.457844	2551.085986
783.781441	2547.194215
784.104993	2548.852755
784.428498	2550.418033
784.751958	2549.354350
785.075372	2548.696479
785.398739	2549.561037
785.722061	2550.871737
786.045337	2550.349978
786.368568	2551.317879
786.691752	2550.707900
787.014891	2548.242775
787.337983	2547.864689
787.661030	2551.025492
787.984031	2546.579195
788.306987	2546.831252
788.629897	2546.478372
788.952760	2549.452652
789.275579	2549.636654
789.598351	2551.184289
789.921078	2549.976932
790.243759	2548.144473
790.566395	2547.794113
790.888984	2551.093548
791.211529	2548.898125
791.534027	2551.935421
791.856480	2549.157745
792.178888	2549.987015
792.501249	2550.153373
792.823566	2551.574978
793.145836	2550.551624
793.468062	2550.599515
793.790241	2551.396017
794.112375	2552.366439
794.434464	2547.511808
794.756507	2548.580533
795.078505	2549.644216
795.400457	2545.500388
795.722364	2544.119112
796.044226	2546.735470
796.366042	2547.927703
796.687812	2547.252189
797.009538	2549.185471
797.331218	2549.745039
797.652852	2548.215049
797.974442	2550.261757
798.295986	2551.330482
798.617484	2549.223280
798.938938	2549.251006
799.260346	2549.361912
799.581709	2548.104144
799.903026	2549.061963
800.224299	2547.380738
800.545526	2547.978115
800.866708	2549.435008
801.187845	2550.370142
801.508936	2548.003321
801.829983	2549.535831
802.150984	2549.644216
802.471940	2549.558517
802.792851	2548.509957
803.113717	2548.509957
803.434538	2548.184802
803.755314	2548.265461
804.076045	2547.320244
804.396731	2549.717313
804.717372	2547.305121
805.037967	2548.961140
805.358518	2547.660522
805.679024	2550.143290
805.999485	2547.887374
806.319901	2548.315872
806.640272	2547.431150
806.960598	2548.119267
807.280879	2547.128680
807.601115	2548.222611
807.921306	2545.873433
808.241453	2547.663043
808.561554	2546.695141
808.881611	2549.356870
809.201623	2547.894936
809.521590	2548.240255
809.841513	2550.891902
810.161390	2550.017262
810.481223	2547.892415
810.801011	2548.416695
811.120755	2546.064997
811.440453	2553.258723
811.760107	2548.245296
812.079716	2546.410316
812.399281	2545.394523
812.718801	2544.552651
813.038276	2543.463762
813.357707	2549.094730
813.677093	2547.637837
813.996434	2549.210677
814.315731	2549.087169
814.634983	2546.730429
814.954191	2549.026675
815.273354	2545.334030
815.592473	2550.208825
815.911547	2550.380225
816.230577	2548.767055
816.549562	2549.283774
816.868502	2547.645399
817.187399	2550.123126
817.506250	2546.997610
817.825058	2547.279915
818.143821	2547.658002
818.462539	2549.157745
818.781213	2548.152035
819.099843	2547.978115
819.418429	2548.247817
819.736970	2548.946016
820.055466	2548.341078
820.373919	2548.736808
820.692327	2548.857796
821.010691	2548.177240
821.329011	2549.752601
821.647286	2552.003476
821.965517	2548.184802
822.283704	2550.165976
822.601847	2546.614483
822.919945	2547.635316
823.237999	2549.039278
823.556010	2547.554658
823.873976	2549.268650
824.191897	2549.316541
824.509775	2547.660522
824.827609	2548.129349
825.145398	2545.611293
825.463144	2548.734288
825.780845	2545.933927
826.098502	2548.966181
826.416116	2546.274205
826.733685	2546.395192
827.051210	2545.500388
827.368692	2546.851417
827.686129	2548.809905
828.003522	2546.652291
828.320872	2545.301262
828.638177	2546.034750
828.955439	2545.185316
829.272656	2543.902342
829.589830	2544.174564
829.906960	2548.666232
830.224046	2548.608259
830.541088	2548.855276
830.858086	2549.074566
831.175041	2547.748742
831.491952	2545.550799
831.808819	2548.787220
832.125642	2549.598846
832.442421	2548.570450
832.759157	2544.529966
833.075849	2548.688917
833.392497	2549.790410
833.709101	2545.598690
834.025662	2547.534493
834.342179	2549.772766
834.658653	2548.283105
834.975083	2548.310831
835.291469	2553.291491
835.607811	2549.808054
835.924110	2549.185471
836.240366	2548.013403
836.556578	2548.333516
836.872746	2548.542724
837.188871	2546.450645
837.504952	2547.932744
837.820990	2546.160779
838.136984	2545.719678
838.452935	2551.234700
838.768842	2550.148332
839.084706	2546.871582
839.400526	2548.353681
839.716303	2547.247147
840.032037	2548.174720
840.347727	2546.548948
840.663373	2545.984338
840.978977	2548.005841
841.294537	2548.235214
841.610054	2547.302600
841.925527	2550.022303
842.240957	2547.436191
842.556344	2548.290666
842.871687	2547.640358
843.186987	2547.456355
843.502244	2547.282436
843.817458	2550.922149
844.132629	2545.616334
844.447756	2545.926365
844.762840	2545.281098
845.077881	2545.676828
845.392879	2544.431663
845.707833	2546.911911
846.022745	2543.778834
846.337613	2548.734288
846.652438	2546.324616
846.967221	2550.357539
847.281960	2547.784030
847.596656	2549.278733
847.911309	2546.995090
848.225919	2545.800336
848.540485	2547.660522
848.855009	2549.765204
849.169490	2547.448794
849.483928	2545.641540
849.798323	2547.952909
850.112675	2545.863351
850.426984	2544.204811
850.741251	2548.066335
851.055474	2548.242775
851.369654	2547.118598
851.683792	2547.053063
851.997887	2545.757487
852.311938	2545.316386
852.625947	2548.567930
852.939914	2547.463917
853.253837	2548.673794
853.567718	2543.975439
853.881555	2548.711603
854.195350	2546.042312
854.509103	2548.494833
854.822812	2547.592467
855.136479	2551.234700
855.450103	2548.373845
855.763685	2547.418547
856.077224	2546.594318
856.390720	2546.415357
856.704173	2546.904349
857.017584	2548.588094
857.330953	2547.310162
857.644278	2546.576674
857.957561	2550.491130
858.270802	2547.683207
858.584000	2546.664894
858.897155	2547.249668
859.210268	2548.462066
859.523339	2547.564740
859.836367	2546.385110
860.149352	2545.833104
860.462295	2551.015410
860.775195	2545.069369
861.088054	2544.477033
861.400869	2543.753628
861.713642	2540.771785
862.026373	2543.085675
862.339062	2546.049873
862.651708	2549.394679
862.964312	2542.735315
863.276873	2547.514329
863.589392	2547.335368
863.901869	2546.122970
864.214303	2546.375028
864.526696	2546.937117
864.839045	2547.262271
865.151353	2547.945347
865.463619	2545.775131
865.775842	2548.449463
866.088023	2546.773279
866.400162	2544.857641
866.712258	2547.191695
867.024313	2548.033567
867.336325	2545.497867
867.648296	2548.847714
867.960224	2545.197918
868.272110	2547.030378
868.583954	2545.528114
868.895755	2547.935265
869.207515	2548.184802
869.519233	2548.598177
869.830909	2548.588094
870.142542	2548.250337
870.454134	2546.274205
870.765684	2548.187323
871.077191	2545.434853
871.388657	2548.867878
871.700081	2547.224462
872.011463	2547.635316
872.322803	2545.760007
872.634101	2546.052394
872.945357	2543.042825
873.256571	2548.046170
873.567744	2546.954761
873.878874	2545.999462
874.189963	2546.669935
874.501010	2547.589946
874.812015	2544.343443
875.122979	2547.229503
875.433900	2546.128011
875.744780	2548.459545
876.055618	2545.918803
876.366415	2547.456355
876.677169	2545.996941
876.987882	2543.569626
877.298554	2542.117773
877.609183	2542.765562
877.919771	2545.472661
878.230317	2545.200439
878.540822	2546.246478
878.851285	2546.052394
879.161707	2545.916283
879.472087	2544.958464
879.782425	2543.650284
880.092722	2543.340253
880.402977	2545.777651
880.713191	2549.500543
881.023363	2547.002652
881.333494	2545.974256
881.643583	2546.460727
881.953631	2549.029195
882.263637	2544.129194
882.573602	2547.610111
882.883526	2545.823022
883.193408	2545.921324
883.503248	2545.049204
883.813048	2546.720347
884.122806	2544.582898
884.432522	2545.969215
884.742197	2547.479041
885.051831	2544.943340
885.361424	2545.830583
885.670975	2546.402754
885.980485	2544.386293
886.289954	2546.395192
886.599382	2545.795295
886.908768	2546.105326
887.218113	2546.611962
887.527417	2545.875954
887.836680	2545.467620
888.145901	2546.811088
888.455082	2549.462735
888.764221	2548.605738
889.073319	2544.839997
889.382376	2544.734132
889.691392	2545.742363
890.000366	2547.111036
890.309300	2545.202960
890.618193	2549.331665
890.927044	2545.432332
891.235855	2546.037271
891.544625	2544.711447
891.853353	2546.480892
892.162041	2547.025337
892.470687	2548.240255
892.779293	2547.529452
893.087858	2542.637012
893.396381	2545.714637
893.704864	2543.246992
894.013306	2540.277752
894.321707	2547.980635
894.630068	2546.475851
894.938387	2545.840666
895.246665	2545.064328
895.554903	2545.548279
895.863100	2546.448125
896.171256	2544.819832
896.479371	2546.780841
896.787446	2547.302600
897.095480	2547.945347
897.403473	2544.880326
897.711425	2544.880326
898.019336	2545.230686
898.327207	2546.914431
898.635038	2546.659853
898.942827	2543.569626
899.250576	2548.202446
899.558284	2548.247817
899.865952	2546.979966
900.173579	2545.737322
900.481165	2547.378218
900.788711	2544.441745
901.096216	2545.336550
901.403681	2546.788402
901.711105	2548.517518
902.018489	2545.235727
902.325832	2547.733619
902.633135	2544.600542
902.940397	2547.479041
903.247619	2547.806716
903.554800	2544.761859
903.861941	2545.989380
904.169041	2546.690100
904.476101	2545.144986
904.783121	2547.685728
905.090100	2545.528114
905.397039	2545.817980
905.703938	2546.924514
906.010796	2545.719678
906.317614	2546.548948
906.624391	2547.645399
906.931129	2544.779503
907.237826	2546.682538
907.544483	2547.060625
907.851099	2544.862682
908.157675	2545.495347
908.464211	2546.213711
908.770707	2542.374872
909.077163	2544.116591
909.383578	2543.751107
909.689954	2544.759338
909.996289	2543.274718
910.302584	2541.633823
910.608839	2546.279246
910.915054	2544.787064
911.221229	2545.893598
911.527363	2548.310831
911.833458	2545.674308
912.139513	2545.593649
912.445527	2541.996786
912.751502	2545.313865
913.057436	2545.011396
913.363331	2545.641540
913.669186	2543.032743
913.975000	2549.198074
914.280775	2544.960984
914.586510	2547.337888
914.892205	2544.998793
915.197859	2547.960471
915.503475	2546.410316
915.809050	2543.859492
916.114585	2548.925852
916.420081	2548.061294
916.725536	2544.703885
917.030952	2547.380738
917.336328	2543.350336
917.641665	2545.208001
917.946961	2542.818494
918.252218	2544.396375
918.557435	2545.651622
918.862612	2545.185316
919.167750	2544.353525
919.472848	2543.834286
919.777906	2543.793957
920.082925	2542.974770
920.387904	2544.847558
920.692843	2545.699513
920.997743	2544.839997
921.302603	2545.671787
921.607423	2543.579708
921.912204	2545.762528
922.216946	2544.361087
922.521647	2546.982487
922.826310	2544.988711
923.130932	2546.576674
923.435516	2543.768751
923.740059	2545.951571
924.044564	2545.654143
924.349028	2547.274874
924.653454	2541.164995
924.957840	2542.130376
925.262186	2543.851930
925.566493	2542.851261
925.870761	2542.311858
926.174989	2543.748587
926.479178	2543.337733
926.783328	2547.736139
927.087438	2542.858823
927.391509	2546.831252
927.695541	2544.285470
927.999533	2544.620706
928.303486	2543.950233
928.607400	2546.085162
928.911275	2546.438042
929.215110	2545.611293
929.518906	2542.831097
929.822663	2547.161448
930.126381	2545.644061
930.430060	2543.509132
930.733699	2547.315203
931.037299	2546.112888
931.340861	2545.901159
931.644383	2544.557692
931.947866	2543.786395
932.251309	2545.346633
932.554714	2543.831766
932.858080	2545.850748
933.161407	2545.059287
933.464694	2545.021478
933.767943	2542.992414
934.071153	2544.114070
934.374323	2542.926879
934.677455	2546.193546
934.980548	2545.225645
935.283602	2542.581560
935.586617	2544.282949
935.889593	2545.220604
936.192530	2542.679862
936.495428	2546.480892
936.798287	2541.792619
937.101108	2541.686755
937.403890	2545.417209
937.706632	2545.394523
938.009336	2543.158772
938.312002	2544.885367
938.614628	2546.737991
938.917216	2547.652960
939.219765	2541.659028
939.522275	2544.610624
939.824747	2548.212528
940.127179	2543.448638
940.429573	2540.383617
940.731929	2541.948895
941.034246	2540.038297
941.336524	2542.062321
941.638763	2543.960315
941.940964	2545.160110
942.243126	2546.433001
942.545250	2542.284132
942.847335	2544.565254
943.149381	2546.180943
943.451389	2545.510470
943.753359	2545.001313
944.055290	2542.682383
944.357182	2545.452497
944.659036	2544.068700
944.960851	2545.770089
945.262628	2543.279759
945.564367	2546.183464
945.866067	2546.458207
946.167729	2545.122301
946.469352	2543.730943
946.770937	2543.831766
947.072484	2543.476364
947.373992	2544.686241
947.675462	2545.215562
947.976893	2543.468803
948.278286	2544.789585
948.579641	2545.354194
948.880958	2541.901004
949.182236	2546.228834
949.483476	2543.680531
949.784678	2542.163144
950.085841	2545.112219
950.386967	2546.082641
950.688054	2545.928886
950.989103	2542.715150
951.290114	2544.209852
951.591087	2545.195398
951.892021	2544.940820
952.192917	2546.445604
952.493776	2546.339740
952.794596	2545.044163
953.095378	2542.458051
953.396122	2545.732281
953.696828	2544.414019
953.997496	2546.319575
954.298126	2544.469472
954.598718	2547.065666
954.899272	2543.970398
955.199788	2543.864533
955.500266	2544.729091
955.800706	2539.755993
956.101108	2541.265818
956.401472	2539.990407
956.701798	2540.355890
957.002087	2539.761034
957.302337	2543.700696
957.602550	2543.758669
957.902724	2545.260933
958.202861	2543.148689
958.502960	2541.717002
958.803022	2543.330171
959.103045	2544.456869
959.403031	2546.990049
959.702979	2542.662218
960.002889	2545.770089
960.302762	2544.507280
960.602596	2545.323947
960.902393	2545.376879
961.202153	2545.596170
961.501875	2542.566436
961.801559	2543.922507
962.101205	2543.698175
962.400814	2545.545758
962.700385	2544.897970
962.999918	2545.092054
963.299414	2545.016437
963.598873	2545.029040
963.898293	2542.637012
964.197677	2543.695655
964.497022	2546.780841
964.796331	2543.491488
965.095601	2543.262115
965.394835	2545.999462
965.694030	2541.459903
965.993189	2545.187836
966.292309	2543.914945
966.591393	2542.321940
966.890439	2543.592311
967.189447	2545.500388
967.488419	2543.675490
967.787353	2542.939482
968.086249	2545.233207
968.385108	2545.603731
968.683930	2544.419060
968.982714	2541.704399
969.281462	2542.573998
969.580172	2546.884184
969.878844	2545.031560
970.177480	2545.555840
970.476078	2544.078782
970.774639	2547.668084
971.073162	2543.400747
971.371649	2541.122146
971.670098	2539.168698
971.968510	2537.782381
972.266885	2539.819007
972.565223	2542.934440
972.863524	2542.498381
973.161788	2543.483926
973.460014	2544.802188
973.758204	2543.607434
974.056356	2544.257743
974.354471	2544.121632
974.652550	2543.403268
974.950591	2542.916796
975.248595	2544.217414
975.546563	2544.981149
975.844493	2541.996786
976.142386	2545.908721
976.440243	2544.497198
976.738062	2543.370500
977.035845	2542.528627
977.333590	2544.522404
977.631299	2541.313709
977.928971	2544.535007
978.226606	2544.829914
978.524204	2543.864533
978.821765	2544.787064
979.119290	2545.838145
979.416777	2541.016281
979.714228	2543.720860
980.011642	2542.533669
980.309020	2545.954092
980.606360	2541.253216
980.903664	2541.190201
981.200931	2542.599204
981.498162	2540.454193
981.795356	2543.307486
982.092513	2541.507794
982.389633	2544.812270
982.686717	2541.848072
982.983764	2541.059131
983.280775	2545.064328
983.577749	2544.429142
983.874686	2541.482588
984.171587	2544.703885
984.468451	2543.045346
984.765279	2546.654812
985.062070	2540.610468
985.358824	2542.884029
985.655543	2543.483926
985.952224	2546.498536
986.248869	2542.594162
986.545478	2538.752803
986.842050	2539.554347
987.138586	2538.712474
987.435086	2542.463093
987.731549	2537.633667
988.027975	2542.407640
988.324366	2541.845551
988.620719	2543.869574
988.917037	2541.974101
989.213318	2541.807743
989.509563	2546.992569
989.805772	2543.307486
990.101944	2542.773123
990.398080	2541.628782
990.694180	2542.100129
990.990244	2544.822352
991.286271	2542.924358
991.582262	2542.631971
991.878217	2542.878988
992.174136	2540.756662
992.470019	2542.027033
992.765865	2541.318751
993.061676	2543.103319
993.357450	2545.946530
993.653188	2542.924358
993.948890	2544.310675
994.244556	2541.684234
994.540186	2545.046684
994.835780	2541.485109
995.131337	2545.349153
995.426859	2543.539379
995.722345	2541.681714
996.017795	2541.616179
996.313208	2541.752290
996.608586	2541.868236
996.903928	2543.362938
997.199234	2543.854451
997.494504	2544.136756
997.789738	2542.838658
998.084936	2544.141797
998.380099	2541.369162
998.675225	2543.862013
998.970316	2543.473844
999.265371	2541.737166
999.560390	2541.364121
999.855373	2545.397044
1000.150320	2543.093237
1000.445232	2541.389327
1000.740108	2543.400747
1001.034948	2542.198432
1001.329752	2542.785726
1001.624521	2546.276725
1001.919254	2540.025695
1002.213951	2541.941333
1002.508613	2538.566281
1002.803239	2542.236241
1003.097829	2541.951415
1003.392384	2542.518545
1003.686903	2543.453679
1003.981386	2542.107691
1004.275834	2541.901004
1004.570246	2542.631971
1004.864623	2544.351005
1005.158964	2541.709440
1005.453270	2541.611138
1005.747540	2540.202135
1006.041775	2544.671118
1006.335974	2541.888401
1006.630138	2540.610468
1006.924266	2543.005017
1007.218359	2544.290511
1007.512416	2544.439225
1007.806438	2544.376210
1008.100425	2544.167003
1008.394376	2545.061807
1008.688292	2543.062990
1008.982172	2541.752290
1009.276017	2545.175233
1009.569827	2545.081972
1009.863602	2541.659028
1010.157341	2543.299924
1010.451045	2543.126004
1010.744714	2541.449821
1011.038347	2544.401416
1011.331945	2540.857485
1011.625508	2543.090716
1011.919036	2544.282949
1012.212528	2542.248843
1012.505986	2540.023174
1012.799408	2543.146169
1013.092795	2540.585263
1013.386147	2541.293545
1013.679464	2542.105171
1013.972745	2540.723894
1014.265992	2542.117773
1014.559204	2541.384286
1014.852380	2542.528627
1015.145521	2542.760521
1015.438628	2542.228679
1015.731699	2545.235727
1016.024736	2542.538710
1016.317737	2542.810932
1016.610703	2541.255736
1016.903635	2540.877650
1017.196531	2539.367824
1017.489393	2539.866898
1017.782219	2540.282793
1018.075011	2541.172557
1018.367768	2541.732125
1018.660490	2543.907383
1018.953177	2543.907383
1019.245829	2543.907383
