Dividing Wavelength (nm)	Counts (n)	Blue Motor Position (mm): 38.100000	Red Motor Position (mm): 0.000000	
326.493990	2131.782974
326.888308	2131.782974
327.282561	2131.782974
327.676750	2097.107397
328.070874	2095.138827
328.464933	2099.542274
328.858929	2104.843048
329.252859	2113.365118
329.646726	2126.058744
330.040528	2140.083234
330.434265	2155.952786
330.827938	2174.592452
331.221547	2191.084587
331.615091	2210.689634
332.008571	2230.198900
332.401986	2247.243041
332.795338	2268.720877
333.188625	2289.440019
333.581847	2304.518110
333.975006	2326.633652
334.368100	2343.254337
334.761129	2361.790659
335.154095	2379.137270
335.546996	2396.685526
335.939833	2425.253745
336.332606	2441.045159
336.725315	2451.639144
337.117960	2461.295474
337.510540	2470.994654
337.903056	2480.431694
338.295508	2488.817654
338.687896	2494.930053
339.080220	2505.539161
339.472480	2511.898577
339.864676	2515.954185
340.256807	2519.306552
340.648875	2520.826460
341.040879	2524.998015
341.432818	2527.858870
341.824694	2527.788294
342.216506	2532.264838
342.608253	2527.937008
342.999937	2527.967255
343.391557	2530.089580
343.783113	2528.743592
344.174605	2526.722090
344.566033	2522.709331
344.957397	2522.832839
345.348697	2521.091121
345.739934	2521.496934
346.131106	2519.452746
346.522215	2517.685821
346.913260	2512.347239
347.304241	2513.151303
347.695159	2512.664832
348.086012	2508.021929
348.476802	2508.954543
348.867528	2503.724346
349.258191	2505.115704
349.648789	2505.196363
350.039324	2504.719974
350.429796	2501.879283
350.820203	2497.319560
351.210548	2499.870384
351.600828	2498.277379
351.991045	2500.066989
352.381198	2497.866525
352.771288	2496.086998
353.161314	2495.013232
353.551276	2496.875938
353.941175	2497.342245
354.331010	2496.744868
354.720782	2495.232522
355.110490	2496.845691
355.500135	2494.216730
355.889717	2495.416524
356.279235	2496.928870
356.668689	2499.444406
357.058080	2495.605568
357.447408	2496.165136
357.836672	2493.977275
358.225873	2496.528099
358.615010	2495.928201
359.004084	2499.822493
359.393095	2498.882317
359.782043	2500.946670
360.170927	2501.770899
360.559748	2501.228975
360.948505	2503.268121
361.337199	2501.065137
361.725830	2505.042607
362.114398	2501.977586
362.502903	2504.989675
362.891344	2503.802484
363.279722	2502.816938
363.668037	2507.225427
364.056289	2504.941784
364.444478	2505.259377
364.832603	2506.862464
365.220665	2506.623009
365.608665	2505.219048
365.996601	2506.484377
366.384474	2506.086126
366.772284	2509.209121
367.160031	2511.104595
367.547715	2506.963287
367.935336	2508.019409
368.322893	2511.278515
368.710388	2510.613082
369.097820	2515.129956
369.485189	2511.772548
369.872495	2508.029491
370.259738	2510.466889
370.646918	2511.911180
371.034035	2514.605676
371.421090	2513.070645
371.808081	2513.042919
372.195010	2512.392610
372.581875	2513.957888
372.968678	2511.233144
373.355418	2515.984432
373.742096	2512.069976
374.128710	2515.434946
374.515262	2515.036695
374.901751	2517.953003
375.288177	2515.865965
375.674540	2516.107940
376.060841	2515.586181
376.447079	2516.150790
376.833254	2515.618948
377.219367	2511.255830
377.605417	2516.738084
377.991404	2512.954698
378.377329	2511.913700
378.763191	2515.893691
379.148991	2517.993332
379.534727	2517.907632
379.920402	2520.282016
380.306013	2522.157325
380.691563	2520.264372
381.077049	2519.482993
381.462474	2522.205216
381.847835	2521.738909
382.233134	2522.510206
382.618371	2524.703108
383.003545	2522.290915
383.388657	2522.512726
383.773706	2526.568334
384.158693	2522.646317
384.543618	2524.718231
384.928480	2526.901051
385.313280	2523.702438
385.698017	2525.970958
386.082692	2527.173273
386.467305	2525.398787
386.851856	2528.408356
387.236344	2524.743437
387.620770	2528.836854
388.005133	2527.281658
388.389435	2530.812986
388.773674	2526.888448
389.157851	2527.793335
389.541965	2529.134282
389.926018	2530.238294
390.310008	2527.868952
390.693936	2531.246525
391.077802	2534.039324
391.461606	2533.318439
391.845348	2534.956814
392.229027	2536.229706
392.612645	2539.645088
392.996200	2537.013605
393.379694	2541.149872
393.763125	2548.704041
394.146494	2551.335523
394.529801	2557.689898
394.913047	2567.134499
395.296230	2568.399829
395.679351	2582.089082
396.062410	2591.238777
396.445408	2605.018771
396.828343	2613.863475
397.211217	2628.268572
397.594028	2637.549336
397.976778	2655.442912
398.359466	2675.458813
398.742092	2695.394056
399.124656	2706.035932
399.507158	2737.286045
399.889598	2758.443767
400.271977	2789.139353
400.654294	2806.745583
401.036549	2833.330108
401.418742	2853.414065
401.800874	2900.659758
402.182944	2930.034562
402.564952	2976.846717
402.946898	3005.702281
403.328783	3034.910727
403.710606	3049.162068
404.092367	3134.281951
404.474067	3158.149294
404.855705	3198.239070
405.237282	3207.550081
405.618797	3287.207874
406.000250	3337.430369
406.381642	3409.115577
406.762972	3433.056016
407.144240	3477.294662
407.525447	3518.453162
407.906593	3584.368769
408.287677	3647.264725
408.668700	3653.672032
409.049661	3720.807598
409.430560	3785.856127
409.811399	3785.276394
410.192176	3923.527518
410.572891	3925.047426
410.953545	4030.891492
411.334138	3993.718023
411.714669	4075.994695
412.095139	4042.229047
412.475547	4177.957073
412.855894	4201.642934
413.236180	4245.851333
413.616405	4245.049790
413.996568	4344.955377
414.376670	4332.216381
414.756711	4323.827901
415.136691	4381.657497
415.516609	4473.905571
415.896466	4533.126526
416.276262	4587.865895
416.655997	4596.324951
417.035670	4779.134834
417.415283	4886.471082
417.794834	4859.722719
418.174324	4844.311912
418.553753	4780.092653
418.933121	4967.628617
419.312428	5046.250453
419.691674	5014.720556
420.070859	5144.588241
420.449983	5080.802521
420.829045	5202.480852
421.208047	5123.634685
421.586988	5213.178180
421.965867	5230.620572
422.344686	5369.632910
422.723444	5236.861521
423.102141	5071.289864
423.480777	5368.251634
423.859352	5149.304240
424.237866	5408.911060
424.616319	5402.786058
424.994712	5520.255025
425.373044	5407.650772
425.751314	5548.341814
426.129524	5359.515314
426.507673	5551.454727
426.885762	5639.291791
427.263789	5574.472635
427.641756	5455.456034
428.019662	5580.237194
428.397508	5584.025622
428.775292	5531.784144
429.153016	5633.350791
429.530679	5564.392848
429.908282	5652.146733
430.285824	5521.984141
430.663305	5797.281553
431.040726	5533.362025
431.418086	5534.909660
431.795385	5638.308766
432.172624	5650.465509
432.549802	5643.218850
432.926920	5659.383310
433.303977	5666.042674
433.680974	5706.772677
434.057910	5725.462754
434.434786	5729.868723
434.811601	5702.921235
435.188355	5937.251710
435.565050	5811.827802
435.941683	5788.484739
436.318257	6007.742164
436.694770	5990.478733
437.071222	6022.152302
437.447614	5956.466068
437.823946	5866.690679
438.200218	6022.505183
438.576429	5890.202621
438.952580	5986.216437
439.328670	6032.169075
439.704700	5939.941165
440.080670	5927.247540
440.456580	6197.632347
440.832429	6084.586993
441.208218	5930.264671
441.583947	6079.475263
441.959616	6086.109421
442.335224	6014.595613
442.710773	6150.343803
443.086261	6175.594943
443.461689	5966.971832
443.837057	6119.023115
444.212365	6276.523884
444.587612	6167.211504
444.962800	6319.613147
445.337927	6297.167409
445.712995	5912.207258
446.088002	6488.113714
446.462949	6320.281100
446.837837	6248.366519
447.212664	6421.724238
447.587431	6563.042904
447.962139	7109.067921
448.336786	8022.958537
448.711374	7769.499404
449.085901	6845.952458
449.460369	6768.795078
449.834776	6705.573968
450.209124	7090.261897
450.583412	7241.872078
450.957640	7388.204172
451.331808	7155.232288
451.705917	6705.324430
452.079965	6636.043853
452.453954	6845.287026
452.827883	6719.414455
453.201752	6812.295194
453.575562	6615.652386
453.949311	6818.667213
454.323001	6708.611263
454.696632	6778.274968
455.070202	6915.500217
455.443713	7070.835811
455.817164	7170.375914
456.190556	7254.154850
456.563888	7334.962025
456.937160	7375.427367
457.310373	7029.155551
457.683526	7053.930301
458.056619	6945.873168
458.429653	6930.482526
458.802628	6867.851230
459.175542	6979.454815
459.548398	7330.054462
459.921194	7493.718042
460.293930	7496.266345
460.666607	8026.338631
461.039224	8334.292637
461.411782	8450.377808
461.784280	8471.885890
462.156719	8365.333542
462.529099	8242.072289
462.901419	7830.152047
463.273680	7723.181283
463.645882	7736.913386
464.018024	7609.319262
464.390106	7771.286493
464.762130	8156.501223
465.134094	8630.175601
465.505999	9649.880036
465.877845	10866.244924
466.249631	11513.675271
466.621358	11126.106323
466.993026	10501.015848
467.364634	10249.999154
467.736184	9885.667404
468.107674	9553.997290
468.479105	9583.452752
468.850477	9351.456331
469.221790	9126.194892
469.593043	8793.962689
469.964238	8657.919591
470.335373	8662.665837
470.706449	8729.670333
471.077467	8714.657777
471.448425	10013.269090
471.819324	11089.620972
472.190164	11103.126223
472.560945	9862.208395
472.931667	9072.022653
473.302330	8935.775388
473.672934	8586.574661
474.043479	8943.478271
474.413965	8884.101040
474.784393	8765.255838
475.154761	8923.222915
475.525070	9012.761369
475.895321	8831.332762
476.265513	9013.938478
476.635645	9183.212863
477.005719	9178.680865
477.375734	9296.527919
477.745691	9533.099187
478.115588	9665.626080
478.485427	9909.885107
478.855207	10442.248597
479.224928	11263.374421
479.594591	11886.206458
479.964194	11697.372397
480.333739	11644.052113
480.703226	11554.453165
481.072653	11640.979529
481.442022	11882.889379
481.811333	12065.210270
482.180584	11876.519881
482.549777	11585.526837
482.918912	11412.368244
483.287988	11431.295256
483.657005	11447.860487
484.025964	11127.386776
484.394864	11253.584500
484.763706	11229.855789
485.132489	10989.591876
485.501213	10958.966867
485.869879	11027.670232
486.238487	10873.093332
486.607036	10979.270114
486.975527	10758.394479
487.343959	10952.920003
487.712333	10992.863585
488.080648	10931.185068
488.448905	10967.982970
488.817104	10915.751575
489.185244	11186.685868
489.553326	11334.371511
489.921350	11872.328162
490.289315	12926.025097
490.657222	13267.515380
491.025070	13180.074046
491.392861	13060.465109
491.760593	12674.486644
492.128267	12329.381855
492.495883	11996.343067
492.863440	11662.522900
493.230939	11319.966414
493.598380	11256.364697
493.965763	11130.081272
494.333088	11027.461024
494.700354	10944.342479
495.067563	11004.634679
495.434713	10839.156284
495.801805	10961.956271
496.168839	10888.907431
496.535815	10818.336318
496.902733	10826.671866
497.269593	10752.181257
497.636395	10860.709737
498.003139	10847.078457
498.369825	10711.463857
498.736453	10873.509227
499.103023	10795.993925
499.469535	10830.392238
499.835989	10817.098715
500.202385	10777.616398
500.568723	10631.732968
500.935003	10849.916627
501.301226	10655.154168
501.667390	10922.499160
502.033497	11014.301092
502.399546	10873.040399
502.765537	10786.062852
503.131470	10858.476506
503.497345	11031.448577
503.863163	10639.995419
504.228923	10944.856677
504.594625	11013.353355
504.960269	10763.927145
505.325856	10983.514765
505.691385	10779.436255
506.056856	10929.297156
506.422270	10953.908069
506.787625	10847.872439
507.152924	10959.455859
507.518164	10946.580752
507.883347	10862.249810
508.248472	10779.658066
508.613540	11014.147337
508.978550	10900.844883
509.343503	10874.154494
509.708398	10997.768628
510.073236	11107.181831
510.438016	11113.296751
510.802738	11062.628113
511.167403	11116.109714
511.532010	11014.527944
511.896561	11242.821637
512.261053	11311.895527
512.625488	11181.095229
512.989866	11164.406489
513.354186	11147.148099
513.718449	11054.199304
514.082655	11252.566187
514.446803	11142.346400
514.810894	11271.790627
515.174927	11130.643361
515.538904	11151.019705
515.902822	11304.122068
516.266684	11194.592918
516.630488	11140.561831
516.994235	11191.956395
517.357925	11254.557443
517.721558	11340.125988
518.085133	11356.703823
518.448651	11368.306038
518.812112	11248.482853
519.175516	11267.170410
519.538863	11385.236754
519.902152	11302.198867
520.265385	11462.920934
520.628560	11370.904753
520.991678	11346.538336
521.354739	11415.544171
521.717743	11355.889677
522.080690	11328.798516
522.443580	11469.464352
522.806413	11415.576938
523.169189	11453.055396
523.531908	11501.687407
523.894569	11330.005872
524.257174	11332.818836
524.619722	11453.322577
524.982213	11393.032898
525.344647	11443.026021
525.707025	11397.131356
526.069345	11487.914975
526.431608	11407.647203
526.793815	11522.283042
527.155964	11305.702469
527.518057	11359.738597
527.880093	11313.077677
528.242072	11379.504962
528.603995	11284.511979
528.965860	11201.022910
529.327669	11252.616599
529.689421	11207.636904
530.051117	11178.587255
530.412755	11282.369489
530.774337	11171.539722
531.135862	11153.686475
531.497331	11172.749598
531.858743	11029.225428
532.220098	11194.068638
532.581396	11063.245655
532.942638	11045.982223
533.303824	11011.016780
533.664953	11034.075018
534.026025	10942.013466
534.387040	11037.001408
534.747999	11034.359843
535.108902	11098.251427
535.469748	10853.389982
535.830537	10959.899480
536.191270	10935.533063
536.551947	10965.086828
536.912567	10966.460542
537.273131	10886.253264
537.633638	10869.057888
537.994089	10852.185146
538.354483	10807.018928
538.714821	10950.104518
539.075103	10952.836824
539.435328	10915.292830
539.795497	10751.210834
540.155609	10904.895451
540.515665	10992.876188
540.875665	10729.632175
541.235609	10796.964347
541.595496	10795.658688
541.955328	10941.678230
542.315102	10834.974647
542.674821	10783.882553
543.034483	10788.782554
543.394090	10784.482450
543.753640	10716.562984
544.113134	10930.532238
544.472571	10791.411516
544.831953	10939.739906
545.191278	10740.871428
545.550548	10766.800603
545.909761	10907.980637
546.268918	10880.793694
546.628019	10960.234717
546.987064	10825.146917
547.346053	10749.428787
547.704986	10847.065854
548.063863	10835.027579
548.422684	10827.470889
548.781449	10742.141799
549.140158	10850.685403
549.498811	10725.495909
549.857408	10586.992727
550.215949	10807.447426
550.574434	10663.305714
550.932864	10766.198185
551.291237	10824.244551
551.649555	10767.476117
552.007817	10782.183684
552.366022	10740.473177
552.724173	10743.394525
553.082267	10721.538603
553.440305	10862.703513
553.798288	10655.980918
554.156215	10816.244240
554.514086	10786.708119
554.871902	10640.567590
555.229661	10672.266365
555.587365	10653.989662
555.945014	10545.816583
556.302606	10671.210243
556.660143	10565.172093
557.017625	10719.323016
557.375050	10615.744948
557.732421	10751.941802
558.089735	10661.299335
558.446994	10666.988277
558.804197	10698.520694
559.161345	10707.521675
559.518437	10553.736235
559.875474	10635.402928
560.232455	10672.246201
560.589381	10625.663418
560.946251	10615.762592
561.303065	10725.662267
561.659825	10658.713223
562.016528	10588.502553
562.373177	10467.719027
562.729770	10591.799468
563.086307	10497.928142
563.442789	10591.817112
563.799216	10469.107865
564.155587	10523.310351
564.511904	10480.500873
564.868164	10461.105033
565.224370	10481.327622
565.580520	10400.061702
565.936615	10409.110573
566.292654	10274.491600
566.648638	10410.335573
567.004567	10369.839984
567.360441	10344.344349
567.716260	10260.535166
568.072023	10360.314724
568.427732	10309.406632
568.783385	10218.686027
569.138982	10287.255802
569.494525	10300.604777
569.850013	10176.363020
570.205445	10259.249672
570.560823	10156.878961
570.916145	10079.136807
571.271412	10141.258945
571.626625	10086.416233
571.981782	10064.053674
572.336884	10040.040138
572.691931	10045.040963
573.046923	9993.240586
573.401860	9943.885169
573.756743	9881.079954
574.111570	9925.545452
574.466342	9908.806300
574.821059	9941.629253
575.175722	9831.795114
575.530330	9838.560342
575.884882	9832.647069
576.239380	9755.613197
576.593823	9736.003108
576.948211	9752.487681
577.302544	9634.759095
577.656823	9653.086210
578.011047	9648.760900
578.365216	9622.713258
578.719330	9547.801712
579.073389	9559.487106
579.427394	9503.873097
579.781344	9483.968101
580.135239	9431.522457
580.489080	9442.507131
580.842866	9346.863840
581.196597	9348.396351
581.550273	9390.966374
581.903895	9360.013690
582.257463	9421.379656
582.610975	9302.632756
582.964434	9323.674532
583.317837	9255.273636
583.671186	9230.728258
584.024481	9227.922856
584.377721	9147.829004
584.730906	9124.095252
585.084037	9156.230087
585.437113	9083.619827
585.790135	9106.511707
586.143103	9005.897838
586.496016	8984.172985
586.848874	9043.880412
587.201679	9030.546560
587.554428	8913.397706
587.907124	8965.263617
588.259765	8936.019884
588.612352	8932.244060
588.964884	8811.349629
589.317362	8823.944952
589.669786	8825.696752
590.022155	8876.567036
590.374470	8888.343171
590.726731	8823.337492
591.078937	8676.345008
591.431090	8793.221639
591.783188	8660.314139
592.135232	8651.524887
592.487222	8652.109661
592.839157	8707.572436
593.191038	8639.151375
593.542866	8582.292201
593.894639	8487.558838
594.246358	8538.948360
594.598022	8553.678612
594.949633	8455.771842
595.301190	8428.826875
595.652692	8457.458108
596.004141	8568.610509
596.355535	8347.200512
596.706876	8323.189496
597.058162	8263.948377
597.409395	8339.981579
597.760573	8399.499962
598.111698	8302.853481
598.462768	8290.636245
598.813785	8259.267665
599.164748	8227.626863
599.515657	8211.250675
599.866511	8131.524827
600.217312	8253.457735
600.568060	8109.978935
600.918753	8218.222591
601.269392	8186.720420
601.619978	8101.706402
601.970510	8158.416862
602.320988	8158.915936
602.671412	8211.356539
603.021783	8153.050554
603.372100	8117.502857
603.722363	8122.647355
604.072572	8101.260260
604.422728	8107.498687
604.772830	8041.724233
605.122878	8050.067342
605.472872	8041.252885
605.822813	8072.427380
606.172701	8012.619131
606.522534	8092.218950
606.872314	8083.447342
607.222041	8061.795587
607.571714	8118.349771
607.921333	8074.854696
608.270899	8083.671674
608.620411	8167.299375
608.969870	8072.185405
609.319276	8067.691216
609.668627	8088.034792
610.017926	8119.557127
610.367171	8170.006475
610.716362	8147.475037
611.065500	8130.584652
611.414585	8163.725197
611.763616	8149.869586
612.112594	8130.264538
612.461518	8151.074421
612.810389	8208.208338
613.159207	8146.176940
613.507971	8094.351358
613.856682	8210.514666
614.205340	8169.336001
614.553945	8250.125533
614.902496	8147.830439
615.250994	8193.682254
615.599439	8184.250255
615.947830	8191.035648
616.296169	8166.603696
616.644454	8182.314452
616.992686	8180.895367
617.340864	8238.160354
617.688990	8141.176116
618.037063	8232.466371
618.385082	8179.030140
618.733048	8266.027853
619.080961	8200.802883
619.428821	8223.241059
619.776628	8224.811379
620.124382	8177.232969
620.472083	8163.959611
620.819731	8184.179679
621.167326	8081.080521
621.514868	8091.059485
621.862357	7979.546641
622.209793	7993.452664
622.557176	7934.335053
622.904506	7901.320536
623.251783	7827.104669
623.599007	7782.555993
623.946179	7788.938094
624.293297	7750.960561
624.640363	7667.320257
624.987376	7644.877040
625.334336	7598.165709
625.681243	7544.031278
626.028097	7533.351594
626.374899	7513.081114
626.721647	7503.959146
627.068343	7434.673528
627.414987	7408.162100
627.761577	7363.913372
628.108115	7400.285297
628.454600	7293.697660
628.801032	7341.273550
629.147412	7307.691903
629.493739	7289.712628
629.840014	7226.884728
630.186236	7289.684902
630.532405	7174.113929
630.878521	7220.616053
631.224585	7180.201123
631.570597	7103.217662
631.916556	7136.431304
632.262462	7134.094730
632.608316	7095.076199
632.954117	7073.401758
633.299866	7056.695374
633.645562	7049.257152
633.991206	6968.064328
634.336797	6913.211533
634.682336	6870.848196
635.027823	6839.013310
635.373257	6831.265056
635.718639	6760.709067
636.063968	6773.309431
636.409245	6663.190467
636.754470	6665.995869
637.099642	6628.993799
637.444762	6566.586835
637.789829	6578.912457
638.134845	6521.569332
638.479808	6507.063411
638.824719	6509.732702
639.169577	6437.152690
639.514383	6457.408046
639.859137	6385.372478
640.203839	6393.342542
640.548489	6381.450460
640.893086	6358.364496
641.237632	6325.292007
641.582125	6346.689184
641.926566	6320.424772
642.270955	6330.955743
642.615292	6325.319733
642.959576	6343.079718
643.303809	6331.452297
643.647990	6344.445871
643.992118	6330.759138
644.336195	6276.513802
644.680219	6299.992976
645.024192	6292.524507
645.368112	6387.356172
645.711981	6407.843421
646.055797	6481.429144
646.399562	6441.576302
646.743274	6566.876702
647.086935	6626.778212
647.430544	6618.379650
647.774101	6639.923021
648.117606	6643.955944
648.461059	6639.141642
648.804460	6598.769562
649.147810	6510.743454
649.491108	6478.220450
649.834354	6448.696932
650.177548	6367.158789
650.520690	6278.459687
650.863781	6261.261791
651.206820	6282.275841
651.549807	6203.250713
651.892742	6145.060674
652.235626	6150.822713
652.578458	6133.206401
652.921238	6043.433533
653.263967	6083.951807
653.606644	6024.020050
653.949269	6023.717581
654.291843	5967.733047
654.634365	6018.983937
654.976836	5969.966278
655.319255	5969.441998
655.661622	5947.575993
656.003938	5943.255724
656.346203	5903.949848
656.688416	5935.822543
657.030577	5887.026694
657.372687	5859.254978
657.714746	5848.008163
658.056753	5892.433332
658.398708	5833.391338
658.740612	5822.139482
659.082465	5867.731678
659.424266	5856.830183
659.766016	5857.624164
660.107715	5833.807233
660.449362	5852.656107
660.790958	5847.541857
661.132503	5830.154917
661.473996	5868.140011
661.815438	5853.132496
662.156829	5854.105439
662.498168	5845.714438
662.839456	5816.523637
663.180693	5855.970666
663.521879	5852.146951
663.863013	5848.507238
664.204097	5862.496439
664.545129	5905.585702
664.886110	5904.280043
665.227040	5936.031751
665.567918	5903.596967
665.908746	5931.146873
666.249522	5933.254075
666.590248	5919.690850
666.930922	5946.144305
667.271545	5961.033353
667.612118	5963.904290
667.952639	5937.965033
668.293109	5955.790553
668.633528	5913.346558
668.973896	5917.742444
669.314213	5909.916053
669.654480	5886.167177
669.994695	5886.653649
670.334859	5878.393718
670.674973	5863.920565
671.015035	5867.010793
671.355047	5865.561461
671.695008	5858.045101
672.034918	5828.473692
672.374777	5844.126475
672.714585	5822.457075
673.054342	5824.965049
673.394049	5820.458258
673.733705	5860.724474
674.073310	5844.247463
674.412864	5798.057890
674.752368	5789.036746
675.091820	5795.277694
675.431223	5735.121605
675.770574	5734.241924
676.109875	5682.524727
676.449125	5689.882291
676.788324	5652.539943
677.127473	5597.977015
677.466571	5595.353094
677.805619	5582.795580
678.144616	5566.825205
678.483562	5550.484304
678.822458	5513.724211
679.161303	5513.749416
679.500098	5502.618549
679.838842	5484.104911
680.177535	5484.697247
680.516179	5500.614690
680.854771	5512.284961
681.193314	5595.907621
681.531805	5702.497778
681.870247	5855.373289
682.208638	5957.502025
682.546978	5968.035516
682.885268	5947.026507
683.223508	5862.531728
683.561697	5806.791689
683.899836	5775.140805
684.237925	5734.146142
684.575963	5699.102561
684.913951	5658.228886
685.251889	5719.395726
685.589776	5684.140416
685.927614	5648.580117
686.265401	5725.815635
686.603137	5707.158325
686.940824	5786.080109
687.278460	5811.777391
687.616046	5822.583104
687.953582	5888.256736
688.291068	5871.547831
688.628504	5937.876813
688.965889	5895.044649
689.303224	5843.335014
689.640510	5793.296521
689.977745	5720.257763
690.314930	5619.086847
690.652065	5563.150203
690.989150	5467.446418
691.326185	5397.475203
691.663170	5343.444116
692.000105	5267.536942
692.336990	5184.985527
692.673825	5160.679604
693.010610	5094.206949
693.347345	5025.329664
693.684030	5011.635370
694.020665	4969.176252
694.357251	4874.843660
694.693786	4890.761103
695.030272	4854.668962
695.366707	4819.764013
695.703093	4783.543323
696.039429	4808.557528
696.375716	4793.580260
696.711952	4763.822329
697.048139	4753.853447
697.384276	4730.210436
697.720363	4743.209051
698.056400	4754.218931
698.392388	4708.092373
698.728326	4681.580945
699.064214	4661.416330
699.400053	4657.645547
699.735842	4623.025423
700.071581	4600.867031
700.407270	4569.987443
700.742910	4555.194177
701.078501	4497.951875
701.414042	4496.719313
701.749533	4468.289726
702.084974	4405.965941
702.420366	4458.313283
702.755709	4402.908481
703.091002	4342.749872
703.426246	4396.864138
703.761440	4348.544678
704.096584	4314.027898
704.431679	4334.794931
704.766725	4321.088034
705.101721	4307.585303
705.436668	4337.159232
705.771565	4285.734422
706.106413	4308.704439
706.441212	4343.352290
706.775961	4356.212273
707.110661	4331.452646
707.445311	4361.828118
707.779913	4381.672621
708.114465	4396.448243
708.448967	4418.142848
708.783421	4481.323629
709.117825	4521.622613
709.452180	4527.384652
709.786485	4574.940377
710.120742	4660.256864
710.454949	4640.331704
710.789107	4707.648752
711.123216	4782.910658
711.457275	4769.917084
711.791286	4849.279969
712.125247	4863.193554
712.459159	4766.431126
712.793023	4842.723948
713.126837	4799.985046
713.460602	4794.117143
713.794318	4716.133014
714.127985	4723.755238
714.461602	4639.557887
714.795171	4606.142598
715.128691	4543.907034
715.462162	4486.969722
715.795584	4434.914767
716.128957	4413.729318
716.462281	4365.737533
716.795556	4338.699305
717.128782	4298.397800
717.461960	4234.062595
717.795088	4246.859564
718.128167	4202.699056
718.461198	4143.820900
718.794180	4140.902072
719.127113	4122.559833
719.459997	4098.652161
719.792833	4054.244637
720.125619	4047.776837
720.458357	4009.247298
720.791046	4014.895911
721.123686	3989.526304
721.456278	3945.925364
721.788821	3963.357674
722.121315	3936.543777
722.453761	3910.392792
722.786158	3921.173299
723.118506	3946.341260
723.450805	3900.108838
723.783056	3919.484512
724.115259	3934.358437
724.447412	3943.644242
724.779518	3933.158642
725.111574	3938.456895
725.443582	3969.487717
725.775542	3956.761325
726.107453	4004.317049
726.439315	4002.721524
726.771129	4019.664842
727.102895	4051.131725
727.434612	4102.216257
727.766281	4114.952732
728.097901	4117.193525
728.429473	4121.193681
728.760996	4125.387921
729.092471	4124.064618
729.423897	4106.811269
729.755276	4114.355356
730.086606	4111.242443
730.417887	4147.289214
730.749120	4212.993092
731.080305	4279.964821
731.411442	4308.936332
731.742530	4275.523565
732.073570	4280.632774
732.404562	4333.118747
732.735506	4326.451821
733.066401	4289.784989
733.397249	4227.947675
733.728048	4143.553719
734.058798	4062.822160
734.389501	3990.907580
734.720156	3930.075977
735.050762	3887.450500
735.381320	3875.470198
735.711831	3830.931604
736.042293	3800.067140
736.372707	3820.912311
736.703073	3792.898619
737.033391	3782.380251
737.363661	3803.422027
737.693883	3827.755677
738.024056	3835.176256
738.354182	3830.616532
738.684260	3897.006007
739.014290	3916.457300
739.344272	3910.617123
739.674207	3956.408444
740.004093	3958.855924
740.333931	3952.252012
740.663722	3955.337199
740.993464	3950.096919
741.323159	3930.421296
741.652806	3898.238570
741.982405	3867.220350
742.311956	3840.315712
742.641460	3828.897498
742.970915	3802.310453
743.300323	3764.456429
743.629683	3732.039289
743.958996	3719.350705
744.288260	3693.313145
744.617477	3662.889782
744.946647	3649.203049
745.275768	3624.594657
745.604842	3619.465282
745.933869	3573.956266
746.262847	3562.419586
746.591778	3604.714866
746.920662	3573.545412
747.249498	3538.907644
747.578286	3587.915221
747.907027	3606.086060
748.235720	3606.272583
748.564365	3628.488948
748.892963	3628.861993
749.221514	3611.457410
749.550017	3589.629213
749.878473	3584.482195
750.206881	3555.752660
750.535242	3554.033626
750.863555	3552.201167
751.191821	3548.294272
751.520039	3531.285419
751.848210	3508.582583
752.176334	3539.726832
752.504411	3547.764951
752.832440	3504.368178
753.160421	3489.574912
753.488356	3501.144361
753.816243	3511.098119
754.144082	3467.161943
754.471875	3454.874130
754.799620	3474.234681
755.127318	3464.336376
755.454969	3466.191520
755.782572	3467.625729
756.110129	3446.052111
756.437638	3436.068106
756.765100	3449.906073
757.092515	3463.991057
757.419882	3467.320739
757.747203	3439.710339
758.074477	3442.248560
758.401703	3456.716672
758.728882	3483.207935
759.056014	3486.066269
759.383099	3490.704131
759.710138	3483.583501
760.037129	3501.933301
760.364073	3533.352292
760.690970	3517.439890
761.017820	3491.740088
761.344623	3510.301617
761.671379	3562.626273
761.998088	3611.948922
762.324751	3739.177563
762.651366	3987.119153
762.977935	4459.520639
763.304456	4903.560593
763.630931	4998.009131
763.957359	4640.709790
764.283740	4295.378149
764.610074	4100.779528
764.936362	3905.414652
765.262602	3742.986155
765.588796	3635.047489
765.914943	3548.536248
766.241044	3458.014769
766.567097	3429.774225
766.893104	3380.257491
767.219064	3349.390506
767.544978	3320.083758
767.870845	3266.193824
768.196665	3245.625916
768.522438	3256.300559
768.848165	3251.561875
769.173846	3216.283880
769.499479	3199.396015
769.825066	3181.973787
770.150607	3167.893844
770.476101	3179.977490
770.801548	3174.054134
771.126949	3133.298926
771.452303	3113.439301
771.777611	3118.911473
772.102872	3127.942700
772.428087	3101.179214
772.753256	3091.054057
773.078378	3086.224632
773.403453	3051.949827
773.728482	3034.459543
774.053465	3059.415775
774.378401	3049.149466
774.703291	3016.097140
775.028135	3015.892974
775.352932	3009.525996
775.677683	2999.841940
776.002388	2993.812720
776.327046	2998.233812
776.651658	2986.319045
776.976224	2978.273363
777.300743	2973.257415
777.625216	2965.191569
777.949643	2961.934983
778.274024	2965.194089
778.598359	2951.706482
778.922647	2957.294601
779.246889	2956.346864
779.571086	2941.326747
779.895236	2936.426745
780.219339	2948.714558
780.543397	2959.427009
780.867409	2963.953966
781.191374	2956.339303
781.515294	2950.327727
781.839167	2953.155814
782.162995	2945.064762
782.486776	2951.081379
782.810511	2947.897891
783.134201	2938.160902
783.457844	2944.512756
783.781441	2937.165274
784.104993	2913.602921
784.428498	2915.211049
784.751958	2927.524067
785.075372	2922.200609
785.398739	2906.711664
785.722061	2922.346802
786.045337	2934.846343
786.368568	2915.979825
786.691752	2911.261305
787.014891	2960.273923
787.337983	2988.753922
787.661030	3016.870958
787.984031	3082.804209
788.306987	3129.208030
788.629897	3123.388018
788.952760	3107.014350
789.275579	3092.357195
789.598351	3032.831251
789.921078	2988.496823
790.243759	2978.356542
790.566395	2961.546815
790.888984	2936.381375
791.211529	2921.416709
791.534027	2910.507653
791.856480	2900.884090
792.178888	2885.901781
792.501249	2875.166643
792.823566	2874.854092
793.145836	2870.601879
793.468062	2867.168853
793.790241	2866.117772
794.112375	2870.518700
794.434464	2881.679814
794.756507	2890.433778
795.078505	2894.837226
795.400457	2907.220820
795.722364	2947.398816
796.044226	2969.867239
796.366042	2973.277580
796.687812	2959.064046
797.009538	2980.330154
797.331218	2969.683237
797.652852	2952.414764
797.974442	2938.332301
798.295986	2931.914912
798.617484	2928.257555
798.938938	2911.379772
799.260346	2892.911505
799.581709	2892.626680
799.903026	2881.929351
800.224299	2879.809546
800.545526	2867.778833
800.866708	2852.768797
801.187845	2841.796726
801.508936	2846.051459
801.829983	2851.717716
802.150984	2839.883608
802.471940	2826.249807
802.792851	2825.622183
803.113717	2825.241576
803.434538	2832.727690
803.755314	2824.407265
804.076045	2817.095072
804.396731	2816.406954
804.717372	2816.618683
805.037967	2812.202632
805.358518	2820.520536
805.679024	2831.570745
805.999485	2827.484890
806.319901	2831.419510
806.640272	2823.847697
806.960598	2826.080928
807.280879	2836.006960
807.601115	2845.529700
807.921306	2831.205261
808.241453	2829.859273
808.561554	2833.919923
808.881611	2838.913186
809.201623	2832.294151
809.521590	2834.267762
809.841513	2825.539004
810.161390	2829.723162
810.481223	2823.514981
810.801011	2814.980308
811.120755	2809.263639
811.440453	2810.667601
811.760107	2811.648105
812.079716	2812.013589
812.399281	2801.233081
812.718801	2793.590692
813.038276	2791.843932
813.357707	2795.869293
813.677093	2802.997485
813.996434	2797.585806
814.315731	2793.409210
814.634983	2787.889147
814.954191	2788.728499
815.273354	2805.238278
815.592473	2811.164154
815.911547	2816.401913
816.230577	2822.582368
816.549562	2831.933708
816.868502	2829.690395
817.187399	2837.816735
817.506250	2856.690815
817.825058	2850.502798
818.143821	2863.050230
818.462539	2879.096223
818.781213	2902.837537
819.099843	2941.646860
819.418429	3000.754389
819.736970	3060.706311
820.055466	3136.479894
820.373919	3243.059969
820.692327	3382.079868
821.010691	3553.438770
821.329011	3994.363291
821.647286	4896.845776
821.965517	6285.270286
822.283704	7031.787033
822.601847	7015.612491
822.919945	6380.026334
823.237999	5872.629159
823.556010	5282.368017
823.873976	4731.541300
824.191897	4317.970080
824.509775	4020.012682
824.827609	3749.915221
825.145398	3625.489461
825.463144	3611.384313
825.780845	3701.913354
826.098502	3812.423008
826.416116	4093.069083
826.733685	4413.958690
827.051210	4481.396726
827.368692	4361.114795
827.686129	4090.104885
828.003522	3765.711676
828.320872	3506.203158
828.638177	3310.994558
828.955439	3174.989268
829.272656	3089.755960
829.589830	3020.775331
829.906960	2970.028556
830.224046	2925.023655
830.541088	2891.197513
830.858086	2877.054556
831.175041	2858.760208
831.491952	2860.063347
831.808819	2870.874101
832.125642	2896.987278
832.442421	2940.366407
832.759157	3024.530991
833.075849	3198.962476
833.392497	3484.281701
833.709101	3689.965819
834.025662	3640.184425
834.342179	3477.894559
834.658653	3304.017601
834.975083	3153.435815
835.291469	3055.571896
835.607811	2967.046713
835.924110	2909.602765
836.240366	2854.258458
836.556578	2814.405616
836.872746	2792.332924
837.188871	2771.210489
837.504952	2752.727099
837.820990	2747.146542
838.136984	2733.663976
838.452935	2725.267934
838.768842	2723.216184
839.084706	2740.260325
839.400526	2819.056081
839.716303	2949.576595
840.032037	3033.529450
840.347727	3016.036647
840.663373	2954.869806
840.978977	2884.089486
841.294537	2811.960657
841.610054	2763.391660
841.925527	2739.448700
842.240957	2718.144783
842.556344	2695.736855
842.871687	2678.649864
843.186987	2669.114521
843.502244	2665.787360
843.817458	2661.998932
844.132629	2649.600215
844.447756	2639.442290
844.762840	2637.624954
845.077881	2639.049080
845.392879	2635.096815
845.707833	2632.525827
846.022745	2625.127933
846.337613	2626.766308
846.652438	2624.018879
846.967221	2625.740433
847.281960	2622.627521
847.596656	2621.047119
847.911309	2622.478807
848.225919	2618.834053
848.540485	2613.550923
848.855009	2614.155862
849.169490	2617.367077
849.483928	2614.617128
849.798323	2612.928341
850.112675	2612.124277
850.426984	2615.053187
850.741251	2609.588577
851.055474	2612.346088
851.369654	2617.745163
851.683792	2615.693414
851.997887	2612.199894
852.311938	2612.769545
852.625947	2614.380193
852.939914	2616.905811
853.253837	2616.255502
853.567718	2610.180912
853.881555	2611.597476
854.195350	2613.883640
854.509103	2613.341716
854.822812	2610.707713
855.136479	2611.340377
855.450103	2611.282404
855.763685	2612.502363
856.077224	2609.739811
856.390720	2609.626385
856.704173	2612.580501
857.017584	2616.021089
857.330953	2619.794392
857.644278	2620.076697
857.957561	2618.697942
858.270802	2613.026643
858.584000	2613.389607
858.897155	2619.312962
859.210268	2620.638786
859.523339	2617.389762
859.836367	2612.041098
860.149352	2610.438011
860.462295	2613.838269
860.775195	2608.857609
861.088054	2609.470109
861.400869	2606.422732
861.713642	2603.612289
862.026373	2608.119080
862.339062	2608.376179
862.651708	2615.748867
862.964312	2615.338012
863.276873	2615.020420
863.589392	2617.077211
863.901869	2621.193313
864.214303	2627.782101
864.526696	2628.896196
864.839045	2631.230250
865.151353	2632.619088
865.463619	2632.039355
865.775842	2631.966258
866.088023	2633.599592
866.400162	2633.556742
866.712258	2634.292751
867.024313	2631.923409
867.336325	2626.095835
867.648296	2629.609519
867.960224	2634.945580
868.272110	2633.271917
868.583954	2627.880403
868.895755	2628.452574
869.207515	2633.395426
869.519233	2640.634522
869.830909	2635.056486
870.142542	2632.167905
870.454134	2633.995323
870.765684	2637.977834
871.077191	2638.910448
871.388657	2646.441932
871.700081	2644.987559
872.011463	2641.909934
872.322803	2643.245840
872.634101	2644.402785
872.945357	2654.195226
873.256571	2660.151350
873.567744	2659.821154
873.878874	2657.552635
874.189963	2658.114723
874.501010	2662.097235
874.812015	2668.431445
875.122979	2668.058399
875.433900	2658.563386
875.744780	2655.402583
876.055618	2661.726710
876.366415	2667.360200
876.677169	2667.511434
876.987882	2663.561690
877.298554	2660.332831
877.609183	2672.514779
877.919771	2680.257992
878.230317	2684.328723
878.540822	2696.954293
878.851285	2709.000130
879.161707	2735.042731
879.472087	2771.702002
879.782425	2823.313335
880.092722	2934.231323
880.402977	3129.157618
880.713191	3387.957854
881.023363	3687.155376
881.333494	3881.494377
881.643583	4054.055594
881.953631	4049.208524
882.263637	3874.847616
882.573602	3651.098523
882.883526	3520.474665
883.193408	3405.017118
883.503248	3299.641880
883.813048	3181.230217
884.122806	3069.240984
884.432522	2982.918786
884.742197	2917.033426
885.051831	2878.912221
885.361424	2843.235975
885.670975	2805.727270
885.980485	2776.854061
886.289954	2758.844539
886.599382	2742.937178
886.908768	2731.602144
887.218113	2712.067672
887.527417	2697.541588
887.836680	2691.141843
888.145901	2685.841070
888.455082	2677.245902
888.764221	2666.031856
889.073319	2657.295536
889.382376	2659.463232
889.691392	2658.384425
890.000366	2659.138078
890.309300	2653.711276
890.618193	2658.245793
890.927044	2661.875424
891.235855	2660.713438
891.544625	2661.608243
891.853353	2659.364930
892.162041	2669.752227
892.470687	2690.189065
892.779293	2699.966383
893.087858	2710.278063
893.396381	2731.748337
893.704864	2775.107301
894.013306	2845.378465
894.321707	2943.025615
894.630068	2988.980774
894.938387	3015.751821
895.246665	3004.336128
895.554903	2960.563790
895.863100	2914.590987
896.171256	2858.629138
896.479371	2796.302833
896.787446	2756.444950
897.095480	2736.786970
897.403473	2729.247925
897.711425	2715.563713
898.019336	2697.435723
898.327207	2685.392407
898.635038	2681.223373
898.942827	2678.380162
899.250576	2670.553771
899.558284	2660.514313
899.865952	2653.618014
900.173579	2650.270688
900.481165	2651.160452
900.788711	2642.761889
901.096216	2635.553039
901.403681	2631.252935
901.711105	2632.553553
902.018489	2629.052472
902.325832	2633.508852
902.633135	2636.326857
902.940397	2649.985863
903.247619	2687.676050
903.554800	2761.549118
903.861941	2888.739950
904.169041	3015.645957
904.476101	3080.465113
904.783121	3071.348187
905.090100	3016.291225
905.397039	2938.549071
905.703938	2864.912937
906.010796	2798.891465
906.317614	2748.210225
906.624391	2708.415357
906.931129	2681.447704
907.237826	2659.997594
907.544483	2646.230203
907.851099	2628.313942
908.157675	2616.232817
908.464211	2610.909359
908.770707	2598.732452
909.077163	2596.186669
909.383578	2593.333376
909.689954	2590.328848
909.996289	2586.958837
910.302584	2590.749785
910.608839	2583.672005
910.915054	2586.744588
911.221229	2586.326172
911.527363	2590.268354
911.833458	2587.967068
912.139513	2589.144177
912.445527	2592.912440
912.751502	2596.602564
913.057436	2602.727566
913.363331	2609.139914
913.669186	2618.758435
913.975000	2633.753347
914.280775	2652.037612
914.586510	2671.650222
914.892205	2709.163968
915.197859	2775.893721
915.503475	2860.587627
915.809050	2927.385436
916.114585	2945.478137
916.420081	2955.744447
916.725536	2967.472691
917.030952	2941.258691
917.336328	2893.685322
917.641665	2843.455265
917.946961	2794.470373
918.252218	2759.696494
918.557435	2732.358317
918.862612	2706.424101
919.167750	2690.879703
919.472848	2675.728515
919.777906	2657.189672
920.082925	2644.165851
920.387904	2634.083543
920.692843	2628.021556
920.997743	2623.776904
921.302603	2615.970677
921.607423	2607.441045
921.912204	2603.045159
922.216946	2604.325612
922.521647	2599.153388
922.826310	2596.315218
923.130932	2591.662233
923.435516	2588.012438
923.740059	2584.932293
924.044564	2585.449011
924.349028	2584.402972
924.653454	2572.137845
924.957840	2573.125911
925.262186	2568.886300
925.566493	2571.111970
925.870761	2566.713563
926.174989	2565.042421
926.479178	2562.849519
926.783328	2563.066288
927.087438	2561.813562
927.391509	2559.872717
927.695541	2556.618652
927.999533	2558.783828
928.303486	2556.911039
928.607400	2554.955072
928.911275	2554.080432
929.215110	2557.599157
929.518906	2554.468600
929.822663	2555.607901
930.126381	2554.473642
930.430060	2555.870041
930.733699	2554.491286
931.037299	2555.950700
931.340861	2558.733417
931.644383	2556.346430
931.947866	2557.740309
932.251309	2554.042623
932.554714	2553.994732
932.858080	2557.672254
933.161407	2556.721996
933.464694	2557.768036
933.767943	2554.345092
934.071153	2553.563713
934.374323	2551.816953
934.677455	2554.614794
934.980548	2551.345606
935.283602	2553.425082
935.586617	2551.212015
935.889593	2551.779145
936.192530	2549.903836
936.495428	2553.707386
936.798287	2553.631769
937.101108	2554.277037
937.403890	2557.455484
937.706632	2560.840619
938.009336	2564.974365
938.312002	2567.353790
938.614628	2569.748338
938.917216	2576.127918
939.219765	2576.017012
939.522275	2578.396437
939.824747	2577.710840
940.127179	2570.501990
940.429573	2568.291444
940.731929	2567.931002
941.034246	2564.578634
941.336524	2569.271949
941.638763	2567.928481
941.940964	2566.486711
942.243126	2561.601833
942.545250	2563.522513
942.847335	2560.792728
943.149381	2560.230639
943.451389	2558.554456
943.753359	2555.549928
944.055290	2555.484393
944.357182	2554.705535
944.659036	2556.807696
944.960851	2554.743343
945.262628	2554.846687
945.564367	2555.358364
945.866067	2556.129661
946.167729	2557.788200
946.469352	2555.688560
946.770937	2557.226112
947.072484	2554.098076
947.373992	2557.619322
947.675462	2552.926007
947.976893	2555.721327
948.278286	2554.531615
948.579641	2553.180586
948.880958	2552.883158
949.182236	2552.961295
949.483476	2554.617314
949.784678	2553.132695
950.085841	2553.054557
950.386967	2553.309135
950.688054	2551.723692
950.989103	2553.351985
951.290114	2553.896429
951.591087	2557.710062
951.892021	2558.738458
952.192917	2557.047151
952.493776	2556.948848
952.794596	2561.226267
953.095378	2558.393139
953.396122	2562.305074
953.696828	2559.464384
953.997496	2556.525391
954.298126	2556.384239
954.598718	2554.317366
954.899272	2557.364743
955.199788	2553.462890
955.500266	2551.907694
955.800706	2547.166489
956.101108	2545.092054
956.401472	2543.315047
956.701798	2542.589121
957.002087	2542.977290
957.302337	2544.368649
957.602550	2542.793288
957.902724	2542.568957
958.202861	2542.004347
958.502960	2541.641384
958.803022	2541.971580
959.103045	2541.981662
959.403031	2541.535520
959.702979	2540.484440
960.002889	2541.641384
960.302762	2539.282124
960.602596	2541.046528
960.902393	2537.860519
961.202153	2536.829603
961.501875	2538.727598
961.801559	2536.696012
962.101205	2538.528472
962.400814	2535.796167
962.700385	2538.949408
962.999918	2535.002185
963.299414	2537.656352
963.598873	2538.772968
963.898293	2539.471168
964.197677	2537.663914
964.497022	2536.885056
964.796331	2534.319108
965.095601	2536.822041
965.394835	2536.615354
965.694030	2537.784902
965.993189	2537.595858
966.292309	2537.106867
966.591393	2536.796836
966.890439	2536.683410
967.189447	2535.939839
967.488419	2535.544109
967.787353	2537.805066
968.086249	2536.809438
968.385108	2538.397402
968.683930	2534.107380
968.982714	2538.687268
969.281462	2536.491846
969.580172	2536.887576
969.878844	2536.885056
970.177480	2535.231557
970.476078	2538.067206
970.774639	2538.228523
971.073162	2535.743234
971.371649	2535.105528
971.670098	2533.941022
971.968510	2536.887576
972.266885	2534.871115
972.565223	2536.010416
972.863524	2537.159799
973.161788	2539.582073
973.460014	2537.116949
973.758204	2537.336239
974.056356	2539.473688
974.354471	2537.311033
974.652550	2536.882535
974.950591	2539.259439
975.248595	2536.343132
975.546563	2540.204656
975.844493	2537.948739
976.142386	2537.830272
976.440243	2539.766075
976.738062	2536.219623
977.035845	2536.753986
977.333590	2535.864222
977.631299	2536.181815
977.928971	2536.635519
978.226606	2536.585107
978.524204	2538.286497
978.821765	2535.874304
979.119290	2536.065868
979.416777	2534.072092
979.714228	2533.983872
980.011642	2533.802390
980.309020	2537.731970
980.606360	2533.252904
980.903664	2537.089223
981.200931	2535.786084
981.498162	2536.625436
981.795356	2540.207176
982.092513	2542.263967
982.389633	2545.112219
982.686717	2547.476520
982.983764	2552.321069
983.280775	2553.077242
983.577749	2553.649413
983.874686	2551.353167
984.171587	2547.136242
984.468451	2546.985008
984.765279	2539.118287
985.062070	2542.155582
985.358824	2539.808925
985.655543	2537.737011
985.952224	2535.801208
986.248869	2535.261804
986.545478	2531.702750
986.842050	2533.562935
987.138586	2532.766433
987.435086	2533.749458
987.731549	2531.102852
988.027975	2532.937832
988.324366	2534.150230
988.620719	2534.828265
988.917037	2533.323481
989.213318	2531.218799
989.509563	2533.366330
989.805772	2532.161495
990.101944	2532.990764
990.398080	2533.033614
990.694180	2531.664941
990.990244	2533.875487
991.286271	2534.233409
991.582262	2534.485467
991.878217	2534.316588
992.174136	2532.458923
992.470019	2531.498583
992.765865	2531.289375
993.061676	2531.430527
993.357450	2533.643594
993.653188	2532.589993
993.948890	2534.525796
994.244556	2531.551515
994.540186	2532.605116
994.835780	2533.726773
995.131337	2536.028060
995.426859	2534.543440
995.722345	2535.894469
996.017795	2533.230219
996.313208	2537.285828
996.608586	2536.408667
996.903928	2537.449665
997.199234	2536.166691
997.494504	2536.786753
997.789738	2536.123842
998.084936	2536.176774
998.380099	2533.580579
998.675225	2534.162833
998.970316	2534.588810
999.265371	2536.685930
999.560390	2533.774664
999.855373	2533.852802
1000.150320	2532.786598
1000.445232	2532.211906
1000.740108	2530.694519
1001.034948	2530.437420
1001.329752	2533.908254
1001.624521	2531.939684
1001.919254	2525.827285
1002.213951	2531.833820
1002.508613	2529.630835
1002.803239	2530.467667
1003.097829	2527.866432
1003.392384	2533.462112
1003.686903	2529.429189
1003.981386	2532.302647
1004.275834	2532.756351
1004.570246	2532.579910
1004.864623	2530.134951
1005.158964	2533.255425
1005.453270	2531.082688
1005.747540	2532.327853
1006.041775	2530.281144
1006.335974	2531.022194
1006.630138	2531.483459
1006.924266	2531.077647
1007.218359	2530.737369
1007.512416	2531.556556
1007.806438	2534.130065
1008.100425	2530.109745
1008.394376	2531.937163
1008.688292	2531.291896
1008.982172	2531.279293
1009.276017	2531.584283
1009.569827	2530.805424
1009.863602	2531.879190
1010.157341	2530.568490
1010.451045	2531.344828
1010.744714	2528.940197
1011.038347	2530.407173
1011.331945	2530.644107
1011.625508	2530.074457
1011.919036	2529.348531
1012.212528	2530.699560
1012.505986	2530.553367
1012.799408	2530.749972
1013.092795	2528.912471
1013.386147	2530.281144
1013.679464	2531.543953
1013.972745	2528.373068
1014.265992	2532.753830
1014.559204	2530.601258
1014.852380	2530.051772
1015.145521	2531.208717
1015.438628	2529.449354
1015.731699	2527.846267
1016.024736	2529.068747
1016.317737	2527.911802
1016.610703	2529.915661
1016.903635	2525.265196
1017.196531	2527.851308
1017.489393	2529.555218
1017.782219	2525.517254
1018.075011	2529.585465
1018.367768	2531.097811
1018.660490	2529.993798
1018.953177	2529.993798
1019.245829	2529.993798
