Dividing Wavelength (nm)	Counts (n)	Blue Motor Position (mm): 23.500000	Red Motor Position (mm): 0.000000	
326.493990	2137.660959
326.888308	2137.660959
327.282561	2137.660959
327.676750	2100.056472
328.070874	2102.410691
328.464933	2103.058479
328.858929	2110.436208
329.252859	2118.456684
329.646726	2130.459671
330.040528	2142.931486
330.434265	2161.107366
330.827938	2179.900787
331.221547	2195.661955
331.615091	2214.835983
332.008571	2234.466237
332.401986	2252.541294
332.795338	2272.988214
333.188625	2291.075874
333.581847	2308.445169
333.975006	2329.640701
334.368100	2347.834225
334.761129	2363.640763
335.154095	2383.961654
335.546996	2401.741803
335.939833	2426.004877
336.332606	2436.603903
336.725315	2451.946655
337.117960	2461.681123
337.510540	2469.968780
337.903056	2482.279277
338.295508	2488.124495
338.687896	2499.025990
339.080220	2504.770385
339.472480	2511.651560
339.864676	2516.145749
340.256807	2521.711183
340.648875	2523.611698
341.040879	2524.756040
341.432818	2526.941380
341.824694	2529.492204
342.216506	2530.293747
342.608253	2529.656041
342.999937	2527.488345
343.391557	2529.867770
343.783113	2525.570186
344.174605	2525.106400
344.566033	2526.112110
344.957397	2527.032121
345.348697	2521.252438
345.739934	2521.842253
346.131106	2519.470390
346.522215	2517.668177
346.913260	2514.388907
347.304241	2513.675583
347.695159	2513.733557
348.086012	2509.012516
348.476802	2508.493277
348.867528	2508.969666
349.258191	2502.335508
349.648789	2504.858605
350.039324	2503.096722
350.429796	2501.050014
350.820203	2498.519354
351.210548	2500.576145
351.600828	2495.897954
351.991045	2500.122441
352.381198	2497.833758
352.771288	2495.792090
353.161314	2495.149343
353.551276	2497.432986
353.941175	2495.590444
354.331010	2494.670433
354.720782	2494.977944
355.110490	2495.592965
355.500135	2494.073057
355.889717	2494.083139
356.279235	2497.843840
356.668689	2497.768223
357.058080	2495.542553
357.447408	2497.594303
357.836672	2494.249497
358.225873	2495.885352
358.615010	2491.146667
359.004084	2498.068171
359.393095	2499.270486
359.782043	2497.785867
360.170927	2501.914572
360.559748	2499.630929
360.948505	2502.010353
361.337199	2501.107987
361.725830	2503.111846
362.114398	2503.071516
362.502903	2503.210148
362.891344	2504.788029
363.279722	2505.080416
363.668037	2502.980776
364.056289	2504.644356
364.444478	2502.481701
364.832603	2506.156703
365.220665	2508.457989
365.608665	2505.284583
365.996601	2507.895901
366.384474	2505.710560
366.772284	2508.160561
367.160031	2508.921775
367.547715	2507.169974
367.935336	2509.040243
368.322893	2509.803977
368.710388	2508.599142
369.097820	2512.695079
369.485189	2509.995541
369.872495	2509.506549
370.259738	2508.848679
370.646918	2511.354132
371.034035	2513.090810
371.421090	2512.332116
371.808081	2511.091992
372.195010	2509.972856
372.581875	2512.856396
372.968678	2512.291787
373.355418	2512.606859
373.742096	2513.733557
374.128710	2509.899759
374.515262	2515.313958
374.901751	2514.719102
375.288177	2514.635923
375.674540	2513.103412
376.060841	2516.118022
376.447079	2514.615759
376.833254	2514.976201
377.219367	2508.919255
377.605417	2512.753052
377.991404	2512.884122
378.377329	2511.331447
378.763191	2509.415808
379.148991	2513.335306
379.534727	2516.518794
379.920402	2518.656243
380.306013	2514.462003
380.691563	2516.864113
381.077049	2516.211284
381.462474	2518.192457
381.847835	2515.563496
382.233134	2519.387211
382.618371	2519.339320
383.003545	2517.763959
383.388657	2520.397962
383.773706	2515.598784
384.158693	2519.334279
384.543618	2518.048784
384.928480	2519.488034
385.313280	2517.756398
385.698017	2520.420647
386.082692	2519.450225
386.467305	2518.787313
386.851856	2519.994670
387.236344	2518.343692
387.620770	2522.837881
388.005133	2519.543487
388.389435	2520.224042
388.773674	2520.029958
389.157851	2517.595081
389.541965	2522.835360
389.926018	2518.666326
390.310008	2522.139681
390.693936	2523.788138
391.077802	2521.975843
391.461606	2522.711852
391.845348	2523.331914
392.229027	2522.467356
392.612645	2523.432737
392.996200	2524.317459
393.379694	2523.120185
393.763125	2522.411903
394.146494	2521.643127
394.529801	2525.459281
394.913047	2524.647655
395.296230	2522.096831
395.679351	2523.110103
396.062410	2527.596730
396.445408	2528.368026
396.828343	2524.070443
397.211217	2521.822088
397.594028	2521.864938
397.976778	2521.307890
398.359466	2528.362985
398.742092	2520.584485
399.124656	2526.500279
399.507158	2525.509692
399.889598	2527.470701
400.271977	2528.831813
400.654294	2528.453726
401.036549	2525.371060
401.418742	2527.546318
401.800874	2528.257121
402.182944	2528.216792
402.564952	2529.456916
402.946898	2529.877852
403.328783	2528.519261
403.710606	2527.891637
404.092367	2526.747295
404.474067	2528.940197
404.855705	2528.950280
405.237282	2528.322656
405.618797	2528.897347
406.000250	2528.415917
406.381642	2530.795342
406.762972	2530.586134
407.144240	2530.387008
407.525447	2533.658717
407.906593	2530.916330
408.287677	2530.155115
408.668700	2528.635207
409.049661	2531.717873
409.430560	2531.796011
409.811399	2532.373223
410.192176	2532.116124
410.572891	2531.266690
410.953545	2535.009747
411.334138	2532.965559
411.714669	2533.492359
412.095139	2532.642925
412.475547	2535.307175
412.855894	2534.331711
413.236180	2528.516740
413.616405	2535.662576
413.996568	2533.026053
414.376670	2536.658204
414.756711	2535.642411
415.136691	2533.910775
415.516609	2535.342463
415.896466	2533.552853
416.276262	2536.685930
416.655997	2528.834333
417.035670	2529.683768
417.415283	2534.515713
417.794834	2529.098994
418.174324	2533.005888
418.553753	2534.908923
418.933121	2535.735673
419.312428	2536.144006
419.691674	2532.607637
420.070859	2538.823379
420.449983	2534.664427
420.829045	2533.595703
421.208047	2536.131403
421.586988	2538.087371
421.965867	2540.517207
422.344686	2537.827752
422.723444	2537.565612
423.102141	2534.656866
423.480777	2538.460416
423.859352	2537.006043
424.237866	2537.689120
424.616319	2537.653832
424.994712	2538.462937
425.373044	2541.041487
425.751314	2540.250026
426.129524	2536.207021
426.507673	2538.226003
426.885762	2537.288348
427.263789	2538.425128
427.641756	2540.522248
428.019662	2540.123997
428.397508	2541.631302
428.775292	2540.723894
429.153016	2537.797505
429.530679	2540.534851
429.908282	2542.626930
430.285824	2539.728267
430.663305	2538.026877
431.040726	2539.070396
431.418086	2539.534182
431.795385	2542.619368
432.172624	2540.555016
432.549802	2540.371014
432.926920	2540.968390
433.303977	2542.072403
433.680974	2541.417053
434.057910	2543.998124
434.434786	2541.656508
434.811601	2540.577701
435.188355	2543.350336
435.565050	2540.978473
435.941683	2542.326981
436.318257	2541.112063
436.694770	2538.165509
437.071222	2539.980324
437.447614	2540.623071
437.823946	2538.823379
438.200218	2543.325130
438.576429	2543.423432
438.952580	2544.293031
439.328670	2543.642723
439.704700	2544.837476
440.080670	2543.554502
440.456580	2543.829245
440.832429	2545.177754
441.208218	2545.553320
441.583947	2545.883515
441.959616	2547.539534
442.335224	2544.492157
442.710773	2544.328319
443.086261	2545.044163
443.461689	2544.953423
443.837057	2547.801674
444.212365	2547.284956
444.587612	2547.622713
444.962800	2544.255223
445.337927	2548.477189
445.712995	2547.204298
446.088002	2547.842004
446.462949	2546.087682
446.837837	2546.460727
447.212664	2549.230842
447.587431	2550.148332
447.962139	2549.747560
448.336786	2550.624721
448.711374	2551.504402
449.085901	2546.470810
449.460369	2547.327806
449.834776	2549.999618
450.209124	2552.374001
450.583412	2551.396017
450.957640	2551.335523
451.331808	2550.385266
451.705917	2551.738816
452.079965	2554.811399
452.453954	2550.685214
452.827883	2550.145811
453.201752	2553.397355
453.575562	2552.767211
453.949311	2551.121274
454.323001	2555.524722
454.696632	2554.362736
455.070202	2553.755277
455.443713	2557.778118
455.817164	2552.253013
456.190556	2552.784855
456.563888	2554.506409
456.937160	2553.520863
457.310373	2557.584033
457.683526	2555.991029
458.056619	2559.678633
458.429653	2560.185269
458.802628	2560.543191
459.175542	2561.324570
459.548398	2566.222051
459.921194	2567.893193
460.293930	2568.611557
460.666607	2576.989955
461.039224	2581.050605
461.411782	2587.939341
461.784280	2590.033941
462.156719	2588.090576
462.529099	2592.005032
462.901419	2594.301278
463.273680	2596.111052
463.645882	2598.225816
464.018024	2602.518358
464.390106	2609.691920
464.762130	2620.427057
465.134094	2636.929274
465.505999	2665.177380
465.877845	2697.639890
466.249631	2717.209649
466.621358	2712.221428
466.993026	2710.013402
467.364634	2716.186295
467.736184	2713.912735
468.107674	2718.331306
468.479105	2735.423338
468.850477	2738.868967
469.221790	2745.740060
469.593043	2746.037488
469.964238	2757.372522
470.335373	2769.405756
470.706449	2787.246400
471.077467	2799.577062
471.448425	2879.224772
471.819324	2946.584670
472.190164	2960.684777
472.560945	2919.387645
472.931667	2902.172105
473.302330	2914.835483
473.672934	2914.681728
474.043479	2958.257462
474.413965	2971.331694
474.784393	2989.520177
475.154761	3024.916639
475.525070	3052.983263
475.895321	3067.842064
476.265513	3107.392437
476.635645	3148.578663
477.005719	3185.275743
477.375734	3228.859038
477.745691	3277.579270
478.115588	3331.822085
478.485427	3393.651837
478.855207	3502.434896
479.224928	3666.325328
479.594591	3792.210501
479.964194	3811.876043
480.333739	3832.801872
480.703226	3881.678379
481.072653	3954.326447
481.442022	4068.654775
481.811333	4153.812467
482.180584	4179.734080
482.549777	4189.375287
482.918912	4219.332343
483.287988	4289.427067
483.657005	4352.466696
484.025964	4352.585163
484.394864	4441.344759
484.763706	4503.539994
485.132489	4506.554604
485.501213	4568.691867
485.869879	4641.539060
486.238487	4688.157130
486.607036	4767.083956
486.975527	4796.793996
487.343959	4906.441612
487.712333	4997.815047
488.080648	5042.893044
488.448905	5137.165142
488.817104	5187.193553
489.185244	5338.584444
489.553326	5479.963603
489.921350	5742.516978
490.289315	6193.105391
490.657222	6392.903962
491.025070	6465.299972
491.392861	6513.258989
491.760593	6467.876002
492.128267	6428.892759
492.495883	6387.028497
492.863440	6342.144584
493.230939	6290.021574
493.598380	6342.711714
493.965763	6376.759667
494.333088	6399.154993
494.700354	6456.787984
495.067563	6546.369288
495.434713	6565.369397
495.801805	6698.929727
496.168839	6747.468477
496.535815	6804.327651
496.902733	6865.106322
497.269593	6922.504900
497.636395	7037.349946
498.003139	7129.981148
498.369825	7123.785570
498.736453	7294.360572
499.103023	7324.441137
499.469535	7424.853360
499.835989	7489.707804
500.202385	7550.186527
500.568723	7531.307406
500.935003	7736.517655
501.301226	7711.747946
501.667390	7929.291378
502.033497	8068.651556
502.399546	8049.510295
502.765537	8063.043272
503.131470	8181.737240
503.497345	8369.870581
503.863163	8175.234151
504.228923	8463.883059
504.594625	8566.228564
504.960269	8458.970454
505.325856	8679.583949
505.691385	8596.417514
506.056856	8769.069471
506.422270	8855.938634
506.787625	8828.010642
507.152924	8981.881781
507.518164	9023.620014
507.883347	9033.150316
508.248472	9017.704220
508.613540	9257.151466
508.978550	9230.882013
509.343503	9258.217670
509.708398	9415.473944
510.073236	9559.829905
510.438016	9614.286969
510.802738	9626.194175
511.167403	9723.813598
511.532010	9686.531745
511.896561	9909.033152
512.261053	10024.039516
512.625488	9965.665475
512.989866	9999.113530
513.354186	10024.435246
513.718449	9984.400923
514.082655	10195.589981
514.446803	10145.392692
514.810894	10293.892481
515.174927	10209.017094
515.538904	10264.517678
515.902822	10434.775087
516.266684	10370.712104
516.630488	10353.612510
516.994235	10435.236352
517.357925	10522.642398
517.721558	10635.337393
518.085133	10686.966370
518.448651	10720.031298
518.812112	10638.725048
519.175516	10684.221462
519.538863	10820.292286
519.902152	10761.456980
520.265385	10949.890269
520.628560	10884.113294
520.991678	10886.487677
521.354739	10974.307098
521.717743	10925.019737
522.080690	10925.327247
522.443580	11078.394322
522.806413	11048.293592
523.169189	11091.841600
523.531908	11170.045019
523.894569	11009.116265
524.257174	11032.257682
524.619722	11157.694193
524.982213	11119.572987
525.344647	11188.246105
525.707025	11150.608851
526.069345	11255.595921
526.431608	11184.573625
526.793815	11297.457662
527.155964	11110.776174
527.518057	11166.128043
527.880093	11126.542382
528.242072	11202.976357
528.603995	11114.670465
528.965860	11048.863243
529.327669	11100.678743
529.689421	11059.069059
530.051117	11039.700946
530.412755	11147.853860
530.774337	11040.210102
531.135862	11032.313135
531.497331	11056.714840
531.858743	10916.772409
532.220098	11087.254150
532.581396	10969.389452
532.942638	10945.781729
533.303824	10911.411142
533.664953	10930.489389
534.026025	10855.270332
534.387040	10953.774478
534.747999	10956.544592
535.108902	11018.880980
535.469748	10780.724270
535.830537	10887.838707
536.191270	10869.763649
536.551947	10896.607794
536.912567	10886.487677
537.273131	10817.718777
537.633638	10799.232866
537.994089	10791.615683
538.354483	10748.990206
538.714821	10887.238809
539.075103	10896.753987
539.435328	10860.873575
539.795497	10692.867040
540.155609	10846.866729
540.515665	10938.686305
540.875665	10682.454537
541.235609	10750.792419
541.595496	10740.886551
541.955328	10904.013249
542.315102	10783.232244
542.674821	10735.961344
543.034483	10734.648123
543.394090	10732.770294
543.753640	10663.527525
544.113134	10887.274097
544.472571	10742.287992
544.831953	10887.768130
545.191278	10693.517349
545.550548	10726.914993
545.909761	10861.128153
546.268918	10839.113434
546.628019	10925.246589
546.987064	10785.846082
547.346053	10711.675585
547.704986	10815.835906
548.063863	10797.007197
548.422684	10785.163006
548.781449	10703.158556
549.140158	10817.691051
549.498811	10688.531648
549.857408	10550.419156
550.215949	10770.475604
550.574434	10623.435228
550.932864	10722.546834
551.291237	10778.390215
551.649555	10731.615869
552.007817	10747.195555
552.366022	10707.022600
552.724173	10694.974243
553.082267	10680.284320
553.440305	10825.935858
553.798288	10626.260795
554.156215	10775.141192
554.514086	10755.616803
554.871902	10597.430436
555.229661	10638.253700
555.587365	10613.995668
555.945014	10509.545481
556.302606	10635.581889
556.660143	10533.322083
557.017625	10684.821359
557.375050	10585.215721
557.732421	10715.423683
558.089735	10629.247679
558.446994	10626.903542
558.804197	10671.777373
559.161345	10669.103041
559.518437	10519.716009
559.875474	10610.527354
560.232455	10635.750767
560.589381	10583.905021
560.946251	10585.641698
561.303065	10683.397233
561.659825	10630.016455
562.016528	10557.973325
562.373177	10440.799266
562.729770	10554.683972
563.086307	10463.867586
563.442789	10564.015148
563.799216	10441.704153
564.155587	10491.523356
564.511904	10442.815727
564.868164	10432.299880
565.224370	10449.696902
565.580520	10370.530622
565.936615	10378.339370
566.292654	10248.295244
566.648638	10376.096056
567.004567	10331.456639
567.360441	10319.834259
567.716260	10227.145083
568.072023	10326.838942
568.427732	10278.005285
568.783385	10183.496253
569.138982	10256.351008
569.494525	10268.351475
569.850013	10146.988217
570.205445	10230.615918
570.560823	10125.538107
570.916145	10042.364110
571.271412	10114.510583
571.626625	10056.186954
571.981782	10038.313543
572.336884	10014.368062
572.691931	10008.729531
573.046923	9961.365370
573.401860	9918.117312
573.756743	9852.279842
574.111570	9894.728878
574.466342	9878.266990
574.821059	9909.754037
575.175722	9798.500813
575.530330	9813.730139
575.884882	9800.320670
576.239380	9730.719979
576.593823	9709.773985
576.948211	9728.148991
577.302544	9601.532850
577.656823	9624.606211
578.011047	9621.026992
578.365216	9599.050082
578.719330	9517.587556
579.073389	9534.775370
579.427394	9481.230755
579.781344	9452.871744
580.135239	9403.365092
580.489080	9408.965814
580.842866	9312.271442
581.196597	9321.441301
581.550273	9362.892189
581.903895	9327.094955
582.257463	9388.554182
582.610975	9270.707129
582.964434	9294.090521
583.317837	9218.672339
583.671186	9206.024084
584.024481	9198.616108
584.377721	9117.130898
584.730906	9092.278009
585.084037	9122.403944
585.437113	9059.495386
585.790135	9079.831400
586.143103	8982.753901
586.496016	8954.198285
586.848874	9016.277574
587.201679	9003.846088
587.554428	8893.338955
587.907124	8931.651724
588.259765	8913.783354
588.612352	8909.818487
588.964884	8780.706975
589.317362	8800.884193
589.669786	8801.151374
590.022155	8847.547634
590.374470	8866.116724
590.726731	8799.475191
591.078937	8654.859610
591.431090	8763.017566
591.783188	8635.471333
592.135232	8630.321794
592.487222	8625.492369
592.839157	8682.701903
593.191038	8611.621634
593.542866	8564.895179
593.894639	8460.508006
594.246358	8511.542127
594.598022	8524.873458
594.949633	8426.213037
595.301190	8398.852174
595.652692	8432.902648
596.004141	8542.777116
596.355535	8318.297056
596.706876	8297.635887
597.058162	8237.424346
597.409395	8309.545613
597.760573	8371.123307
598.111698	8283.906305
598.462768	8267.056248
598.813785	8233.025939
599.164748	8206.063328
599.515657	8194.763581
599.866511	8100.829241
600.217312	8227.694919
600.568060	8088.163342
600.918753	8185.928959
601.269392	8158.641193
601.619978	8076.351918
601.970510	8136.389540
602.320988	8132.112121
602.671412	8191.829630
603.021783	8124.928477
603.372100	8099.465609
603.722363	8095.304136
604.072572	8077.705468
604.422728	8083.976664
604.772830	8013.488730
605.122878	8026.066409
605.472872	8020.251438
605.822813	8044.207001
606.172701	7997.848550
606.522534	8068.447389
606.872314	8070.541989
607.222041	8038.011423
607.571714	8092.904547
607.921333	8052.461890
608.270899	8060.875576
608.620411	8147.003690
608.969870	8049.296046
609.319276	8041.860344
609.668627	8060.285761
610.017926	8094.532840
610.367171	8140.389696
610.716362	8119.360522
611.065500	8114.836087
611.414585	8137.075137
611.763616	8122.743137
612.112594	8106.787885
612.461518	8122.899412
612.810389	8181.003752
613.159207	8124.666337
613.507971	8074.625323
613.856682	8194.882048
614.205340	8141.067731
614.553945	8227.052172
614.902496	8123.491748
615.250994	8175.866816
615.599439	8154.915781
615.947830	8168.758789
616.296169	8143.658884
616.644454	8156.481059
616.992686	8151.071901
617.340864	8208.485602
617.688990	8113.447249
618.037063	8205.133235
618.385082	8149.451170
618.733048	8239.324861
619.080961	8176.053339
619.428821	8194.415742
619.776628	8199.318264
620.124382	8148.415213
620.472083	8135.681258
620.819731	8160.017428
621.167326	8051.625059
621.514868	8065.563849
621.862357	7951.439688
622.209793	7971.246381
622.557176	7901.965804
622.904506	7877.029737
623.251783	7803.990979
623.599007	7765.663086
623.946179	7768.130731
624.293297	7726.765543
624.640363	7641.963253
624.987376	7627.908516
625.334336	7576.418171
625.681243	7522.137547
626.028097	7515.954572
626.374899	7489.405335
626.721647	7478.932338
627.068343	7416.422030
627.414987	7392.700881
627.761577	7338.556368
628.108115	7372.868982
628.454600	7271.143538
628.801032	7323.420303
629.147412	7282.092924
629.493739	7273.568333
629.840014	7212.270423
630.186236	7263.831344
630.532405	7148.167111
630.878521	7197.905655
631.224585	7154.602143
631.570597	7082.201092
631.916556	7110.446677
632.262462	7110.749146
632.608316	7071.581901
632.954117	7047.704476
633.299866	7040.745163
633.645562	7027.464243
633.991206	6950.190917
634.336797	6894.299644
634.682336	6848.059660
635.027823	6814.162942
635.373257	6811.808723
635.718639	6736.945068
636.063968	6750.730103
636.409245	6650.050699
636.754470	6643.408979
637.099642	6605.398679
637.444762	6547.795934
637.789829	6555.518982
638.134845	6504.981415
638.479808	6481.182127
638.824719	6486.525751
639.169577	6418.505462
639.514383	6441.082269
639.859137	6363.917327
640.203839	6375.040633
640.548489	6361.734508
640.893086	6341.330437
641.237632	6309.929090
641.582125	6332.180743
641.926566	6299.783768
642.270955	6308.273071
642.615292	6309.530839
642.959576	6327.094219
643.303809	6316.759854
643.647990	6318.002498
643.992118	6311.562424
644.336195	6260.621564
644.680219	6281.660820
645.024192	6270.555158
645.368112	6363.834148
645.711981	6393.299692
646.055797	6461.902235
646.399562	6424.567449
646.743274	6545.615635
647.086935	6600.692762
647.430544	6592.712615
647.774101	6615.980061
648.117606	6624.928109
648.461059	6614.334124
648.804460	6573.745274
649.147810	6484.045503
649.491108	6453.546522
649.834354	6429.021309
650.177548	6353.966090
650.520690	6260.737511
650.863781	6243.532053
651.206820	6261.413026
651.549807	6184.986613
651.892742	6125.072499
652.235626	6134.312934
652.578458	6121.863805
652.921238	6025.000554
653.263967	6063.492284
653.606644	6004.110013
653.949269	6004.425085
654.291843	5951.755109
654.634365	5999.469631
654.976836	5952.702846
655.319255	5953.587569
655.661622	5926.342653
656.003938	5924.031284
656.346203	5888.027363
656.688416	5919.768988
657.030577	5870.297625
657.372687	5839.412996
657.714746	5830.222972
658.056753	5870.963057
658.398708	5811.346372
658.740612	5800.943951
659.082465	5846.223595
659.424266	5840.315363
659.766016	5838.389642
660.107715	5817.534388
660.449362	5826.807591
660.790958	5825.252395
661.132503	5812.417617
661.473996	5848.431620
661.815438	5837.756977
662.156829	5834.069373
662.498168	5826.616027
662.839456	5800.722140
663.180693	5838.356874
663.521879	5837.845197
663.863013	5822.326005
664.204097	5848.076219
664.545129	5884.433020
664.886110	5885.423607
665.227040	5916.903092
665.567918	5878.237442
665.908746	5907.892030
666.249522	5917.175315
666.590248	5894.230503
666.930922	5926.443476
667.271545	5936.634168
667.612118	5944.110200
667.952639	5917.117341
668.293109	5935.852790
668.633528	5895.533641
668.973896	5893.590276
669.314213	5890.116921
669.654480	5870.726123
669.994695	5869.770824
670.334859	5855.287589
670.674973	5849.414645
671.015035	5849.757444
671.355047	5849.712073
671.695008	5839.223953
672.034918	5808.908974
672.374777	5821.491694
672.714585	5808.145239
673.054342	5807.232790
673.394049	5801.289270
673.733705	5835.559034
674.073310	5819.565973
674.412864	5781.543070
674.752368	5768.965392
675.091820	5775.576865
675.431223	5711.042534
675.770574	5715.256938
676.109875	5659.920193
676.449125	5669.392521
676.788324	5635.291636
677.127473	5580.980765
677.466571	5575.238890
677.805619	5565.932920
678.144616	5547.157143
678.483562	5529.858423
678.822458	5493.254605
679.161303	5489.667824
679.500098	5480.263552
679.838842	5465.775276
680.177535	5471.920442
680.516179	5486.577597
680.854771	5496.604452
681.193314	5576.519343
681.531805	5686.424059
681.870247	5836.103478
682.208638	5931.219969
682.546978	5944.730262
682.885268	5924.414412
683.223508	5840.363253
683.561697	5785.512979
683.899836	5752.390078
684.237925	5711.362647
684.575963	5678.224622
684.913951	5632.617303
685.251889	5695.034350
685.589776	5662.634854
685.927614	5637.537470
686.265401	5711.289550
686.603137	5692.042425
686.940824	5763.752838
687.278460	5787.995747
687.616046	5801.649713
687.953582	5864.407037
688.291068	5849.157546
688.628504	5911.791362
688.965889	5871.447008
689.303224	5815.225540
689.640510	5768.597387
689.977745	5700.196491
690.314930	5598.579433
690.652065	5544.054313
690.989150	5446.384478
691.326185	5376.960227
691.663170	5320.506866
692.000105	5239.445112
692.336990	5167.616232
692.673825	5146.105628
693.010610	5074.085184
693.347345	5007.489021
693.684030	4991.551413
694.020665	4951.811997
694.357251	4863.271692
694.693786	4871.075398
695.030272	4842.650852
695.366707	4808.350841
695.703093	4772.135192
696.039429	4791.946926
696.375716	4774.953197
696.711952	4753.697172
697.048139	4740.701077
697.384276	4716.279207
697.720363	4732.607504
698.056400	4741.290892
698.392388	4684.320812
698.728326	4670.129964
699.064214	4648.188342
699.400053	4642.620388
699.735842	4612.635605
700.071581	4587.145010
700.407270	4555.630237
700.742910	4543.506262
701.078501	4486.271522
701.414042	4487.100792
701.749533	4456.299342
702.084974	4389.093199
702.420366	4451.681645
702.755709	4390.978591
703.091002	4331.906350
703.426246	4381.584400
703.761440	4342.359182
704.096584	4302.486176
704.431679	4319.847910
704.766725	4306.128410
705.101721	4293.906132
705.436668	4324.881502
705.771565	4271.568779
706.106413	4300.847801
706.441212	4330.782173
706.775961	4340.040252
707.110661	4323.011234
707.445311	4349.593238
707.779913	4372.021332
708.114465	4386.358373
708.448967	4408.640273
708.783421	4465.459118
709.117825	4508.671889
709.452180	4516.727653
709.786485	4558.206267
710.120742	4645.456037
710.454949	4623.927789
710.789107	4692.331206
711.123216	4767.169655
711.457275	4759.020630
711.791286	4830.642823
712.125247	4846.081357
712.459159	4749.785236
712.793023	4823.151669
713.126837	4786.804949
713.460602	4777.486377
713.794318	4692.721895
714.127985	4709.277044
714.461602	4625.724961
714.795171	4595.120116
715.128691	4526.018499
715.462162	4473.661075
715.795584	4420.910442
716.128957	4405.020725
716.462281	4350.737580
716.795556	4327.114733
717.128782	4287.632416
717.461960	4221.353846
717.795088	4230.173345
718.128167	4186.577446
718.461198	4132.253972
718.794180	4127.328765
719.127113	4109.818317
719.459997	4084.042897
719.792833	4042.828944
720.125619	4033.991802
720.458357	3999.028879
720.791046	4004.858973
721.123686	3977.742607
721.456278	3937.615022
721.788821	3953.789564
722.121315	3927.179834
722.453761	3901.744692
722.786158	3914.261877
723.118506	3939.079477
723.450805	3885.610479
723.783056	3908.462030
724.115259	3927.346192
724.447412	3932.195782
724.779518	3924.107251
725.111574	3924.931479
725.443582	3960.098568
725.775542	3945.713636
726.107453	3995.679032
726.439315	3994.280112
726.771129	4007.966845
727.102895	4045.949418
727.434612	4092.673353
727.766281	4102.314560
728.097901	4102.823716
728.429473	4107.885035
728.760996	4115.242599
729.092471	4113.286631
729.423897	4095.196450
729.755276	4100.860187
730.086606	4101.800362
730.417887	4138.457112
730.749120	4203.619067
731.080305	4263.265999
731.411442	4290.422695
731.742530	4260.223663
732.073570	4263.069394
732.404562	4324.185823
732.735506	4311.225016
733.066401	4274.318729
733.397249	4211.072413
733.728048	4133.340341
734.058798	4048.802712
734.389501	3980.237978
734.720156	3920.409564
735.050762	3877.627812
735.381320	3870.749158
735.711831	3818.802588
736.042293	3791.761839
736.372707	3810.661124
736.703073	3784.953760
737.033391	3774.412708
737.363661	3789.478196
737.693883	3815.737566
738.024056	3826.291222
738.354182	3819.049604
738.684260	3882.953791
739.014290	3904.940784
739.344272	3899.473652
739.674207	3937.017646
740.004093	3945.695992
740.333931	3940.556536
740.663722	3943.734983
740.993464	3941.196762
741.323159	3915.736415
741.652806	3886.825397
741.982405	3858.007641
742.311956	3830.109896
742.641460	3820.655212
742.970915	3794.352992
743.300323	3754.787496
743.629683	3719.547310
743.958996	3709.646484
744.288260	3683.901311
744.617477	3650.601969
744.946647	3638.087305
745.275768	3615.918831
745.604842	3612.682410
745.933869	3564.204154
746.262847	3555.301476
746.591778	3597.657251
746.920662	3563.236252
747.249498	3532.112169
747.578286	3576.645722
747.907027	3595.580296
748.235720	3593.105089
748.564365	3615.129890
748.892963	3620.697845
749.221514	3602.136316
749.550017	3580.386258
749.878473	3578.674786
750.206881	3544.934343
750.535242	3541.912172
750.863555	3543.560629
751.191821	3539.207593
751.520039	3521.873585
751.848210	3500.937673
752.176334	3532.659134
752.504411	3540.167933
752.832440	3498.943897
753.160421	3482.897904
753.488356	3491.107423
753.816243	3506.044362
754.144082	3459.784214
754.471875	3448.965898
754.799620	3466.841829
755.127318	3458.917135
755.454969	3457.666929
755.782572	3462.481231
756.110129	3439.400308
756.437638	3432.191458
756.765100	3442.291410
757.092515	3449.676700
757.419882	3463.060964
757.747203	3434.321346
758.074477	3431.863783
758.401703	3448.199642
758.728882	3471.666213
759.056014	3479.424549
759.383099	3481.178871
759.710138	3478.113849
760.037129	3495.412569
760.364073	3524.870551
760.690970	3507.463447
761.017820	3487.266064
761.344623	3504.746265
761.671379	3553.516908
761.998088	3603.656224
762.324751	3728.129874
762.651366	3973.548367
762.977935	4446.680820
763.304456	4880.575452
763.630931	4969.899657
763.957359	4612.418835
764.283740	4276.367958
764.610074	4085.817384
764.936362	3888.438567
765.262602	3730.627766
765.588796	3626.283443
765.914943	3533.022097
766.241044	3450.969756
766.567097	3419.263419
766.893104	3373.318343
767.219064	3342.932788
767.544978	3315.274498
767.870845	3260.976230
768.196665	3243.236409
768.522438	3251.715630
768.848165	3247.690269
769.173846	3209.611913
769.499479	3193.923842
769.825066	3175.984896
770.150607	3159.631393
770.476101	3178.182839
770.801548	3169.023063
771.126949	3125.737195
771.452303	3109.287910
771.777611	3116.809312
772.102872	3121.648820
772.428087	3094.557659
772.753256	3084.397213
773.078378	3077.624423
773.403453	3043.566388
773.728482	3035.198072
774.053465	3057.187585
774.378401	3043.289124
774.703291	3013.868950
775.028135	3012.018847
775.352932	3006.294617
775.677683	2992.917915
776.002388	2993.742144
776.327046	2992.464211
776.651658	2982.558344
776.976224	2973.398567
777.300743	2973.491829
777.625216	2963.233081
777.949643	2957.034982
778.274024	2959.593368
778.598359	2948.522994
778.922647	2955.217646
779.246889	2952.548355
779.571086	2937.046807
779.895236	2931.957762
780.219339	2945.551233
780.543397	2954.146401
780.867409	2959.139664
781.191374	2950.415947
781.515294	2946.917386
781.839167	2949.110288
782.162995	2940.061417
782.486776	2949.374949
782.810511	2946.498970
783.134201	2932.895417
783.457844	2940.099226
783.781441	2930.579007
784.104993	2910.825245
784.428498	2911.258784
784.751958	2927.960127
785.075372	2919.654826
785.398739	2904.057496
785.722061	2918.893612
786.045337	2932.653441
786.368568	2917.398910
786.691752	2906.751993
787.014891	2955.951134
787.337983	2983.773262
787.661030	3012.654032
787.984031	3080.366811
788.306987	3126.679891
788.629897	3115.211266
788.952760	3101.436313
789.275579	3084.606421
789.598351	3028.057278
789.921078	2983.344764
790.243759	2974.973928
790.566395	2957.075311
790.888984	2931.062957
791.211529	2917.068714
791.534027	2909.854823
791.856480	2893.922256
792.178888	2881.515977
792.501249	2876.570605
792.823566	2872.764534
793.145836	2869.200438
793.468062	2863.423276
793.790241	2862.359592
794.112375	2870.632126
794.434464	2879.509598
794.756507	2884.606204
795.078505	2892.704818
795.400457	2906.517579
795.722364	2941.593928
796.044226	2965.854481
796.366042	2968.387660
796.687812	2958.282668
797.009538	2979.576501
797.331218	2962.335755
797.652852	2950.050463
797.974442	2932.514810
798.295986	2929.785025
798.617484	2923.929725
798.938938	2910.159813
799.260346	2893.982750
799.581709	2889.284395
799.903026	2882.647716
800.224299	2876.300903
800.545526	2867.357896
800.866708	2853.429188
801.187845	2842.636078
801.508936	2841.819411
801.829983	2851.180833
802.150984	2835.071826
802.471940	2821.879127
802.792851	2824.727379
803.113717	2825.337358
803.434538	2831.071671
803.755314	2824.011535
804.076045	2815.519711
804.396731	2817.185812
804.717372	2817.263950
805.037967	2811.383444
805.358518	2817.662202
805.679024	2828.079746
805.999485	2824.465239
806.319901	2829.110662
806.640272	2821.334682
806.960598	2824.223263
807.280879	2837.179029
807.601115	2843.334277
807.921306	2830.184428
808.241453	2827.074036
808.561554	2832.573935
808.881611	2835.190293
809.201623	2830.590241
809.521590	2827.399190
809.841513	2822.847028
810.161390	2827.724345
810.481223	2820.321410
810.801011	2810.266829
811.120755	2806.065027
811.440453	2809.190542
811.760107	2810.395378
812.079716	2811.257416
812.399281	2798.195786
812.718801	2794.898871
813.038276	2790.828140
813.357707	2793.575568
813.677093	2802.266518
813.996434	2794.457770
814.315731	2791.743109
814.634983	2787.934517
814.954191	2787.594239
815.273354	2800.353400
815.592473	2808.883032
815.911547	2811.295224
816.230577	2818.567089
816.549562	2828.876248
816.868502	2825.710404
817.187399	2834.446723
817.506250	2854.749970
817.825058	2847.074814
818.143821	2858.125023
818.462539	2873.457692
818.781213	2903.979358
819.099843	2937.606375
819.418429	2992.731392
819.736970	3053.568037
820.055466	3123.929942
820.373919	3230.479769
820.692327	3363.999770
821.010691	3532.170142
821.329011	3969.059219
821.647286	4856.556875
821.965517	6212.559204
822.283704	6935.589215
822.601847	6911.076604
822.919945	6290.213137
823.237999	5793.546058
823.556010	5223.552875
823.873976	4677.789998
824.191897	4279.561529
824.509775	3988.462621
824.827609	3724.404462
825.145398	3601.995164
825.463144	3591.318000
825.780845	3682.981300
826.098502	3789.402579
826.416116	4064.369795
826.733685	4373.924367
827.051210	4434.987864
827.368692	4320.493178
827.686129	4057.465934
828.003522	3738.905341
828.320872	3486.199860
828.638177	3296.115592
828.955439	3161.990653
829.272656	3078.090730
829.589830	3011.129083
829.906960	2965.458750
830.224046	2918.792789
830.541088	2886.481513
830.858086	2871.098432
831.175041	2852.884743
831.491952	2856.380784
831.808819	2869.180273
832.125642	2890.224570
832.442421	2934.851384
832.759157	3015.401461
833.075849	3191.113399
833.392497	3468.666727
833.709101	3670.078467
834.025662	3616.916979
834.342179	3461.858649
834.658653	3285.728295
834.975083	3138.803866
835.291469	3040.962632
835.607811	2958.910291
835.924110	2902.066240
836.240366	2851.732840
836.556578	2813.341933
836.872746	2791.596916
837.188871	2767.706887
837.504952	2752.717017
837.820990	2744.237796
838.136984	2730.540981
838.452935	2723.437995
838.768842	2720.315000
839.084706	2736.751682
839.400526	2815.877633
839.716303	2947.998714
840.032037	3024.977133
840.347727	3010.357787
840.663373	2952.107254
840.978977	2878.148486
841.294537	2806.967394
841.610054	2759.641041
841.925527	2737.946436
842.240957	2718.094372
842.556344	2693.937163
842.871687	2679.968125
843.186987	2671.861950
843.502244	2666.346928
843.817458	2660.113541
844.132629	2650.467293
844.447756	2639.679224
844.762840	2633.854171
845.077881	2636.404994
845.392879	2636.699902
845.707833	2632.165384
846.022745	2623.320680
846.337613	2626.431072
846.652438	2624.863273
846.967221	2625.314456
847.281960	2622.879579
847.596656	2623.431585
847.911309	2622.720782
848.225919	2620.250617
848.540485	2614.186109
848.855009	2616.149638
849.169490	2616.608383
849.483928	2617.026799
849.798323	2615.027982
850.112675	2614.584360
850.426984	2614.680142
850.741251	2612.933382
851.055474	2612.673763
851.369654	2617.321707
851.683792	2616.827673
851.997887	2612.822477
852.311938	2613.727364
852.625947	2615.174175
852.939914	2617.420009
853.253837	2618.546707
853.567718	2615.393465
853.881555	2611.370624
854.195350	2616.779782
854.509103	2612.643516
854.822812	2611.007661
855.136479	2612.121756
855.450103	2613.893722
855.763685	2618.125771
856.077224	2614.843979
856.390720	2610.831221
856.704173	2611.688217
857.017584	2617.601491
857.330953	2619.305401
857.644278	2623.166924
857.957561	2620.240535
858.270802	2615.693414
858.584000	2616.774741
858.897155	2622.042747
859.210268	2623.819754
859.523339	2614.826335
859.836367	2613.021602
860.149352	2610.430449
860.462295	2614.133177
860.775195	2607.562033
861.088054	2613.240892
861.400869	2611.461365
861.713642	2606.054728
862.026373	2606.805860
862.339062	2609.638988
862.651708	2617.533435
862.964312	2614.765842
863.276873	2612.565378
863.589392	2618.239197
863.901869	2622.367902
864.214303	2627.908130
864.526696	2629.148253
864.839045	2629.735548
865.151353	2633.047586
865.463619	2632.641773
865.775842	2631.036166
866.088023	2635.197638
866.400162	2635.316105
866.712258	2633.919706
867.024313	2632.273769
867.336325	2627.850156
867.648296	2629.496093
867.960224	2635.679068
868.272110	2632.924078
868.583954	2629.884262
868.895755	2630.567338
869.207515	2632.825775
869.519233	2638.313071
869.830909	2635.958852
870.142542	2630.975672
870.454134	2635.525313
870.765684	2638.519758
871.077191	2638.497073
871.388657	2644.942188
871.700081	2641.274749
872.011463	2643.054276
872.322803	2643.218114
872.634101	2647.487971
872.945357	2654.598519
873.256571	2659.185969
873.567744	2654.641368
873.878874	2653.824702
874.189963	2655.402583
874.501010	2660.975578
874.812015	2664.942966
875.122979	2666.067144
875.433900	2657.343427
875.744780	2653.612973
876.055618	2665.371464
876.366415	2666.961948
876.677169	2664.146464
876.987882	2659.969868
877.298554	2654.580875
877.609183	2671.448575
877.919771	2677.059380
878.230317	2683.617921
878.540822	2693.818696
878.851285	2705.975438
879.161707	2730.253635
879.472087	2766.239912
879.782425	2814.335040
880.092722	2924.779159
880.402977	3111.546347
880.713191	3362.689070
881.023363	3643.163747
881.333494	3831.849094
881.643583	4001.332686
881.953631	4000.072398
882.263637	3824.554544
882.573602	3611.132255
882.883526	3484.858913
883.193408	3371.740462
883.503248	3276.016512
883.813048	3163.034172
884.122806	3049.812377
884.432522	2968.405304
884.742197	2904.617064
885.051831	2870.972403
885.361424	2832.828513
885.670975	2799.584624
885.980485	2768.274017
886.289954	2750.811460
886.599382	2739.781416
886.908768	2725.845146
887.218113	2707.969214
887.527417	2695.749457
887.836680	2687.182017
888.145901	2683.126408
888.455082	2672.487053
888.764221	2662.954231
889.073319	2656.703200
889.382376	2656.138591
889.691392	2657.517347
890.000366	2657.537511
890.309300	2655.760505
890.618193	2654.835453
890.927044	2661.451967
891.235855	2661.451967
891.544625	2657.255207
891.853353	2658.502892
892.162041	2668.323060
892.470687	2688.220494
892.779293	2698.615353
893.087858	2707.757486
893.396381	2728.020404
893.704864	2767.994233
894.013306	2836.271621
894.321707	2928.166814
894.630068	2977.585246
894.938387	2994.828512
895.246665	2988.479179
895.554903	2944.628702
895.863100	2902.582959
896.171256	2847.278980
896.479371	2787.952161
896.787446	2749.422622
897.095480	2731.902092
897.403473	2726.397152
897.711425	2710.943495
898.019336	2693.180990
898.327207	2678.057528
898.635038	2678.783454
898.942827	2676.489729
899.250576	2668.471774
899.558284	2657.096410
899.865952	2651.634320
900.173579	2648.113074
900.481165	2646.512508
900.788711	2641.463792
901.096216	2632.926598
901.403681	2627.338479
901.711105	2630.022894
902.018489	2628.296298
902.325832	2631.767133
902.633135	2632.982051
902.940397	2647.757673
903.247619	2684.295956
903.554800	2750.745925
903.861941	2874.153372
904.169041	2996.338338
904.476101	3052.554765
904.783121	3048.294990
905.090100	2992.081083
905.397039	2921.189858
905.703938	2849.113960
906.010796	2790.482821
906.317614	2740.260325
906.624391	2707.480222
906.931129	2678.165913
907.237826	2654.628766
907.544483	2638.088740
907.851099	2627.144395
908.157675	2614.420522
908.464211	2611.068155
908.770707	2599.614654
909.077163	2595.158274
909.383578	2591.198447
909.689954	2593.504775
909.996289	2588.713158
910.302584	2587.112592
910.608839	2584.773497
910.915054	2585.421285
911.221229	2591.263982
911.527363	2591.011925
911.833458	2588.055288
912.139513	2592.400762
912.445527	2592.549477
912.751502	2598.752616
913.057436	2604.262597
913.363331	2610.937085
913.669186	2620.023765
913.975000	2632.286372
914.280775	2647.150214
914.586510	2668.136537
914.892205	2700.536033
915.197859	2765.571959
915.503475	2846.321161
915.809050	2910.777354
916.114585	2923.165990
916.420081	2936.895572
916.725536	2948.250771
917.030952	2925.006011
917.336328	2876.109339
917.641665	2829.337514
917.946961	2779.427570
918.252218	2746.725605
918.557435	2722.638972
918.862612	2701.163657
919.167750	2685.639423
919.472848	2671.176353
919.777906	2651.929228
920.082925	2641.965387
920.387904	2633.208903
920.692843	2626.073150
920.997743	2623.650875
921.302603	2616.973867
921.607423	2608.925665
921.912204	2602.430138
922.216946	2601.996599
922.521647	2602.762854
922.826310	2596.610126
923.130932	2592.751123
923.435516	2585.635534
923.740059	2585.537232
924.044564	2584.750812
924.349028	2579.203022
924.653454	2573.322516
924.957840	2572.115159
925.262186	2570.209603
925.566493	2571.769840
925.870761	2566.509396
926.174989	2568.525858
926.479178	2564.911351
926.783328	2564.225754
927.087438	2564.210630
927.391509	2561.163253
927.695541	2563.391443
927.999533	2558.821637
928.303486	2561.049827
928.607400	2555.328117
928.911275	2554.781152
929.215110	2559.507234
929.518906	2557.521019
929.822663	2558.390618
930.126381	2556.442212
930.430060	2557.737789
930.733699	2558.531770
931.037299	2560.281051
931.340861	2559.595454
931.644383	2561.246432
931.947866	2558.582182
932.251309	2559.373643
932.554714	2556.505227
932.858080	2558.199054
933.161407	2557.556307
933.464694	2558.924980
933.767943	2551.600184
934.071153	2556.714434
934.374323	2555.560010
934.677455	2555.486913
934.980548	2554.087993
935.283602	2555.474311
935.586617	2555.454146
935.889593	2555.688560
936.192530	2556.853066
936.495428	2554.045143
936.798287	2557.145453
937.101108	2561.133006
937.403890	2561.072512
937.706632	2562.400856
938.009336	2567.870508
938.312002	2572.800756
938.614628	2574.008113
938.917216	2576.483319
939.219765	2577.872157
939.522275	2579.593711
939.824747	2577.529359
940.127179	2569.803790
940.429573	2570.091136
940.731929	2570.423852
941.034246	2565.042421
941.336524	2567.817576
941.638763	2566.905127
941.940964	2567.968810
942.243126	2565.148285
942.545250	2563.192317
942.847335	2562.743654
943.149381	2562.602502
943.451389	2562.423541
943.753359	2560.538150
944.055290	2559.051009
944.357182	2558.090669
944.659036	2556.628735
944.960851	2558.735937
945.262628	2558.912377
945.564367	2558.856925
945.866067	2556.601008
946.167729	2558.289795
946.469352	2558.448591
946.770937	2557.742830
947.072484	2558.138560
947.373992	2560.500341
947.675462	2558.206616
947.976893	2559.711400
948.278286	2557.573951
948.579641	2555.822150
948.880958	2557.883982
949.182236	2555.363405
949.483476	2553.946841
949.784678	2554.796275
950.085841	2555.151677
950.386967	2554.662685
950.688054	2556.568241
950.989103	2554.839125
951.290114	2557.072356
951.591087	2558.322563
951.892021	2558.088149
952.192917	2561.748027
952.493776	2559.108982
952.794596	2561.589230
953.095378	2563.038562
953.396122	2563.570404
953.696828	2559.424055
953.997496	2559.565207
954.298126	2556.439692
954.598718	2559.212326
954.899272	2557.299208
955.199788	2553.914073
955.500266	2553.886347
955.800706	2551.123795
956.101108	2546.690100
956.401472	2548.164637
956.701798	2545.893598
957.002087	2546.392672
957.302337	2547.055584
957.602550	2547.582384
957.902724	2544.708927
958.202861	2544.744215
958.502960	2545.306303
958.803022	2546.032229
959.103045	2543.680531
959.403031	2544.746735
959.702979	2543.836807
960.002889	2542.274049
960.302762	2543.753628
960.602596	2543.549461
960.902393	2543.662887
961.202153	2543.433515
961.501875	2540.103833
961.801559	2541.810263
962.101205	2541.999306
962.400814	2540.741538
962.700385	2542.707588
962.999918	2542.127856
963.299414	2541.036446
963.598873	2539.466127
963.898293	2542.848741
964.197677	2541.805222
964.497022	2539.022505
964.796331	2541.137269
965.095601	2542.276570
965.394835	2540.557536
965.694030	2541.533000
965.993189	2543.025181
966.292309	2539.146013
966.591393	2540.822197
966.890439	2544.219935
967.189447	2542.072403
967.488419	2538.778009
967.787353	2540.769265
968.086249	2540.602907
968.385108	2541.167516
968.683930	2541.182639
968.982714	2540.623071
969.281462	2541.049049
969.580172	2539.725746
969.878844	2538.828421
970.177480	2538.205838
970.476078	2539.980324
970.774639	2542.513504
971.073162	2542.284132
971.371649	2539.846734
971.670098	2536.842206
971.968510	2539.433359
972.266885	2534.765251
972.565223	2543.965356
972.863524	2539.264480
973.161788	2543.327650
973.460014	2542.299255
973.758204	2539.670293
974.056356	2539.443441
974.354471	2541.006199
974.652550	2542.039636
974.950591	2544.335881
975.248595	2542.238761
975.546563	2541.391847
975.844493	2541.565767
976.142386	2542.364790
976.440243	2541.543082
976.738062	2542.218597
977.035845	2539.927392
977.333590	2542.284132
977.631299	2539.476209
977.928971	2539.882022
978.226606	2537.389171
978.524204	2537.779861
978.821765	2539.667773
979.119290	2541.099460
979.416777	2538.974614
979.714228	2540.522248
980.011642	2538.162988
980.309020	2541.515356
980.606360	2539.720705
980.903664	2540.733977
981.200931	2542.707588
981.498162	2543.476364
981.795356	2546.672456
982.092513	2543.052908
982.389633	2547.211859
982.686717	2553.495658
982.983764	2552.986501
983.280775	2555.030689
983.577749	2554.909701
983.874686	2552.225287
984.171587	2550.889381
984.468451	2547.531973
984.765279	2547.254709
985.062070	2543.194060
985.358824	2543.909904
985.655543	2542.173226
985.952224	2540.549975
986.248869	2539.498894
986.545478	2538.329346
986.842050	2537.439583
987.138586	2535.604603
987.435086	2535.297092
987.731549	2534.906403
988.027975	2538.573842
988.324366	2536.365817
988.620719	2539.070396
988.917037	2532.912627
989.213318	2538.082330
989.509563	2535.309695
989.805772	2538.578883
990.101944	2538.888914
990.398080	2536.935467
990.694180	2533.978831
990.990244	2537.472350
991.286271	2535.917154
991.582262	2536.726259
991.878217	2537.265663
992.174136	2536.748945
992.470019	2537.573173
992.765865	2536.466640
993.061676	2535.284489
993.357450	2538.231044
993.653188	2539.665252
993.948890	2537.845396
994.244556	2537.618544
994.540186	2537.031249
994.835780	2539.486291
995.131337	2540.776827
995.426859	2538.190715
995.722345	2539.317413
996.017795	2544.522404
996.313208	2540.917979
996.608586	2538.649460
996.903928	2542.140459
997.199234	2538.042001
997.494504	2541.961498
997.789738	2541.149872
998.084936	2539.198945
998.380099	2536.179294
998.675225	2539.481250
998.970316	2538.170550
999.265371	2536.186856
999.560390	2535.662576
999.855373	2537.800025
1000.150320	2539.559388
1000.445232	2535.745755
1000.740108	2536.801877
1001.034948	2537.895807
1001.329752	2535.561753
1001.624521	2536.817000
1001.919254	2534.152750
1002.213951	2533.358769
1002.508613	2534.006557
1002.803239	2537.222813
1003.097829	2529.703932
1003.392384	2538.006713
1003.686903	2531.700229
1003.981386	2535.574356
1004.275834	2533.157123
1004.570246	2535.682741
1004.864623	2538.145344
1005.158964	2535.135775
1005.453270	2538.160468
1005.747540	2535.899510
1006.041775	2533.000847
1006.335974	2535.103008
1006.630138	2535.881866
1006.924266	2534.538399
1007.218359	2532.600075
1007.512416	2536.406146
1007.806438	2535.995292
1008.100425	2533.048738
1008.394376	2536.277597
1008.688292	2534.530837
1008.982172	2534.523275
1009.276017	2536.496887
1009.569827	2535.720549
1009.863602	2536.811959
1010.157341	2533.449509
1010.451045	2534.563604
1010.744714	2537.268183
1011.038347	2536.476722
1011.331945	2535.367668
1011.625508	2537.305992
1011.919036	2534.361958
1012.212528	2534.135106
1012.505986	2533.363810
1012.799408	2534.059489
1013.092795	2532.945394
1013.386147	2536.088553
1013.679464	2531.816176
1013.972745	2535.246681
1014.265992	2533.875487
1014.559204	2534.833306
1014.852380	2535.581918
1015.145521	2534.926567
1015.438628	2534.457740
1015.731699	2533.449509
1016.024736	2535.382792
1016.317737	2535.503780
1016.610703	2534.281300
1016.903635	2531.876669
1017.196531	2530.137471
1017.489393	2532.975641
1017.782219	2531.594365
1018.075011	2532.481608
1018.367768	2530.702081
1018.660490	2535.869263
1018.953177	2535.869263
1019.245829	2535.869263
