Dividing Wavelength (nm)	Counts (n)	Blue Motor Position (mm): 46.900000	Red Motor Position (mm): 0.000000	
326.493990	2132.521503
326.888308	2132.521503
327.282561	2132.521503
327.676750	2099.615371
328.070874	2095.985740
328.464933	2100.056472
328.858929	2106.075610
329.252859	2112.583739
329.646726	2126.532612
330.040528	2140.511732
330.434265	2155.594864
330.827938	2172.812925
331.221547	2192.249094
331.615091	2210.545962
332.008571	2229.808210
332.401986	2249.700603
332.795338	2264.516555
333.188625	2289.747530
333.581847	2308.412402
333.975006	2325.378405
334.368100	2343.392968
334.761129	2361.271420
335.154095	2375.709285
335.546996	2399.758109
335.939833	2426.942532
336.332606	2439.976435
336.725315	2451.979422
337.117960	2462.389405
337.510540	2468.257308
337.903056	2480.366159
338.295508	2488.248003
338.687896	2494.846874
339.080220	2505.050169
339.472480	2513.612569
339.864676	2518.197498
340.256807	2519.903929
340.648875	2524.821575
341.040879	2525.832326
341.432818	2527.896678
341.824694	2532.227030
342.216506	2530.858356
342.608253	2528.153777
342.999937	2529.688809
343.391557	2528.635208
343.783113	2528.773839
344.174605	2529.691329
344.566033	2527.417769
344.957397	2524.541791
345.348697	2521.247397
345.739934	2521.875020
346.131106	2518.293280
346.522215	2518.575585
346.913260	2516.052487
347.304241	2513.179030
347.695159	2510.038391
348.086012	2511.777589
348.476802	2508.906652
348.867528	2509.383041
349.258191	2508.304234
349.648789	2505.430776
350.039324	2505.501353
350.429796	2504.934223
350.820203	2504.939264
351.210548	2499.514982
351.600828	2501.342401
351.991045	2500.654283
352.381198	2499.368789
352.771288	2499.653614
353.161314	2497.964828
353.551276	2497.642194
353.941175	2497.997595
354.331010	2498.358037
354.720782	2497.042296
355.110490	2498.496669
355.500135	2495.305619
355.889717	2496.023983
356.279235	2499.814931
356.668689	2497.488438
357.058080	2499.900631
357.447408	2496.707060
357.836672	2496.949035
358.225873	2498.554643
358.615010	2498.713439
359.004084	2501.750734
359.393095	2501.075219
359.782043	2503.631084
360.170927	2502.522031
360.559748	2506.749038
360.948505	2505.766013
361.337199	2505.650067
361.725830	2505.929851
362.114398	2509.383041
362.502903	2506.943123
362.891344	2508.130314
363.279722	2507.984121
363.668037	2510.378669
364.056289	2508.465551
364.444478	2508.977228
364.832603	2512.634585
365.220665	2509.067969
365.608665	2511.588546
365.996601	2512.745491
366.384474	2514.537621
366.772284	2515.117353
367.160031	2515.077024
367.547715	2515.412261
367.935336	2513.710872
368.322893	2514.383866
368.710388	2516.659947
369.097820	2519.530884
369.485189	2515.250944
369.872495	2518.557941
370.259738	2518.452077
370.646918	2518.275636
371.034035	2521.496934
371.421090	2524.446009
371.808081	2526.331400
372.195010	2530.293747
372.581875	2532.965559
372.968678	2539.077958
373.355418	2543.662887
373.742096	2550.846531
374.128710	2557.306770
374.515262	2566.552246
374.901751	2578.237641
375.288177	2589.706266
375.674540	2599.690271
376.060841	2610.649739
376.447079	2625.700104
376.833254	2643.492857
377.219367	2650.822694
377.605417	2678.841427
377.991404	2690.015145
378.377329	2707.560881
378.763191	2723.700135
379.148991	2754.768766
379.534727	2777.983280
379.920402	2801.606127
380.306013	2818.302428
380.691563	2860.290198
381.077049	2885.259033
381.462474	2908.899524
381.847835	2945.026953
382.233134	2971.775316
382.618371	2982.361739
383.003545	3046.956564
383.388657	3063.713359
383.773706	3099.049327
384.158693	3124.045888
384.543618	3156.687359
384.928480	3197.866025
385.313280	3247.344950
385.698017	3256.908018
386.082692	3312.055721
386.467305	3327.088442
386.851856	3365.131509
387.236344	3394.352558
387.620770	3429.396138
388.005133	3465.059781
388.389435	3498.223012
388.773674	3518.543903
389.157851	3567.871593
389.541965	3587.068307
389.926018	3554.499933
390.310008	3635.695277
390.693936	3658.849297
391.077802	3703.929815
391.461606	3698.092159
391.845348	3756.383021
392.229027	3762.611367
392.612645	3777.351700
392.996200	3856.764997
393.379694	3901.621184
393.763125	3966.715083
394.146494	3933.478756
394.529801	3997.461080
394.913047	4044.152247
395.296230	4016.403216
395.679351	4070.278027
396.062410	4091.488682
396.445408	4076.213986
396.828343	4111.164305
397.211217	4132.717758
397.594028	4052.505439
397.976778	4119.479688
398.359466	4150.359276
398.742092	4177.528575
399.124656	4100.398921
399.507158	4177.316847
399.889598	4203.351886
400.271977	4270.379067
400.654294	4237.636773
401.036549	4248.520624
401.418742	4218.631623
401.800874	4321.589628
402.182944	4337.265096
402.564952	4401.030651
402.946898	4388.876429
403.328783	4386.418867
403.710606	4300.081546
404.092367	4495.688397
404.474067	4458.739260
404.855705	4467.372236
405.237282	4390.227459
405.618797	4504.722145
406.000250	4538.621384
406.381642	4618.379999
406.762972	4582.628136
407.144240	4589.670628
407.525447	4585.302468
407.906593	4648.611799
408.287677	4690.564281
408.668700	4624.741936
409.049661	4671.544008
409.430560	4712.969690
409.811399	4645.322446
410.192176	4800.995797
410.572891	4743.140995
410.953545	4839.910985
411.334138	4724.128284
411.714669	4791.306700
412.095139	4687.774003
412.475547	4827.187112
412.855894	4813.500380
413.236180	4819.484229
413.616405	4773.584523
413.996568	4857.431515
414.376670	4802.256086
414.756711	4756.696658
415.136691	4788.153458
415.516609	4869.767218
415.896466	4904.465480
416.276262	4937.880768
416.655997	4917.554836
417.035670	5099.563175
417.415283	5188.340415
417.794834	5132.870079
418.174324	5086.995579
418.553753	4994.906301
418.933121	5177.748951
419.312428	5250.482718
419.691674	5186.908727
420.070859	5309.244928
420.449983	5224.319130
420.829045	5337.782900
421.208047	5249.784519
421.586988	5317.237678
421.965867	5330.662270
422.344686	5462.359894
422.723444	5318.011495
423.102141	5133.774966
423.480777	5433.524494
423.859352	5204.129309
424.237866	5455.080468
424.616319	5452.517041
424.994712	5559.145007
425.373044	5436.899547
425.751314	5583.067802
426.129524	5383.632194
426.507673	5577.845167
426.885762	5660.136962
427.263789	5592.865285
427.641756	5476.424713
428.019662	5595.257312
428.397508	5605.054795
428.775292	5548.314088
429.153016	5653.349049
429.530679	5581.222740
429.908282	5659.748793
430.285824	5530.702817
430.663305	5812.435261
431.040726	5541.344693
431.418086	5539.159352
431.795385	5647.922247
432.172624	5659.181664
432.549802	5652.693699
432.926920	5667.872613
433.303977	5674.174055
433.680974	5711.902051
434.057910	5731.620524
434.434786	5736.601184
434.811601	5703.500968
435.188355	5941.362771
435.565050	5813.927443
435.941683	5796.623682
436.318257	6010.416496
436.694770	5998.438715
437.071222	6029.272932
437.447614	5958.101922
437.823946	5873.859200
438.200218	6023.891500
438.576429	5897.131687
438.952580	5991.003013
439.328670	6037.903388
439.704700	5943.563234
440.080670	5926.481285
440.456580	6201.965219
440.832429	6083.364513
441.208218	5931.333395
441.583947	6085.171767
441.959616	6091.407674
442.335224	6015.515623
442.710773	6153.774309
443.086261	6175.723492
443.461689	5973.888295
443.837057	6121.367251
444.212365	6280.851715
444.587612	6173.517988
444.962800	6325.327295
445.337927	6304.714017
445.712995	5913.049130
446.088002	6495.403222
446.462949	6320.273538
446.837837	6254.375575
447.212664	6426.122645
447.587431	6573.389873
447.962139	7109.078004
448.336786	8035.911782
448.711374	7772.786237
449.085901	6850.035793
449.460369	6771.345902
449.834776	6705.153031
450.209124	7099.651046
450.583412	7245.564723
450.957640	7388.221816
451.331808	7163.159502
451.705917	6709.138063
452.079965	6633.551003
452.453954	6845.886923
452.827883	6723.825465
453.201752	6816.083622
453.575562	6616.174145
453.949311	6819.599826
454.323001	6708.820471
454.696632	6782.935514
455.070202	6921.181597
455.443713	7077.255720
455.817164	7177.171389
456.190556	7260.184070
456.563888	7333.525296
456.937160	7380.067749
457.310373	7031.938268
457.683526	7058.258132
458.056619	6951.914991
458.429653	6935.707682
458.802628	6874.084617
459.175542	6983.301215
459.548398	7336.532345
459.921194	7494.045717
460.293930	7497.587128
460.666607	8033.847430
461.039224	8333.659973
461.411782	8466.489335
461.784280	8478.129359
462.156719	8370.213379
462.529099	8243.614882
462.901419	7836.342584
463.273680	7731.070689
463.645882	7744.137359
464.018024	7614.816640
464.390106	7785.058926
464.762130	8165.063623
465.134094	8631.156105
465.505999	9658.172734
465.877845	10883.987265
466.249631	11529.963239
466.621358	11146.646504
466.993026	10512.035811
467.364634	10257.754970
467.736184	9893.332479
468.107674	9569.027490
468.479105	9596.257282
468.850477	9357.412454
469.221790	9137.061099
469.593043	8803.535840
469.964238	8665.496445
470.335373	8678.527828
470.706449	8733.799038
471.077467	8716.394455
471.448425	10024.515905
471.819324	11098.095151
472.190164	11120.001485
472.560945	9873.581238
472.931667	9082.183098
473.302330	8946.311399
473.672934	8596.838450
474.043479	8952.890105
474.413965	8890.843584
474.784393	8781.697562
475.154761	8927.797762
475.525070	9015.092903
475.895321	8848.326492
476.265513	9023.060446
476.635645	9194.240387
477.005719	9197.857415
477.375734	9309.549219
477.745691	9541.306185
478.115588	9678.846506
478.485427	9921.963712
478.855207	10455.678231
479.224928	11274.326328
479.594591	11902.068449
479.964194	11714.855118
480.333739	11651.815490
480.703226	11569.808519
481.072653	11661.912921
481.442022	11898.312789
481.811333	12080.056468
482.180584	11886.619833
482.549777	11597.703744
482.918912	11418.238667
483.287988	11447.046341
483.657005	11459.687034
484.025964	11136.488579
484.394864	11275.669795
484.763706	11244.661658
485.132489	10994.900211
485.501213	10963.844183
485.869879	11033.853207
486.238487	10878.227747
486.607036	10989.115487
486.975527	10765.507547
487.343959	10960.481733
487.712333	11001.224339
488.080648	10931.996694
488.448905	10984.893521
488.817104	10922.625189
489.185244	11183.648573
489.553326	11341.819816
489.921350	11879.128678
490.289315	12941.667798
490.657222	13279.437708
491.025070	13188.248277
491.392861	13065.763362
491.760593	12681.239270
492.128267	12329.770023
492.495883	11999.108140
492.863440	11662.608600
493.230939	11337.612973
493.598380	11265.884916
493.965763	11130.850048
494.333088	11029.661488
494.700354	10959.634820
495.067563	11016.176401
495.434713	10843.045534
495.801805	10972.378857
496.168839	10894.372042
496.535815	10837.006232
496.902733	10837.979174
497.269593	10771.708166
497.636395	10868.004287
498.003139	10856.351660
498.369825	10722.325023
498.736453	10884.249405
499.103023	10804.722683
499.469535	10838.760553
499.835989	10826.951650
500.202385	10786.224168
500.568723	10641.061623
500.935003	10862.098575
501.301226	10670.935501
501.667390	10927.520149
502.033497	11023.352484
502.399546	10878.242870
502.765537	10794.269850
503.131470	10864.777948
503.497345	11042.256811
503.863163	10651.519497
504.228923	10955.949736
504.594625	11024.443893
504.960269	10774.324525
505.325856	10993.912145
505.691385	10781.273755
506.056856	10938.237642
506.422270	10962.215890
506.787625	10853.546258
507.152924	10963.856786
507.518164	10944.465988
507.883347	10868.253824
508.248472	10785.536051
508.613540	11028.184430
508.978550	10909.036758
509.343503	10883.561287
509.708398	11004.077632
510.073236	11118.111052
510.438016	11118.864705
510.802738	11069.942827
511.167403	11125.398040
511.532010	11013.726400
511.896561	11250.458985
512.261053	11316.364510
512.625488	11190.870026
512.989866	11172.802531
513.354186	11161.565799
513.718449	11065.599873
514.082655	11256.831003
514.446803	11150.621454
514.810894	11275.747933
515.174927	11141.126440
515.538904	11163.705768
515.902822	11319.076651
516.266684	11203.067098
516.630488	11137.365740
516.994235	11201.131295
517.357925	11261.766293
517.721558	11347.234015
518.085133	11360.172137
518.448651	11370.062881
518.812112	11261.345357
519.175516	11268.019844
519.538863	11389.821683
519.902152	11306.635083
520.265385	11466.359001
520.628560	11383.058975
520.991678	11365.732529
521.354739	11420.683627
521.717743	11357.833041
522.080690	11338.797644
522.443580	11470.308745
522.806413	11423.917527
523.169189	11460.281890
523.531908	11517.950170
523.894569	11338.215391
524.257174	11345.509941
524.619722	11460.130656
524.982213	11406.631411
525.344647	11459.883639
525.707025	11406.870865
526.069345	11500.633806
526.431608	11420.897876
526.793815	11529.358301
527.155964	11311.643469
527.518057	11374.171421
527.880093	11314.174128
528.242072	11386.030735
528.603995	11295.105964
528.965860	11216.612678
529.327669	11262.182188
529.689421	11217.570497
530.051117	11181.672441
530.412755	11289.175047
530.774337	11179.529950
531.135862	11160.260140
531.497331	11182.738645
531.858743	11038.596933
532.220098	11199.729854
532.581396	11071.308980
532.942638	11051.814838
533.303824	11011.800680
533.664953	11029.328772
534.026025	10947.999837
534.387040	11048.785105
534.747999	11048.356607
535.108902	11105.246028
535.469748	10859.225117
535.830537	10969.296191
536.191270	10944.193765
536.551947	10964.756632
536.912567	10969.888527
537.273131	10894.661908
537.633638	10880.597089
537.994089	10864.271312
538.354483	10811.291306
538.714821	10961.454676
539.075103	10962.278905
539.435328	10929.929821
539.795497	10761.454459
540.155609	10916.590928
540.515665	11004.662406
540.875665	10739.981664
541.235609	10809.035390
541.595496	10791.560230
541.955328	10951.843716
542.315102	10844.593168
542.674821	10793.097782
543.034483	10785.309199
543.394090	10798.562393
543.753640	10718.939888
544.113134	10945.633015
544.472571	10793.266660
544.831953	10946.933633
545.191278	10747.374516
545.550548	10777.848291
545.909761	10913.543550
546.268918	10887.052287
546.628019	10972.764505
546.987064	10833.285860
547.346053	10757.106464
547.704986	10855.608089
548.063863	10845.825730
548.422684	10835.892137
548.781449	10750.515155
549.140158	10847.723725
549.498811	10730.884902
549.857408	10587.136400
550.215949	10817.824641
550.574434	10664.278657
550.932864	10770.994843
551.291237	10831.518936
551.649555	10779.733683
552.007817	10790.756166
552.366022	10748.261759
552.724173	10743.190359
553.082267	10727.046063
553.440305	10866.123936
553.798288	10657.762966
554.156215	10814.613426
554.514086	10795.283122
554.871902	10644.998764
555.229661	10682.184835
555.587365	10652.275670
555.945014	10549.882273
556.302606	10679.046717
556.660143	10571.269368
557.017625	10723.050949
557.375050	10624.302307
557.732421	10756.486402
558.089735	10669.123206
558.446994	10674.423979
558.804197	10707.609895
559.161345	10712.540143
559.518437	10553.521986
559.875474	10644.734103
560.232455	10679.838178
560.589381	10629.988728
560.946251	10630.003852
561.303065	10734.683412
561.659825	10664.369398
562.016528	10597.248955
562.373177	10480.077416
562.729770	10586.660011
563.086307	10508.922898
563.442789	10600.558472
563.799216	10474.454009
564.155587	10525.795640
564.511904	10481.264608
564.868164	10477.140944
565.224370	10488.158386
565.580520	10405.067567
565.936615	10411.719370
566.292654	10288.584146
566.648638	10420.264126
567.004567	10375.639832
567.360441	10359.666936
567.716260	10272.180231
568.072023	10362.353871
568.427732	10313.840327
568.783385	10222.219876
569.138982	10295.278798
569.494525	10311.937291
569.850013	10182.498104
570.205445	10260.545248
570.560823	10159.417182
570.916145	10084.843393
571.271412	10150.738835
571.626625	10096.816133
571.981782	10071.086084
572.336884	10041.938132
572.691931	10055.332478
573.046923	9990.256223
573.401860	9954.111150
573.756743	9892.823322
574.111570	9933.039127
574.466342	9917.041025
574.821059	9945.218555
575.175722	9834.809724
575.530330	9843.619140
575.884882	9842.875570
576.239380	9762.086038
576.593823	9746.125745
576.948211	9761.143343
577.302544	9638.139189
577.656823	9653.645778
578.011047	9655.881530
578.365216	9632.944280
578.719330	9560.187827
579.073389	9564.308970
579.427394	9512.511114
579.781344	9487.113781
580.135239	9438.186863
580.489080	9443.911093
580.842866	9351.320220
581.196597	9360.525367
581.550273	9395.841170
581.903895	9364.492755
582.257463	9429.017004
582.610975	9312.097523
582.964434	9334.475204
583.317837	9262.174976
583.671186	9238.163960
584.024481	9234.299916
584.377721	9152.625662
584.730906	9126.877968
585.084037	9156.741764
585.437113	9093.913863
585.790135	9114.086041
586.143103	9013.545268
586.496016	8988.790682
586.848874	9051.563130
587.201679	9034.781129
587.554428	8920.868696
587.907124	8966.294533
588.259765	8944.317623
588.612352	8937.693547
588.964884	8817.978746
589.317362	8833.238319
589.669786	8826.667175
590.022155	8884.794199
590.374470	8899.138802
590.726731	8834.982558
591.078937	8683.851286
591.431090	8794.378584
591.783188	8669.385695
592.135232	8665.340169
592.487222	8663.477463
592.839157	8709.445224
593.191038	8647.794433
593.542866	8594.569931
593.894639	8495.959921
594.246358	8550.406903
594.598022	8561.429386
594.949633	8461.972461
595.301190	8441.238196
595.652692	8460.747461
596.004141	8574.291890
596.355535	8352.483641
596.706876	8336.989655
597.058162	8267.182277
597.409395	8351.644289
597.760573	8408.846262
598.111698	8314.080131
598.462768	8305.076630
598.813785	8269.833924
599.164748	8233.489725
599.515657	8223.982109
599.866511	8135.691340
600.217312	8258.264476
600.568060	8121.654247
600.918753	8223.823313
601.269392	8190.145884
601.619978	8108.622865
601.970510	8168.647884
602.320988	8166.694437
602.671412	8220.730565
603.021783	8156.176069
603.372100	8135.872822
603.722363	8133.737893
604.072572	8111.856765
604.422728	8119.904967
604.772830	8046.626755
605.122878	8054.480872
605.472872	8050.783186
605.822813	8079.502640
606.172701	8021.960389
606.522534	8096.529137
606.872314	8099.568952
607.222041	8064.800114
607.571714	8124.623487
607.921333	8078.501971
608.270899	8092.264321
608.620411	8179.153648
608.969870	8081.980367
609.319276	8074.552227
609.668627	8094.484949
610.017926	8123.925287
610.367171	8172.191815
610.716362	8146.620562
611.065500	8146.842373
611.414585	8167.876587
611.763616	8157.587592
612.112594	8139.086557
612.461518	8150.310687
612.810389	8214.103968
613.159207	8156.332345
613.507971	8098.928726
613.856682	8222.434475
614.205340	8178.568874
614.553945	8249.971778
614.902496	8149.917477
615.250994	8216.112868
615.599439	8193.089918
615.947830	8202.194242
616.296169	8176.867485
616.644454	8192.500103
616.992686	8187.138836
617.340864	8248.812312
617.688990	8151.886047
618.037063	8247.451201
618.385082	8189.485493
618.733048	8276.364738
619.080961	8216.511119
619.428821	8232.247081
619.776628	8239.022391
620.124382	8185.127416
620.472083	8163.095053
620.819731	8196.371709
621.167326	8087.480266
621.514868	8100.259591
621.862357	7985.742219
622.209793	8006.224427
622.557176	7936.908562
622.904506	7913.061384
623.251783	7845.237700
623.599007	7795.080740
623.946179	7800.131976
624.293297	7760.684947
624.640363	7679.953389
624.987376	7659.375399
625.334336	7607.103674
625.681243	7548.326341
626.028097	7543.660753
626.374899	7522.119903
626.721647	7514.467431
627.068343	7441.164013
627.414987	7417.838594
627.761577	7367.336315
628.108115	7408.038591
628.454600	7299.910882
628.801032	7353.218564
629.147412	7308.692572
629.493739	7300.457848
629.840014	7243.364260
630.186236	7295.741848
630.532405	7181.171545
630.878521	7230.070737
631.224585	7185.217071
631.570597	7111.165041
631.916556	7144.507233
632.262462	7141.578323
632.608316	7099.242712
632.954117	7078.498364
633.299866	7065.819862
633.645562	7060.135962
633.991206	6975.051367
634.336797	6923.709736
634.682336	6882.455453
635.027823	6843.205029
635.373257	6835.340829
635.718639	6765.581342
636.063968	6782.232273
636.409245	6676.451222
636.754470	6670.646333
637.099642	6628.736701
637.444762	6570.662608
637.789829	6585.092911
638.134845	6529.950250
638.479808	6512.449884
638.824719	6513.914339
639.169577	6441.026817
639.514383	6464.145548
639.859137	6391.716770
640.203839	6403.939048
640.548489	6390.000257
640.893086	6362.011771
641.237632	6337.756259
641.582125	6356.892479
641.926566	6325.165978
642.270955	6336.942113
642.615292	6340.027299
642.959576	6346.270768
643.303809	6342.310942
643.647990	6343.707342
643.992118	6336.788358
644.336195	6283.868845
644.680219	6310.539070
645.024192	6297.626154
645.368112	6393.599641
645.711981	6415.856335
646.055797	6489.137068
646.399562	6453.480987
646.743274	6574.221663
647.086935	6632.696527
647.430544	6624.408870
647.774101	6647.693960
648.117606	6650.451471
648.461059	6642.211705
648.804460	6604.816426
649.147810	6516.157653
649.491108	6482.419731
649.834354	6459.933664
650.177548	6375.136415
650.520690	6292.995854
650.863781	6263.371514
651.206820	6287.977386
651.549807	6209.269851
651.892742	6149.683412
652.235626	6155.140461
652.578458	6141.942721
652.921238	6044.998812
653.263967	6089.040852
653.606644	6031.405340
653.949269	6034.445156
654.291843	5974.349561
654.634365	6020.702971
654.976836	5975.060364
655.319255	5971.904601
655.661622	5951.495490
656.003938	5950.328463
656.346203	5911.370426
656.688416	5948.483401
657.030577	5894.800153
657.372687	5866.365525
657.714746	5855.264904
658.056753	5890.706736
658.398708	5833.313200
658.740612	5824.914638
659.082465	5876.168049
659.424266	5868.220670
659.766016	5867.305700
660.107715	5840.774108
660.449362	5859.323033
660.790958	5850.057392
661.132503	5837.091545
661.473996	5871.903233
661.815438	5860.023753
662.156829	5853.671900
662.498168	5853.273648
662.839456	5823.424977
663.180693	5859.819587
663.521879	5861.405030
663.863013	5848.681157
664.204097	5864.704465
664.545129	5911.060395
664.886110	5905.900774
665.227040	5940.856135
665.567918	5908.590230
665.908746	5929.392551
666.249522	5932.462614
666.590248	5924.520276
666.930922	5949.945335
667.271545	5964.627696
667.612118	5964.904959
667.952639	5938.595177
668.293109	5963.138035
668.633528	5921.256129
668.973896	5925.460451
669.314213	5914.085087
669.654480	5897.671090
669.994695	5890.878136
670.334859	5883.883535
670.674973	5870.683273
671.015035	5877.304829
671.355047	5871.139498
671.695008	5861.122725
672.034918	5834.954095
672.374777	5845.023800
672.714585	5831.001831
673.054342	5834.858313
673.394049	5828.864382
673.733705	5855.864802
674.073310	5846.195868
674.412864	5804.298839
674.752368	5793.871212
675.091820	5803.895547
675.431223	5739.764508
675.770574	5736.336523
676.109875	5688.984965
676.449125	5695.528383
676.788324	5656.620757
677.127473	5601.505822
677.466571	5594.753197
677.805619	5586.334470
678.144616	5565.925359
678.483562	5548.074633
678.822458	5518.984655
679.161303	5513.023490
679.500098	5504.506461
679.838842	5490.807125
680.177535	5493.047918
680.516179	5508.912429
680.854771	5519.415673
681.193314	5599.431388
681.531805	5706.883582
681.870247	5857.992168
682.208638	5964.801616
682.546978	5972.562472
682.885268	5950.031035
683.223508	5867.212439
683.561697	5811.540456
683.899836	5783.856960
684.237925	5738.496658
684.575963	5699.523497
684.913951	5660.547816
685.251889	5722.261622
685.589776	5690.676272
685.927614	5664.913456
686.265401	5733.894084
686.603137	5720.217434
686.940824	5792.994051
687.278460	5814.091280
687.616046	5831.372356
687.953582	5896.249485
688.291068	5874.995980
688.628504	5940.409993
688.965889	5901.330968
689.303224	5849.868349
689.640510	5798.972860
689.977745	5725.243464
690.314930	5626.338546
690.652065	5565.491819
690.989150	5471.711234
691.326185	5399.027878
691.663170	5344.217933
692.000105	5268.855204
692.336990	5192.330488
692.673825	5165.733361
693.010610	5095.542855
693.347345	5028.601373
693.684030	5012.694012
694.020665	4972.130368
694.357251	4881.208117
694.693786	4888.641298
695.030272	4861.177092
695.366707	4818.352490
695.703093	4790.127070
696.039429	4816.210000
696.375716	4792.655208
696.711952	4768.868524
697.048139	4756.336216
697.384276	4737.499944
697.720363	4747.390688
698.056400	4752.502418
698.392388	4708.001632
698.728326	4685.525648
699.064214	4666.850694
699.400053	4660.340043
699.735842	4625.651864
700.071581	4602.177731
700.407270	4572.480294
700.742910	4560.482348
701.078501	4505.914378
701.414042	4497.606556
701.749533	4471.997495
702.084974	4405.711363
702.420366	4464.297132
702.755709	4405.708842
703.091002	4346.765151
703.426246	4399.702307
703.761440	4353.094319
704.096584	4314.683248
704.431679	4340.115869
704.766725	4321.614834
705.101721	4308.641425
705.436668	4337.068491
705.771565	4285.729381
706.106413	4313.554029
706.441212	4343.934543
706.775961	4355.624979
707.110661	4334.626052
707.445311	4360.532542
707.779913	4384.858630
708.114465	4398.363881
708.448967	4420.499588
708.783421	4488.393848
709.117825	4525.506822
709.452180	4526.935989
709.786485	4576.170418
710.120742	4661.305424
710.454949	4643.946211
710.789107	4713.592272
711.123216	4788.092964
711.457275	4777.809010
711.791286	4852.256770
712.125247	4869.389132
712.459159	4771.298360
712.793023	4842.439123
713.126837	4805.981499
713.460602	4796.196619
713.794318	4717.234506
714.127985	4726.590887
714.461602	4638.915140
714.795171	4610.556129
715.128691	4544.922826
715.462162	4492.023478
715.795584	4435.265127
716.128957	4421.424639
716.462281	4372.162484
716.795556	4344.216848
717.128782	4303.688491
717.461960	4236.550404
717.795088	4244.212958
718.128167	4210.018812
718.461198	4145.822238
718.794180	4142.371568
719.127113	4122.159062
719.459997	4100.915639
719.792833	4055.489802
720.125619	4047.877660
720.458357	4010.479860
720.791046	4014.432125
721.123686	3992.218280
721.456278	3948.476188
721.788821	3965.686687
722.121315	3942.361269
722.453761	3912.459665
722.786158	3925.246551
723.118506	3947.243626
723.450805	3901.167480
723.783056	3922.640275
724.115259	3942.958645
724.447412	3944.249181
724.779518	3939.707101
725.111574	3939.840692
725.443582	3976.295796
725.775542	3955.851396
726.107453	4006.835106
726.439315	4007.472812
726.771129	4021.217518
727.102895	4057.193712
727.434612	4105.581227
727.766281	4119.199904
728.097901	4115.454327
728.429473	4124.788023
728.760996	4132.226246
729.092471	4124.483034
729.423897	4106.438223
729.755276	4116.694451
730.086606	4119.182260
730.417887	4154.951768
730.749120	4215.780850
731.080305	4281.648567
731.411442	4307.091270
731.742530	4275.760499
732.073570	4280.995737
732.404562	4333.292667
732.735506	4329.252182
733.066401	4290.987304
733.397249	4227.524218
733.728048	4149.552692
734.058798	4067.341555
734.389501	3998.161801
734.720156	3931.048919
735.050762	3887.483268
735.381320	3879.929099
735.711831	3829.845235
736.042293	3800.208292
736.372707	3823.861386
736.703073	3796.377015
737.033391	3785.780510
737.363661	3801.939928
737.693883	3827.397755
738.024056	3837.500228
738.354182	3834.392356
738.684260	3898.926687
739.014290	3917.526024
739.344272	3913.566198
739.674207	3956.315182
740.004093	3958.964309
740.333931	3954.971715
740.663722	3954.613793
740.993464	3949.615489
741.323159	3931.172428
741.652806	3900.370978
741.982405	3871.465002
742.311956	3842.649766
742.641460	3833.190041
742.970915	3808.165753
743.300323	3766.480452
743.629683	3731.159608
743.958996	3724.480079
744.288260	3698.175338
744.617477	3665.269206
744.946647	3648.613234
745.275768	3627.233701
745.604842	3619.823204
745.933869	3571.143302
746.262847	3565.550142
746.591778	3604.079681
746.920662	3573.855443
747.249498	3541.718087
747.578286	3591.113833
747.907027	3607.104373
748.235720	3604.931636
748.564365	3627.039616
748.892963	3632.151346
749.221514	3612.150568
749.550017	3586.821291
749.878473	3586.244079
750.206881	3562.167528
750.535242	3557.207032
750.863555	3555.719892
751.191821	3548.894170
751.520039	3532.495296
751.848210	3509.185001
752.176334	3542.678427
752.504411	3551.782751
752.832440	3507.539064
753.160421	3491.883761
753.488356	3502.099659
753.816243	3514.057276
754.144082	3469.901810
754.471875	3453.974284
754.799620	3477.952532
755.127318	3470.882314
755.454969	3464.863176
755.782572	3471.083960
756.110129	3447.662759
756.437638	3439.735545
756.765100	3453.054273
757.092515	3462.196406
757.419882	3467.471973
757.747203	3442.011626
758.074477	3445.971452
758.401703	3461.553659
758.728882	3479.999241
759.056014	3489.300170
759.383099	3490.731857
759.710138	3487.611383
760.037129	3506.427490
760.364073	3536.414793
760.690970	3522.912063
761.017820	3499.821058
761.344623	3518.304448
761.671379	3565.363619
761.998088	3614.275415
762.324751	3743.119745
762.651366	3990.738702
762.977935	4464.735713
763.304456	4910.376233
763.630931	5003.383001
763.957359	4648.546264
764.283740	4297.029127
764.610074	4107.345631
764.936362	3907.279879
765.262602	3749.905138
765.588796	3636.930360
765.914943	3550.401475
766.241044	3461.457877
766.567097	3429.149122
766.893104	3381.333778
767.219064	3352.687421
767.544978	3325.452587
767.870845	3266.483690
768.196665	3251.844179
768.522438	3260.792227
768.848165	3254.573964
769.173846	3217.052656
769.499479	3202.922302
769.825066	3180.637881
770.150607	3167.666992
770.476101	3180.093437
770.801548	3178.928930
771.126949	3132.522588
771.452303	3113.860237
771.777611	3122.715024
772.102872	3124.512195
772.428087	3102.061416
772.753256	3091.850559
773.078378	3086.194385
773.403453	3053.106771
773.728482	3038.923485
774.053465	3061.560786
774.378401	3049.013354
774.703291	3017.322141
775.028135	3017.536390
775.352932	3012.744773
775.677683	3000.930829
776.002388	3001.349245
776.327046	2996.171980
776.651658	2988.267451
776.976224	2977.590287
777.300743	2979.198415
777.625216	2968.133082
777.949643	2960.901547
778.274024	2963.832978
778.598359	2952.969291
778.922647	2956.803089
779.246889	2955.759570
779.571086	2944.933692
779.895236	2937.855912
780.219339	2947.955864
780.543397	2960.558748
780.867409	2962.565128
781.191374	2954.451391
781.515294	2953.546503
781.839167	2954.700928
782.162995	2944.543003
782.486776	2952.162707
782.810511	2952.197995
783.134201	2937.727363
783.457844	2943.950667
783.781441	2933.608740
784.104993	2913.348343
784.428498	2917.361101
784.751958	2930.473142
785.075372	2922.319076
785.398739	2907.298958
785.722061	2924.953079
786.045337	2938.231478
786.368568	2921.567944
786.691752	2913.005544
787.014891	2959.487503
787.337983	2988.995897
787.661030	3019.502440
787.984031	3087.880651
788.306987	3131.809265
788.629897	3124.159314
788.952760	3108.224227
789.275579	3093.783842
789.598351	3031.777649
789.921078	2990.742657
790.243759	2979.740339
790.566395	2963.089408
790.888984	2939.529575
791.211529	2923.123140
791.534027	2913.628127
791.856480	2902.434245
792.178888	2886.758777
792.501249	2878.145965
792.823566	2875.741335
793.145836	2873.016591
793.468062	2868.635829
793.790241	2867.483925
794.112375	2874.397867
794.434464	2886.168962
794.756507	2889.481000
795.078505	2894.106258
795.400457	2912.776172
795.722364	2947.187088
796.044226	2973.350676
796.366042	2976.025008
796.687812	2965.325159
797.009538	2982.248313
797.331218	2968.848926
797.652852	2955.026082
797.974442	2937.450099
798.295986	2933.069337
798.617484	2930.263934
798.938938	2912.352715
799.260346	2898.706311
799.581709	2894.431413
799.903026	2886.005124
800.224299	2878.730739
800.545526	2869.996940
800.866708	2855.596884
801.187845	2844.662622
801.508936	2846.936182
801.829983	2851.742922
802.150984	2843.314113
802.471940	2828.621670
802.792851	2826.660661
803.113717	2826.335507
803.434538	2833.625015
803.755314	2826.504385
804.076045	2821.256544
804.396731	2816.666574
804.717372	2819.703869
805.037967	2815.416367
805.358518	2822.040444
805.679024	2833.662824
805.999485	2831.916064
806.319901	2832.561332
806.640272	2825.677636
806.960598	2831.578307
807.280879	2838.651046
807.601115	2844.304700
807.921306	2832.866322
808.241453	2827.779797
808.561554	2836.367403
808.881611	2837.098370
809.201623	2831.623677
809.521590	2829.115703
809.841513	2827.762153
810.161390	2832.276507
810.481223	2822.705876
810.801011	2816.023827
811.120755	2811.605255
811.440453	2816.114567
811.760107	2816.981646
812.079716	2812.240441
812.399281	2803.703247
812.718801	2794.916515
813.038276	2791.145732
813.357707	2797.537915
813.677093	2804.837506
813.996434	2799.171249
814.315731	2794.982050
814.634983	2789.673715
814.954191	2791.274282
815.273354	2803.166364
815.592473	2814.065338
815.911547	2815.370997
816.230577	2823.527584
816.549562	2834.436641
816.868502	2831.384222
817.187399	2841.978207
817.506250	2856.209384
817.825058	2850.754856
818.143821	2864.285313
818.462539	2878.944988
818.781213	2908.770975
819.099843	2944.911007
819.418429	3001.306395
819.736970	3065.429872
820.055466	3140.429638
820.373919	3242.076944
820.692327	3389.984398
821.010691	3552.062535
821.329011	4002.721524
821.647286	4912.674999
821.965517	6306.808616
822.283704	7063.132927
822.601847	7047.414610
822.919945	6406.878040
823.237999	5893.219752
823.556010	5299.775121
823.873976	4741.968927
824.191897	4326.761852
824.509775	4026.828322
824.827609	3757.224894
825.145398	3630.729741
825.463144	3618.172227
825.780845	3712.227554
826.098502	3815.021722
826.416116	4100.840022
826.733685	4423.380607
827.051210	4491.000124
827.368692	4372.328842
827.686129	4104.880507
828.003522	3773.457409
828.320872	3512.736494
828.638177	3313.031184
828.955439	3175.505987
829.272656	3093.304932
829.589830	3021.387831
829.906960	2976.536686
830.224046	2926.921649
830.541088	2893.120713
830.858086	2878.934906
831.175041	2860.678367
831.491952	2863.420755
831.808819	2873.820655
832.125642	2897.544325
832.442421	2943.438990
832.759157	3028.589120
833.075849	3207.345914
833.392497	3490.638596
833.709101	3695.551417
834.025662	3645.429745
834.342179	3483.712051
834.658653	3308.121100
834.975083	3158.247597
835.291469	3059.950138
835.607811	2969.587455
835.924110	2912.692993
836.240366	2863.241794
836.556578	2819.126657
836.872746	2796.262503
837.188871	2773.184101
837.504952	2754.713313
837.820990	2747.645616
838.136984	2733.265724
838.452935	2725.063767
838.768842	2724.751216
839.084706	2743.431211
839.400526	2822.864672
839.716303	2954.766463
840.032037	3038.184956
840.347727	3021.609642
840.663373	2962.416414
840.978977	2883.945813
841.294537	2811.300265
841.610054	2762.040631
841.925527	2740.744276
842.240957	2719.533621
842.556344	2695.928418
842.871687	2680.068948
843.186987	2669.762309
843.502244	2666.823317
843.817458	2662.177893
844.132629	2650.706748
844.447756	2642.565284
844.762840	2633.392905
845.077881	2636.173101
845.392879	2636.808287
845.707833	2633.526496
846.022745	2622.345216
846.337613	2626.584827
846.652438	2626.020217
846.967221	2627.492234
847.281960	2624.049126
847.596656	2623.524846
847.911309	2621.485700
848.225919	2619.587705
848.540485	2615.456480
848.855009	2616.452107
849.169490	2614.097889
849.483928	2617.999742
849.798323	2616.520163
850.112675	2613.313989
850.426984	2615.438836
850.741251	2612.971191
851.055474	2610.259050
851.369654	2615.012858
851.683792	2615.718620
851.997887	2613.918928
852.311938	2614.150821
852.625947	2614.521346
852.939914	2616.852879
853.253837	2616.852879
853.567718	2612.789709
853.881555	2609.341560
854.195350	2613.172837
854.509103	2617.876233
854.822812	2611.037908
855.136479	2612.431787
855.450103	2615.564864
855.763685	2618.029989
856.077224	2612.562857
856.390720	2609.762496
856.704173	2612.822477
857.017584	2615.514453
857.330953	2618.259361
857.644278	2619.806995
857.957561	2621.919239
858.270802	2618.594598
858.584000	2615.002776
858.897155	2620.048971
859.210268	2620.079218
859.523339	2614.496140
859.836367	2613.228290
860.149352	2611.973042
860.462295	2612.943464
860.775195	2609.230655
861.088054	2608.106477
861.400869	2608.298041
861.713642	2606.813421
862.026373	2608.555140
862.339062	2610.695110
862.651708	2615.617797
862.964312	2615.043105
863.276873	2616.429422
863.589392	2617.195678
863.901869	2621.609208
864.214303	2626.574744
864.526696	2628.671864
864.839045	2634.413739
865.151353	2631.636063
865.463619	2633.186218
865.775842	2634.088584
866.088023	2631.968779
866.400162	2635.280817
866.712258	2634.259983
867.024313	2631.754530
867.336325	2628.518109
867.648296	2632.288892
867.960224	2637.642598
868.272110	2634.554891
868.583954	2628.087091
868.895755	2629.097842
869.207515	2634.958183
869.519233	2640.831127
869.830909	2636.982207
870.142542	2633.002216
870.454134	2636.074799
870.765684	2640.952115
871.077191	2641.814152
871.388657	2645.161479
871.700081	2644.301962
872.011463	2644.301962
872.322803	2644.899339
872.634101	2652.481234
872.945357	2655.216060
873.256571	2662.679488
873.567744	2656.047850
873.878874	2654.653971
874.189963	2660.123623
874.501010	2664.990857
874.812015	2669.260715
875.122979	2668.749037
875.433900	2662.240908
875.744780	2659.127995
876.055618	2664.254849
876.366415	2667.778615
876.677169	2669.265756
876.987882	2662.193017
877.298554	2661.953562
877.609183	2673.286076
877.919771	2679.489216
878.230317	2688.172603
878.540822	2698.905220
878.851285	2711.356870
879.161707	2735.511558
879.472087	2775.369441
879.782425	2825.294508
880.092722	2938.760799
880.402977	3134.597023
880.713191	3401.500914
881.023363	3702.011656
881.333494	3901.278385
881.643583	4075.659459
881.953631	4070.383891
882.263637	3892.836973
882.573602	3666.395904
882.883526	3533.584186
883.193408	3412.480547
883.503248	3309.411636
883.813048	3193.928883
884.122806	3075.645770
884.432522	2990.228459
884.742197	2922.251020
885.051831	2884.417161
885.361424	2848.030112
885.670975	2810.672642
885.980485	2780.123249
886.289954	2760.359406
886.599382	2747.244844
886.908768	2734.720097
887.218113	2717.620503
887.527417	2703.361600
887.836680	2694.678212
888.145901	2687.492047
888.455082	2680.593228
888.764221	2666.074705
889.073319	2661.031031
889.382376	2659.997594
889.691392	2662.785352
890.000366	2657.661020
890.309300	2659.304436
890.618193	2661.691422
890.927044	2662.394663
891.235855	2665.104283
891.544625	2662.893737
891.853353	2662.397184
892.162041	2672.323216
892.470687	2692.523119
892.779293	2703.643904
893.087858	2713.325440
893.396381	2735.365365
893.704864	2779.397323
894.013306	2851.649661
894.321707	2947.139197
894.630068	2998.569048
894.938387	3020.021679
895.246665	3013.745442
895.554903	2965.630149
895.863100	2921.419230
896.171256	2863.272041
896.479371	2799.395581
896.787446	2761.102976
897.095480	2742.138155
897.403473	2735.546847
897.711425	2719.001780
898.019336	2700.110056
898.327207	2686.750998
898.635038	2685.037006
898.942827	2683.239834
899.250576	2671.506549
899.558284	2662.268634
899.865952	2657.129178
900.173579	2654.926194
900.481165	2649.867396
900.788711	2645.652991
901.096216	2635.464819
901.403681	2631.782256
901.711105	2634.322998
902.018489	2631.207565
902.325832	2637.284676
902.633135	2636.808287
902.940397	2651.788075
903.247619	2691.353571
903.554800	2760.492996
903.861941	2891.202554
904.169041	3027.023841
904.476101	3091.227977
904.783121	3082.852100
905.090100	3025.592154
905.397039	2945.362190
905.703938	2870.929554
906.010796	2805.548309
906.317614	2752.875813
906.624391	2715.243599
906.931129	2686.864424
907.237826	2663.458347
907.544483	2645.348001
907.851099	2630.486680
908.157675	2618.705503
908.464211	2612.585542
908.770707	2602.624222
909.077163	2597.946032
909.383578	2593.048551
909.689954	2593.025866
909.996289	2588.655185
910.302584	2592.448653
910.608839	2588.098138
910.915054	2587.669640
911.221229	2591.707604
911.527363	2592.453695
911.833458	2592.015114
912.139513	2593.658530
912.445527	2592.859507
912.751502	2598.873604
913.057436	2607.128493
913.363331	2613.187960
913.669186	2621.284053
913.975000	2635.270735
914.280775	2653.844866
914.586510	2674.874039
914.892205	2710.399051
915.197859	2779.455297
915.503475	2867.897300
915.809050	2935.302568
916.114585	2952.586164
916.420081	2968.327167
916.725536	2975.359576
917.030952	2950.234465
917.336328	2900.455592
917.641665	2848.864423
917.946961	2798.778039
918.252218	2761.725558
918.557435	2735.682958
918.862612	2713.436346
919.167750	2694.710980
919.472848	2677.243382
919.777906	2659.611946
920.082925	2649.330513
920.387904	2637.317443
920.692843	2631.041207
920.997743	2626.652882
921.302603	2618.473610
921.607423	2612.073865
921.912204	2605.691765
922.216946	2603.874429
922.521647	2604.791919
922.826310	2596.181628
923.130932	2591.188365
923.435516	2587.261306
923.740059	2584.329875
924.044564	2584.702921
924.349028	2584.652509
924.653454	2573.544327
924.957840	2571.414439
925.262186	2569.624829
925.566493	2572.052145
925.870761	2565.652400
926.174989	2567.598286
926.479178	2564.470250
926.783328	2563.391443
927.087438	2562.378171
927.391509	2560.177707
927.695541	2561.669889
927.999533	2557.584033
928.303486	2556.885834
928.607400	2557.851215
928.911275	2556.782490
929.215110	2559.517316
929.518906	2557.762994
929.822663	2558.695608
930.126381	2556.658982
930.430060	2556.575803
930.733699	2557.490772
931.037299	2556.674105
931.340861	2560.122254
931.644383	2558.390618
931.947866	2557.231153
932.251309	2557.135371
932.554714	2556.318704
932.858080	2557.064795
933.161407	2553.188147
933.464694	2556.754764
933.767943	2551.017931
934.071153	2555.887685
934.374323	2554.531615
934.677455	2556.343910
934.980548	2554.408107
935.283602	2552.898281
935.586617	2552.260575
935.889593	2554.473642
936.192530	2553.856100
936.495428	2553.654454
936.798287	2552.114382
937.101108	2557.929353
937.403890	2558.703170
937.706632	2560.462532
938.009336	2564.583676
938.312002	2568.248594
938.614628	2568.954356
938.917216	2577.070614
939.219765	2577.854513
939.522275	2576.916858
939.824747	2575.354101
940.127179	2571.439645
940.429573	2569.776064
940.731929	2569.776064
941.034246	2566.592575
941.336524	2568.566187
941.638763	2568.535940
941.940964	2568.467885
942.243126	2566.118707
942.545250	2564.964283
942.847335	2561.682492
943.149381	2560.530588
943.451389	2562.978068
943.753359	2557.987326
944.055290	2556.820299
944.357182	2559.247614
944.659036	2554.503888
944.960851	2558.660320
945.262628	2557.798283
945.564367	2558.113355
945.866067	2556.230484
946.167729	2555.670916
946.469352	2557.178221
946.770937	2558.060422
947.072484	2557.284085
947.373992	2555.721327
947.675462	2556.316183
947.976893	2554.498847
948.278286	2556.958930
948.579641	2554.861810
948.880958	2549.671942
949.182236	2555.217212
949.483476	2554.584547
949.784678	2552.328631
950.085841	2552.386604
950.386967	2553.737633
950.688054	2554.861810
950.989103	2555.234856
951.290114	2553.853580
951.591087	2554.947510
951.892021	2557.480690
952.192917	2560.432285
952.493776	2558.783828
952.794596	2560.961607
953.095378	2561.513613
953.396122	2560.417162
953.696828	2559.575289
953.997496	2557.679815
954.298126	2557.780638
954.598718	2554.914743
954.899272	2555.973385
955.199788	2552.868034
955.500266	2552.590771
955.800706	2549.908877
956.101108	2545.520552
956.401472	2546.382590
956.701798	2542.997455
957.002087	2542.213555
957.302337	2545.936447
957.602550	2542.253885
957.902724	2544.245140
958.202861	2542.531148
958.502960	2538.954449
958.803022	2541.220448
959.103045	2540.988555
959.403031	2540.860006
959.702979	2538.641898
960.002889	2540.716333
960.302762	2539.864378
960.602596	2539.947557
960.902393	2540.731456
961.202153	2538.057124
961.501875	2537.421939
961.801559	2539.342618
962.101205	2538.624254
962.400814	2539.032587
962.700385	2537.784902
962.999918	2539.897145
963.299414	2537.822710
963.598873	2537.374048
963.898293	2538.198276
964.197677	2538.142824
964.497022	2535.670138
964.796331	2535.617206
965.095601	2537.260622
965.394835	2541.437218
965.694030	2537.051414
965.993189	2537.686599
966.292309	2535.924716
966.591393	2537.217772
966.890439	2535.344983
967.189447	2540.091230
967.488419	2534.389685
967.787353	2537.709284
968.086249	2532.897503
968.385108	2540.139121
968.683930	2537.865560
968.982714	2536.156609
969.281462	2538.795653
969.580172	2536.696013
969.878844	2536.643080
970.177480	2537.915972
970.476078	2537.918492
970.774639	2538.233564
971.073162	2535.206352
971.371649	2532.922709
971.670098	2532.433717
971.968510	2535.468492
972.266885	2535.153419
972.565223	2533.575538
972.863524	2537.734490
973.161788	2541.008720
973.460014	2538.954449
973.758204	2539.130890
974.056356	2537.197607
974.354471	2538.336908
974.652550	2540.348328
974.950591	2537.457227
975.248595	2536.663245
975.546563	2537.311033
975.844493	2538.415046
976.142386	2537.817669
976.440243	2538.818338
976.738062	2536.665766
977.035845	2538.944367
977.333590	2537.492515
977.631299	2536.141486
977.928971	2535.876825
978.226606	2535.491177
978.524204	2536.441434
978.821765	2535.047555
979.119290	2535.723070
979.416777	2535.017308
979.714228	2536.096115
980.011642	2535.246681
980.309020	2538.483102
980.606360	2535.846578
980.903664	2537.326157
981.200931	2539.403112
981.498162	2539.357742
981.795356	2538.760365
982.092513	2543.249513
982.389633	2544.315717
982.686717	2548.131870
982.983764	2552.900802
983.280775	2552.295863
983.577749	2555.499516
983.874686	2548.580533
984.171587	2546.856458
984.468451	2546.672456
984.765279	2543.887218
985.062070	2540.376055
985.358824	2539.468647
985.655543	2538.311702
985.952224	2538.702392
986.248869	2536.814480
986.545478	2531.533871
986.842050	2533.726773
987.138586	2531.271731
987.435086	2531.372554
987.731549	2528.932636
988.027975	2534.997144
988.324366	2533.303316
988.620719	2532.438758
988.917037	2532.768954
989.213318	2534.238450
989.509563	2533.600744
989.805772	2534.399767
990.101944	2533.767102
990.398080	2534.520755
990.694180	2531.637215
990.990244	2533.452030
991.286271	2531.259128
991.582262	2531.604447
991.878217	2533.210055
992.174136	2535.065199
992.470019	2532.589993
992.765865	2535.934798
993.061676	2531.397760
993.357450	2535.781043
993.653188	2534.533357
993.948890	2531.349869
994.244556	2535.836496
994.540186	2533.341125
994.835780	2532.080836
995.131337	2535.586959
995.426859	2534.823224
995.722345	2534.946732
996.017795	2534.876156
996.313208	2537.744572
996.608586	2537.331198
996.903928	2539.060314
997.199234	2541.316230
997.494504	2537.174922
997.789738	2534.435055
998.084936	2537.366486
998.380099	2536.244829
998.675225	2535.120652
998.970316	2535.319777
999.265371	2534.160312
999.560390	2535.299613
999.855373	2534.480425
1000.150320	2533.174767
1000.445232	2533.998995
1000.740108	2535.826413
1001.034948	2532.133768
1001.329752	2531.450692
1001.624521	2534.588810
1001.919254	2527.967255
1002.213951	2529.673685
1002.508613	2527.937008
1002.803239	2528.070598
1003.097829	2525.487007
1003.392384	2532.912627
1003.686903	2532.940353
1003.981386	2534.162833
1004.275834	2530.318953
1004.570246	2530.550846
1004.864623	2531.180990
1005.158964	2530.240815
1005.453270	2531.985054
1005.747540	2532.078316
1006.041775	2532.476567
1006.335974	2529.512368
1006.630138	2529.048582
1006.924266	2531.259128
1007.218359	2532.070754
1007.512416	2528.796524
1007.806438	2530.490352
1008.100425	2529.945908
1008.394376	2530.671834
1008.688292	2529.724097
1008.982172	2529.144364
1009.276017	2534.608975
1009.569827	2531.196114
1009.863602	2531.390198
1010.157341	2529.787111
1010.451045	2531.435568
1010.744714	2531.619571
1011.038347	2531.344828
1011.331945	2531.498583
1011.625508	2531.740558
1011.919036	2532.703419
1012.212528	2532.645445
1012.505986	2529.275434
1012.799408	2529.426669
1013.092795	2530.311391
1013.386147	2529.764426
1013.679464	2530.641587
1013.972745	2529.041020
1014.265992	2530.061854
1014.559204	2531.322143
1014.852380	2529.706453
1015.145521	2532.035466
1015.438628	2530.306350
1015.731699	2528.138654
1016.024736	2530.195445
1016.317737	2531.669982
1016.610703	2530.651669
1016.903635	2528.967924
1017.196531	2527.858870
1017.489393	2528.068078
1017.782219	2526.084384
1018.075011	2526.485155
1018.367768	2531.574200
1018.660490	2531.861546
1018.953177	2531.861546
1019.245829	2531.861546
