Dividing Wavelength (nm)	Counts (n)	Blue Motor Position (mm): 36.700000	Red Motor Position (mm): 0.000000	
326.493990	2129.481687
326.888308	2129.481687
327.282561	2129.481687
327.676750	2097.399784
328.070874	2097.268714
328.464933	2098.586976
328.858929	2103.865064
329.252859	2113.508791
329.646726	2124.785852
330.040528	2138.631381
330.434265	2155.557055
330.827938	2173.317040
331.221547	2190.192303
331.615091	2208.048070
332.008571	2228.537840
332.401986	2249.463669
332.795338	2270.185332
333.188625	2288.862807
333.581847	2306.131280
333.975006	2322.638538
334.368100	2342.780468
334.761129	2359.864938
335.154095	2378.010572
335.546996	2399.632081
335.939833	2426.158632
336.332606	2438.491815
336.725315	2451.263578
337.117960	2460.756071
337.510540	2469.573049
337.903056	2482.443115
338.295508	2484.522591
338.687896	2499.870384
339.080220	2502.580004
339.472480	2511.341529
339.864676	2514.245234
340.256807	2519.162879
340.648875	2523.374763
341.040879	2524.955165
341.432818	2526.313756
341.824694	2527.989940
342.216506	2526.802748
342.608253	2529.822399
342.999937	2530.495393
343.391557	2527.695032
343.783113	2527.730320
344.174605	2527.662265
344.566033	2526.286030
344.957397	2523.049609
345.348697	2523.006759
345.739934	2518.888137
346.131106	2517.690863
346.522215	2520.244207
346.913260	2517.111130
347.304241	2515.218177
347.695159	2510.769358
348.086012	2512.354801
348.476802	2505.677793
348.867528	2505.773575
349.258191	2502.186794
349.648789	2504.775426
350.039324	2503.590755
350.429796	2501.780981
350.820203	2501.105466
351.210548	2501.193687
351.600828	2499.116731
351.991045	2497.382574
352.381198	2493.596668
352.771288	2495.320742
353.161314	2495.938284
353.551276	2496.644045
353.941175	2493.604229
354.331010	2493.483242
354.720782	2496.273520
355.110490	2494.398211
355.500135	2493.644559
355.889717	2495.887872
356.279235	2495.479539
356.668689	2499.583038
357.058080	2495.151864
357.447408	2496.601195
357.836672	2492.255721
358.225873	2494.524240
358.615010	2491.040803
359.004084	2496.190341
359.393095	2497.165805
359.782043	2500.349293
360.170927	2499.759478
360.559748	2501.307112
360.948505	2500.165291
361.337199	2502.872391
361.725830	2503.459685
362.114398	2502.960611
362.502903	2504.820797
362.891344	2504.707371
363.279722	2502.174191
363.668037	2503.842813
364.056289	2504.596465
364.444478	2505.556805
364.832603	2505.435817
365.220665	2505.327433
365.608665	2505.841630
365.996601	2504.725015
366.384474	2508.238699
366.772284	2507.290962
367.160031	2508.594100
367.547715	2509.882115
367.935336	2510.313134
368.322893	2510.708864
368.710388	2510.242558
369.097820	2510.799605
369.485189	2509.206601
369.872495	2508.248781
370.259738	2511.533093
370.646918	2511.308762
371.034035	2510.839934
371.421090	2512.432939
371.808081	2512.374966
372.195010	2512.042250
372.581875	2512.647188
372.968678	2514.648526
373.355418	2515.303876
373.742096	2512.223731
374.128710	2515.361849
374.515262	2512.798423
374.901751	2512.987466
375.288177	2515.669360
375.674540	2514.640964
376.060841	2514.875378
376.447079	2516.662467
376.833254	2516.254134
377.219367	2509.115860
377.605417	2516.622138
377.991404	2512.158196
378.377329	2517.761439
378.763191	2513.547034
379.148991	2519.331758
379.534727	2518.046264
379.920402	2519.414937
380.306013	2516.969978
380.691563	2518.200019
381.077049	2518.815040
381.462474	2521.549866
381.847835	2519.261182
382.233134	2518.036182
382.618371	2518.714217
383.003545	2521.630524
383.388657	2520.302180
383.773706	2522.270751
384.158693	2519.924094
384.543618	2524.995494
384.928480	2523.309228
385.313280	2524.771163
385.698017	2521.658251
386.082692	2524.251924
386.467305	2524.360309
386.851856	2522.820237
387.236344	2524.766122
387.620770	2526.848118
388.005133	2525.595392
388.389435	2527.442975
388.773674	2526.517923
389.157851	2525.398787
389.541965	2526.953983
389.926018	2526.089425
390.310008	2529.209899
390.693936	2530.066895
391.077802	2527.218643
391.461606	2532.282482
391.845348	2529.799714
392.229027	2533.842719
392.612645	2531.715352
392.996200	2531.990095
393.379694	2528.965403
393.763125	2534.276259
394.146494	2533.633512
394.529801	2533.890610
394.913047	2534.372041
395.296230	2535.087884
395.679351	2534.157792
396.062410	2536.857329
396.445408	2537.457227
396.828343	2537.676517
397.211217	2536.096115
397.594028	2540.262629
397.976778	2542.778165
398.359466	2547.204298
398.742092	2549.896274
399.124656	2559.769374
399.507158	2566.063254
399.889598	2574.292938
400.271977	2582.230235
400.654294	2591.248859
401.036549	2599.781012
401.418742	2612.323402
401.800874	2626.640279
402.182944	2645.148876
402.564952	2662.329128
402.946898	2675.622651
403.328783	2693.821216
403.710606	2702.892772
404.092367	2744.988928
404.474067	2761.498707
404.855705	2781.043260
405.237282	2792.799231
405.618797	2833.682988
406.000250	2866.538709
406.381642	2904.370048
406.762972	2925.938624
407.144240	2955.250413
407.525447	2990.072184
407.906593	3028.841177
408.287677	3072.626119
408.668700	3088.263778
409.049661	3135.698515
409.430560	3183.594518
409.811399	3201.336859
410.192176	3290.484624
410.572891	3306.828044
410.953545	3378.669528
411.334138	3375.251626
411.714669	3443.592028
412.095139	3442.929116
412.475547	3542.529713
412.855894	3576.386102
413.236180	3622.600880
413.616405	3642.899086
413.996568	3727.091397
414.376670	3737.085484
414.756711	3756.743463
415.136691	3813.267401
415.516609	3899.718148
415.896466	3960.206953
416.276262	4024.390924
416.655997	4055.590625
417.035670	4213.134245
417.415283	4313.049914
417.794834	4318.481757
418.174324	4328.143128
418.553753	4302.002225
418.933121	4472.262155
419.312428	4564.648861
419.691674	4562.783634
420.070859	4697.878996
420.449983	4660.889529
420.829045	4791.699910
421.208047	4744.613012
421.586988	4843.994319
421.965867	4882.387747
422.344686	5030.602711
422.723444	4931.070170
423.102141	4802.455212
423.480777	5084.399384
423.859352	4911.520575
424.237866	5165.461138
424.616319	5179.538560
424.994712	5298.025840
425.373044	5211.209609
425.751314	5362.887846
426.129524	5196.355850
426.507673	5397.074431
426.885762	5493.998176
427.263789	5441.784425
427.641756	5340.815154
428.019662	5472.195185
428.397508	5494.076313
428.775292	5450.853460
429.153016	5560.380089
429.530679	5498.545296
429.908282	5583.627370
430.285824	5467.728723
430.663305	5745.786166
431.040726	5486.827134
431.418086	5489.438452
431.795385	5603.285350
432.172624	5620.972238
432.549802	5620.183297
432.926920	5629.827025
433.303977	5645.421834
433.680974	5686.819790
434.057910	5704.703283
434.434786	5711.803748
434.811601	5686.267783
435.188355	5915.436117
435.565050	5795.849865
435.941683	5779.718173
436.318257	5992.187684
436.694770	5976.751671
437.071222	6009.196537
437.447614	5947.724707
437.823946	5860.288414
438.200218	6014.393967
438.576429	5879.023862
438.952580	5978.236291
439.328670	6024.425863
439.704700	5931.207366
440.080670	5920.439462
440.456580	6188.777560
440.832429	6077.108441
441.208218	5918.612043
441.583947	6071.076700
441.959616	6078.429223
442.335224	6005.375342
442.710773	6142.550180
443.086261	6169.028840
443.461689	5963.561492
443.837057	6114.032372
444.212365	6266.474344
444.587612	6159.720350
444.962800	6314.680378
445.337927	6292.201873
445.712995	5905.399179
446.088002	6485.104145
446.462949	6313.092414
446.837837	6245.425006
447.212664	6417.469505
447.587431	6560.310599
447.962139	7103.905780
448.336786	8024.826285
448.711374	7760.654700
449.085901	6845.599577
449.460369	6765.659480
449.834776	6698.241609
450.209124	7091.824655
450.583412	7239.943837
450.957640	7387.241311
451.331808	7148.804817
451.705917	6700.779830
452.079965	6624.091277
452.453954	6836.162537
452.827883	6714.365740
453.201752	6808.234545
453.575562	6607.034533
453.949311	6812.756460
454.323001	6702.604728
454.696632	6776.182889
455.070202	6912.944352
455.443713	7066.964204
455.817164	7173.047725
456.190556	7251.006649
456.563888	7321.081208
456.937160	7366.315482
457.310373	7027.950715
457.683526	7047.434774
458.056619	6940.801768
458.429653	6926.202586
458.802628	6858.940991
459.175542	6972.187992
459.548398	7330.059503
459.921194	7482.622463
460.293930	7486.562124
460.666607	8020.314452
461.039224	8322.340062
461.411782	8448.817570
461.784280	8465.476063
462.156719	8353.380966
462.529099	8232.357986
462.901419	7826.454361
463.273680	7724.091211
463.645882	7733.452634
464.018024	7598.969773
464.390106	7769.348170
464.762130	8156.927201
465.134094	8623.609498
465.505999	9641.337801
465.877845	10855.093892
466.249631	11503.892912
466.621358	11120.414860
466.993026	10492.839097
467.364634	10235.820909
467.736184	9875.494356
468.107674	9544.340960
468.479105	9578.278007
468.850477	9342.649435
469.221790	9116.994786
469.593043	8784.966750
469.964238	8648.142273
470.335373	8657.115527
470.706449	8719.903098
471.077467	8700.739152
471.448425	10009.793215
471.819324	11070.925852
472.190164	11098.067425
472.560945	9848.244399
472.931667	9063.694667
473.302330	8929.194162
473.672934	8576.855316
474.043479	8941.943240
474.413965	8872.471098
474.784393	8758.498172
475.154761	8915.363756
475.525070	9003.157971
475.895321	8831.604985
476.265513	9006.485132
476.635645	9171.623250
477.005719	9173.932098
477.375734	9287.955437
477.745691	9523.213484
478.115588	9653.494543
478.485427	9896.032017
478.855207	10431.188306
479.224928	11253.420663
479.594591	11880.996426
479.964194	11676.285250
480.333739	11629.344546
480.703226	11538.722244
481.072653	11627.053342
481.442022	11869.066535
481.811333	12055.027139
482.180584	11863.591842
482.549777	11575.477297
482.918912	11401.063456
483.287988	11419.123390
483.657005	11434.335072
484.025964	11114.156267
484.394864	11248.414797
484.763706	11217.625950
485.132489	10975.194341
485.501213	10937.234453
485.869879	11020.431135
486.238487	10852.729591
486.607036	10967.183948
486.975527	10745.363096
487.343959	10934.635738
487.712333	10987.280507
488.080648	10913.107490
488.448905	10959.554161
488.817104	10893.444470
489.185244	11164.441777
489.553326	11319.588328
489.921350	11863.090247
490.289315	12907.866861
490.657222	13258.655552
491.025070	13168.557530
491.392861	13037.674052
491.760593	12650.871359
492.128267	12310.674133
492.495883	11984.193886
492.863440	11639.862914
493.230939	11310.199179
493.598380	11242.756102
493.965763	11109.281472
494.333088	11011.498210
494.700354	10937.499113
495.067563	10994.335602
495.434713	10828.900056
495.801805	10955.347318
496.168839	10878.043745
496.535815	10814.883128
496.902733	10809.877262
497.269593	10748.302089
497.636395	10847.695998
498.003139	10834.024389
498.369825	10703.415655
498.736453	10861.531445
499.103023	10790.519232
499.469535	10813.040586
499.835989	10801.945007
500.202385	10763.518812
500.568723	10624.997986
500.935003	10843.411018
501.301226	10647.942798
501.667390	10907.393342
502.033497	11002.005718
502.399546	10865.176199
502.765537	10769.895871
503.131470	10842.753147
503.497345	11021.114211
503.863163	10622.318613
504.228923	10934.915522
504.594625	11003.883548
504.960269	10751.810732
505.325856	10970.722838
505.691385	10764.648030
506.056856	10917.248798
506.422270	10944.904568
506.787625	10836.124030
507.152924	10952.703233
507.518164	10933.088103
507.883347	10848.734476
508.248472	10767.788669
508.613540	11002.547642
508.978550	10889.464479
509.343503	10861.627227
509.708398	10979.048303
510.073236	11093.936199
510.438016	11097.621283
510.802738	11045.117665
511.167403	11103.829464
511.532010	10998.698721
511.896561	11234.032385
512.261053	11301.465380
512.625488	11168.152066
512.989866	11153.472226
513.354186	11149.953501
513.718449	11046.693026
514.082655	11239.340720
514.446803	11130.315686
514.810894	11254.852351
515.174927	11121.375200
515.538904	11142.543005
515.902822	11298.483537
516.266684	11176.520382
516.630488	11116.754982
516.994235	11177.969713
517.357925	11238.604712
517.721558	11327.182826
518.085133	11335.082314
518.448651	11352.766682
518.812112	11238.970195
519.175516	11253.012329
519.538863	11372.056657
519.902152	11295.347939
520.265385	11445.760847
520.628560	11354.210972
520.991678	11344.277379
521.354739	11403.881461
521.717743	11334.855462
522.080690	11316.687144
522.443580	11456.624533
522.806413	11402.399362
523.169189	11436.112078
523.531908	11498.007365
523.894569	11311.729169
524.257174	11324.992445
524.619722	11439.091400
524.982213	11385.859336
525.344647	11434.201481
525.707025	11388.526107
526.069345	11476.494241
526.431608	11394.585573
526.793815	11500.396872
527.155964	11295.375666
527.518057	11351.239212
527.880093	11292.590428
528.242072	11366.486182
528.603995	11271.667119
528.965860	11197.158865
529.327669	11248.359344
529.689421	11195.205418
530.051117	11162.390027
530.412755	11268.221491
530.774337	11163.214256
531.135862	11142.391770
531.497331	11166.886737
531.858743	11011.231029
532.220098	11177.516009
532.581396	11052.694520
532.942638	11039.209433
533.303824	11004.523774
533.664953	11017.610609
534.026025	10931.948803
534.387040	11024.078410
534.747999	11032.164421
535.108902	11088.315313
535.469748	10844.567963
535.830537	10947.646956
536.191270	10925.435632
536.551947	10953.482091
536.912567	10948.889600
537.273131	10877.542150
537.633638	10857.533810
537.994089	10843.007725
538.354483	10790.171392
538.714821	10941.869793
539.075103	10945.630494
539.435328	10914.685371
539.795497	10735.295912
540.155609	10892.821887
540.515665	10980.716925
540.875665	10721.495753
541.235609	10785.639395
541.595496	10786.090578
541.955328	10940.009608
542.315102	10822.243213
542.674821	10771.922415
543.034483	10774.190934
543.394090	10778.647314
543.753640	10695.490961
544.113134	10932.866293
544.472571	10786.319950
544.831953	10924.016547
545.191278	10728.812988
545.550548	10760.957905
545.909761	10893.925900
546.268918	10866.507064
546.628019	10950.971597
546.987064	10821.623151
547.346053	10734.655685
547.704986	10839.914978
548.063863	10818.364045
548.422684	10822.018881
548.781449	10730.647968
549.140158	10842.833806
549.498811	10711.365554
549.857408	10567.715355
550.215949	10796.770262
550.574434	10650.791050
550.932864	10749.948025
551.291237	10809.862139
551.649555	10756.826680
552.007817	10776.892993
552.366022	10732.036806
552.724173	10726.577236
553.082267	10706.500841
553.440305	10844.580565
553.798288	10645.817952
554.156215	10802.426437
554.514086	10781.382140
554.871902	10630.137442
555.229661	10663.824953
555.587365	10641.099432
555.945014	10533.160766
556.302606	10664.208081
556.660143	10553.670700
557.017625	10708.504700
557.375050	10604.818247
557.732421	10744.798487
558.089735	10652.268108
558.446994	10653.455300
558.804197	10691.500888
559.161345	10699.284429
559.518437	10540.745182
559.875474	10635.357557
560.232455	10659.655919
560.589381	10604.881262
560.946251	10611.938877
561.303065	10706.982271
561.659825	10654.145938
562.016528	10580.275390
562.373177	10459.030599
562.729770	10575.330018
563.086307	10490.545372
563.442789	10579.937633
563.799216	10464.245672
564.155587	10512.413897
564.511904	10466.418410
564.868164	10456.353746
565.224370	10472.896292
565.580520	10395.486854
565.936615	10400.412062
566.292654	10262.796123
566.648638	10399.313090
567.004567	10355.303817
567.360441	10341.725469
567.716260	10252.819680
568.072023	10346.333084
568.427732	10297.128902
568.783385	10207.073729
569.138982	10276.966807
569.494525	10295.919025
569.850013	10166.348768
570.205445	10254.435370
570.560823	10146.353031
570.916145	10061.066791
571.271412	10134.100507
571.626625	10076.780067
571.981782	10057.585874
572.336884	10035.119972
572.691931	10034.515033
573.046923	9977.663421
573.401860	9935.254714
573.756743	9872.353717
574.111570	9916.267208
574.466342	9900.226257
574.821059	9929.686760
575.175722	9814.435900
575.530330	9830.817130
575.884882	9821.490995
576.239380	9749.624306
576.593823	9725.910718
576.948211	9745.785467
577.302544	9622.690573
577.656823	9637.675402
578.011047	9639.555753
578.365216	9614.448286
578.719330	9538.334425
579.073389	9551.794306
579.427394	9496.293722
579.781344	9476.459303
580.135239	9427.277806
580.489080	9432.139998
580.842866	9337.310853
581.196597	9340.975772
581.550273	9379.280980
581.903895	9353.760138
582.257463	9416.535107
582.610975	9291.300242
582.964434	9321.476589
583.317837	9244.193180
583.671186	9229.956962
584.024481	9221.901198
584.377721	9140.080750
584.730906	9118.280281
585.084037	9149.207759
585.437113	9078.019105
585.790135	9098.433258
586.143103	9000.632353
586.496016	8974.191501
586.848874	9031.988330
587.201679	9021.023820
587.554428	8900.389008
587.907124	8952.731309
588.259765	8926.275333
588.612352	8923.802647
588.964884	8803.762692
589.317362	8819.793561
589.669786	8818.828180
590.022155	8867.608906
590.374470	8880.902428
590.726731	8813.328282
591.078937	8669.801590
591.431090	8788.351885
591.783188	8656.818099
592.135232	8649.271491
592.487222	8647.131522
592.839157	8704.666210
593.191038	8635.446127
593.542866	8579.333043
593.894639	8478.794792
594.246358	8532.777988
594.598022	8549.663333
594.949633	8447.708517
595.301190	8420.183817
595.652692	8453.652037
596.004141	8558.750012
596.355535	8338.605344
596.706876	8318.763363
597.058162	8254.720544
597.409395	8328.412131
597.760573	8391.711380
598.111698	8298.485322
598.462768	8287.712376
598.813785	8251.539576
599.164748	8217.650420
599.515657	8209.526600
599.866511	8123.479145
600.217312	8248.282991
600.568060	8103.082637
600.918753	8207.298410
601.269392	8178.294132
601.619978	8087.434895
601.970510	8161.305443
602.320988	8153.554669
602.671412	8212.092547
603.021783	8137.697720
603.372100	8115.856921
603.722363	8119.620142
604.072572	8090.242818
604.422728	8103.561546
604.772830	8036.247019
605.122878	8044.461579
605.472872	8037.310702
605.822813	8069.412770
606.172701	8013.718102
606.522534	8084.561437
606.872314	8084.130419
607.222041	8059.774084
607.571714	8106.261084
607.921333	8066.902276
608.270899	8073.896877
608.620411	8161.859970
608.969870	8068.228099
609.319276	8062.685350
609.668627	8069.881597
610.017926	8118.049823
610.367171	8160.851739
610.716362	8137.541444
611.065500	8123.340513
611.414585	8152.042323
611.763616	8145.398082
612.112594	8123.471583
612.461518	8144.253740
612.810389	8198.042852
613.159207	8138.146382
613.507971	8090.799865
613.856682	8209.582053
614.205340	8163.654621
614.553945	8242.505829
614.902496	8141.226527
615.250994	8190.445833
615.599439	8178.679780
615.947830	8191.166718
616.296169	8165.252667
616.644454	8177.543000
616.992686	8177.608535
617.340864	8228.037717
617.688990	8135.222513
618.037063	8231.705157
618.385082	8170.820621
618.733048	8260.417048
619.080961	8196.490176
619.428821	8215.505409
619.776628	8218.275523
620.124382	8175.829007
620.472083	8154.429309
620.819731	8179.337650
621.167326	8075.593225
621.514868	8088.662416
621.862357	7969.973490
622.209793	7985.553176
622.557176	7922.145543
622.904506	7892.553970
623.251783	7828.559042
623.599007	7784.980788
623.946179	7786.115047
624.293297	7740.225424
624.640363	7663.176429
624.987376	7644.433419
625.334336	7596.297961
625.681243	7542.770990
626.028097	7528.917899
626.374899	7510.313521
626.721647	7501.965370
627.068343	7431.931140
627.414987	7401.016264
627.761577	7358.146292
628.108115	7400.557519
628.454600	7290.370499
628.801032	7342.922007
629.147412	7301.067827
629.493739	7292.029038
629.840014	7224.890952
630.186236	7282.730630
630.532405	7166.113618
630.878521	7218.571865
631.224585	7177.373035
631.570597	7098.383196
631.916556	7135.034905
632.262462	7134.664380
632.608316	7090.887000
632.954117	7069.439411
633.299866	7049.063067
633.645562	7043.996708
633.991206	6964.659028
634.336797	6908.077117
634.682336	6868.577157
635.027823	6829.603996
635.373257	6828.842782
635.718639	6752.678509
636.063968	6771.300531
636.409245	6668.685324
636.754470	6656.921792
637.099642	6617.628518
637.444762	6561.931330
637.789829	6572.048926
638.134845	6515.729155
638.479808	6499.310117
638.824719	6503.348081
639.169577	6431.224293
639.514383	6456.427542
639.859137	6380.769905
640.203839	6392.460340
640.548489	6379.237394
640.893086	6352.703281
641.237632	6322.476522
641.582125	6344.423185
641.926566	6313.349513
642.270955	6326.322922
642.615292	6325.430638
642.959576	6340.533935
643.303809	6329.196380
643.647990	6337.645354
643.992118	6325.826369
644.336195	6274.164624
644.680219	6296.015506
645.024192	6288.993178
645.368112	6384.318877
645.711981	6403.366877
646.055797	6479.878989
646.399562	6440.063956
646.743274	6564.847637
647.086935	6617.943590
647.430544	6611.228773
647.774101	6635.869933
648.117606	6646.741182
648.461059	6634.065200
648.804460	6592.636998
649.147810	6503.648030
649.491108	6470.273071
649.834354	6450.463857
650.177548	6364.812132
650.520690	6280.277023
650.863781	6254.962869
651.206820	6277.557321
651.549807	6198.912800
651.892742	6140.294263
652.235626	6145.882382
652.578458	6135.268233
652.921238	6042.684922
653.263967	6080.811168
653.606644	6017.411097
653.949269	6024.365369
654.291843	5966.162727
654.634365	6013.211816
654.976836	5968.884950
655.319255	5962.386903
655.661622	5947.197906
656.003938	5941.125837
656.346203	5900.549589
656.688416	5932.505463
657.030577	5884.927053
657.372687	5856.245409
657.714746	5845.164953
658.056753	5886.061313
658.398708	5831.541234
658.740612	5816.178318
659.082465	5866.330237
659.424266	5857.268763
659.766016	5860.608527
660.107715	5831.067366
660.449362	5848.356003
660.790958	5843.609757
661.132503	5827.402447
661.473996	5862.569536
661.815438	5854.022260
662.156829	5846.573955
662.498168	5843.385425
662.839456	5819.815510
663.180693	5852.482187
663.521879	5852.756930
663.863013	5843.813923
664.204097	5861.094999
664.545129	5901.552779
664.886110	5900.274846
665.227040	5934.035454
665.567918	5896.400720
665.908746	5925.107570
666.249522	5926.859371
666.590248	5912.875210
666.930922	5945.564573
667.271545	5955.616633
667.612118	5960.851872
667.952639	5933.518735
668.293109	5951.717301
668.633528	5912.547535
668.973896	5916.204893
669.314213	5903.924642
669.654480	5888.259256
669.994695	5881.501589
670.334859	5869.614549
670.674973	5862.912335
671.015035	5867.333427
671.355047	5867.764445
671.695008	5856.779771
672.034918	5823.997148
672.374777	5836.960475
672.714585	5819.376930
673.054342	5824.377755
673.394049	5822.875491
673.733705	5849.212999
674.073310	5835.125495
674.412864	5791.075892
674.752368	5790.024812
675.091820	5791.479185
675.431223	5729.157920
675.770574	5728.784875
676.109875	5682.963307
676.449125	5685.012536
676.788324	5654.059851
677.127473	5595.716057
677.466571	5595.837045
677.805619	5577.850208
678.144616	5563.820677
678.483562	5541.657244
678.822458	5512.587430
679.161303	5511.339745
679.500098	5494.567826
679.838842	5479.404035
680.177535	5487.777392
680.516179	5499.608980
680.854771	5512.380743
681.193314	5594.997693
681.531805	5697.900246
681.870247	5849.482701
682.208638	5949.070695
682.546978	5963.251461
682.885268	5940.009221
683.223508	5857.593917
683.561697	5802.342871
683.899836	5773.310866
684.237925	5726.377724
684.575963	5691.674421
684.913951	5655.194111
685.251889	5713.948759
685.589776	5683.154871
685.927614	5656.202342
686.265401	5725.702209
686.603137	5708.040527
686.940824	5786.609430
687.278460	5811.086753
687.616046	5817.647814
687.953582	5883.586107
688.291068	5869.352409
688.628504	5932.238282
688.965889	5893.665894
689.303224	5834.323951
689.640510	5789.414832
689.977745	5712.398604
690.314930	5615.000991
690.652065	5557.993103
690.989150	5467.096058
691.326185	5394.626951
691.663170	5334.604453
692.000105	5258.518318
692.336990	5185.151885
692.673825	5161.110623
693.010610	5089.533800
693.347345	5022.168861
693.684030	5009.598744
694.020665	4964.898833
694.357251	4875.110841
694.693786	4885.273807
695.030272	4853.156616
695.366707	4818.682686
695.703093	4782.845123
696.039429	4803.211385
696.375716	4788.796205
696.711952	4762.945168
697.048139	4748.693826
697.384276	4727.783120
697.720363	4738.460284
698.056400	4752.963684
698.392388	4705.851580
698.728326	4681.195297
699.064214	4659.104961
699.400053	4652.904342
699.735842	4624.346205
700.071581	4595.392338
700.407270	4571.424172
700.742910	4553.278539
701.078501	4498.312318
701.414042	4497.382225
701.749533	4468.662771
702.084974	4402.424530
702.420366	4455.291111
702.755709	4398.278181
703.091002	4342.104604
703.426246	4396.423037
703.761440	4348.416129
704.096584	4312.563443
704.431679	4328.110361
704.766725	4316.992096
705.101721	4304.994150
705.436668	4335.125127
705.771565	4282.921458
706.106413	4310.642763
706.441212	4341.348431
706.775961	4347.002085
707.110661	4332.639838
707.445311	4355.030123
707.779913	4378.922671
708.114465	4395.334148
708.448967	4422.087551
708.783421	4478.921519
709.117825	4521.521790
709.452180	4523.775186
709.786485	4569.843770
710.120742	4657.723685
710.454949	4641.791118
710.789107	4705.884348
711.123216	4781.433600
711.457275	4771.542856
711.791286	4844.659752
712.125247	4865.154562
712.459159	4764.956589
712.793023	4839.031303
713.126837	4802.261127
713.460602	4791.785609
713.794318	4715.099577
714.127985	4719.142582
714.461602	4634.496568
714.795171	4600.138584
715.128691	4537.179614
715.462162	4482.757837
715.795584	4432.827729
716.128957	4421.744752
716.462281	4368.036299
716.795556	4336.387936
717.128782	4301.888799
717.461960	4233.006473
717.795088	4242.708174
718.128167	4201.368192
718.461198	4138.515085
718.794180	4136.148264
719.127113	4117.763176
719.459997	4092.476748
719.792833	4050.005027
720.125619	4044.116959
720.458357	4006.779653
720.791046	4013.227289
721.123686	3987.134277
721.456278	3945.111218
721.788821	3958.016572
722.121315	3935.979168
722.453761	3910.244077
722.786158	3925.168413
723.118506	3946.023667
723.450805	3896.718662
723.783056	3917.687341
724.115259	3935.772481
724.447412	3940.460754
724.779518	3932.616718
725.111574	3935.659055
725.443582	3965.784990
725.775542	3954.351653
726.107453	4004.843850
726.439315	4000.198427
726.771129	4018.528062
727.102895	4056.742529
727.434612	4099.748612
727.766281	4110.816466
728.097901	4112.651446
728.429473	4118.761324
728.760996	4129.703148
729.092471	4121.879278
729.423897	4105.245991
729.755276	4110.629943
730.086606	4109.110035
730.417887	4149.708968
730.749120	4212.131055
731.080305	4280.282414
731.411442	4306.115807
731.742530	4275.337042
732.073570	4276.524234
732.404562	4331.160259
732.735506	4326.613138
733.066401	4287.408085
733.397249	4221.769741
733.728048	4145.489522
734.058798	4064.261410
734.389501	3989.387672
734.720156	3929.566820
735.050762	3886.608628
735.381320	3879.059500
735.711831	3824.978001
736.042293	3796.051861
736.372707	3822.245696
736.703073	3789.087507
737.033391	3780.933440
737.363661	3801.403045
737.693883	3826.397086
738.024056	3833.588292
738.354182	3832.587623
738.684260	3894.276223
739.014290	3915.242382
739.344272	3910.717946
739.674207	3951.987352
740.004093	3958.855924
740.333931	3952.647743
740.663722	3951.536169
740.993464	3950.742187
741.323159	3923.726643
741.652806	3896.080956
741.982405	3866.650700
742.311956	3836.870083
742.641460	3827.377591
742.970915	3800.772901
743.300323	3764.630349
743.629683	3731.477200
743.958996	3716.759552
744.288260	3695.805996
744.617477	3657.405006
744.946647	3651.353101
745.275768	3620.899491
745.604842	3618.217597
745.933869	3570.649269
746.262847	3561.572672
746.591778	3600.737396
746.920662	3573.487439
747.249498	3541.589538
747.578286	3587.191816
747.907027	3602.975668
748.235720	3601.579269
748.564365	3626.601036
748.892963	3626.543062
749.221514	3609.945063
749.550017	3587.252309
749.878473	3584.041094
750.206881	3556.322310
750.535242	3548.170764
750.863555	3554.086558
751.191821	3548.697565
751.520039	3525.916591
751.848210	3507.198786
752.176334	3539.794887
752.504411	3544.788150
752.832440	3507.924712
753.160421	3491.326713
753.488356	3497.010614
753.816243	3511.196421
754.144082	3467.981130
754.471875	3452.429170
754.799620	3470.184114
755.127318	3462.176241
755.454969	3462.057774
755.782572	3470.403404
756.110129	3446.515897
756.437638	3434.626336
756.765100	3448.277780
757.092515	3460.555510
757.419882	3467.305615
757.747203	3440.605144
758.074477	3443.314764
758.401703	3457.654326
758.728882	3478.439004
759.056014	3485.836897
759.383099	3489.668174
759.710138	3482.855054
760.037129	3505.416738
760.364073	3533.236346
760.690970	3519.806712
761.017820	3495.112620
761.344623	3511.461082
761.671379	3559.415058
761.998088	3606.675875
762.324751	3739.727049
762.651366	3984.865757
762.977935	4458.494764
763.304456	4903.038834
763.630931	5000.025593
763.957359	4638.103514
764.283740	4292.008138
764.610074	4101.389508
764.936362	3903.809045
765.262602	3746.202411
765.588796	3635.778456
765.914943	3542.630536
766.241044	3455.433698
766.567097	3426.797424
766.893104	3381.555588
767.219064	3347.845393
767.544978	3322.415292
767.870845	3266.193824
768.196665	3249.542893
768.522438	3252.282760
768.848165	3252.063470
769.173846	3217.377811
769.499479	3198.342414
769.825066	3180.900021
770.150607	3166.121879
770.476101	3178.155113
770.801548	3179.100329
771.126949	3133.689616
771.452303	3113.736729
771.777611	3119.632358
772.102872	3123.670322
772.428087	3100.133175
772.753256	3090.922987
773.078378	3083.255392
773.403453	3048.824311
773.728482	3035.475336
774.053465	3059.501475
774.378401	3044.877088
774.703291	3015.028416
775.028135	3018.738705
775.352932	3008.737056
775.677683	2999.073164
776.002388	2993.457318
776.327046	2997.396980
776.651658	2987.090341
776.976224	2973.385964
777.300743	2974.152220
777.625216	2963.404480
777.949643	2957.902060
778.274024	2963.898513
778.598359	2951.386369
778.922647	2957.234108
779.246889	2955.217646
779.571086	2940.406736
779.895236	2931.965324
780.219339	2944.921089
780.543397	2958.023048
780.867409	2964.455560
781.191374	2951.086420
781.515294	2949.251440
781.839167	2950.839404
782.162995	2943.050821
782.486776	2953.163376
782.810511	2947.633230
783.134201	2935.756272
783.457844	2940.860440
783.781441	2932.232505
784.104993	2914.822880
784.428498	2913.076120
784.751958	2928.433996
785.075372	2920.937800
785.398739	2905.403484
785.722061	2920.829415
786.045337	2931.856939
786.368568	2919.811102
786.691752	2908.140831
787.014891	2958.943059
787.337983	2990.480517
787.661030	3016.941534
787.984031	3082.050556
788.306987	3130.208699
788.629897	3124.199643
788.952760	3105.960749
789.275579	3088.483068
789.598351	3032.818648
789.921078	2986.167810
790.243759	2979.851244
790.566395	2961.347689
790.888984	2937.934050
791.211529	2920.070721
791.534027	2911.480595
791.856480	2900.258987
792.178888	2884.517984
792.501249	2878.201418
792.823566	2873.520707
793.145836	2871.048021
793.468062	2868.053575
793.790241	2866.667258
794.112375	2870.387630
794.434464	2883.597973
794.756507	2890.121226
795.078505	2896.215981
795.400457	2906.943557
795.722364	2944.832869
796.044226	2968.478401
796.366042	2972.672641
796.687812	2961.521609
797.009538	2981.076245
797.331218	2968.654842
797.652852	2953.604477
797.974442	2935.499173
798.295986	2930.551280
798.617484	2925.583223
798.938938	2913.330699
799.260346	2896.634397
799.581709	2888.916391
799.903026	2884.633930
800.224299	2878.614793
800.545526	2868.829913
800.866708	2854.223170
801.187845	2841.980728
801.508936	2844.634895
801.829983	2851.334589
802.150984	2838.272959
802.471940	2827.149653
802.792851	2823.005825
803.113717	2824.808037
803.434538	2830.938080
803.755314	2824.893737
804.076045	2818.347798
804.396731	2819.885350
804.717372	2818.945175
805.037967	2813.699855
805.358518	2819.953406
805.679024	2828.084787
805.999485	2824.001452
806.319901	2830.315498
806.640272	2822.080773
806.960598	2828.427586
807.280879	2837.400839
807.601115	2844.932323
807.921306	2830.696105
808.241453	2825.894406
808.561554	2835.127279
808.881611	2836.253977
809.201623	2831.210302
809.521590	2830.680981
809.841513	2824.198057
810.161390	2828.213337
810.481223	2821.672439
810.801011	2813.788075
811.120755	2811.207004
811.440453	2812.653815
811.760107	2811.869916
812.079716	2811.819504
812.399281	2801.951446
812.718801	2794.619087
813.038276	2788.012655
813.357707	2796.149077
813.677093	2802.069913
813.996434	2794.593882
814.315731	2790.780249
814.634983	2786.563323
814.954191	2790.197995
815.273354	2804.729121
815.592473	2811.406130
815.911547	2814.811429
816.230577	2819.978612
816.549562	2830.083605
816.868502	2828.160404
817.187399	2838.998885
817.506250	2856.529498
817.825058	2849.255113
818.143821	2861.033769
818.462539	2876.517673
818.781213	2904.443144
819.099843	2941.944288
819.418429	2997.172649
819.736970	3061.114644
820.055466	3133.548463
820.373919	3240.287334
820.692327	3382.523490
821.010691	3549.892318
821.329011	3991.888085
821.647286	4899.623452
821.965517	6282.623680
822.283704	7027.529778
822.601847	7013.994280
822.919945	6370.559047
823.237999	5867.035998
823.556010	5280.401967
823.873976	4727.810847
824.191897	4309.838699
824.509775	4017.456817
824.827609	3747.137545
825.145398	3620.990232
825.463144	3613.287348
825.780845	3702.533416
826.098502	3807.144920
826.416116	4090.407354
826.733685	4409.605654
827.051210	4473.766940
827.368692	4359.231924
827.686129	4089.605811
828.003522	3765.162190
828.320872	3505.053775
828.638177	3307.490956
828.955439	3171.256294
829.272656	3086.804364
829.589830	3019.903212
829.906960	2970.845223
830.224046	2926.021803
830.541088	2890.038047
830.858086	2876.802498
831.175041	2855.375073
831.491952	2858.021679
831.808819	2872.729246
832.125642	2897.786301
832.442421	2939.285079
832.759157	3023.754653
833.075849	3198.677650
833.392497	3481.738439
833.709101	3686.676466
834.025662	3638.004126
834.342179	3479.127121
834.658653	3299.614153
834.975083	3150.867347
835.291469	3051.017213
835.607811	2968.745582
835.924110	2909.035636
836.240366	2856.499251
836.556578	2815.459217
836.872746	2794.412400
837.188871	2767.790067
837.504952	2753.543766
837.820990	2744.711664
838.136984	2731.221537
838.452935	2723.639641
838.768842	2721.789538
839.084706	2740.613206
839.400526	2816.038950
839.716303	2953.029785
840.032037	3033.065664
840.347727	3017.901873
840.663373	2956.712348
840.978977	2881.886502
841.294537	2809.198104
841.610054	2759.091556
841.925527	2739.655387
842.240957	2719.243755
842.556344	2697.559232
842.871687	2680.499967
843.186987	2670.526044
843.502244	2666.286434
843.817458	2662.180414
844.132629	2645.980666
844.447756	2639.785088
844.762840	2633.902062
845.077881	2636.881383
845.392879	2635.651342
845.707833	2629.919550
846.022745	2618.637448
846.337613	2625.402676
846.652438	2624.296143
846.967221	2621.470576
847.281960	2622.841770
847.596656	2617.944289
847.911309	2620.018724
848.225919	2617.170472
848.540485	2613.150152
848.855009	2615.280039
849.169490	2614.665018
849.483928	2614.433125
849.798323	2615.045626
850.112675	2612.265429
850.426984	2613.513115
850.741251	2611.105964
851.055474	2606.216045
851.369654	2614.861623
851.683792	2614.173506
851.997887	2612.572940
852.311938	2610.112857
852.625947	2612.320882
852.939914	2614.609566
853.253837	2616.474793
853.567718	2609.565891
853.881555	2613.545882
854.195350	2612.446911
854.509103	2613.041767
854.822812	2609.432301
855.136479	2609.235696
855.450103	2614.312138
855.763685	2614.160903
856.077224	2612.441870
856.390720	2606.697475
856.704173	2614.995214
857.017584	2614.846500
857.330953	2618.559310
857.644278	2618.050153
857.957561	2621.808333
858.270802	2615.363218
858.584000	2616.673918
858.897155	2617.961933
859.210268	2619.207098
859.523339	2613.624020
859.836367	2606.871395
860.149352	2609.734770
860.462295	2614.531428
860.775195	2607.451127
861.088054	2607.864502
861.400869	2608.603031
861.713642	2602.954418
862.026373	2605.318719
862.339062	2609.618823
862.651708	2614.337343
862.964312	2616.535287
863.276873	2615.670729
863.589392	2615.232148
863.901869	2621.087448
864.214303	2624.187758
864.526696	2624.948972
864.839045	2628.785290
865.151353	2630.161525
865.463619	2632.677061
865.775842	2633.095477
866.088023	2630.592544
866.400162	2630.343007
866.712258	2631.825106
867.024313	2629.838892
867.336325	2627.731689
867.648296	2628.013994
867.960224	2635.484984
868.272110	2633.493728
868.583954	2629.833850
868.895755	2628.543315
869.207515	2631.510034
869.519233	2639.941364
869.830909	2635.691671
870.142542	2630.315281
870.454134	2633.592031
870.765684	2638.328195
871.077191	2641.451189
871.388657	2644.218783
871.700081	2642.890439
872.011463	2640.218627
872.322803	2644.528814
872.634101	2646.943527
872.945357	2652.365287
873.256571	2659.773263
873.567744	2656.708242
873.878874	2655.909219
874.189963	2655.891575
874.501010	2661.744354
874.812015	2666.407422
875.122979	2665.101763
875.433900	2657.585402
875.744780	2657.106493
876.055618	2662.059426
876.366415	2665.479849
876.677169	2666.498162
876.987882	2660.932728
877.298554	2659.332162
877.609183	2671.433452
877.919771	2677.533248
878.230317	2684.868127
878.540822	2696.084694
878.851285	2708.433001
879.161707	2735.866960
879.472087	2771.555808
879.782425	2822.045485
880.092722	2934.042279
880.402977	3125.863224
880.713191	3385.543141
881.023363	3684.261753
881.333494	3876.758213
881.643583	4047.872619
881.953631	4046.846744
882.263637	3867.124568
882.573602	3645.006288
882.883526	3513.812780
883.193408	3398.241808
883.503248	3294.671302
883.813048	3182.281298
884.122806	3067.902558
884.432522	2979.397540
884.742197	2912.657705
885.051831	2879.680997
885.361424	2841.935357
885.670975	2804.245171
885.980485	2771.765016
886.289954	2756.094590
886.599382	2740.270408
886.908768	2731.627349
887.218113	2710.905687
887.527417	2697.685261
887.836680	2689.889116
888.145901	2686.294773
888.455082	2676.814884
888.764221	2665.278203
889.073319	2657.847542
889.382376	2657.522388
889.691392	2657.587923
890.000366	2660.146308
890.309300	2658.427275
890.618193	2659.264107
890.927044	2659.432985
891.235855	2662.555980
891.544625	2658.908705
891.853353	2662.929025
892.162041	2668.958245
892.470687	2688.091945
892.779293	2699.825230
893.087858	2708.894266
893.396381	2735.100704
893.704864	2773.531941
894.013306	2844.234123
894.321707	2939.353135
894.630068	2987.975064
894.938387	3009.483147
895.246665	3002.279338
895.554903	2959.132102
895.863100	2916.025195
896.171256	2855.128057
896.479371	2796.532205
896.787446	2757.642224
897.095480	2734.762947
897.403473	2729.787328
897.711425	2717.214691
898.019336	2695.893130
898.327207	2682.365194
898.635038	2681.936696
898.942827	2678.733043
899.250576	2666.241063
899.558284	2656.360402
899.865952	2652.801347
900.173579	2650.643733
900.481165	2649.907725
900.788711	2640.072434
901.096216	2636.347021
901.403681	2629.856536
901.711105	2631.527678
902.018489	2628.071967
902.325832	2635.230406
902.633135	2635.777371
902.940397	2650.426964
903.247619	2688.969106
903.554800	2758.141298
903.861941	2884.465052
904.169041	3017.720392
904.476101	3075.766758
904.783121	3069.999678
905.090100	3012.013806
905.397039	2936.174687
905.703938	2861.908409
906.010796	2797.167391
906.317614	2745.959350
906.624391	2709.746221
906.931129	2682.539114
907.237826	2657.817295
907.544483	2642.593011
907.851099	2626.194137
908.157675	2617.788013
908.464211	2609.205449
908.770707	2597.255394
909.077163	2597.066350
909.383578	2590.543097
909.689954	2592.194075
909.996289	2586.731985
910.302584	2589.161821
910.608839	2584.869279
910.915054	2586.981522
911.221229	2587.067222
911.527363	2590.724579
911.833458	2586.883220
912.139513	2589.955803
912.445527	2591.014445
912.751502	2597.885538
913.057436	2603.934923
913.363331	2611.418515
913.669186	2619.134001
913.975000	2633.586989
914.280775	2651.011738
914.586510	2667.224088
914.892205	2706.124152
915.197859	2773.234513
915.503475	2857.126874
915.809050	2926.614139
916.114585	2941.629216
916.420081	2954.453911
916.725536	2964.843729
917.030952	2940.237857
917.336328	2889.619632
917.641665	2840.077692
917.946961	2791.652368
918.252218	2756.545773
918.557435	2730.084756
918.862612	2707.573484
919.167750	2687.774352
919.472848	2673.316323
919.777906	2657.293015
920.082925	2642.388844
920.387904	2633.539098
920.692843	2631.240332
920.997743	2622.947634
921.302603	2616.315996
921.607423	2608.484564
921.912204	2606.447938
922.216946	2602.593976
922.521647	2597.560383
922.826310	2596.345465
923.130932	2590.550659
923.435516	2582.091603
923.740059	2586.096800
924.044564	2583.087231
924.349028	2581.471541
924.653454	2572.105077
924.957840	2572.841086
925.262186	2567.595765
925.566493	2572.589028
925.870761	2561.057388
926.174989	2567.580642
926.479178	2562.504200
926.783328	2563.658624
927.087438	2561.009498
927.391509	2560.628890
927.695541	2557.510937
927.999533	2557.425237
928.303486	2555.910370
928.607400	2556.863148
928.911275	2554.902140
929.215110	2553.873744
929.518906	2553.092365
929.822663	2554.488765
930.126381	2556.306101
930.430060	2555.159238
930.733699	2552.273178
931.037299	2556.449774
931.340861	2555.640669
931.644383	2557.742830
931.947866	2555.917932
932.251309	2554.569423
932.554714	2554.072870
932.858080	2555.849877
933.161407	2557.047151
933.464694	2553.868703
933.767943	2553.528425
934.071153	2553.374670
934.374323	2552.389124
934.677455	2553.001625
934.980548	2548.651109
935.283602	2552.137067
935.586617	2553.180586
935.889593	2553.777962
936.192530	2550.163455
936.495428	2552.522715
936.798287	2553.472973
937.101108	2556.162428
937.403890	2558.357851
937.706632	2562.229457
938.009336	2564.170301
938.312002	2565.044941
938.614628	2569.352607
938.917216	2575.790161
939.219765	2576.911817
939.522275	2577.957857
939.824747	2574.106415
940.127179	2569.261866
940.429573	2567.562997
940.731929	2564.235836
941.034246	2564.346741
941.336524	2566.650549
941.638763	2568.185580
941.940964	2566.033007
942.243126	2564.150136
942.545250	2563.976217
942.847335	2562.723490
943.149381	2560.152501
943.451389	2559.502192
943.753359	2557.216029
944.055290	2559.910526
944.357182	2553.188147
944.659036	2555.358364
944.960851	2554.889537
945.262628	2553.722510
945.564367	2557.165618
945.866067	2556.822819
946.167729	2554.468600
946.469352	2554.524053
946.770937	2557.006821
947.072484	2556.933725
947.373992	2552.981460
947.675462	2553.223435
947.976893	2553.944320
948.278286	2555.101265
948.579641	2550.690256
948.880958	2555.204609
949.182236	2551.625390
949.483476	2550.745708
949.784678	2550.470965
950.085841	2550.433157
950.386967	2552.121943
950.688054	2551.559855
950.989103	2552.994063
951.290114	2553.961964
951.591087	2556.106975
951.892021	2554.398024
952.192917	2558.030176
952.493776	2558.776266
952.794596	2560.099569
953.095378	2560.079405
953.396122	2561.780794
953.696828	2560.845660
953.997496	2557.674774
954.298126	2556.628735
954.598718	2556.590926
954.899272	2553.472972
955.199788	2551.325441
955.500266	2550.702858
955.800706	2546.420398
956.101108	2545.858310
956.401472	2545.172713
956.701798	2542.936961
957.002087	2543.307486
957.302337	2545.918803
957.602550	2543.141128
957.902724	2542.858823
958.202861	2541.583411
958.502960	2542.029553
958.803022	2543.756148
959.103045	2539.851775
959.403031	2539.592155
959.702979	2538.062165
960.002889	2538.987217
960.302762	2536.915303
960.602596	2538.346990
960.902393	2538.997299
961.202153	2537.994110
961.501875	2538.026877
961.801559	2538.296579
962.101205	2535.528985
962.400814	2539.854295
962.700385	2537.053934
962.999918	2540.111394
963.299414	2538.558719
963.598873	2537.242978
963.898293	2536.542257
964.197677	2539.423277
964.497022	2538.291538
964.796331	2537.691640
965.095601	2536.585107
965.394835	2537.389171
965.694030	2535.425642
965.993189	2533.797349
966.292309	2535.844057
966.591393	2535.914634
966.890439	2535.826413
967.189447	2536.524613
967.488419	2535.004705
967.787353	2535.534027
968.086249	2533.938501
968.385108	2536.053265
968.683930	2535.710467
968.982714	2535.768440
969.281462	2537.074099
969.580172	2536.698533
969.878844	2533.315919
970.177480	2536.000333
970.476078	2534.944212
970.774639	2536.776671
971.073162	2536.506969
971.371649	2535.710467
971.670098	2533.250384
971.968510	2535.105528
972.266885	2531.407842
972.565223	2537.227854
972.863524	2537.794984
973.161788	2538.220962
973.460014	2536.060827
973.758204	2538.301620
974.056356	2536.852288
974.354471	2536.426311
974.652550	2538.004192
974.950591	2537.338760
975.248595	2536.290200
975.546563	2536.320447
975.844493	2534.508152
976.142386	2535.836496
976.440243	2536.423790
976.738062	2538.498225
977.035845	2538.094933
977.333590	2536.575025
977.631299	2538.707433
977.928971	2537.293389
978.226606	2537.966383
978.524204	2535.241640
978.821765	2533.071423
979.119290	2535.362627
979.416777	2535.844057
979.714228	2536.348173
980.011642	2535.692823
980.309020	2537.139634
980.606360	2534.724921
980.903664	2535.350024
981.200931	2536.748945
981.498162	2539.115766
981.795356	2536.980838
982.092513	2540.933102
982.389633	2546.944678
982.686717	2549.361912
982.983764	2550.569268
983.280775	2553.110009
983.577749	2551.741336
983.874686	2554.513971
984.171587	2548.063814
984.468451	2546.559030
984.765279	2541.154913
985.062070	2540.396219
985.358824	2540.194573
985.655543	2538.828421
985.952224	2537.386651
986.248869	2536.698533
986.545478	2532.103521
986.842050	2536.249870
987.138586	2532.746268
987.435086	2529.056144
987.731549	2527.253931
988.027975	2532.726104
988.324366	2533.005888
988.620719	2535.397915
988.917037	2533.648635
989.213318	2529.615712
989.509563	2533.177287
989.805772	2535.145858
990.101944	2532.993285
990.398080	2531.564118
990.694180	2529.973634
990.990244	2533.189890
991.286271	2533.199972
991.582262	2534.062010
991.878217	2533.046217
992.174136	2534.931609
992.470019	2533.804911
992.765865	2531.735517
993.061676	2531.758202
993.357450	2532.012781
993.653188	2531.576721
993.948890	2533.792308
994.244556	2532.834489
994.540186	2534.051927
994.835780	2536.312885
995.131337	2535.712987
995.426859	2532.232071
995.722345	2533.726773
996.017795	2535.430683
996.313208	2536.965714
996.608586	2536.275076
996.903928	2537.706764
997.199234	2536.300282
997.494504	2537.283307
997.789738	2537.003523
998.084936	2536.340611
998.380099	2534.664428
998.675225	2533.550333
998.970316	2533.265507
999.265371	2535.861702
999.560390	2530.520599
999.855373	2534.457740
1000.150320	2532.945394
1000.445232	2532.970600
1000.740108	2533.043697
1001.034948	2533.789787
1001.329752	2533.774664
1001.624521	2531.400280
1001.919254	2527.916843
1002.213951	2528.975485
1002.508613	2528.920033
1002.803239	2531.057482
1003.097829	2526.386853
1003.392384	2533.993954
1003.686903	2532.090918
1003.981386	2532.564787
1004.275834	2530.591175
1004.570246	2530.376926
1004.864623	2532.390867
1005.158964	2531.818696
1005.453270	2529.792152
1005.747540	2530.455064
1006.041775	2528.995650
1006.335974	2532.405991
1006.630138	2531.110414
1006.924266	2528.078160
1007.218359	2530.727286
1007.512416	2528.907430
1007.806438	2531.221319
1008.100425	2529.761905
1008.394376	2529.741741
1008.688292	2530.220650
1008.982172	2530.679395
1009.276017	2529.046062
1009.569827	2531.619571
1009.863602	2534.069571
1010.157341	2527.619415
1010.451045	2533.252904
1010.744714	2528.390712
1011.038347	2528.027748
1011.331945	2530.727286
1011.625508	2530.838192
1011.919036	2531.077647
1012.212528	2532.146371
1012.505986	2528.678057
1012.799408	2528.337779
1013.092795	2529.716535
1013.386147	2533.436907
1013.679464	2528.899868
1013.972745	2529.701412
1014.265992	2528.645290
1014.559204	2529.678726
1014.852380	2530.389529
1015.145521	2530.379447
1015.438628	2530.412214
1015.731699	2530.003881
1016.024736	2530.661751
1016.317737	2531.327184
1016.610703	2529.882893
1016.903635	2528.259642
1017.196531	2527.042203
1017.489393	2525.713859
1017.782219	2524.771163
1018.075011	2527.032121
1018.367768	2531.576721
1018.660490	2531.518747
1018.953177	2531.518747
1019.245829	2531.518747
