Dividing Wavelength (nm)	Counts (n)	Blue Motor Position (mm): 40.500000	Red Motor Position (mm): 0.000000	
326.493990	2131.094856
326.888308	2131.094856
327.282561	2131.094856
327.676750	2094.327201
328.070874	2095.617736
328.464933	2098.103025
328.858929	2104.946391
329.252859	2115.726899
329.646726	2128.720473
330.040528	2139.188429
330.434265	2155.083187
330.827938	2173.052380
331.221547	2190.887982
331.615091	2209.454552
332.008571	2229.157902
332.401986	2249.869482
332.795338	2270.951588
333.188625	2289.107303
333.581847	2307.174798
333.975006	2325.751450
334.368100	2342.558657
334.761129	2360.903416
335.154095	2377.604759
335.546996	2400.668038
335.939833	2425.220978
336.332606	2437.591969
336.725315	2450.532611
337.117960	2460.554425
337.510540	2469.593214
337.903056	2482.475882
338.295508	2486.602067
338.687896	2494.713283
339.080220	2503.462206
339.472480	2510.328257
339.864676	2517.867303
340.256807	2521.970802
340.648875	2525.126564
341.040879	2526.086904
341.432818	2527.755526
341.824694	2528.758716
342.216506	2526.785104
342.608253	2527.773170
342.999937	2530.654190
343.391557	2530.003881
343.783113	2527.720238
344.174605	2526.273427
344.566033	2528.055475
344.957397	2524.940042
345.348697	2522.303518
345.739934	2521.938035
346.131106	2518.731861
346.522215	2520.271933
346.913260	2513.519308
347.304241	2512.546365
347.695159	2512.909328
348.086012	2512.780779
348.476802	2508.599142
348.867528	2506.267608
349.258191	2503.157216
349.648789	2505.254336
350.039324	2500.878614
350.429796	2503.474809
350.820203	2499.653614
351.210548	2499.114211
351.600828	2498.542040
351.991045	2499.300733
352.381198	2499.124293
352.771288	2495.300578
353.161314	2495.812255
353.551276	2498.352996
353.941175	2495.892913
354.331010	2494.506596
354.720782	2497.203613
355.110490	2493.470639
355.500135	2498.491628
355.889717	2496.651607
356.279235	2496.331494
356.668689	2497.687564
357.058080	2498.194200
357.447408	2495.565238
357.836672	2492.991729
358.225873	2498.161432
358.615010	2493.389980
359.004084	2500.104797
359.393095	2499.852740
359.782043	2503.235354
360.170927	2499.330980
360.559748	2502.227123
360.948505	2500.256032
361.337199	2503.779798
361.725830	2504.853564
362.114398	2506.310458
362.502903	2505.491270
362.891344	2503.759634
363.279722	2506.507063
363.668037	2505.123266
364.056289	2506.922958
364.444478	2509.211642
364.832603	2510.013185
365.220665	2509.393123
365.608665	2505.624861
365.996601	2509.773730
366.384474	2510.976046
366.772284	2509.821621
367.160031	2509.287259
367.547715	2509.224245
367.935336	2509.877074
368.322893	2510.358504
368.710388	2511.863289
369.097820	2513.993176
369.485189	2510.227434
369.872495	2512.483351
370.259738	2510.287928
370.646918	2515.964267
371.034035	2513.693227
371.421090	2515.928979
371.808081	2515.228259
372.195010	2514.986283
372.581875	2514.237672
372.968678	2515.981911
373.355418	2518.479803
373.742096	2517.380832
374.128710	2517.786644
374.515262	2515.099709
374.901751	2517.118692
375.288177	2521.012983
375.674540	2517.504340
376.060841	2519.062056
376.447079	2519.745133
376.833254	2520.891995
377.219367	2517.519463
377.605417	2516.178516
377.991404	2517.224556
378.377329	2516.614576
378.763191	2518.308404
379.148991	2523.001718
379.534727	2523.894002
379.920402	2522.502644
380.306013	2523.667150
380.691563	2524.198992
381.077049	2524.340144
381.462474	2524.385515
381.847835	2526.999353
382.233134	2525.146729
382.618371	2526.202851
383.003545	2525.847449
383.388657	2527.130423
383.773706	2527.901720
384.158693	2529.656041
384.543618	2530.152595
384.928480	2529.068747
385.313280	2532.131248
385.698017	2533.331042
386.082692	2535.949922
386.467305	2539.675334
386.851856	2543.133566
387.236344	2546.677497
387.620770	2553.374670
388.005133	2560.134857
388.389435	2570.847309
388.773674	2577.582291
389.157851	2589.058477
389.541965	2604.907865
389.926018	2611.390789
390.310008	2630.995836
390.693936	2648.667601
391.077802	2665.603357
391.461606	2684.129598
391.845348	2707.601210
392.229027	2727.753223
392.612645	2746.377766
392.996200	2778.086623
393.379694	2812.578198
393.763125	2848.806450
394.146494	2867.183976
394.529801	2905.161509
394.913047	2949.556430
395.296230	2971.142651
395.679351	3015.013292
396.062410	3056.333110
396.445408	3078.398240
396.828343	3123.622431
397.211217	3165.748833
397.594028	3167.193124
397.976778	3230.101683
398.359466	3277.291924
398.742092	3327.756395
399.124656	3324.124243
399.507158	3397.586458
399.889598	3447.035136
400.271977	3516.046011
400.654294	3535.303219
401.036549	3579.582194
401.418742	3593.853700
401.800874	3694.049154
402.182944	3742.398860
402.564952	3820.095644
402.946898	3845.087164
403.328783	3877.990775
403.710606	3842.957277
404.092367	4020.415974
404.474067	4027.801265
404.855705	4061.309814
405.237282	4031.645144
405.618797	4146.603617
406.000250	4202.310887
406.381642	4294.488385
406.762972	4289.071666
407.144240	4325.428467
407.525447	4342.454964
407.906593	4418.200821
408.287677	4482.125173
408.668700	4434.950055
409.049661	4502.786342
409.430560	4554.566553
409.811399	4507.590561
410.192176	4665.018234
410.572891	4620.845124
410.953545	4734.651692
411.334138	4633.168224
411.714669	4704.913926
412.095139	4616.562663
412.475547	4764.523049
412.855894	4752.056276
413.236180	4773.191313
413.616405	4732.244541
413.996568	4819.980783
414.376670	4769.370119
414.756711	4727.757914
415.136691	4763.436681
415.516609	4842.030790
415.896466	4883.784147
416.276262	4919.606586
416.655997	4901.884409
417.035670	5081.503242
417.415283	5171.286192
417.794834	5123.561588
418.174324	5076.928394
418.553753	4985.567563
418.933121	5171.863404
419.312428	5243.735134
419.691674	5178.353889
420.070859	5305.453981
420.449983	5219.066248
420.829045	5333.316438
421.208047	5243.241101
421.586988	5313.910516
421.965867	5324.784285
422.344686	5458.798319
422.723444	5315.886648
423.102141	5132.943175
423.480777	5432.929638
423.859352	5204.157035
424.237866	5458.906704
424.616319	5452.229695
424.994712	5558.739194
425.373044	5438.427016
425.751314	5580.819448
426.129524	5383.269231
426.507673	5577.661165
426.885762	5662.246685
427.263789	5590.344708
427.641756	5474.350278
428.019662	5600.285863
428.397508	5606.050423
428.775292	5550.630498
429.153016	5651.085571
429.530679	5577.401545
429.908282	5662.138300
430.285824	5532.431932
430.663305	5806.509385
431.040726	5543.383839
431.418086	5542.446185
431.795385	5651.433410
432.172624	5662.796171
432.549802	5655.426004
432.926920	5666.234238
433.303977	5677.365106
433.680974	5714.523451
434.057910	5727.950564
434.434786	5734.809054
434.811601	5705.560279
435.188355	5941.445950
435.565050	5813.377957
435.941683	5795.902797
436.318257	6012.322052
436.694770	5996.455021
437.071222	6029.121698
437.447614	5958.749710
437.823946	5874.547318
438.200218	6027.846286
438.576429	5895.337036
438.952580	5989.165512
439.328670	6038.389859
439.704700	5945.191527
440.080670	5926.108239
440.456580	6195.273087
440.832429	6083.929122
441.208218	5929.546306
441.583947	6084.193783
441.959616	6084.929791
442.335224	6014.225088
442.710773	6149.345655
443.086261	6179.098545
443.461689	5976.648327
443.837057	6119.131499
444.212365	6280.052692
444.587612	6172.134191
444.962800	6325.975083
445.337927	6304.250230
445.712995	5913.066774
446.088002	6491.556822
446.462949	6324.218241
446.837837	6256.712150
447.212664	6424.943015
447.587431	6567.078348
447.962139	7116.523788
448.336786	8031.150412
448.711374	7777.051053
449.085901	6852.526123
449.460369	6772.296159
449.834776	6699.574994
450.209124	7094.912361
450.583412	7250.487410
450.957640	7397.570635
451.331808	7157.752865
451.705917	6710.451284
452.079965	6633.677031
452.453954	6845.811306
452.827883	6722.066102
453.201752	6815.972716
453.575562	6615.002077
453.949311	6818.934394
454.323001	6708.429781
454.696632	6783.371574
455.070202	6920.148160
455.443713	7072.970739
455.817164	7178.217429
456.190556	7260.821776
456.563888	7334.974628
456.937160	7377.421143
457.310373	7035.623351
457.683526	7058.152267
458.056619	6952.315763
458.429653	6935.954698
458.802628	6872.683176
459.175542	6987.182904
459.548398	7336.005544
459.921194	7490.542115
460.293930	7498.189546
460.666607	8033.900362
461.039224	8336.299017
461.411782	8462.975651
461.784280	8478.610790
462.156719	8372.098771
462.529099	8247.564627
462.901419	7839.150507
463.273680	7732.794763
463.645882	7741.836073
464.018024	7609.417564
464.390106	7775.226155
464.762130	8164.773757
465.134094	8634.999985
465.505999	9652.851796
465.877845	10882.467357
466.249631	11522.177177
466.621358	11137.950513
466.993026	10512.812148
467.364634	10254.505946
467.736184	9891.852900
468.107674	9559.232528
468.479105	9593.744267
468.850477	9357.936734
469.221790	9126.169686
469.593043	8801.582393
469.964238	8663.192638
470.335373	8674.971294
470.706449	8728.498265
471.077467	8718.494095
471.448425	10023.527838
471.819324	11098.987435
472.190164	11113.609302
472.560945	9862.664619
472.931667	9081.865506
473.302330	8947.211245
473.672934	8585.783200
474.043479	8952.567471
474.413965	8897.618894
474.784393	8774.783619
475.154761	8927.891023
475.525070	9019.771093
475.895321	8846.609979
476.265513	9020.615487
476.635645	9196.992857
477.005719	9190.066311
477.375734	9306.693406
477.745691	9544.734170
478.115588	9676.557822
478.485427	9916.539430
478.855207	10457.462800
479.224928	11270.109403
479.594591	11904.722616
479.964194	11709.014942
480.333739	11648.364820
480.703226	11569.896740
481.072653	11652.803556
481.442022	11891.842468
481.811333	12078.521436
482.180584	11884.815100
482.549777	11590.683938
482.918912	11420.454254
483.287988	11441.644745
483.657005	11459.676952
484.025964	11139.609053
484.394864	11266.008424
484.763706	11234.352498
485.132489	10990.983235
485.501213	10956.652977
485.869879	11030.349605
486.238487	10873.874710
486.607036	10985.377472
486.975527	10769.197671
487.343959	10965.444749
487.712333	11005.985709
488.080648	10940.286871
488.448905	10978.702984
488.817104	10922.927658
489.185244	11177.395022
489.553326	11339.374857
489.921350	11879.557176
490.289315	12935.860389
490.657222	13285.053554
491.025070	13192.235829
491.392861	13060.684399
491.760593	12683.671626
492.128267	12337.813184
492.495883	12002.979746
492.863440	11668.768890
493.230939	11333.297746
493.598380	11266.837694
493.965763	11133.138732
494.333088	11036.444360
494.700354	10947.480598
495.067563	11020.058090
495.434713	10851.660866
495.801805	10972.953548
496.168839	10899.985367
496.535815	10835.990439
496.902733	10834.094965
497.269593	10764.816909
497.636395	10859.837618
498.003139	10851.824703
498.369825	10719.509538
498.736453	10880.851667
499.103023	10804.631942
499.469535	10837.522950
499.835989	10820.113325
500.202385	10785.531010
500.568723	10633.184820
500.935003	10863.200067
501.301226	10664.197998
501.667390	10923.910683
502.033497	11017.887873
502.399546	10880.423169
502.765537	10791.532503
503.131470	10862.574964
503.497345	11034.500995
503.863163	10647.088322
504.228923	10958.256064
504.594625	11024.627896
504.960269	10767.148442
505.325856	10992.971970
505.691385	10783.938005
506.056856	10935.578433
506.422270	10961.195057
506.787625	10854.211690
507.152924	10965.464914
507.518164	10951.488315
507.883347	10865.957578
508.248472	10790.302462
508.613540	11019.009530
508.978550	10915.373489
509.343503	10885.103881
509.708398	11003.444967
510.073236	11117.352359
510.438016	11120.266146
510.802738	11062.970912
511.167403	11125.887032
511.532010	11020.915086
511.896561	11247.590568
512.261053	11326.167033
512.625488	11182.748727
512.989866	11174.312356
513.354186	11164.333392
513.718449	11063.981663
514.082655	11254.597772
514.446803	11153.036166
514.810894	11279.450661
515.174927	11139.974537
515.538904	11161.439770
515.902822	11317.980200
516.266684	11202.888137
516.630488	11141.635597
516.994235	11198.724144
517.357925	11256.682289
517.721558	11342.639004
518.085133	11366.274453
518.448651	11380.104859
518.812112	11253.302196
519.175516	11273.789445
519.538863	11390.824873
519.902152	11309.281689
520.265385	11475.395270
520.628560	11384.530992
520.991678	11362.554082
521.354739	11422.576580
521.717743	11356.396313
522.080690	11345.187307
522.443580	11471.110289
522.806413	11426.380131
523.169189	11456.422887
523.531908	11514.867504
523.894569	11341.361071
524.257174	11343.614467
524.619722	11452.647063
524.982213	11406.681822
525.344647	11468.927469
525.707025	11406.424723
526.069345	11508.563541
526.431608	11418.289079
526.793815	11533.547500
527.155964	11315.389047
527.518057	11366.715554
527.880093	11318.925416
528.242072	11391.581046
528.603995	11295.726026
528.965860	11213.257790
529.327669	11269.880030
529.689421	11208.511544
530.051117	11185.831393
530.412755	11284.080961
530.774337	11180.545743
531.135862	11156.650674
531.497331	11185.060096
531.858743	11036.658609
532.220098	11204.249248
532.581396	11065.274719
532.942638	11059.018647
533.303824	11013.867553
533.664953	11030.861282
534.026025	10942.913312
534.387040	11045.026925
534.747999	11051.711495
535.108902	11107.529671
535.469748	10863.890705
535.830537	10973.447581
536.191270	10948.972779
536.551947	10972.867848
536.912567	10968.547580
537.273131	10895.755839
537.633638	10881.121369
537.994089	10866.597805
538.354483	10814.268107
538.714821	10957.071393
539.075103	10967.259565
539.435328	10934.083731
539.795497	10758.651577
540.155609	10910.649928
540.515665	10998.998669
540.875665	10742.867725
541.235609	10808.342231
541.595496	10801.637496
541.955328	10959.067690
542.315102	10839.342807
542.674821	10793.569130
543.034483	10791.741711
543.394090	10794.605087
543.753640	10719.277645
544.113134	10947.089908
544.472571	10794.584922
544.831953	10940.342324
545.191278	10752.415670
545.550548	10777.757551
545.909761	10909.462736
546.268918	10888.925075
546.628019	10973.432458
546.987064	10834.957003
547.346053	10754.976576
547.704986	10858.700837
548.063863	10847.799342
548.422684	10840.749288
548.781449	10750.830227
549.140158	10858.612617
549.498811	10731.532690
549.857408	10587.305279
550.215949	10819.372276
550.574434	10673.556901
550.932864	10767.708010
551.291237	10827.599439
551.649555	10778.102870
552.007817	10787.333222
552.366022	10750.593293
552.724173	10748.954918
553.082267	10733.957485
553.440305	10856.820487
553.798288	10667.623463
554.156215	10823.876547
554.514086	10797.428133
554.871902	10645.578497
555.229661	10680.611995
555.587365	10658.919910
555.945014	10559.188243
556.302606	10673.763588
556.660143	10571.415562
557.017625	10727.635878
557.375050	10625.038315
557.732421	10759.773234
558.089735	10671.598412
558.446994	10674.872642
558.804197	10711.247087
559.161345	10709.104597
559.518437	10562.288553
559.875474	10649.760134
560.232455	10681.073261
560.589381	10622.784920
560.946251	10622.311051
561.303065	10733.382794
561.659825	10672.941880
562.016528	10598.189130
562.373177	10477.123300
562.729770	10593.631927
563.086307	10510.493218
563.442789	10605.067784
563.799216	10481.677982
564.155587	10530.993070
564.511904	10481.355348
564.868164	10476.256221
565.224370	10480.395009
565.580520	10406.423638
565.936615	10419.540720
566.292654	10283.855544
566.648638	10414.136603
567.004567	10375.733093
567.360441	10361.693480
567.716260	10268.437175
568.072023	10368.592299
568.427732	10319.315020
568.783385	10222.844979
569.138982	10298.031268
569.494525	10305.325818
569.850013	10184.824597
570.205445	10274.514286
570.560823	10160.987501
570.916145	10078.587321
571.271412	10152.974587
571.626625	10094.149363
571.981782	10067.151463
572.336884	10039.929233
572.691931	10047.995079
573.046923	10001.079580
573.401860	9954.272467
573.756743	9886.663032
574.111570	9933.795300
574.466342	9911.972145
574.821059	9946.514131
575.175722	9836.866514
575.530330	9845.166774
575.884882	9840.138223
576.239380	9766.371019
576.593823	9743.002750
576.948211	9763.172407
577.302544	9643.157657
577.656823	9655.609307
578.011047	9657.807250
578.365216	9630.438826
578.719330	9554.201457
579.073389	9564.200585
579.427394	9515.185446
579.781344	9492.192744
580.135239	9438.423797
580.489080	9453.723699
580.842866	9349.144962
581.196597	9356.237866
581.550273	9396.872086
581.903895	9360.696766
582.257463	9431.469525
582.610975	9304.944125
582.964434	9339.511317
583.317837	9259.626673
583.671186	9241.586904
584.024481	9230.030058
584.377721	9149.129622
584.730906	9126.320921
585.084037	9163.837188
585.437113	9100.200182
585.790135	9111.895659
586.143103	9016.597687
586.496016	8989.662802
586.848874	9046.237151
587.201679	9033.079739
587.554428	8916.830732
587.907124	8963.806724
588.259765	8938.197662
588.612352	8938.737066
588.964884	8814.175195
589.317362	8828.827309
589.669786	8827.446033
590.022155	8876.123414
590.374470	8901.349348
590.726731	8832.129265
591.078937	8689.169703
591.431090	8797.327659
591.783188	8668.327053
592.135232	8667.749841
592.487222	8661.604674
592.839157	8716.162562
593.191038	8646.108167
593.542866	8593.849046
593.894639	8492.607553
594.246358	8546.570585
594.598022	8565.553049
594.949633	8456.381822
595.301190	8436.025642
595.652692	8462.370713
596.004141	8574.193587
596.355535	8343.701951
596.706876	8325.914240
597.058162	8261.364785
597.409395	8342.915531
597.760573	8404.644460
598.111698	8313.069380
598.462768	8300.269890
598.813785	8266.148840
599.164748	8233.426711
599.515657	8223.654434
599.866511	8132.344014
600.217312	8260.752285
600.568060	8115.677960
600.918753	8220.453301
601.269392	8188.651182
601.619978	8102.460054
601.970510	8167.012029
602.320988	8161.290320
602.671412	8220.539001
603.021783	8155.853435
603.372100	8123.506872
603.722363	8133.614385
604.072572	8105.308306
604.422728	8117.777600
604.772830	8042.581229
605.122878	8051.892240
605.472872	8047.665232
605.822813	8075.517607
606.172701	8018.229935
606.522534	8097.716328
606.872314	8103.228830
607.222041	8064.701812
607.571714	8114.420192
607.921333	8081.788803
608.270899	8083.933814
608.620411	8174.225920
608.969870	8074.141372
609.319276	8072.364366
609.668627	8087.492868
610.017926	8127.749002
610.367171	8178.410078
610.716362	8147.560737
611.065500	8141.755848
611.414585	8170.566043
611.763616	8152.133064
612.112594	8138.164026
612.461518	8153.108527
612.810389	8210.814615
613.159207	8153.234556
613.507971	8100.466278
613.856682	8217.516829
614.205340	8176.350767
614.553945	8252.913291
614.902496	8153.015266
615.250994	8204.908903
615.599439	8183.930142
615.947830	8197.974796
616.296169	8172.726177
616.644454	8189.934156
616.992686	8193.236112
617.340864	8239.261846
617.688990	8147.250706
618.037063	8236.146413
618.385082	8183.327724
618.733048	8268.805528
619.080961	8210.663380
619.428821	8233.328408
619.776628	8234.112308
620.124382	8186.778393
620.472083	8167.070002
620.819731	8190.460956
621.167326	8088.952282
621.514868	8092.652489
621.862357	7979.004717
622.209793	8004.533120
622.557176	7935.396216
622.904506	7906.086947
623.251783	7841.953388
623.599007	7792.633259
623.946179	7799.632902
624.293297	7756.193279
624.640363	7672.152203
624.987376	7651.823750
625.334336	7608.391689
625.681243	7551.340951
626.028097	7539.239661
626.374899	7521.772063
626.721647	7508.899477
627.068343	7444.657533
627.414987	7411.968171
627.761577	7366.396140
628.108115	7398.772951
628.454600	7298.940460
628.801032	7347.151535
629.147412	7309.894888
629.493739	7294.257228
629.840014	7234.882518
630.186236	7293.034749
630.532405	7176.548807
630.878521	7226.073102
631.224585	7185.910229
631.570597	7107.064063
631.916556	7141.606049
632.262462	7133.532641
632.608316	7101.324709
632.954117	7076.892757
633.299866	7058.679068
633.645562	7056.657565
633.991206	6973.743187
634.336797	6918.797131
634.682336	6873.835080
635.027823	6843.343661
635.373257	6840.013979
635.718639	6766.851713
636.063968	6773.611900
636.409245	6669.796899
636.754470	6673.819739
637.099642	6631.925230
637.444762	6569.780406
637.789829	6579.358599
638.134845	6523.084198
638.479808	6507.779255
638.824719	6512.646489
639.169577	6439.733761
639.514383	6460.160516
639.859137	6392.299023
640.203839	6399.555764
640.548489	6384.278548
640.893086	6358.843406
641.237632	6332.316854
641.582125	6354.059351
641.926566	6323.376368
642.270955	6335.843142
642.615292	6332.016906
642.959576	6350.865780
643.303809	6332.662173
643.647990	6338.976219
643.992118	6337.554613
644.336195	6282.263238
644.680219	6301.054139
645.024192	6296.698582
645.368112	6389.733076
645.711981	6413.872641
646.055797	6487.551625
646.399562	6446.927487
646.743274	6570.312248
647.086935	6626.153109
647.430544	6619.347552
647.774101	6641.841180
648.117606	6645.821171
648.461059	6641.873948
648.804460	6606.195181
649.147810	6511.429051
649.491108	6483.964844
649.834354	6457.544157
650.177548	6371.612649
650.520690	6288.819258
650.863781	6264.329333
651.206820	6284.703156
651.549807	6211.959306
651.892742	6144.649820
652.235626	6151.273896
652.578458	6142.930787
652.921238	6043.488986
653.263967	6085.955666
653.606644	6026.185225
653.949269	6032.705958
654.291843	5967.533921
654.634365	6017.101066
654.976836	5973.084231
655.319255	5979.499100
655.661622	5947.525581
656.003938	5944.621877
656.346203	5907.975209
656.688416	5938.035609
657.030577	5893.154217
657.372687	5861.664649
657.714746	5845.500189
658.056753	5890.837806
658.398708	5828.448486
658.740612	5826.631150
659.082465	5872.120002
659.424266	5864.553230
659.766016	5862.866964
660.107715	5838.412327
660.449362	5854.962435
660.790958	5847.052865
661.132503	5833.706410
661.473996	5870.353078
661.815438	5858.158527
662.156829	5853.404718
662.498168	5850.556467
662.839456	5823.064534
663.180693	5857.218351
663.521879	5862.811512
663.863013	5850.390108
664.204097	5864.870823
664.545129	5908.300363
664.886110	5903.486061
665.227040	5943.585920
665.567918	5901.782151
665.908746	5925.836017
666.249522	5935.389003
666.590248	5917.533237
666.930922	5946.590447
667.271545	5960.917407
667.612118	5965.653571
667.952639	5938.955620
668.293109	5954.595800
668.633528	5918.619605
668.973896	5919.146406
669.314213	5907.234159
669.654480	5892.889556
669.994695	5887.845882
670.334859	5875.734509
670.674973	5866.095823
671.015035	5873.065218
671.355047	5869.987594
671.695008	5857.719946
672.034918	5835.521225
672.374777	5840.511968
672.714585	5821.436241
673.054342	5829.025698
673.394049	5827.278939
673.733705	5860.477457
674.073310	5845.351475
674.412864	5804.868489
674.752368	5794.337519
675.091820	5799.325741
675.431223	5735.595474
675.770574	5732.361573
676.109875	5687.333987
676.449125	5690.693916
676.788324	5662.329864
677.127473	5601.029433
677.466571	5591.521817
677.805619	5580.524540
678.144616	5571.866358
678.483562	5547.865425
678.822458	5514.019118
679.161303	5507.790772
679.500098	5498.973794
679.838842	5485.481146
680.177535	5488.473071
680.516179	5507.916801
680.854771	5512.869735
681.193314	5597.346871
681.531805	5703.518612
681.870247	5857.172981
682.208638	5954.817610
682.546978	5971.836546
682.885268	5948.564059
683.223508	5862.962746
683.561697	5805.672553
683.899836	5777.343789
684.237925	5731.348302
684.575963	5692.753228
684.913951	5654.921889
685.251889	5718.395057
685.589776	5687.107135
685.927614	5658.675028
686.265401	5727.040636
686.603137	5712.426331
686.940824	5790.690244
687.278460	5811.427030
687.616046	5820.571683
687.953582	5888.450820
688.291068	5868.205546
688.628504	5936.840856
688.965889	5898.543210
689.303224	5840.350651
689.640510	5800.026461
689.977745	5722.312033
690.314930	5623.144975
690.652065	5563.649278
690.989150	5472.911029
691.326185	5393.064193
691.663170	5340.961348
692.000105	5264.161889
692.336990	5190.092216
692.673825	5165.420809
693.010610	5095.996559
693.347345	5026.133728
693.684030	5009.228219
694.020665	4968.946879
694.357251	4879.995719
694.693786	4889.377307
695.030272	4857.386144
695.366707	4819.632943
695.703093	4787.009116
696.039429	4807.718176
696.375716	4791.707472
696.711952	4763.706382
697.048139	4754.975104
697.384276	4732.849480
697.720363	4750.155761
698.056400	4752.373869
698.392388	4706.582548
698.728326	4686.475906
699.064214	4665.335827
699.400053	4657.058252
699.735842	4625.278818
700.071581	4599.707566
700.407270	4568.064243
700.742910	4556.129311
701.078501	4503.134181
701.414042	4498.430785
701.749533	4466.346361
702.084974	4403.778080
702.420366	4460.720433
702.755709	4401.612905
703.091002	4340.254501
703.426246	4394.819950
703.761440	4348.804297
704.096584	4316.858506
704.431679	4339.004294
704.766725	4317.811284
705.101721	4309.879028
705.436668	4339.147967
705.771565	4282.397178
706.106413	4313.599400
706.441212	4344.862115
706.775961	4352.859906
707.110661	4336.534129
707.445311	4356.900391
707.779913	4383.810070
708.114465	4397.277512
708.448967	4415.309720
708.783421	4483.330008
709.117825	4520.352242
709.452180	4528.302142
709.786485	4572.792845
710.120742	4659.346936
710.454949	4642.665758
710.789107	4709.513979
711.123216	4784.692706
711.457275	4774.335655
711.791286	4850.744424
712.125247	4860.720868
712.459159	4763.953399
712.793023	4842.892827
713.126837	4800.116116
713.460602	4799.178462
713.794318	4713.642684
714.127985	4724.823963
714.461602	4638.373216
714.795171	4608.522023
715.128691	4542.223288
715.462162	4485.999299
715.795584	4436.051547
716.128957	4416.083537
716.462281	4365.130074
716.795556	4338.583358
717.128782	4303.383501
717.461960	4233.334148
717.795088	4242.710694
718.128167	4201.902554
718.461198	4146.270901
718.794180	4136.135661
719.127113	4119.724184
719.459997	4097.250721
719.792833	4055.792271
720.125619	4045.024367
720.458357	4012.874408
720.791046	4018.628885
721.123686	3990.874813
721.456278	3945.643060
721.788821	3962.636789
722.121315	3937.103345
722.453761	3909.893717
722.786158	3925.798558
723.118506	3948.758493
723.450805	3899.251842
723.783056	3922.972991
724.115259	3933.700566
724.447412	3942.096608
724.779518	3931.898354
725.111574	3940.599385
725.443582	3965.379177
725.775542	3954.691931
726.107453	4002.323273
726.439315	4005.012729
726.771129	4021.454452
727.102895	4057.012231
727.434612	4102.339765
727.766281	4115.413998
728.097901	4114.428452
728.429473	4121.276860
728.760996	4129.393118
729.092471	4122.343064
729.423897	4106.914613
729.755276	4114.325109
730.086606	4116.916262
730.417887	4152.181653
730.749120	4214.616344
731.080305	4280.365593
731.411442	4304.565652
731.742530	4276.965335
732.073570	4282.855923
732.404562	4336.604705
732.735506	4326.401410
733.066401	4289.787509
733.397249	4225.863158
733.728048	4149.630830
734.058798	4063.701842
734.389501	3993.579392
734.720156	3931.326183
735.050762	3886.137280
735.381320	3878.736866
735.711831	3830.523271
736.042293	3799.326090
736.372707	3822.449863
736.703073	3796.306439
737.033391	3784.081641
737.363661	3800.830874
737.693883	3827.513702
738.024056	3835.347655
738.354182	3833.817665
738.684260	3894.951737
739.014290	3917.702465
739.344272	3910.009664
739.674207	3953.361066
740.004093	3960.111171
740.333931	3954.341571
740.663722	3957.998928
740.993464	3952.378041
741.323159	3927.956172
741.652806	3897.121954
741.982405	3871.966596
742.311956	3838.904189
742.641460	3828.337930
742.970915	3804.901606
743.300323	3763.027262
743.629683	3730.305132
743.958996	3721.639389
744.288260	3698.709700
744.617477	3664.775173
744.946647	3647.922596
745.275768	3622.358905
745.604842	3622.152217
745.933869	3573.111873
746.262847	3561.986046
746.591778	3603.714197
746.920662	3573.595824
747.249498	3542.522151
747.578286	3590.027465
747.907027	3605.569342
748.235720	3605.206379
748.564365	3629.262765
748.892963	3629.776963
749.221514	3606.194445
749.550017	3588.772217
749.878473	3589.006631
750.206881	3559.052095
750.535242	3556.188719
750.863555	3552.730488
751.191821	3549.010116
751.520039	3529.304246
751.848210	3506.283817
752.176334	3540.961914
752.504411	3546.499622
752.832440	3506.939167
753.160421	3489.259840
753.488356	3500.698218
753.816243	3514.730270
754.144082	3469.196048
754.471875	3454.390179
754.799620	3474.171667
755.127318	3464.606078
755.454969	3465.231181
755.782572	3469.402735
756.110129	3446.979683
756.437638	3436.030297
756.765100	3449.288532
757.092515	3461.788073
757.419882	3470.085812
757.747203	3439.405349
758.074477	3445.059003
758.401703	3459.275057
758.728882	3479.595948
759.056014	3488.299501
759.383099	3491.440139
759.710138	3487.525683
760.037129	3503.304495
760.364073	3535.588044
760.690970	3518.369983
761.017820	3494.283350
761.344623	3516.537524
761.671379	3562.946386
761.998088	3610.522276
762.324751	3737.075402
762.651366	3986.899863
762.977935	4465.464159
763.304456	4907.742230
763.630931	4996.900077
763.957359	4639.736848
764.283740	4297.596257
764.610074	4104.353706
764.936362	3904.295516
765.262602	3749.960591
765.588796	3636.282572
765.914943	3549.610014
766.241044	3458.017289
766.567097	3428.617280
766.893104	3380.809498
767.219064	3349.229189
767.544978	3321.396979
767.870845	3267.824637
768.196665	3249.000969
768.522438	3260.814913
768.848165	3252.484406
769.173846	3216.387224
769.499479	3197.692105
769.825066	3183.339940
770.150607	3167.767816
770.476101	3183.690300
770.801548	3176.526820
771.126949	3132.547794
771.452303	3116.098509
771.777611	3122.410034
772.102872	3127.110910
772.428087	3101.322887
772.753256	3090.998604
773.078378	3081.249013
773.403453	3051.168448
773.728482	3036.463402
774.053465	3058.021896
774.378401	3048.017727
774.703291	3015.971112
775.028135	3016.180319
775.352932	3011.862571
775.677683	2997.734738
776.002388	2996.597957
776.327046	2996.595437
776.651658	2987.879282
776.976224	2973.322950
777.300743	2977.423929
777.625216	2966.751806
777.949643	2962.043368
778.274024	2962.613019
778.598359	2951.898046
778.922647	2957.171093
779.246889	2955.147070
779.571086	2941.094853
779.895236	2935.731066
780.219339	2947.615586
780.543397	2957.886937
780.867409	2963.633852
781.191374	2954.637913
781.515294	2950.098354
781.839167	2950.088272
782.162995	2944.396809
782.486776	2956.777883
782.810511	2951.950978
783.134201	2935.143771
783.457844	2944.353959
783.781441	2936.835078
784.104993	2911.311717
784.428498	2917.240113
784.751958	2930.891558
785.075372	2924.380908
785.398739	2911.130235
785.722061	2923.549118
786.045337	2931.589758
786.368568	2916.564599
786.691752	2912.582087
787.014891	2960.488172
787.337983	2989.681494
787.661030	3018.078314
787.984031	3085.231524
788.306987	3130.052423
788.629897	3123.307359
788.952760	3106.963938
789.275579	3092.947010
789.598351	3029.027700
789.921078	2988.796772
790.243759	2977.479381
790.566395	2959.694191
790.888984	2937.613937
791.211529	2920.267326
791.534027	2910.477406
791.856480	2901.305026
792.178888	2885.372459
792.501249	2876.482385
792.823566	2873.303937
793.145836	2874.607075
793.468062	2871.340408
793.790241	2868.787063
794.112375	2873.480378
794.434464	2883.963457
794.756507	2887.784652
795.078505	2892.493089
795.400457	2910.096798
795.722364	2946.947633
796.044226	2968.750623
796.366042	2972.796149
796.687812	2963.235601
797.009538	2979.642036
797.331218	2967.883545
797.652852	2954.829477
797.974442	2933.870880
798.295986	2934.450613
798.617484	2928.381063
798.938938	2914.611152
799.260346	2894.353275
799.581709	2891.089128
799.903026	2886.698283
800.224299	2881.642006
800.545526	2872.298227
800.866708	2853.530011
801.187845	2844.836541
801.508936	2848.730833
801.829983	2852.781400
802.150984	2841.292610
802.471940	2829.287102
802.792851	2827.043789
803.113717	2828.026814
803.434538	2830.897751
803.755314	2826.695949
804.076045	2823.164621
804.396731	2817.861327
804.717372	2817.901656
805.037967	2810.975111
805.358518	2820.545742
805.679024	2831.472442
805.999485	2826.174190
806.319901	2833.975375
806.640272	2822.509271
806.960598	2828.788028
807.280879	2837.839420
807.601115	2845.920389
807.921306	2831.401866
808.241453	2829.483707
808.561554	2835.301199
808.881611	2840.254132
809.201623	2830.300374
809.521590	2827.653768
809.841513	2824.929025
810.161390	2831.139726
810.481223	2825.876762
810.801011	2815.081131
811.120755	2809.916469
811.440453	2812.863023
811.760107	2813.833445
812.079716	2812.293373
812.399281	2800.519758
812.718801	2796.862401
813.038276	2791.009621
813.357707	2796.438944
813.677093	2802.689975
813.996434	2796.970786
814.315731	2793.336114
814.634983	2789.139353
814.954191	2792.958027
815.273354	2803.932619
815.592473	2814.629947
815.911547	2814.309834
816.230577	2822.536997
816.549562	2830.870025
816.868502	2828.954386
817.187399	2841.045594
817.506250	2858.729961
817.825058	2851.974815
818.143821	2864.484438
818.462539	2879.897766
818.781213	2905.839544
819.099843	2945.175668
819.418429	3002.922085
819.736970	3062.901733
820.055466	3133.001498
820.373919	3240.985534
820.692327	3380.527193
821.010691	3551.293759
821.329011	3999.966534
821.647286	4897.985077
821.965517	6290.709691
822.283704	7040.515791
822.601847	7021.235898
822.919945	6384.402056
823.237999	5872.271237
823.556010	5287.683913
823.873976	4731.193461
824.191897	4320.019309
824.509775	4019.455634
824.827609	3748.690220
825.145398	3624.627424
825.463144	3615.707102
825.780845	3705.474929
826.098502	3813.201866
826.416116	4096.129064
826.733685	4414.074637
827.051210	4482.374710
827.368692	4364.414230
827.686129	4094.931790
828.003522	3766.117489
828.320872	3509.878160
828.638177	3310.999599
828.955439	3173.156809
829.272656	3089.135898
829.589830	3020.540918
829.906960	2973.174236
830.224046	2924.204468
830.541088	2891.762122
830.858086	2876.550440
831.175041	2860.320445
831.491952	2859.937318
831.808819	2873.777806
832.125642	2898.532392
832.442421	2942.881943
832.759157	3026.549973
833.075849	3204.359031
833.392497	3488.659943
833.709101	3692.231818
834.025662	3641.870691
834.342179	3483.003768
834.658653	3302.099442
834.975083	3152.863644
835.291469	3057.333779
835.607811	2971.314050
835.924110	2909.204514
836.240366	2860.302801
836.556578	2817.251347
836.872746	2794.588840
837.188871	2770.340890
837.504952	2755.729106
837.820990	2749.611666
838.136984	2730.654407
838.452935	2724.471432
838.768842	2721.567727
839.084706	2740.628330
839.400526	2822.035402
839.716303	2954.171607
840.032037	3033.826878
840.347727	3020.752646
840.663373	2956.558593
840.978977	2882.612428
841.294537	2809.127528
841.610054	2761.188676
841.925527	2740.250243
842.240957	2717.993549
842.556344	2696.356917
842.871687	2680.462158
843.186987	2671.340191
843.502244	2668.459171
843.817458	2662.208140
844.132629	2648.614669
844.447756	2640.813483
844.762840	2635.525313
845.077881	2634.559932
845.392879	2636.445324
845.707833	2629.954838
846.022745	2622.884620
846.337613	2627.603140
846.652438	2624.661627
846.967221	2625.135495
847.281960	2625.201030
847.596656	2622.148611
847.911309	2623.209774
848.225919	2617.364556
848.540485	2616.701645
848.855009	2616.958743
849.169490	2614.564195
849.483928	2615.766511
849.798323	2613.797940
850.112675	2610.967332
850.426984	2611.927672
850.741251	2613.379524
851.055474	2610.400202
851.369654	2618.118209
851.683792	2616.661315
851.997887	2613.702158
852.311938	2610.755604
852.625947	2615.184257
852.939914	2614.876747
853.253837	2620.931173
853.567718	2609.402054
853.881555	2610.518669
854.195350	2613.195522
854.509103	2615.706017
854.822812	2608.877774
855.136479	2611.844493
855.450103	2615.766511
855.763685	2615.063270
856.077224	2611.904987
856.390720	2611.506736
856.704173	2611.494133
857.017584	2618.680297
857.330953	2618.347581
857.644278	2620.643827
857.957561	2620.439660
858.270802	2616.641151
858.584000	2614.196191
858.897155	2617.588888
859.210268	2621.699949
859.523339	2613.681993
859.836367	2611.050511
860.149352	2611.390789
860.462295	2615.224587
860.775195	2608.930706
861.088054	2608.845006
861.400869	2608.250150
861.713642	2605.870726
862.026373	2605.621188
862.339062	2609.734770
862.651708	2616.515122
862.964312	2616.691562
863.276873	2613.797940
863.589392	2617.422530
863.901869	2621.475617
864.214303	2626.441154
864.526696	2628.336628
864.839045	2630.645476
865.151353	2634.413739
865.463619	2631.759571
865.775842	2634.050776
866.088023	2633.486166
866.400162	2633.004736
866.712258	2633.110600
867.024313	2630.852163
867.336325	2627.202368
867.648296	2632.039355
867.960224	2634.033132
868.272110	2633.934829
868.583954	2628.150105
868.895755	2630.804272
869.207515	2631.061371
869.519233	2640.296765
869.830909	2637.319964
870.142542	2632.314098
870.454134	2635.232926
870.765684	2636.795684
871.077191	2639.825417
871.388657	2646.010913
871.700081	2642.829945
872.011463	2640.639564
872.322803	2643.918834
872.634101	2646.361273
872.945357	2656.909888
873.256571	2660.302584
873.567744	2657.250166
873.878874	2657.436688
874.189963	2659.037255
874.501010	2662.286278
874.812015	2667.889521
875.122979	2666.551094
875.433900	2659.029693
875.744780	2656.362922
876.055618	2664.048162
876.366415	2668.063441
876.677169	2666.898934
876.987882	2662.634118
877.298554	2661.928356
877.609183	2672.512259
877.919771	2678.828825
878.230317	2686.491378
878.540822	2696.735003
878.851285	2711.734956
879.161707	2734.468040
879.472087	2773.594955
879.782425	2824.530774
880.092722	2938.271807
880.402977	3129.558390
880.713191	3388.983729
881.023363	3688.788710
881.333494	3882.439593
881.643583	4055.721695
881.953631	4055.928382
882.263637	3877.242164
882.573602	3653.629182
882.883526	3524.681508
883.193408	3407.104156
883.503248	3303.921819
883.813048	3186.989735
884.122806	3071.201993
884.432522	2983.957264
884.742197	2917.938313
885.051831	2879.650750
885.361424	2843.356963
885.670975	2810.430666
885.980485	2777.136366
886.289954	2759.353696
886.599382	2743.249730
886.908768	2731.539129
887.218113	2713.610266
887.527417	2699.119469
887.836680	2693.886751
888.145901	2685.367201
888.455082	2678.213804
888.764221	2666.687206
889.073319	2661.940959
889.382376	2658.366781
889.691392	2657.802172
890.000366	2659.364930
890.309300	2658.949034
890.618193	2659.778304
890.927044	2662.621515
891.235855	2662.629077
891.544625	2661.139416
891.853353	2661.162101
892.162041	2670.896569
892.470687	2690.010104
892.779293	2701.365303
893.087858	2709.300079
893.396381	2734.586507
893.704864	2774.832558
894.013306	2847.163034
894.321707	2942.667693
894.630068	2994.591578
894.938387	3016.497912
895.246665	3011.066069
895.554903	2962.930611
895.863100	2920.284970
896.171256	2860.138964
896.479371	2798.473049
896.787446	2759.552821
897.095480	2737.717063
897.403473	2732.658265
897.711425	2715.750235
898.019336	2695.600743
898.327207	2685.367201
898.635038	2682.939886
898.942827	2682.029957
899.250576	2671.761127
899.558284	2659.884168
899.865952	2654.076759
900.173579	2650.691624
900.481165	2650.827736
900.788711	2643.634009
901.096216	2633.783594
901.403681	2629.521299
901.711105	2632.614047
902.018489	2629.632204
902.325832	2633.869294
902.633135	2637.004892
902.940397	2653.441574
903.247619	2688.901050
903.554800	2759.426792
903.861941	2888.371946
904.169041	3015.323323
904.476101	3083.532655
904.783121	3077.122828
905.090100	3018.703417
905.397039	2939.907662
905.703938	2865.664068
906.010796	2801.737197
906.317614	2748.762231
906.624391	2710.885522
906.931129	2682.965091
907.237826	2659.841319
907.544483	2644.012096
907.851099	2629.188583
908.157675	2618.125771
908.464211	2610.642178
908.770707	2600.496856
909.077163	2597.522575
909.383578	2592.988057
909.689954	2591.148036
909.996289	2589.552511
910.302584	2591.831112
910.608839	2589.643251
910.915054	2586.921028
911.221229	2588.294743
911.527363	2591.793303
911.833458	2592.153746
912.139513	2591.584096
912.445527	2595.400249
912.751502	2598.432503
913.057436	2606.402567
913.363331	2608.978597
913.669186	2622.299846
913.975000	2638.141672
914.280775	2653.237407
914.586510	2669.767351
914.892205	2711.762683
915.197859	2779.442694
915.503475	2860.454036
915.809050	2931.340221
916.114585	2949.135494
916.420081	2961.166208
916.725536	2972.672641
917.030952	2941.939247
917.336328	2896.871331
917.641665	2846.094309
917.946961	2795.518933
918.252218	2761.223964
918.557435	2732.204562
918.862612	2708.211190
919.167750	2691.116637
919.472848	2676.588032
919.777906	2658.132367
920.082925	2643.971766
920.387904	2636.788122
920.692843	2629.959879
920.997743	2625.682460
921.302603	2619.771707
921.607423	2610.218721
921.912204	2602.868718
922.216946	2604.229830
922.521647	2598.820672
922.826310	2594.190372
923.130932	2590.361616
923.435516	2588.400607
923.740059	2582.822570
924.044564	2582.225193
924.349028	2582.643609
924.653454	2572.591548
924.957840	2572.097515
925.262186	2569.249263
925.566493	2568.901424
925.870761	2564.308933
926.174989	2570.113821
926.479178	2564.540826
926.783328	2562.887327
927.087438	2563.966134
927.391509	2564.261042
927.695541	2557.095042
927.999533	2557.082439
928.303486	2556.762325
928.607400	2556.043961
928.911275	2555.527243
929.215110	2556.621173
929.518906	2554.667726
929.822663	2554.755946
930.126381	2555.451625
930.430060	2555.985988
930.733699	2554.423230
931.037299	2555.617983
931.340861	2553.704866
931.644383	2556.742161
931.947866	2557.347099
932.251309	2555.915412
932.554714	2557.589075
932.858080	2559.461863
933.161407	2554.377860
933.464694	2553.394835
933.767943	2555.988508
934.071153	2554.365257
934.374323	2553.445246
934.677455	2554.576985
934.980548	2553.951882
935.283602	2554.864331
935.586617	2552.913404
935.889593	2551.650595
936.192530	2552.139587
936.495428	2554.271995
936.798287	2551.665719
937.101108	2555.030689
937.403890	2559.469425
937.706632	2559.867676
938.009336	2562.617626
938.312002	2568.730025
938.614628	2573.130952
938.917216	2577.131107
939.219765	2575.535582
939.522275	2576.979873
939.824747	2572.944429
940.127179	2572.899059
940.429573	2565.433110
940.731929	2570.416291
941.034246	2567.605847
941.336524	2567.696588
941.638763	2565.105435
941.940964	2567.981413
942.243126	2567.973852
942.545250	2562.668037
942.847335	2559.310629
943.149381	2560.591082
943.451389	2556.500185
943.753359	2558.599826
944.055290	2559.338355
944.357182	2556.530432
944.659036	2558.526729
944.960851	2556.369115
945.262628	2555.063457
945.564367	2558.264589
945.866067	2557.619322
946.167729	2557.959599
946.469352	2556.739640
946.770937	2557.125288
947.072484	2557.571431
947.373992	2556.996739
947.675462	2556.374157
947.976893	2557.024465
948.278286	2554.173693
948.579641	2551.970709
948.880958	2550.904505
949.182236	2553.296532
949.483476	2553.465411
949.784678	2553.422561
950.085841	2553.790565
950.386967	2554.554300
950.688054	2554.299722
950.989103	2552.779814
951.290114	2554.713096
951.591087	2554.831563
951.892021	2555.799465
952.192917	2559.403890
952.493776	2560.548232
952.794596	2561.896741
953.095378	2559.582851
953.396122	2561.687533
953.696828	2557.019424
953.997496	2558.390618
954.298126	2553.621687
954.598718	2555.368446
954.899272	2553.243600
955.199788	2553.533466
955.500266	2552.926007
955.800706	2546.987528
956.101108	2542.901673
956.401472	2546.057435
956.701798	2545.712116
957.002087	2542.127856
957.302337	2549.039278
957.602550	2544.918134
957.902724	2540.663401
958.202861	2541.878319
958.502960	2539.874460
958.803022	2541.611138
959.103045	2540.499563
959.403031	2543.118443
959.702979	2543.642723
960.002889	2537.832793
960.302762	2539.372865
960.602596	2539.307330
960.902393	2538.462937
961.202153	2538.399922
961.501875	2537.157278
961.801559	2539.705581
962.101205	2538.616692
962.400814	2535.871784
962.700385	2539.420756
962.999918	2540.310520
963.299414	2538.291538
963.598873	2537.043852
963.898293	2539.554347
964.197677	2538.364634
964.497022	2537.558050
964.796331	2537.956301
965.095601	2536.746424
965.394835	2537.111908
965.694030	2534.135106
965.993189	2537.779861
966.292309	2538.594007
966.591393	2538.523431
966.890439	2536.683410
967.189447	2536.849768
967.488419	2534.878677
967.787353	2536.118800
968.086249	2536.106198
968.385108	2536.212062
968.683930	2538.619213
968.982714	2538.679707
969.281462	2534.770292
969.580172	2535.528985
969.878844	2538.009233
970.177480	2536.459078
970.476078	2538.906558
970.774639	2539.035108
971.073162	2537.001002
971.371649	2535.211393
971.670098	2538.084850
971.968510	2535.592000
972.266885	2534.182997
972.565223	2537.550488
972.863524	2539.279604
973.161788	2538.334388
973.460014	2537.865560
973.758204	2535.085364
974.056356	2536.663245
974.354471	2539.163657
974.652550	2538.379758
974.950591	2538.853626
975.248595	2537.797505
975.546563	2535.471012
975.844493	2535.508821
976.142386	2536.229706
976.440243	2536.259953
976.738062	2538.019315
977.035845	2535.685261
977.333590	2538.299099
977.631299	2534.719880
977.928971	2538.588966
978.226606	2535.042514
978.524204	2540.653318
978.821765	2535.402957
979.119290	2535.493697
979.416777	2536.801877
979.714228	2535.203831
980.011642	2538.626774
980.309020	2538.205838
980.606360	2535.486136
980.903664	2535.960004
981.200931	2537.401774
981.498162	2540.688606
981.795356	2538.740200
982.092513	2544.693803
982.389633	2545.810419
982.686717	2549.437529
982.983764	2553.553631
983.280775	2554.448436
983.577749	2552.452139
983.874686	2551.678322
984.171587	2548.794782
984.468451	2547.915100
984.765279	2543.398227
985.062070	2540.292876
985.358824	2540.635674
985.655543	2539.261960
985.952224	2538.326826
986.248869	2537.517721
986.545478	2533.061341
986.842050	2532.158974
987.138586	2533.694005
987.435086	2532.509334
987.731549	2527.632018
988.027975	2532.635363
988.324366	2533.232740
988.620719	2534.064530
988.917037	2533.608306
989.213318	2533.260466
989.509563	2531.841381
989.805772	2532.542102
990.101944	2532.297606
990.398080	2535.760878
990.694180	2534.130065
990.990244	2532.519417
991.286271	2533.928419
991.582262	2533.373892
991.878217	2533.961187
992.174136	2532.834489
992.470019	2532.917668
992.765865	2531.473377
993.061676	2534.762730
993.357450	2533.046217
993.653188	2534.704757
993.948890	2532.148892
994.244556	2534.813142
994.540186	2534.384643
994.835780	2534.493028
995.131337	2536.083512
995.426859	2533.623429
995.722345	2536.701054
996.017795	2537.656352
996.313208	2536.045704
996.608586	2538.246167
996.903928	2537.729449
997.199234	2536.501928
997.494504	2534.626619
997.789738	2535.057638
998.084936	2534.863553
998.380099	2534.848430
998.675225	2534.036804
998.970316	2533.933460
999.265371	2535.692823
999.560390	2534.276259
999.855373	2534.457740
1000.150320	2534.641742
1000.445232	2530.555887
1000.740108	2533.641073
1001.034948	2533.515044
1001.329752	2533.124355
1001.624521	2534.737524
1001.919254	2527.140505
1002.213951	2529.303160
1002.508613	2528.748633
1002.803239	2533.041176
1003.097829	2527.818541
1003.392384	2533.504962
1003.686903	2530.253418
1003.981386	2531.667462
1004.275834	2531.818696
1004.570246	2534.334232
1004.864623	2529.731658
1005.158964	2532.400949
1005.453270	2530.323994
1005.747540	2532.370703
1006.041775	2528.005063
1006.335974	2533.537730
1006.630138	2530.460105
1006.924266	2531.632173
1007.218359	2530.825589
1007.512416	2536.116280
1007.806438	2533.837678
1008.100425	2530.833151
1008.394376	2531.841381
1008.688292	2530.896165
1008.982172	2533.205013
1009.276017	2531.231402
1009.569827	2531.135620
1009.863602	2533.217616
1010.157341	2530.074457
1010.451045	2530.041689
1010.744714	2532.849612
1011.038347	2531.387678
1011.331945	2531.133099
1011.625508	2528.821730
1011.919036	2527.470701
1012.212528	2533.807431
1012.505986	2531.445651
1012.799408	2533.641073
1013.092795	2530.316432
1013.386147	2533.938501
1013.679464	2534.223327
1013.972745	2530.810465
1014.265992	2529.880372
1014.559204	2531.604447
1014.852380	2529.726617
1015.145521	2528.489014
1015.438628	2530.460105
1015.731699	2533.235260
1016.024736	2531.145702
1016.317737	2530.641587
1016.610703	2529.799714
1016.903635	2530.412214
1017.196531	2527.069929
1017.489393	2527.702594
1017.782219	2525.761750
1018.075011	2529.030938
1018.367768	2530.553367
1018.660490	2529.623274
1018.953177	2529.623274
1019.245829	2529.623274
