Dividing Wavelength (nm)	Counts (n)	Blue Motor Position (mm): 34.700000	Red Motor Position (mm): 0.000000	
326.493990	2131.157871
326.888308	2131.157871
327.282561	2131.157871
327.676750	2099.827100
328.070874	2099.459095
328.464933	2098.647470
328.858929	2106.960332
329.252859	2114.186826
329.646726	2127.651748
330.040528	2138.664149
330.434265	2158.332211
330.827938	2174.143790
331.221547	2192.428055
331.615091	2212.428833
332.008571	2231.897769
332.401986	2251.676736
332.795338	2268.146185
333.188625	2290.193672
333.581847	2306.227062
333.975006	2325.678354
334.368100	2344.146621
334.761129	2364.457430
335.154095	2380.347147
335.546996	2401.386402
335.939833	2421.845925
336.332606	2439.857968
336.725315	2454.406738
337.117960	2462.230608
337.510540	2469.696557
337.903056	2481.671818
338.295508	2489.052068
338.687896	2498.965497
339.080220	2504.606548
339.472480	2508.324399
339.864676	2514.971160
340.256807	2519.543487
340.648875	2523.473066
341.040879	2524.060360
341.432818	2529.285516
341.824694	2530.538243
342.216506	2529.328366
342.608253	2532.708460
342.999937	2529.416586
343.391557	2527.952131
343.783113	2527.208561
344.174605	2528.620084
344.566033	2527.705115
344.957397	2528.118489
345.348697	2522.404341
345.739934	2520.965092
346.131106	2518.202540
346.522215	2519.540966
346.913260	2514.560306
347.304241	2515.137518
347.695159	2510.456807
348.086012	2514.154493
348.476802	2509.773730
348.867528	2509.950171
349.258191	2504.934223
349.648789	2506.834738
350.039324	2504.614109
350.429796	2505.496311
350.820203	2499.933398
351.210548	2500.588748
351.600828	2498.710918
351.991045	2503.129490
352.381198	2499.247801
352.771288	2499.141937
353.161314	2495.466936
353.551276	2496.487769
353.941175	2497.836278
354.331010	2495.063643
354.720782	2497.821155
355.110490	2497.453150
355.500135	2496.018942
355.889717	2498.915085
356.279235	2499.711587
356.668689	2498.060609
357.058080	2499.877945
357.447408	2496.790239
357.836672	2494.998108
358.225873	2496.001298
358.615010	2496.039107
359.004084	2499.653614
359.393095	2500.724859
359.782043	2498.766371
360.170927	2503.250477
360.559748	2501.107987
360.948505	2502.257370
361.337199	2501.735611
361.725830	2501.370127
362.114398	2502.416166
362.502903	2502.887514
362.891344	2504.611589
363.279722	2502.214520
363.668037	2504.576301
364.056289	2505.304748
364.444478	2504.863647
364.832603	2507.817763
365.220665	2507.938750
365.608665	2509.874553
365.996601	2507.442197
366.384474	2509.136024
366.772284	2510.252640
367.160031	2509.395644
367.547715	2508.949502
367.935336	2508.820952
368.322893	2507.727022
368.710388	2507.790036
369.097820	2512.889163
369.485189	2510.945799
369.872495	2511.515449
370.259738	2512.400172
370.646918	2511.807836
371.034035	2513.627692
371.421090	2514.396468
371.808081	2510.902949
372.195010	2514.527538
372.581875	2513.693227
372.968678	2512.805984
373.355418	2513.035357
373.742096	2516.632220
374.128710	2512.808505
374.515262	2514.761952
374.901751	2513.587363
375.288177	2513.993176
375.674540	2515.805471
376.060841	2517.466531
376.447079	2515.566016
376.833254	2516.070132
377.219367	2512.803464
377.605417	2517.269926
377.991404	2512.291787
378.377329	2515.661798
378.763191	2511.689369
379.148991	2515.001407
379.534727	2517.441325
379.920402	2517.708507
380.306013	2518.976357
380.691563	2518.114319
381.077049	2519.354443
381.462474	2518.139525
381.847835	2520.183713
382.233134	2521.166738
382.618371	2519.374608
383.003545	2517.635410
383.388657	2522.260668
383.773706	2523.798220
384.158693	2520.092972
384.543618	2522.560617
384.928480	2521.438960
385.313280	2522.318642
385.698017	2521.494413
386.082692	2521.010462
386.467305	2521.330576
386.851856	2524.246883
387.236344	2523.500792
387.620770	2524.743437
388.005133	2525.713859
388.389435	2527.422810
388.773674	2523.679753
389.157851	2525.363499
389.541965	2524.723272
389.926018	2526.621267
390.310008	2524.335103
390.693936	2524.708149
391.077802	2527.276617
391.461606	2528.020187
391.845348	2527.700073
392.229027	2527.536236
392.612645	2530.752492
392.996200	2529.653521
393.379694	2529.454395
393.763125	2528.408356
394.146494	2529.230064
394.529801	2531.798532
394.913047	2530.573531
395.296230	2531.450692
395.679351	2533.794828
396.062410	2533.507483
396.445408	2532.887421
396.828343	2533.240302
397.211217	2528.264683
397.594028	2532.506814
397.976778	2530.419776
398.359466	2533.782226
398.742092	2528.511699
399.124656	2535.065199
399.507158	2534.314067
399.889598	2535.912113
400.271977	2537.220292
400.654294	2539.771116
401.036549	2536.965714
401.418742	2539.045190
401.800874	2538.929244
402.182944	2540.257588
402.564952	2539.617361
402.946898	2542.505942
403.328783	2541.626261
403.710606	2545.452497
404.092367	2546.886705
404.474067	2550.854093
404.855705	2550.460883
405.237282	2558.955227
405.618797	2560.155022
406.000250	2566.494273
406.381642	2572.624316
406.762972	2580.896849
407.144240	2584.954978
407.525447	2597.255394
407.906593	2607.892228
408.287677	2616.157200
408.668700	2627.114148
409.049661	2642.388844
409.430560	2658.754950
409.811399	2667.420693
410.192176	2692.444981
410.572891	2702.416383
410.953545	2728.869838
411.334138	2737.706981
411.714669	2765.458533
412.095139	2772.889194
412.475547	2807.726087
412.855894	2830.257524
413.236180	2855.780886
413.616405	2873.397198
413.996568	2911.034453
414.376670	2930.203441
414.756711	2947.202211
415.136691	2980.317551
415.516609	3028.493338
415.896466	3064.361147
416.276262	3104.932353
416.655997	3133.341776
417.035670	3213.231462
417.415283	3276.104732
417.794834	3299.329328
418.174324	3324.189778
418.553753	3334.428362
418.933121	3433.645831
419.312428	3501.204854
419.691674	3526.652599
420.070859	3615.775158
420.449983	3626.550624
420.829045	3716.280642
421.208047	3721.031930
421.586988	3803.419507
421.965867	3858.393290
422.344686	3977.316629
422.723444	3945.086012
423.102141	3900.207140
423.480777	4100.124178
423.859352	4028.912839
424.237866	4215.455696
424.616319	4258.219804
424.994712	4373.884038
425.373044	4343.493442
425.751314	4483.516531
426.129524	4408.486518
426.507673	4577.027414
426.885762	4677.613557
427.263789	4680.711346
427.641756	4636.762567
428.019662	4772.828350
428.397508	4819.068334
428.775292	4825.087472
429.153016	4937.346406
429.530679	4922.028860
429.908282	5023.681207
430.285824	4955.542451
430.663305	5213.926791
431.040726	5035.810223
431.418086	5063.836518
431.795385	5183.813459
432.172624	5226.796857
432.549802	5246.540536
432.926920	5290.958143
433.303977	5325.611034
433.680974	5378.631370
434.057910	5423.487557
434.434786	5452.199448
434.811601	5442.895999
435.188355	5679.416855
435.565050	5588.539975
435.941683	5588.635757
436.318257	5808.419982
436.694770	5808.218336
437.071222	5857.480491
437.447614	5809.098017
437.823946	5736.747377
438.200218	5897.880298
438.576429	5781.832937
438.952580	5886.318412
439.328670	5939.230363
439.704700	5861.682293
440.080670	5853.986972
440.456580	6133.418129
440.832429	6018.615933
441.208218	5881.408328
441.583947	6039.420775
441.959616	6042.606784
442.335224	5974.132791
442.710773	6112.247804
443.086261	6148.034955
443.461689	5945.506599
443.837057	6096.108550
444.212365	6249.437765
444.587612	6145.020345
444.962800	6300.242513
445.337927	6283.878928
445.712995	5898.475154
446.088002	6475.162990
446.462949	6305.439943
446.837837	6236.076186
447.212664	6409.272588
447.587431	6555.937398
447.962139	7096.772547
448.336786	8019.666664
448.711374	7759.664113
449.085901	6836.714544
449.460369	6760.623368
449.834776	6693.336567
450.209124	7086.854077
450.583412	7240.818477
450.957640	7380.922225
451.331808	7147.063098
451.705917	6700.472320
452.079965	6624.991123
452.453954	6838.501633
452.827883	6713.062602
453.201752	6807.274205
453.575562	6604.864317
453.949311	6811.065153
454.323001	6699.494336
454.696632	6772.759945
455.070202	6909.844042
455.443713	7064.065541
455.817164	7166.607651
456.190556	7249.325424
456.563888	7328.630336
456.937160	7368.120215
457.310373	7028.069182
457.683526	7053.849643
458.056619	6938.641633
458.429653	6929.749038
458.802628	6868.481375
459.175542	6973.193702
459.548398	7329.724266
459.921194	7482.075497
460.293930	7498.035790
460.666607	8020.256479
461.039224	8324.106986
461.411782	8454.599774
461.784280	8471.603586
462.156719	8357.141667
462.529099	8237.305878
462.901419	7825.841860
463.273680	7724.053402
463.645882	7740.545537
464.018024	7597.580935
464.390106	7766.053776
464.762130	8150.381263
465.134094	8623.823747
465.505999	9644.634715
465.877845	10856.273522
466.249631	11505.821154
466.621358	11129.181426
466.993026	10493.328089
467.364634	10242.586138
467.736184	9881.286642
468.107674	9547.068224
468.479105	9577.136186
468.850477	9340.905196
469.221790	9121.032751
469.593043	8785.944734
469.964238	8650.753591
470.335373	8663.182555
470.706449	8724.306546
471.077467	8697.840488
471.448425	10008.721970
471.819324	11076.261914
472.190164	11097.165058
472.560945	9855.715389
472.931667	9060.370026
473.302330	8935.530892
473.672934	8580.658867
474.043479	8930.225077
474.413965	8873.020584
474.784393	8758.417513
475.154761	8915.837624
475.525070	9001.259976
475.895321	8826.195827
476.265513	9004.947580
476.635645	9174.242129
477.005719	9175.076440
477.375734	9290.148339
477.745691	9520.549234
478.115588	9660.320266
478.485427	9902.285568
478.855207	10435.259038
479.224928	11245.012018
479.594591	11871.297246
479.964194	11687.511900
480.333739	11624.227775
480.703226	11537.777028
481.072653	11626.665173
481.442022	11865.068900
481.811333	12056.521841
482.180584	11864.660567
482.549777	11572.734909
482.918912	11396.221428
483.287988	11417.835375
483.657005	11429.145204
484.025964	11115.436720
484.394864	11244.346586
484.763706	11219.420601
485.132489	10970.309463
485.501213	10936.785790
485.869879	11011.084836
486.238487	10849.644404
486.607036	10966.500871
486.975527	10751.084806
487.343959	10932.795717
487.712333	10981.843623
488.080648	10913.528427
488.448905	10963.032557
488.817104	10902.843701
489.185244	11165.480255
489.553326	11321.035139
489.921350	11855.649504
490.289315	12917.434971
490.657222	13259.547836
491.025070	13165.426973
491.392861	13034.803115
491.760593	12654.100218
492.128267	12306.265644
492.495883	11984.448464
492.863440	11644.493214
493.230939	11317.347535
493.598380	11243.073695
493.965763	11118.148861
494.333088	11014.210351
494.700354	10940.339803
495.067563	10997.325006
495.434713	10828.895015
495.801805	10950.966556
496.168839	10879.215813
496.535815	10815.372120
496.902733	10816.924795
497.269593	10748.344938
497.636395	10843.007725
498.003139	10831.264358
498.369825	10702.961951
498.736453	10859.535148
499.103023	10787.797008
499.469535	10818.467388
499.835989	10804.387446
500.202385	10771.793866
500.568723	10620.617223
500.935003	10845.039310
501.301226	10649.997068
501.667390	10910.052551
502.033497	11003.429844
502.399546	10859.928358
502.765537	10774.879052
503.131470	10844.462098
503.497345	11032.300532
503.863163	10629.892947
504.228923	10940.967427
504.594625	11007.467808
504.960269	10744.899310
505.325856	10973.878600
505.691385	10769.774883
506.056856	10919.227451
506.422270	10939.840729
506.787625	10831.808802
507.152924	10951.329519
507.518164	10928.417474
507.883347	10851.388644
508.248472	10769.056519
508.613540	11006.436892
508.978550	10883.906607
509.343503	10862.620334
509.708398	10981.001750
510.073236	11091.090468
510.438016	11104.681419
510.802738	11041.951821
511.167403	11100.887950
511.532010	10998.935655
511.896561	11228.305634
512.261053	11302.718106
512.625488	11168.565441
512.989866	11153.721763
513.354186	11133.179061
513.718449	11037.719772
514.082655	11238.627397
514.446803	11130.560182
514.810894	11247.658624
515.174927	11119.197421
515.538904	11143.072326
515.902822	11296.454473
516.266684	11177.528612
516.630488	11118.509304
516.994235	11179.174549
517.357925	11241.793242
517.721558	11332.627272
518.085133	11339.972233
518.448651	11352.859943
518.812112	11241.493293
519.175516	11247.819941
519.538863	11368.227901
519.902152	11291.420881
520.265385	11452.067330
520.628560	11353.238030
520.991678	11336.884527
521.354739	11398.522715
521.717743	11334.245483
522.080690	11306.196503
522.443580	11459.402209
522.806413	11408.403376
523.169189	11432.792478
523.531908	11497.122643
523.894569	11315.981382
524.257174	11323.313740
524.619722	11439.953437
524.982213	11381.052596
525.344647	11439.033427
525.707025	11383.999150
526.069345	11476.358130
526.431608	11396.239072
526.793815	11504.583550
527.155964	11286.215889
527.518057	11349.172339
527.880093	11295.410954
528.242072	11363.108609
528.603995	11269.315421
528.965860	11191.525376
529.327669	11242.672923
529.689421	11190.123935
530.051117	11167.831953
530.412755	11266.290729
530.774337	11159.806436
531.135862	11137.479166
531.497331	11162.891622
531.858743	11017.676144
532.220098	11184.717298
532.581396	11047.121524
532.942638	11036.472087
533.303824	11001.224339
533.664953	11007.397232
534.026025	10925.544017
534.387040	11025.825170
534.747999	11026.717454
535.108902	11085.225085
535.469748	10838.357261
535.830537	10944.213930
536.191270	10927.845303
536.551947	10950.792636
536.912567	10949.015629
537.273131	10869.607374
537.633638	10849.137768
537.994089	10840.204844
538.354483	10793.145673
538.714821	10936.329565
539.075103	10940.942221
539.435328	10909.984495
539.795497	10738.388660
540.155609	10890.286187
540.515665	10974.188631
540.875665	10715.721111
541.235609	10786.319950
541.595496	10780.336101
541.955328	10930.544841
542.315102	10820.740949
542.674821	10768.234811
543.034483	10772.842426
543.394090	10771.163721
543.753640	10701.507578
544.113134	10925.022257
544.472571	10783.701071
544.831953	10920.951526
545.191278	10722.808974
545.550548	10756.970353
545.909761	10891.884233
546.268918	10865.755932
546.628019	10946.547984
546.987064	10819.858747
547.346053	10735.479914
547.704986	10837.260810
548.063863	10828.622793
548.422684	10814.837758
548.781449	10735.154759
549.140158	10830.946765
549.498811	10713.263549
549.857408	10574.273896
550.215949	10793.538883
550.574434	10652.767182
550.932864	10748.733107
551.291237	10810.152005
551.649555	10756.902297
552.007817	10770.105079
552.366022	10729.758204
552.724173	10725.067411
553.082267	10705.522857
553.440305	10842.178456
553.798288	10645.152519
554.156215	10795.283122
554.514086	10777.523137
554.871902	10628.877154
555.229661	10655.035701
555.587365	10640.045830
555.945014	10540.394822
556.302606	10654.463530
556.660143	10550.633405
557.017625	10703.009842
557.375050	10606.224729
557.732421	10740.700029
558.089735	10655.504529
558.446994	10648.401543
558.804197	10691.238748
559.161345	10682.489825
559.518437	10539.782322
559.875474	10625.832297
560.232455	10658.902266
560.589381	10605.105593
560.946251	10606.668351
561.303065	10714.556605
561.659825	10646.470781
562.016528	10573.868083
562.373177	10458.345002
562.729770	10566.835674
563.086307	10493.411268
563.442789	10577.273383
563.799216	10455.862233
564.155587	10509.840388
564.511904	10465.034613
564.868164	10451.746131
565.224370	10468.439912
565.580520	10392.192460
565.936615	10396.515250
566.292654	10269.972206
566.648638	10402.161342
567.004567	10351.999341
567.360441	10342.484163
567.716260	10256.119115
568.072023	10342.587507
568.427732	10296.798706
568.783385	10204.028873
569.138982	10274.809193
569.494525	10291.260999
569.850013	10171.004274
570.205445	10250.757848
570.560823	10137.730138
570.916145	10063.998222
571.271412	10139.421445
571.626625	10084.427498
571.981782	10056.668384
572.336884	10024.079845
572.691931	10030.618221
573.046923	9978.709460
573.401860	9935.778994
573.756743	9876.850426
574.111570	9918.306355
574.466342	9893.871882
574.821059	9932.507285
575.175722	9820.888577
575.530330	9832.024486
575.884882	9827.532818
576.239380	9749.578936
576.593823	9730.465401
576.948211	9742.977545
577.302544	9623.807188
577.656823	9638.665989
578.011047	9642.950970
578.365216	9608.456875
578.719330	9535.612202
579.073389	9552.358915
579.427394	9496.074432
579.781344	9471.098035
580.135239	9422.395448
580.489080	9429.639586
580.842866	9337.918313
581.196597	9340.607768
581.550273	9378.726453
581.903895	9348.729067
582.257463	9415.640302
582.610975	9292.573134
582.964434	9314.668511
583.317837	9241.365093
583.671186	9220.676198
584.024481	9214.420126
584.377721	9136.541860
584.730906	9112.717367
585.084037	9146.341863
585.437113	9082.717461
585.790135	9100.069112
586.143103	8999.835850
586.496016	8973.483219
586.848874	9032.404225
587.201679	9018.286473
587.554428	8906.501407
587.907124	8948.963046
588.259765	8920.147811
588.612352	8925.783821
588.964884	8803.084657
589.317362	8814.465062
589.669786	8813.209814
590.022155	8867.389615
590.374470	8880.531903
590.726731	8817.842635
591.078937	8673.126231
591.431090	8780.011296
591.783188	8655.141915
592.135232	8654.075711
592.487222	8649.735278
592.839157	8698.992392
593.191038	8630.732648
593.542866	8577.820697
593.894639	8480.097930
594.246358	8532.901496
594.598022	8548.655102
594.949633	8443.569729
595.301190	8419.609125
595.652692	8450.677756
596.004141	8558.676916
596.355535	8333.642328
596.706876	8315.592477
597.058162	8253.442612
597.409395	8326.251997
597.760573	8391.781956
598.111698	8301.482288
598.462768	8281.673073
598.813785	8245.379286
599.164748	8220.044968
599.515657	8209.496353
599.866511	8123.552242
600.217312	8250.047395
600.568060	8105.583049
600.918753	8207.999131
601.269392	8180.025768
601.619978	8095.979651
601.970510	8156.786049
602.320988	8150.086355
602.671412	8208.601548
603.021783	8142.585118
603.372100	8121.356819
603.722363	8123.519474
604.072572	8091.480421
604.422728	8102.220599
604.772830	8032.385495
605.122878	8044.925365
605.472872	8035.405146
605.822813	8063.771719
606.172701	8012.672063
606.522534	8084.284174
606.872314	8086.472035
607.222041	8052.439205
607.571714	8110.306610
607.921333	8070.597441
608.270899	8076.482988
608.620411	8165.718973
608.969870	8072.077020
609.319276	8067.776916
609.668627	8082.174451
610.017926	8115.970347
610.367171	8161.338211
610.716362	8135.540106
611.065500	8133.543809
611.414585	8155.293867
611.763616	8139.741907
612.112594	8125.296481
612.461518	8148.425295
612.810389	8206.156589
613.159207	8144.004203
613.507971	8089.932787
613.856682	8207.063997
614.205340	8165.943305
614.553945	8244.055983
614.902496	8147.777507
615.250994	8196.492697
615.599439	8175.284563
615.947830	8191.610339
616.296169	8161.300402
616.644454	8174.959408
616.992686	8174.402361
617.340864	8233.275476
617.688990	8136.573542
618.037063	8223.364568
618.385082	8175.768513
618.733048	8258.786235
619.080961	8202.012760
619.428821	8216.674956
619.776628	8224.924805
620.124382	8175.629882
620.472083	8156.382756
620.819731	8183.335285
621.167326	8073.927123
621.514868	8082.905418
621.862357	7977.489850
622.209793	7988.040985
622.557176	7923.461284
622.904506	7893.030359
623.251783	7835.626740
623.599007	7782.800489
623.946179	7785.189996
624.293297	7749.254131
624.640363	7662.546284
624.987376	7648.073132
625.334336	7591.425686
625.681243	7542.541617
626.028097	7528.426386
626.374899	7504.564085
626.721647	7498.915472
627.068343	7430.784277
627.414987	7404.603045
627.761577	7359.109152
628.108115	7394.969400
628.454600	7290.919985
628.801032	7340.779517
629.147412	7297.632281
629.493739	7296.823176
629.840014	7228.495377
630.186236	7280.804909
630.532405	7167.628485
630.878521	7220.343831
631.224585	7176.947058
631.570597	7102.547189
631.916556	7132.453834
632.262462	7128.904862
632.608316	7087.370795
632.954117	7072.280101
633.299866	7055.583800
633.645562	7045.743467
633.991206	6970.199256
634.336797	6910.101141
634.682336	6866.091868
635.027823	6834.705644
635.373257	6825.061917
635.718639	6760.925837
636.063968	6767.486898
636.409245	6666.058883
636.754470	6667.624161
637.099642	6621.691688
637.444762	6565.177833
637.789829	6576.205357
638.134845	6518.181676
638.479808	6499.161403
638.824719	6504.096692
639.169577	6437.906342
639.514383	6454.872346
639.859137	6380.265789
640.203839	6389.680144
640.548489	6383.035903
640.893086	6354.397108
641.237632	6324.906358
641.582125	6350.202868
641.926566	6320.573487
642.270955	6325.639846
642.615292	6325.622202
642.959576	6339.654254
643.303809	6330.779302
643.647990	6337.395817
643.992118	6330.464230
644.336195	6274.598163
644.680219	6300.968439
645.024192	6289.230112
645.368112	6385.783332
645.711981	6405.582464
646.055797	6486.193034
646.399562	6445.029493
646.743274	6568.714202
647.086935	6617.000894
647.430544	6611.125430
647.774101	6636.832794
648.117606	6643.524925
648.461059	6634.907073
648.804460	6599.485405
649.147810	6502.685169
649.491108	6475.878834
649.834354	6451.681295
650.177548	6371.680704
650.520690	6283.541170
650.863781	6263.384117
651.206820	6278.920953
651.549807	6202.066042
651.892742	6144.301981
652.235626	6152.083002
652.578458	6131.724302
652.921238	6045.112238
653.263967	6079.253452
653.606644	6021.834710
653.949269	6019.472929
654.291843	5969.890660
654.634365	6013.622670
654.976836	5968.721113
655.319255	5967.579291
655.661622	5943.774963
656.003938	5939.822698
656.346203	5906.172996
656.688416	5937.289518
657.030577	5885.501745
657.372687	5856.225244
657.714746	5848.358523
658.056753	5884.077619
658.398708	5830.880843
658.740612	5818.698895
659.082465	5868.150093
659.424266	5858.839082
659.766016	5857.026788
660.107715	5834.245813
660.449362	5846.276527
660.790958	5844.244942
661.132503	5826.547971
661.473996	5864.873343
661.815438	5852.058730
662.156829	5849.200396
662.498168	5843.476166
662.839456	5817.705788
663.180693	5852.938412
663.521879	5853.256004
663.863013	5842.783007
664.204097	5863.045925
664.545129	5904.262399
664.886110	5902.873561
665.227040	5941.090548
665.567918	5899.110340
665.908746	5925.662097
666.249522	5934.892450
666.590248	5913.759933
666.930922	5942.870076
667.271545	5958.038908
667.612118	5962.407068
667.952639	5935.015958
668.293109	5955.596469
668.633528	5913.323873
668.973896	5916.237660
669.314213	5905.182410
669.654480	5892.566922
669.994695	5883.109718
670.334859	5872.992122
670.674973	5862.798909
671.015035	5868.074476
671.355047	5866.912490
671.695008	5851.161405
672.034918	5828.622406
672.374777	5838.513150
672.714585	5820.634698
673.054342	5828.395554
673.394049	5818.915664
673.733705	5850.226271
674.073310	5839.365105
674.412864	5799.310617
674.752368	5786.743021
675.091820	5795.859947
675.431223	5729.472992
675.770574	5732.812757
676.109875	5683.565725
676.449125	5689.320202
676.788324	5653.434748
677.127473	5593.077013
677.466571	5588.928144
677.805619	5583.715591
678.144616	5568.927366
678.483562	5545.644797
678.822458	5510.848232
679.161303	5507.538715
679.500098	5497.015306
679.838842	5481.879242
680.177535	5483.825127
680.516179	5500.261809
680.854771	5512.887379
681.193314	5592.882929
681.531805	5700.173806
681.870247	5848.726528
682.208638	5953.098577
682.546978	5962.943950
682.885268	5942.998625
683.223508	5857.311613
683.561697	5804.598788
683.899836	5773.109220
684.237925	5729.805708
684.575963	5694.709195
684.913951	5653.631353
685.251889	5717.248194
685.589776	5683.031362
685.927614	5655.700747
686.265401	5719.665427
686.603137	5710.263676
686.940824	5784.787053
687.278460	5808.677081
687.616046	5819.961704
687.953582	5887.165326
688.291068	5866.894846
688.628504	5931.993786
688.965889	5893.184463
689.303224	5839.765877
689.640510	5788.207476
689.977745	5717.454882
690.314930	5620.027022
690.652065	5562.625923
690.989150	5467.033044
691.326185	5394.334564
691.663170	5337.795503
692.000105	5263.007465
692.336990	5181.955794
692.673825	5162.514584
693.010610	5090.786526
693.347345	5025.226321
693.684030	5008.509854
694.020665	4965.506292
694.357251	4874.631932
694.693786	4887.872522
695.030272	4850.136965
695.366707	4818.619671
695.703093	4785.705978
696.039429	4807.730779
696.375716	4789.514570
696.711952	4765.178399
697.048139	4755.474178
697.384276	4732.413420
697.720363	4741.779884
698.056400	4753.540896
698.392388	4697.339592
698.728326	4682.526162
699.064214	4658.237882
699.400053	4652.571625
699.735842	4621.981904
700.071581	4596.604735
700.407270	4570.184048
700.742910	4552.494639
701.078501	4499.938090
701.414042	4493.762676
701.749533	4466.835353
702.084974	4401.575096
702.420366	4459.054332
702.755709	4400.957555
703.091002	4344.453782
703.426246	4395.624014
703.761440	4348.118701
704.096584	4309.258966
704.431679	4333.693439
704.766725	4319.820183
705.101721	4305.102535
705.436668	4333.554807
705.771565	4283.541520
706.106413	4308.442299
706.441212	4344.678113
706.775961	4349.822611
707.110661	4331.263603
707.445311	4358.984908
707.779913	4379.114235
708.114465	4392.236358
708.448967	4417.419442
708.783421	4481.784895
709.117825	4524.329713
709.452180	4524.218807
709.786485	4571.010797
710.120742	4652.874095
710.454949	4641.279441
710.789107	4707.316036
711.123216	4776.268938
711.457275	4772.563690
711.791286	4845.148743
712.125247	4862.563409
712.459159	4765.223770
712.793023	4837.362681
713.126837	4800.804234
713.460602	4790.666473
713.794318	4714.862643
714.127985	4724.927307
714.461602	4636.853308
714.795171	4603.047330
715.128691	4543.196231
715.462162	4484.257581
715.795584	4434.977781
716.128957	4416.905245
716.462281	4365.750136
716.795556	4336.418183
717.128782	4301.407369
717.461960	4233.354313
717.795088	4242.700612
718.128167	4201.098490
718.461198	4138.643635
718.794180	4136.975013
719.127113	4119.996407
719.459997	4098.236266
719.792833	4054.433680
720.125619	4044.767268
720.458357	4006.819982
720.791046	4015.415150
721.123686	3986.151252
721.456278	3940.778346
721.788821	3962.888847
722.121315	3934.008077
722.453761	3907.814241
722.786158	3922.042898
723.118506	3943.878656
723.450805	3896.822005
723.783056	3917.682300
724.115259	3938.361113
724.447412	3939.888583
724.779518	3929.256789
725.111574	3939.477729
725.443582	3965.719455
725.775542	3953.537507
726.107453	4001.957789
726.439315	4006.920805
726.771129	4015.664687
727.102895	4054.108526
727.434612	4099.683077
727.766281	4111.630612
728.097901	4114.741004
728.429473	4121.362559
728.760996	4126.786841
729.092471	4121.498671
729.423897	4105.684571
729.755276	4112.391826
730.086606	4113.780664
730.417887	4147.654697
730.749120	4211.513514
731.080305	4277.711425
731.411442	4304.583296
731.742530	4274.222947
732.073570	4280.151344
732.404562	4331.145136
732.735506	4323.283456
733.066401	4287.014875
733.397249	4223.357705
733.728048	4142.336280
734.058798	4059.938620
734.389501	3993.869258
734.720156	3927.537756
735.050762	3884.897156
735.381320	3876.669993
735.711831	3828.723579
736.042293	3797.302067
736.372707	3821.948268
736.703073	3790.912404
737.033391	3780.091568
737.363661	3800.808189
737.693883	3822.795182
738.024056	3834.687264
738.354182	3823.188392
738.684260	3893.618352
739.014290	3912.820107
739.344272	3906.269128
739.674207	3951.669759
740.004093	3953.600521
740.333931	3950.356539
740.663722	3951.823514
740.993464	3949.865026
741.323159	3923.885440
741.652806	3896.297725
741.982405	3869.236812
742.311956	3834.344465
742.641460	3826.505471
742.970915	3803.134682
743.300323	3762.117333
743.629683	3727.529977
743.958996	3716.441959
744.288260	3692.917415
744.617477	3659.401303
744.946647	3645.976711
745.275768	3621.756487
745.604842	3618.648616
745.933869	3573.815114
746.262847	3560.919842
746.591778	3600.298816
746.920662	3572.184301
747.249498	3539.230278
747.578286	3585.180395
747.907027	3603.257973
748.235720	3601.299485
748.564365	3628.360398
748.892963	3628.060450
749.221514	3607.555557
749.550017	3587.476641
749.878473	3583.854572
750.206881	3554.782237
750.535242	3550.658574
750.863555	3552.972463
751.191821	3549.703275
751.520039	3525.848535
751.848210	3505.731811
752.176334	3539.510062
752.504411	3547.207904
752.832440	3506.414887
753.160421	3490.396621
753.488356	3495.652023
753.816243	3510.049559
754.144082	3467.570276
754.471875	3452.759366
754.799620	3469.453147
755.127318	3464.608598
755.454969	3464.071715
755.782572	3469.637149
756.110129	3445.951288
756.437638	3436.065585
756.765100	3447.655198
757.092515	3456.704069
757.419882	3467.635811
757.747203	3436.758744
758.074477	3439.181018
758.401703	3456.469655
758.728882	3478.408757
759.056014	3480.962101
759.383099	3486.824963
759.710138	3483.674242
760.037129	3499.395080
760.364073	3535.388919
760.690970	3517.878471
761.017820	3495.657065
761.344623	3512.625588
761.671379	3557.086045
761.998088	3607.323663
762.324751	3737.120772
762.651366	3980.222855
762.977935	4453.761121
763.304456	4896.341661
763.630931	4991.798429
763.957359	4631.350888
764.283740	4290.954537
764.610074	4097.845577
764.936362	3903.458684
765.262602	3743.701998
765.588796	3631.455667
765.914943	3542.902758
766.241044	3455.776497
766.567097	3424.735592
766.893104	3382.440311
767.219064	3349.975280
767.544978	3319.410764
767.870845	3266.783639
768.196665	3248.365783
768.522438	3255.851897
768.848165	3252.897781
769.173846	3215.681462
769.499479	3195.988195
769.825066	3179.916996
770.150607	3163.412259
770.476101	3180.098478
770.801548	3175.339629
771.126949	3130.808596
771.452303	3111.747993
771.777611	3122.263840
772.102872	3124.129067
772.428087	3101.816920
772.753256	3090.315528
773.078378	3080.954105
773.403453	3046.848179
773.728482	3036.959956
774.053465	3056.877554
774.378401	3046.699465
774.703291	3013.813498
775.028135	3014.642768
775.352932	3009.538599
775.677683	2999.158863
776.002388	2991.912205
776.327046	2994.916733
776.651658	2986.349292
776.976224	2973.348156
777.300743	2972.826396
777.625216	2966.421610
777.949643	2960.493213
778.274024	2963.051599
778.598359	2947.852520
778.922647	2958.746454
779.246889	2954.211936
779.571086	2939.229627
779.895236	2934.967331
780.219339	2945.095009
780.543397	2959.525312
780.867409	2960.599078
781.191374	2953.501133
781.515294	2950.589867
781.839167	2952.480299
782.162995	2943.267591
782.486776	2950.569702
782.810511	2946.514094
783.134201	2931.572114
783.457844	2939.237188
783.781441	2931.042793
784.104993	2913.184505
784.428498	2915.475710
784.751958	2926.868717
785.075372	2921.111720
785.398739	2907.677045
785.722061	2923.997780
786.045337	2934.730397
786.368568	2922.273706
786.691752	2913.068559
787.014891	2961.103193
787.337983	2987.551607
787.661030	3016.379445
787.984031	3082.567274
788.306987	3127.226856
788.629897	3120.007924
788.952760	3104.571911
789.275579	3092.263934
789.598351	3033.307640
789.921078	2986.931545
790.243759	2979.074907
790.566395	2962.413893
790.888984	2936.008329
791.211529	2921.199940
791.534027	2912.403126
791.856480	2902.726632
792.178888	2886.743653
792.501249	2876.013557
792.823566	2875.269987
793.145836	2871.010212
793.468062	2869.260932
793.790241	2865.961497
794.112375	2869.749924
794.434464	2883.862634
794.756507	2890.196844
795.078505	2893.327400
795.400457	2908.271901
795.722364	2943.648198
796.044226	2969.007722
796.366042	2973.653146
796.687812	2957.536577
797.009538	2978.656491
797.331218	2968.559060
797.652852	2952.513067
797.974442	2936.862805
798.295986	2931.020108
798.617484	2928.207144
798.938938	2911.856161
799.260346	2895.467370
799.581709	2889.405383
799.903026	2881.783158
800.224299	2877.334340
800.545526	2867.652804
800.866708	2852.872141
801.187845	2843.850996
801.508936	2845.380986
801.829983	2851.783251
802.150984	2839.616427
802.471940	2824.679488
802.792851	2824.921463
803.113717	2824.470280
803.434538	2830.378512
803.755314	2823.444405
804.076045	2818.892243
804.396731	2816.273364
804.717372	2818.809064
805.037967	2811.307827
805.358518	2820.568427
805.679024	2831.104438
805.999485	2828.901454
806.319901	2832.460509
806.640272	2823.580516
806.960598	2828.427586
807.280879	2835.664162
807.601115	2845.832169
807.921306	2831.595951
808.241453	2825.576813
808.561554	2835.734738
808.881611	2838.562825
809.201623	2831.101918
809.521590	2829.844150
809.841513	2823.552790
810.161390	2829.571927
810.481223	2822.978098
810.801011	2814.506439
811.120755	2810.712971
811.440453	2812.026192
811.760107	2813.223466
812.079716	2812.018630
812.399281	2801.883390
812.718801	2794.936680
813.038276	2790.409724
813.357707	2795.355096
813.677093	2803.680561
813.996434	2796.186886
814.315731	2790.729837
814.634983	2789.361164
814.954191	2791.722944
815.273354	2806.551498
815.592473	2810.609627
815.911547	2814.385452
816.230577	2820.500371
816.549562	2827.847853
816.868502	2830.091166
817.187399	2838.081395
817.506250	2855.884230
817.825058	2847.841069
818.143821	2864.101311
818.462539	2878.067828
818.781213	2902.285531
819.099843	2940.353804
819.418429	3000.595592
819.736970	3057.215312
820.055466	3132.852784
820.373919	3234.237950
820.692327	3376.547202
821.010691	3547.273439
821.329011	3986.531859
821.647286	4882.183580
821.965517	6261.498725
822.283704	7003.289390
822.601847	6987.331618
822.919945	6354.029104
823.237999	5849.729717
823.556010	5264.222383
823.873976	4714.686202
824.191897	4308.122186
824.509775	4010.074047
824.827609	3742.144282
825.145398	3618.159624
825.463144	3606.428859
825.780845	3697.373795
826.098502	3802.053354
826.416116	4082.787650
826.733685	4400.317328
827.051210	4466.449705
827.368692	4347.037373
827.686129	4085.104060
828.003522	3758.258330
828.320872	3500.846933
828.638177	3304.294865
828.955439	3169.507014
829.272656	3086.905187
829.589830	3014.768796
829.906960	2969.753813
830.224046	2925.152204
830.541088	2891.578120
830.858086	2874.400388
831.175041	2855.397759
831.491952	2857.744416
831.808819	2870.702702
832.125642	2893.027452
832.442421	2936.814914
832.759157	3020.593850
833.075849	3197.661858
833.392497	3480.084940
833.709101	3684.171013
834.025662	3631.135554
834.342179	3474.522027
834.658653	3295.356899
834.975083	3150.448932
835.291469	3049.764486
835.607811	2964.672330
835.924110	2910.414391
836.240366	2854.994466
836.556578	2814.266984
836.872746	2793.270579
837.188871	2768.679830
837.504952	2753.442943
837.820990	2745.276273
838.136984	2731.226578
838.452935	2723.349775
838.768842	2722.553272
839.084706	2738.059862
839.400526	2819.345947
839.716303	2949.904270
840.032037	3030.754295
840.347727	3015.703930
840.663373	2954.902574
840.978977	2881.135370
841.294537	2807.617702
841.610054	2762.577513
841.925527	2739.370562
842.240957	2717.343240
842.556344	2695.963707
842.871687	2680.189936
843.186987	2669.507731
843.502244	2664.968172
843.817458	2661.167142
844.132629	2650.739515
844.447756	2640.347177
844.762840	2634.862401
845.077881	2638.255098
845.392879	2635.225364
845.707833	2632.740076
846.022745	2622.904784
846.337613	2627.678757
846.652438	2626.138685
846.967221	2626.597430
847.281960	2625.175824
847.596656	2625.616925
847.911309	2621.589043
848.225919	2616.699124
848.540485	2615.985801
848.855009	2613.951695
849.169490	2615.963116
849.483928	2612.623351
849.798323	2615.469082
850.112675	2613.767693
850.426984	2611.138731
850.741251	2611.350460
851.055474	2610.485902
851.369654	2615.148969
851.683792	2616.288270
851.997887	2614.158382
852.311938	2610.223762
852.625947	2614.866665
852.939914	2615.406068
853.253837	2618.158538
853.567718	2608.739142
853.881555	2610.160747
854.195350	2614.158382
854.509103	2613.387086
854.822812	2611.904987
855.136479	2611.471447
855.450103	2615.181737
855.763685	2613.475306
856.077224	2612.855244
856.390720	2611.383227
856.704173	2612.431787
857.017584	2616.290791
857.330953	2617.445215
857.644278	2619.771707
857.957561	2617.392283
858.270802	2616.074021
858.584000	2614.697786
858.897155	2619.617952
859.210268	2619.191975
859.523339	2614.962447
859.836367	2610.468258
860.149352	2611.620162
860.462295	2612.958588
860.775195	2609.596138
861.088054	2608.804677
861.400869	2608.010695
861.713642	2605.958946
862.026373	2609.008844
862.339062	2608.489605
862.651708	2614.854062
862.964312	2615.388424
863.276873	2614.430605
863.589392	2618.818929
863.901869	2622.859414
864.214303	2627.078860
864.526696	2627.988788
864.839045	2629.866618
865.151353	2634.330560
865.463619	2633.723101
865.775842	2633.718059
866.088023	2632.356948
866.400162	2635.926085
866.712258	2634.743934
867.024313	2632.712349
867.336325	2629.095321
867.648296	2630.786628
867.960224	2636.384830
868.272110	2630.476597
868.583954	2626.045423
868.895755	2627.673716
869.207515	2634.259983
869.519233	2640.231230
869.830909	2637.715694
870.142542	2631.857874
870.454134	2633.975158
870.765684	2639.880870
871.077191	2642.522435
871.388657	2644.165851
871.700081	2639.759882
872.011463	2643.109729
872.322803	2645.307672
872.634101	2649.106182
872.945357	2652.753456
873.256571	2659.248983
873.567744	2656.791421
873.878874	2656.710762
874.189963	2656.476348
874.501010	2663.367606
874.812015	2665.235353
875.122979	2666.069664
875.433900	2658.339055
875.744780	2656.970382
876.055618	2662.457677
876.366415	2667.047648
876.677169	2666.785508
876.987882	2661.353665
877.298554	2660.741165
877.609183	2672.287927
877.919771	2677.364369
878.230317	2686.120854
878.540822	2695.600743
878.851285	2707.782692
879.161707	2730.861094
879.472087	2769.554470
879.782425	2819.860145
880.092722	2929.517844
880.402977	3120.995990
880.713191	3381.313613
881.023363	3673.110721
881.333494	3863.648692
881.643583	4037.379457
881.953631	4036.603119
882.263637	3857.932024
882.573602	3638.878766
882.883526	3509.744569
883.193408	3396.439595
883.503248	3290.577885
883.813048	3174.132272
884.122806	3064.547670
884.432522	2978.346460
884.742197	2912.844227
885.051831	2877.044473
885.361424	2841.277487
885.670975	2806.188535
885.980485	2774.192332
886.289954	2753.579054
886.599382	2740.353587
886.908768	2730.863615
887.218113	2711.931561
887.527417	2697.002184
887.836680	2690.098324
888.145901	2686.345185
888.455082	2677.200532
888.764221	2665.752072
889.073319	2660.191679
889.382376	2656.564569
889.691392	2658.848211
890.000366	2659.632111
890.309300	2655.878972
890.618193	2658.858294
890.927044	2659.750578
891.235855	2660.506751
891.544625	2661.734272
891.853353	2659.503561
892.162041	2666.009170
892.470687	2689.354754
892.779293	2698.698532
893.087858	2710.368804
893.396381	2731.592061
893.704864	2775.321550
894.013306	2844.897035
894.321707	2936.600665
894.630068	2987.511278
894.938387	3007.101201
895.246665	2998.795900
895.554903	2958.988429
895.863100	2913.928075
896.171256	2853.895495
896.479371	2794.157822
896.787446	2754.405803
897.095480	2736.565160
897.403473	2730.072153
897.711425	2714.941130
898.019336	2697.183666
898.327207	2682.077848
898.635038	2682.685307
898.942827	2679.063238
899.250576	2670.722649
899.558284	2658.104641
899.865952	2651.397386
900.173579	2653.207160
900.481165	2650.515184
900.788711	2642.013278
901.096216	2633.811321
901.403681	2630.254787
901.711105	2634.592700
902.018489	2628.515589
902.325832	2633.725621
902.633135	2633.985241
902.940397	2647.934113
903.247619	2689.470700
903.554800	2756.250865
903.861941	2883.446739
904.169041	3011.043384
904.476101	3072.273238
904.783121	3067.103535
905.090100	3008.255626
905.397039	2933.081939
905.703938	2863.584593
906.010796	2795.922226
906.317614	2745.326685
906.624391	2707.906200
906.931129	2681.684638
907.237826	2659.634631
907.544483	2644.934627
907.851099	2628.308901
908.157675	2618.037550
908.464211	2610.405243
908.770707	2602.084819
909.077163	2594.840681
909.383578	2591.533684
909.689954	2591.127871
909.996289	2591.571493
910.302584	2589.164342
910.608839	2587.311718
910.915054	2587.571337
911.221229	2589.365988
911.527363	2593.267841
911.833458	2591.848756
912.139513	2593.098962
912.445527	2594.134919
912.751502	2597.353696
913.057436	2603.289655
913.363331	2610.397682
913.669186	2619.675925
913.975000	2634.403656
914.280775	2650.822694
914.586510	2669.719460
914.892205	2705.524255
915.197859	2770.585386
915.503475	2856.665609
915.809050	2923.362595
916.114585	2938.657456
916.420081	2949.924434
916.725536	2960.384829
917.030952	2934.803493
917.336328	2885.818602
917.641665	2839.961746
917.946961	2789.482152
918.252218	2755.930752
918.557435	2729.242884
918.862612	2704.984851
919.167750	2687.928107
919.472848	2673.248267
919.777906	2656.877120
920.082925	2644.054945
920.387904	2633.599592
920.692843	2630.968110
920.997743	2625.997532
921.302603	2615.219545
921.607423	2608.817280
921.912204	2605.222937
922.216946	2602.344438
922.521647	2602.067175
922.826310	2596.259766
923.130932	2592.920001
923.435516	2585.149063
923.740059	2586.064032
924.044564	2582.041191
924.349028	2579.502970
924.653454	2570.680951
924.957840	2574.398802
925.262186	2570.328070
925.566493	2570.209603
925.870761	2564.936556
926.174989	2570.375961
926.479178	2562.463870
926.783328	2563.991340
927.087438	2562.599982
927.391509	2559.971020
927.695541	2559.040927
927.999533	2555.320555
928.303486	2558.657799
928.607400	2558.587223
928.911275	2554.292160
929.215110	2555.527243
929.518906	2556.414486
929.822663	2557.692418
930.126381	2556.202757
930.430060	2556.885834
930.733699	2556.369115
931.037299	2559.373643
931.340861	2556.674105
931.644383	2555.340720
931.947866	2556.495144
932.251309	2557.773077
932.554714	2553.863662
932.858080	2559.925649
933.161407	2555.534804
933.464694	2555.348282
933.767943	2554.944989
934.071153	2552.479865
934.374323	2554.035061
934.677455	2553.959444
934.980548	2556.074208
935.283602	2554.125802
935.586617	2553.228477
935.889593	2556.535473
936.192530	2553.939279
936.495428	2550.589433
936.798287	2555.038251
937.101108	2555.363405
937.403890	2560.979251
937.706632	2564.757595
938.009336	2564.293809
938.312002	2568.099880
938.614628	2568.709860
938.917216	2576.337126
939.219765	2574.935685
939.522275	2576.793350
939.824747	2580.939699
940.127179	2570.698595
940.429573	2567.757082
940.731929	2568.130127
941.034246	2565.843964
941.336524	2566.272462
941.638763	2567.258008
941.940964	2567.817576
942.243126	2562.660475
942.545250	2563.066288
942.847335	2562.060578
943.149381	2561.432954
943.451389	2559.106462
943.753359	2561.604354
944.055290	2557.296688
944.357182	2557.115206
944.659036	2558.821637
944.960851	2557.566389
945.262628	2554.513971
945.564367	2558.113355
945.866067	2557.004301
946.167729	2557.067315
946.469352	2555.376008
946.770937	2555.176882
947.072484	2555.978426
947.373992	2559.434137
947.675462	2556.167469
947.976893	2556.512788
948.278286	2553.737633
948.579641	2556.064126
948.880958	2555.000442
949.182236	2552.318548
949.483476	2554.337530
949.784678	2556.159908
950.085841	2554.138405
950.386967	2553.069680
950.688054	2553.654454
950.989103	2553.828374
951.290114	2557.160577
951.591087	2556.119578
951.892021	2559.010680
952.192917	2561.463201
952.493776	2559.976061
952.794596	2561.780794
953.095378	2562.872204
953.396122	2564.583676
953.696828	2561.566545
953.997496	2557.523540
954.298126	2556.628735
954.598718	2554.040102
954.899272	2556.928683
955.199788	2551.159083
955.500266	2552.159752
955.800706	2546.763197
956.101108	2544.081303
956.401472	2546.165820
956.701798	2540.600386
957.002087	2542.589121
957.302337	2545.984338
957.602550	2545.235727
957.902724	2542.871426
958.202861	2543.287321
958.502960	2543.746066
958.803022	2543.985521
959.103045	2540.933102
959.403031	2542.140459
959.702979	2543.052908
960.002889	2540.247505
960.302762	2541.848072
960.602596	2541.961498
960.902393	2539.536703
961.202153	2538.956970
961.501875	2539.889583
961.801559	2538.760365
962.101205	2540.731456
962.400814	2539.569470
962.700385	2539.561908
962.999918	2539.113246
963.299414	2538.914120
963.598873	2540.227341
963.898293	2538.014274
964.197677	2539.277083
964.497022	2539.249357
964.796331	2537.641229
965.095601	2538.460416
965.394835	2539.168698
965.694030	2536.552340
965.993189	2540.804553
966.292309	2538.140303
966.591393	2538.861188
966.890439	2537.283307
967.189447	2538.238606
967.488419	2537.540406
967.787353	2537.971424
968.086249	2539.224151
968.385108	2541.971580
968.683930	2538.261291
968.982714	2536.282638
969.281462	2536.572504
969.580172	2538.972093
969.878844	2537.984027
970.177480	2540.827238
970.476078	2535.584438
970.774639	2542.006868
971.073162	2538.982176
971.371649	2534.465302
971.670098	2537.343801
971.968510	2537.474871
972.266885	2533.956145
972.565223	2540.857485
972.863524	2537.479912
973.161788	2540.570139
973.460014	2539.982845
973.758204	2537.220293
974.056356	2541.341436
974.354471	2538.026877
974.652550	2541.495191
974.950591	2539.602238
975.248595	2537.442103
975.546563	2537.633667
975.844493	2538.377237
976.142386	2541.482588
976.440243	2537.779861
976.738062	2542.526107
977.035845	2538.825900
977.333590	2538.563760
977.631299	2535.831455
977.928971	2538.417567
978.226606	2536.925385
978.524204	2537.691640
978.821765	2535.786084
979.119290	2534.188038
979.416777	2537.288348
979.714228	2536.224665
980.011642	2537.865560
980.309020	2539.574511
980.606360	2536.905220
980.903664	2535.392874
981.200931	2539.072917
981.498162	2539.148534
981.795356	2543.307486
982.092513	2539.617361
982.389633	2550.072714
982.686717	2550.352498
982.983764	2552.043805
983.280775	2552.961295
983.577749	2553.420040
983.874686	2553.044474
984.171587	2548.308310
984.468451	2547.562220
984.765279	2546.110367
985.062070	2542.707588
985.358824	2540.852444
985.655543	2540.413863
985.952224	2538.962011
986.248869	2540.766744
986.545478	2531.594365
986.842050	2535.808769
987.138586	2533.220137
987.435086	2533.746938
987.731549	2530.848274
988.027975	2536.975797
988.324366	2535.483615
988.620719	2533.754499
988.917037	2536.643080
989.213318	2534.871115
989.509563	2537.348842
989.805772	2535.014788
990.101944	2533.615867
990.398080	2533.227699
990.694180	2535.206352
990.990244	2534.833306
991.286271	2532.300126
991.582262	2535.206352
991.878217	2534.167874
992.174136	2534.873635
992.470019	2531.586803
992.765865	2536.058307
993.061676	2536.181815
993.357450	2535.410518
993.653188	2534.127545
993.948890	2534.364479
994.244556	2533.033614
994.540186	2536.532175
994.835780	2537.169881
995.131337	2536.796836
995.426859	2534.994623
995.722345	2537.371527
996.017795	2538.452855
996.313208	2541.986703
996.608586	2540.010571
996.903928	2536.075951
997.199234	2538.044521
997.494504	2538.747762
997.789738	2538.084850
998.084936	2537.263142
998.380099	2538.306661
998.675225	2533.227699
998.970316	2536.779192
999.265371	2534.495549
999.560390	2536.050745
999.855373	2535.849099
1000.150320	2534.248532
1000.445232	2536.519572
1000.740108	2532.537061
1001.034948	2533.623429
1001.329752	2532.602596
1001.624521	2532.869777
1001.919254	2526.202851
1002.213951	2530.422297
1002.508613	2528.010104
1002.803239	2531.702750
1003.097829	2529.633356
1003.392384	2533.883049
1003.686903	2531.037317
1003.981386	2530.873480
1004.275834	2533.439427
1004.570246	2532.559746
1004.864623	2533.535209
1005.158964	2532.839530
1005.453270	2534.919006
1005.747540	2535.024870
1006.041775	2531.974972
1006.335974	2535.309695
1006.630138	2531.657379
1006.924266	2531.309540
1007.218359	2532.589993
1007.512416	2530.598737
1007.806438	2533.492359
1008.100425	2533.920857
1008.394376	2531.027235
1008.688292	2531.705270
1008.982172	2532.005219
1009.276017	2530.563449
1009.569827	2531.422966
1009.863602	2531.052441
1010.157341	2532.317770
1010.451045	2530.613860
1010.744714	2531.974972
1011.038347	2533.578059
1011.331945	2530.286185
1011.625508	2532.524458
1011.919036	2531.773326
1012.212528	2532.935312
1012.505986	2531.216278
1012.799408	2531.498583
1013.092795	2532.524458
1013.386147	2532.947915
1013.679464	2531.750641
1013.972745	2531.647297
1014.265992	2531.430527
1014.559204	2534.268697
1014.852380	2532.710980
1015.145521	2531.075126
1015.438628	2531.586803
1015.731699	2532.519417
1016.024736	2531.798532
1016.317737	2532.292565
1016.610703	2533.820034
1016.903635	2526.966586
1017.196531	2527.442975
1017.489393	2528.546987
1017.782219	2527.977337
1018.075011	2529.928263
1018.367768	2532.655528
1018.660490	2532.310209
1018.953177	2532.310209
1019.245829	2532.310209
