Dividing Wavelength (nm)	Counts (n)	Blue Motor Position (mm): 18.200000	Red Motor Position (mm): 0.000000	
326.493990	2135.861267
326.888308	2135.861267
327.282561	2135.861267
327.676750	2102.108222
328.070874	2101.558736
328.464933	2104.071751
328.858929	2110.479058
329.252859	2120.256376
329.646726	2129.935391
330.040528	2144.736219
330.434265	2162.052582
330.827938	2178.607731
331.221547	2197.307892
331.615091	2217.026365
332.008571	2236.021433
332.401986	2253.927611
332.795338	2273.759510
333.188625	2293.520833
333.581847	2312.178144
333.975006	2328.269507
334.368100	2347.972857
334.761129	2368.220651
335.154095	2384.241438
335.546996	2400.867163
335.939833	2423.454053
336.332606	2436.881166
336.725315	2448.387600
337.117960	2458.106945
337.510540	2469.467185
337.903056	2479.612507
338.295508	2485.109885
338.687896	2493.997439
339.080220	2504.616630
339.472480	2511.079389
339.864676	2514.832528
340.256807	2519.185565
340.648875	2522.225380
341.040879	2524.163704
341.432818	2522.774866
341.824694	2527.281658
342.216506	2528.431041
342.608253	2528.068078
342.999937	2527.626977
343.391557	2527.135464
343.783113	2528.093283
344.174605	2527.586648
344.566033	2523.972140
344.957397	2521.625483
345.348697	2519.399814
345.739934	2519.241017
346.131106	2520.072808
346.522215	2514.557785
346.913260	2514.867816
347.304241	2510.953360
347.695159	2510.000582
348.086012	2509.004954
348.476802	2505.493791
348.867528	2506.260046
349.258191	2501.975065
349.648789	2500.966835
350.039324	2499.872904
350.429796	2500.215703
350.820203	2500.324088
351.210548	2498.718480
351.600828	2494.264621
351.991045	2495.910557
352.381198	2493.480721
352.771288	2493.188334
353.161314	2495.938284
353.551276	2496.258397
353.941175	2494.463746
354.331010	2492.112048
354.720782	2494.514158
355.110490	2493.639517
355.500135	2492.943838
355.889717	2493.526092
356.279235	2494.463746
356.668689	2495.829899
357.058080	2493.415186
357.447408	2491.781852
357.836672	2492.011225
358.225873	2494.141112
358.615010	2491.459218
359.004084	2499.424242
359.393095	2497.017091
359.782043	2499.852740
360.170927	2495.005670
360.559748	2500.772750
360.948505	2498.708398
361.337199	2502.088491
361.725830	2497.178408
362.114398	2502.796773
362.502903	2499.867863
362.891344	2504.001609
363.279722	2502.151506
363.668037	2502.481701
364.056289	2504.364572
364.444478	2502.680827
364.832603	2505.728204
365.220665	2504.573780
365.608665	2502.862308
365.996601	2507.883298
366.384474	2503.978924
366.772284	2507.197701
367.160031	2505.377844
367.547715	2508.253823
367.935336	2505.445900
368.322893	2510.217352
368.710388	2507.386744
369.097820	2506.300375
369.485189	2505.498832
369.872495	2509.138545
370.259738	2510.040912
370.646918	2507.404388
371.034035	2509.826663
371.421090	2508.152999
371.808081	2511.961591
372.195010	2510.592918
372.581875	2510.993690
372.968678	2511.538134
373.355418	2508.831035
373.742096	2511.036539
374.128710	2511.795233
374.515262	2512.543844
374.901751	2512.077538
375.288177	2512.934534
375.674540	2512.546365
376.060841	2511.578463
376.447079	2509.166271
376.833254	2513.846983
377.219367	2510.217352
377.605417	2508.919255
377.991404	2508.377331
378.377329	2510.466889
378.763191	2508.049656
379.148991	2513.342867
379.534727	2513.673063
379.920402	2513.168948
380.306013	2511.684328
380.691563	2515.263547
381.077049	2514.898063
381.462474	2514.406551
381.847835	2512.831190
382.233134	2515.049298
382.618371	2514.436798
383.003545	2516.097858
383.388657	2516.294463
383.773706	2515.061901
384.158693	2516.576767
384.543618	2515.555934
384.928480	2518.391583
385.313280	2515.742457
385.698017	2515.631551
386.082692	2515.656757
386.467305	2517.784124
386.851856	2519.016686
387.236344	2518.326048
387.620770	2518.878054
388.005133	2517.174144
388.389435	2520.261851
388.773674	2520.859228
389.157851	2518.099196
389.541965	2519.412417
389.926018	2517.779083
390.310008	2519.021727
390.693936	2522.255627
391.077802	2517.945441
391.461606	2521.454084
391.845348	2522.845442
392.229027	2519.659433
392.612645	2521.065915
392.996200	2519.752694
393.379694	2520.024917
393.763125	2523.054650
394.146494	2521.922911
394.529801	2523.619259
394.913047	2521.711183
395.296230	2521.703621
395.679351	2521.088600
396.062410	2525.124044
396.445408	2525.741585
396.828343	2522.588343
397.211217	2518.106758
397.594028	2519.959382
397.976778	2520.332427
398.359466	2520.662623
398.742092	2519.372087
399.124656	2524.408200
399.507158	2520.803775
399.889598	2524.541791
400.271977	2524.483817
400.654294	2527.165711
401.036549	2522.124557
401.418742	2526.906092
401.800874	2526.170083
402.182944	2526.018849
402.564952	2524.798889
402.946898	2523.334434
403.328783	2525.176976
403.710606	2523.957017
404.092367	2523.939373
404.474067	2526.611184
404.855705	2530.739889
405.237282	2528.010104
405.618797	2525.925587
406.000250	2527.321987
406.381642	2526.366688
406.762972	2529.005732
407.144240	2527.329549
407.525447	2528.761236
407.906593	2527.982378
408.287677	2527.551359
408.668700	2527.871473
409.049661	2529.020856
409.430560	2530.268541
409.811399	2528.811648
410.192176	2532.370703
410.572891	2528.272244
410.953545	2528.345341
411.334138	2528.494055
411.714669	2529.726617
412.095139	2530.119827
412.475547	2528.395753
412.855894	2530.208048
413.236180	2531.458254
413.616405	2533.207534
413.996568	2532.181659
414.376670	2531.460774
414.756711	2529.726617
415.136691	2530.946577
415.516609	2531.322142
415.896466	2532.731145
416.276262	2532.847092
416.655997	2530.487832
417.035670	2527.697553
417.415283	2529.968593
417.794834	2524.831657
418.174324	2533.807431
418.553753	2532.703419
418.933121	2532.852133
419.312428	2532.713501
419.691674	2530.392050
420.070859	2533.232740
420.449983	2531.571680
420.829045	2535.390354
421.208047	2535.375230
421.586988	2530.737369
421.965867	2535.304654
422.344686	2532.451361
422.723444	2537.638708
423.102141	2532.542102
423.480777	2534.203162
423.859352	2531.745599
424.237866	2533.189890
424.616319	2536.431352
424.994712	2536.171732
425.373044	2533.394057
425.751314	2533.885569
426.129524	2539.017464
426.507673	2533.099149
426.885762	2535.213913
427.263789	2534.717360
427.641756	2531.879190
428.019662	2534.508152
428.397508	2534.533358
428.775292	2535.521424
429.153016	2534.543440
429.530679	2534.959335
429.908282	2536.055786
430.285824	2536.789274
430.663305	2535.473533
431.040726	2535.574356
431.418086	2536.058307
431.795385	2537.558050
432.172624	2536.295241
432.549802	2536.514531
432.926920	2533.557894
433.303977	2537.842875
433.680974	2537.946219
434.057910	2538.583925
434.434786	2535.773481
434.811601	2537.754655
435.188355	2537.774819
435.565050	2539.677855
435.941683	2539.057793
436.318257	2534.193080
436.694770	2534.467823
437.071222	2533.787267
437.447614	2532.186700
437.823946	2534.331711
438.200218	2537.928575
438.576429	2538.843544
438.952580	2539.728267
439.328670	2538.858668
439.704700	2538.861188
440.080670	2537.779861
440.456580	2542.591642
440.832429	2538.707433
441.208218	2538.702392
441.583947	2538.044521
441.959616	2541.321271
442.335224	2538.997299
442.710773	2539.624923
443.086261	2540.635674
443.461689	2540.013092
443.837057	2542.684903
444.212365	2539.882022
444.587612	2538.974614
444.962800	2540.572660
445.337927	2539.781199
445.712995	2540.912938
446.088002	2540.257588
446.462949	2540.623071
446.837837	2541.026364
447.212664	2540.486960
447.587431	2545.286139
447.962139	2540.829759
448.336786	2543.909904
448.711374	2541.464944
449.085901	2543.713299
449.460369	2540.862526
449.834776	2541.044008
450.209124	2541.177598
450.583412	2542.745397
450.957640	2540.915458
451.331808	2540.822197
451.705917	2545.633978
452.079965	2543.468803
452.453954	2541.711961
452.827883	2543.735984
453.201752	2541.820345
453.575562	2541.079296
453.949311	2543.622558
454.323001	2543.315047
454.696632	2543.478885
455.070202	2542.735315
455.443713	2546.183464
455.817164	2544.280428
456.190556	2539.703061
456.563888	2540.388658
456.937160	2540.560057
457.310373	2545.812939
457.683526	2543.551982
458.056619	2541.348997
458.429653	2544.809750
458.802628	2545.442414
459.175542	2542.513504
459.548398	2543.299924
459.921194	2545.455017
460.293930	2544.197249
460.666607	2544.797147
461.039224	2544.419060
461.411782	2546.110367
461.784280	2546.274205
462.156719	2547.433670
462.529099	2544.479554
462.901419	2545.308824
463.273680	2543.509132
463.645882	2543.609955
464.018024	2542.803370
464.390106	2545.911242
464.762130	2545.649102
465.134094	2545.046684
465.505999	2546.952240
465.877845	2546.995090
466.249631	2549.061963
466.621358	2548.787220
466.993026	2552.396686
467.364634	2550.385266
467.736184	2548.366284
468.107674	2548.260419
468.479105	2546.629606
468.850477	2549.412323
469.221790	2545.250851
469.593043	2547.126160
469.964238	2546.579195
470.335373	2547.083310
470.706449	2548.845193
471.077467	2548.905687
471.448425	2548.749411
471.819324	2550.145811
472.190164	2550.556665
472.560945	2550.327292
472.931667	2548.078938
473.302330	2547.698331
473.672934	2549.772766
474.043479	2550.299566
474.413965	2547.504246
474.784393	2544.129194
475.154761	2548.330996
475.525070	2544.328319
475.895321	2547.806716
476.265513	2546.188505
476.635645	2549.316541
477.005719	2549.087169
477.375734	2546.075079
477.745691	2550.997766
478.115588	2548.772097
478.485427	2549.949206
478.855207	2552.154711
479.224928	2550.060111
479.594591	2553.709907
479.964194	2553.072201
480.333739	2552.328631
480.703226	2553.364588
481.072653	2552.341233
481.442022	2555.118909
481.811333	2553.793086
482.180584	2552.595812
482.549777	2554.355174
482.918912	2553.372149
483.287988	2553.321738
483.657005	2554.629917
484.025964	2554.340051
484.394864	2553.490617
484.763706	2557.621842
485.132489	2552.603373
485.501213	2555.670916
485.869879	2556.195196
486.238487	2553.649413
486.607036	2555.207129
486.975527	2554.486244
487.343959	2554.556821
487.712333	2555.093703
488.080648	2554.478683
488.448905	2556.696790
488.817104	2557.914229
489.185244	2555.905329
489.553326	2556.719476
489.921350	2557.800803
490.289315	2562.063099
490.657222	2560.419682
491.025070	2561.019580
491.392861	2560.512944
491.760593	2560.394477
492.128267	2561.783315
492.495883	2560.379353
492.863440	2560.046637
493.230939	2561.397666
493.598380	2559.613098
493.965763	2555.744012
494.333088	2555.716286
494.700354	2555.713765
495.067563	2562.458829
495.434713	2555.033210
495.801805	2560.560835
496.168839	2560.152501
496.535815	2561.669889
496.902733	2561.921946
497.269593	2563.240208
497.636395	2564.074519
498.003139	2565.395301
498.369825	2564.109807
498.736453	2567.560477
499.103023	2565.254149
499.469535	2566.282544
499.835989	2566.335477
500.202385	2568.697257
500.568723	2569.534089
500.935003	2570.832186
501.301226	2569.786146
501.667390	2571.386713
502.033497	2575.885942
502.399546	2573.902248
502.765537	2574.524831
503.131470	2577.708320
503.497345	2579.409709
503.863163	2579.671849
504.228923	2581.340471
504.594625	2584.990266
504.960269	2590.028900
505.325856	2588.735844
505.691385	2590.714497
506.056856	2591.697522
506.422270	2596.090887
506.787625	2600.990889
507.152924	2601.794953
507.518164	2604.386106
507.883347	2608.792074
508.248472	2608.897938
508.613540	2617.029320
508.978550	2620.114506
509.343503	2626.718417
509.708398	2632.069602
510.073236	2635.810138
510.438016	2641.380613
510.802738	2644.102836
511.167403	2651.629279
511.532010	2658.737306
511.896561	2666.099911
512.261053	2675.509225
512.625488	2675.824297
512.989866	2685.324351
513.354186	2689.057326
513.718449	2694.272399
514.082655	2709.670604
514.446803	2716.894577
514.810894	2728.113665
515.174927	2736.050962
515.538904	2745.798033
515.902822	2758.209354
516.266684	2759.371340
516.630488	2776.496139
516.994235	2780.791202
517.357925	2801.646456
517.721558	2811.806901
518.085133	2825.418017
518.448651	2837.587362
518.812112	2846.638754
519.175516	2862.256248
519.538863	2876.507590
519.902152	2889.082749
520.265385	2916.393200
520.628560	2922.162800
520.991678	2940.426901
521.354739	2957.244190
521.717743	2967.245839
522.080690	2983.942141
522.443580	3014.186543
522.806413	3027.343955
523.169189	3049.630896
523.531908	3072.001016
523.894569	3083.744384
524.257174	3103.677106
524.619722	3131.894965
524.982213	3148.314003
525.344647	3182.188036
525.707025	3195.831919
526.069345	3225.509192
526.431608	3248.017944
526.793815	3279.560443
527.155964	3290.953451
527.518057	3315.478664
527.880093	3341.359948
528.242072	3367.173177
528.603995	3393.954306
528.965860	3411.051380
529.327669	3444.456586
529.689421	3467.895430
530.051117	3496.498937
530.412755	3542.895197
530.774337	3556.380283
531.135862	3594.309925
531.497331	3618.744398
531.858743	3637.419352
532.220098	3691.405068
532.581396	3711.090774
532.942638	3739.283427
533.303824	3770.399949
533.664953	3817.887618
534.026025	3833.938652
534.387040	3888.476375
534.747999	3921.311931
535.108902	3970.982420
535.469748	3971.325218
535.830537	4023.561654
536.191270	4062.764187
536.551947	4104.482256
536.912567	4145.323164
537.273131	4169.949200
537.633638	4201.199313
537.994089	4246.849482
538.354483	4278.124800
538.714821	4341.837423
539.075103	4390.363570
539.435328	4427.887398
539.795497	4427.143828
540.155609	4511.406715
540.515665	4571.366199
540.875665	4560.966298
541.235609	4617.545688
541.595496	4662.734592
541.955328	4749.807921
542.315102	4762.471300
542.674821	4795.367349
543.034483	4837.496272
543.394090	4880.761975
543.753640	4911.157612
544.113134	5021.637019
544.472571	5028.515673
544.831953	5115.306699
545.191278	5113.635556
545.550548	5157.375128
545.909761	5242.585751
546.268918	5294.565088
546.628019	5365.794072
546.987064	5378.202872
547.346053	5389.109408
547.704986	5488.480633
548.063863	5524.862640
548.422684	5561.186674
548.781449	5594.097847
549.140158	5677.355023
549.498811	5685.662845
549.857408	5667.698693
550.215949	5823.034287
550.574434	5808.785466
550.932864	5908.880096
551.291237	5966.250947
551.649555	6014.696436
552.007817	6060.775103
552.366022	6081.337969
552.724173	6139.739736
553.082267	6178.213822
553.440305	6307.917670
553.798288	6250.914823
554.156215	6383.419031
554.514086	6419.180976
554.871902	6397.521659
555.229661	6462.948274
555.587365	6501.485375
555.945014	6487.473487
556.302606	6615.554083
556.660143	6598.648574
557.017625	6739.132929
557.375050	6728.942236
557.732421	6844.435071
558.089735	6855.676844
558.446994	6898.594707
558.804197	6971.288146
559.161345	7016.466966
559.518437	6972.177909
559.875474	7079.015083
560.232455	7145.540669
560.589381	7149.603839
560.946251	7215.907615
561.303065	7305.912376
561.659825	7332.123856
562.016528	7329.313412
562.373177	7291.524923
562.729770	7428.180522
563.086307	7417.069818
563.442789	7511.220928
563.799216	7502.338415
564.155587	7563.515338
564.511904	7591.120696
564.868164	7621.579348
565.224370	7675.280239
565.580520	7682.975560
565.936615	7712.050415
566.292654	7687.071498
566.648638	7808.346536
567.004567	7828.279258
567.360441	7852.239862
567.716260	7838.149837
568.072023	7943.885519
568.427732	7959.051830
568.783385	7915.861745
569.138982	8019.233125
569.494525	8065.977224
569.850013	8014.638113
570.205445	8119.040409
570.560823	8068.218017
570.916145	8058.748209
571.271412	8141.476064
571.626625	8132.381823
571.981782	8150.658526
572.336884	8170.497987
572.691931	8192.926081
573.046923	8203.063841
573.401860	8200.530661
573.756743	8188.136984
574.111570	8253.770287
574.466342	8264.762523
574.821059	8319.587592
575.175722	8274.978421
575.530330	8315.423598
575.884882	8330.962955
576.239380	8306.929254
576.593823	8316.827560
576.948211	8359.843726
577.302544	8282.068804
577.656823	8335.099222
578.011047	8354.933642
578.365216	8356.556893
578.719330	8321.190678
579.073389	8359.445474
579.427394	8337.760951
579.781344	8339.732042
580.135239	8324.336358
580.489080	8352.057663
580.842866	8297.293089
581.196597	8321.596491
581.550273	8381.417343
581.903895	8372.038277
582.257463	8449.157848
582.610975	8370.692289
582.964434	8404.858709
583.317837	8356.229218
583.671186	8363.664920
584.024481	8376.804688
584.377721	8321.173034
584.730906	8329.185948
585.084037	8366.069551
585.437113	8330.766350
585.790135	8366.838327
586.143103	8291.881410
586.496016	8282.736757
586.848874	8360.002522
587.201679	8362.016463
587.554428	8273.627392
587.907124	8329.969848
588.259765	8315.292528
588.612352	8338.191970
588.964884	8235.811176
589.317362	8265.324612
589.669786	8272.402392
590.022155	8325.672264
590.374470	8363.649797
590.726731	8311.741036
591.078937	8195.847429
591.431090	8308.184502
591.783188	8205.501239
592.135232	8211.449800
592.487222	8217.647899
592.839157	8279.855738
593.191038	8224.087973
593.542866	8182.937034
593.894639	8100.037780
594.246358	8160.224116
594.598022	8184.041047
594.949633	8097.527285
595.301190	8083.444822
595.652692	8122.077704
596.004141	8238.372083
596.355535	8030.510186
596.706876	8018.998711
597.058162	7966.812687
597.409395	8043.586939
597.760573	8111.960109
598.111698	8036.186525
598.462768	8028.529012
598.813785	7999.892738
599.164748	7978.505643
599.515657	7976.887432
599.866511	7899.009167
600.217312	8022.701439
600.568060	7895.382057
600.918753	7998.491297
601.269392	7975.763255
601.619978	7891.860811
601.970510	7964.274466
602.320988	7966.031308
602.671412	8017.814040
603.021783	7973.202349
603.372100	7943.756969
603.722363	7952.964637
604.072572	7938.806556
604.422728	7949.317362
604.772830	7884.089872
605.122878	7897.562356
605.472872	7891.727221
605.822813	7925.608816
606.172701	7872.301134
606.522534	7950.270140
606.872314	7955.802807
607.222041	7930.894465
607.571714	7985.611149
607.921333	7947.116898
608.270899	7960.032335
608.620411	8050.349647
608.969870	7955.480173
609.319276	7952.957075
609.668627	7968.277142
610.017926	8008.117381
610.367171	8051.413330
610.716362	8036.456227
611.065500	8030.182511
611.414585	8057.306439
611.763616	8048.297897
612.112594	8039.410343
612.461518	8047.352681
612.810389	8103.380065
613.159207	8048.499543
613.507971	8001.258891
613.856682	8121.979402
614.205340	8078.791837
614.553945	8161.126482
614.902496	8059.948004
615.250994	8120.656099
615.599439	8094.943694
615.947830	8111.367773
616.296169	8084.775687
616.644454	8103.826207
616.992686	8096.594672
617.340864	8159.140267
617.688990	8062.450937
618.037063	8158.807551
618.385082	8104.721012
618.733048	8183.148763
619.080961	8129.888972
619.428821	8149.494020
619.776628	8147.923700
620.124382	8104.947864
620.472083	8087.429854
620.819731	8121.586192
621.167326	8012.271291
621.514868	8019.641458
621.862357	7919.440964
622.209793	7929.934126
622.557176	7868.348870
622.904506	7838.472471
623.251783	7778.049201
623.599007	7732.086481
623.946179	7733.238385
624.293297	7693.466202
624.640363	7611.393696
624.987376	7596.965914
625.334336	7545.505816
625.681243	7497.163671
626.028097	7483.305539
626.374899	7463.355172
626.721647	7455.198586
627.068343	7388.141157
627.414987	7359.164605
627.761577	7313.048129
628.108115	7359.885490
628.454600	7250.245435
628.801032	7298.401057
629.147412	7256.937567
629.493739	7248.821309
629.840014	7183.069539
630.186236	7247.498006
630.532405	7128.239429
630.878521	7182.020979
631.224585	7131.508618
631.570597	7065.469502
631.916556	7093.299192
632.262462	7090.990344
632.608316	7052.302008
632.954117	7032.951539
633.299866	7016.845053
633.645562	7007.670153
633.991206	6934.298679
634.336797	6877.673919
634.682336	6832.767320
635.027823	6803.057280
635.373257	6791.785260
635.718639	6723.039045
636.063968	6736.781230
636.409245	6631.398430
636.754470	6632.260467
637.099642	6594.159426
637.444762	6533.486619
637.789829	6541.464245
638.134845	6487.624722
638.479808	6469.337937
638.824719	6478.958979
639.169577	6409.154121
639.514383	6432.439211
639.859137	6353.777046
640.203839	6363.080496
640.548489	6351.511048
640.893086	6330.504560
641.237632	6298.536083
641.582125	6319.103990
641.926566	6290.699609
642.270955	6300.479447
642.615292	6299.299817
642.959576	6310.105531
643.303809	6302.402647
643.647990	6310.954965
643.992118	6301.207894
644.336195	6251.950780
644.680219	6271.540704
645.024192	6264.508294
645.368112	6364.265167
645.711981	6379.802003
646.055797	6456.296472
646.399562	6415.316932
646.743274	6543.095058
647.086935	6590.665907
647.430544	6584.634166
647.774101	6607.851200
648.117606	6614.626511
648.461059	6605.134018
648.804460	6567.900056
649.147810	6479.014431
649.491108	6445.705007
649.834354	6420.854639
650.177548	6341.522001
650.520690	6249.092446
650.863781	6229.487398
651.206820	6253.137972
651.549807	6171.904818
651.892742	6109.797803
652.235626	6126.184074
652.578458	6106.586588
652.921238	6016.685171
653.263967	6056.308640
653.606644	5997.372511
653.949269	6003.086658
654.291843	5934.199291
654.634365	5988.333722
654.976836	5946.182114
655.319255	5942.625580
655.661622	5925.891470
656.003938	5917.344193
656.346203	5877.874479
656.688416	5908.978398
657.030577	5861.962077
657.372687	5835.170865
657.714746	5816.901723
658.056753	5866.277305
658.398708	5801.102747
658.740612	5795.207118
659.082465	5846.742834
659.424266	5838.238407
659.766016	5833.434188
660.107715	5812.178162
660.449362	5824.476057
660.790958	5824.266849
661.132503	5806.726154
661.473996	5845.149829
661.815438	5829.860009
662.156829	5824.271890
662.498168	5820.647301
662.839456	5795.963291
663.180693	5826.759700
663.521879	5833.681204
663.863013	5818.078833
664.204097	5841.573130
664.545129	5880.062340
664.886110	5875.863059
665.227040	5906.382204
665.567918	5871.946082
665.908746	5903.922121
666.249522	5907.241721
666.590248	5893.859978
666.930922	5916.230098
667.271545	5934.577378
667.612118	5937.775990
667.952639	5907.914715
668.293109	5930.395741
668.633528	5889.925358
668.973896	5890.845368
669.314213	5882.958483
669.654480	5864.376790
669.994695	5855.448906
670.334859	5848.877762
670.674973	5839.266803
671.015035	5847.423389
671.355047	5839.924673
671.695008	5834.644064
672.034918	5801.211132
672.374777	5816.163194
672.714585	5797.442870
673.054342	5800.517973
673.394049	5797.034536
673.733705	5830.525442
674.073310	5813.756043
674.412864	5773.691473
674.752368	5766.356594
675.091820	5766.628817
675.431223	5707.627152
675.770574	5705.721596
676.109875	5659.647970
676.449125	5663.474206
676.788324	5630.837776
677.127473	5570.369136
677.466571	5564.589453
677.805619	5556.266508
678.144616	5546.161515
678.483562	5522.286610
678.822458	5489.503987
679.161303	5488.707485
679.500098	5472.278364
679.838842	5458.034584
680.177535	5464.653619
680.516179	5477.720290
680.854771	5491.608669
681.193314	5567.810750
681.531805	5678.945507
681.870247	5828.463610
682.208638	5925.397437
682.546978	5938.854797
682.885268	5914.090128
683.223508	5829.146686
683.561697	5781.122134
683.899836	5751.223051
684.237925	5711.584458
684.575963	5669.755484
684.913951	5627.830728
685.251889	5690.209966
685.589776	5661.382127
685.927614	5629.973218
686.265401	5701.587850
686.603137	5683.684192
686.940824	5758.202528
687.278460	5783.526764
687.616046	5790.826355
687.953582	5859.557447
688.291068	5838.014076
688.628504	5900.645371
688.965889	5864.144897
689.303224	5808.437626
689.640510	5762.303507
689.977745	5686.837434
690.314930	5586.261373
690.652065	5534.576943
690.989150	5441.749137
691.326185	5369.143918
691.663170	5313.711391
692.000105	5238.315894
692.336990	5165.458618
692.673825	5136.557683
693.010610	5070.442950
693.347345	5003.198999
693.684030	4987.505887
694.020665	4948.920895
694.357251	4857.179457
694.693786	4871.529102
695.030272	4836.021734
695.366707	4797.411537
695.703093	4764.029016
696.039429	4784.057521
696.375716	4771.255510
696.711952	4743.251901
697.048139	4731.584150
697.384276	4713.766192
697.720363	4725.423860
698.056400	4732.163883
698.392388	4684.998848
698.728326	4662.870703
699.064214	4643.575686
699.400053	4635.635869
699.735842	4602.384418
700.071581	4581.226696
700.407270	4553.339032
700.742910	4534.200292
701.078501	4482.357066
701.414042	4479.624760
701.749533	4449.768527
702.084974	4387.391810
702.420366	4441.984985
702.755709	4387.341398
703.091002	4329.340402
703.426246	4379.487280
703.761440	4333.151515
704.096584	4299.038027
704.431679	4317.990245
704.766725	4300.326042
705.101721	4288.880102
705.436668	4317.622240
705.771565	4267.581227
706.106413	4296.668684
706.441212	4326.983663
706.775961	4336.834078
707.110661	4313.526303
707.445311	4341.224923
707.779913	4368.764746
708.114465	4378.572311
708.448967	4403.803286
708.783421	4466.197647
709.117825	4501.561341
709.452180	4506.877238
709.786485	4548.958270
710.120742	4639.688957
710.454949	4620.910659
710.789107	4688.638561
711.123216	4760.883336
711.457275	4750.823714
711.791286	4823.985980
712.125247	4841.380481
712.459159	4743.075460
712.793023	4815.395853
713.126837	4776.087456
713.460602	4774.991005
713.794318	4691.449004
714.127985	4699.219943
714.461602	4611.511427
714.795171	4587.137448
715.128691	4518.996172
715.462162	4465.716217
715.795584	4415.150923
716.128957	4398.973861
716.462281	4344.587372
716.795556	4321.234227
717.128782	4282.389616
717.461960	4217.580542
717.795088	4227.141091
718.128167	4187.227755
718.461198	4127.036378
718.794180	4120.399699
719.127113	4104.273048
719.459997	4079.871343
719.792833	4035.947769
720.125619	4029.414434
720.458357	3993.471007
720.791046	3998.184486
721.123686	3971.678099
721.456278	3930.900205
721.788821	3949.678503
722.121315	3922.985594
722.453761	3896.370822
722.786158	3909.218203
723.118506	3932.193261
723.450805	3883.500756
723.783056	3905.124786
724.115259	3918.771189
724.447412	3927.958692
724.779518	3918.332609
725.111574	3922.773865
725.443582	3953.272846
725.775542	3939.177780
726.107453	3986.862054
726.439315	3986.652846
726.771129	4001.128520
727.102895	4038.617060
727.434612	4086.891149
727.766281	4100.656020
728.097901	4094.515895
728.429473	4102.753140
728.760996	4106.937298
729.092471	4105.384622
729.423897	4090.780400
729.755276	4095.385494
730.086606	4095.922377
730.417887	4132.997543
730.749120	4195.505330
731.080305	4258.514712
731.411442	4286.041932
731.742530	4253.891973
732.073570	4259.149897
732.404562	4314.693330
732.735506	4307.048420
733.066401	4268.672637
733.397249	4204.564283
733.728048	4129.100731
734.058798	4044.200138
734.389501	3976.237822
734.720156	3913.477978
735.050762	3873.365517
735.381320	3863.522664
735.711831	3814.588183
736.042293	3783.249850
736.372707	3804.780618
736.703073	3780.578039
737.033391	3770.226029
737.363661	3783.022998
737.693883	3808.357317
738.024056	3819.659584
738.354182	3814.101712
738.684260	3880.680231
739.014290	3900.033220
739.344272	3891.473341
739.674207	3937.194086
740.004093	3941.579890
740.333931	3934.393725
740.663722	3935.638890
740.993464	3933.531688
741.323159	3911.456475
741.652806	3881.428842
741.982405	3850.410622
742.311956	3823.216118
742.641460	3811.969304
742.970915	3790.163793
743.300323	3751.288935
743.629683	3714.097822
743.958996	3704.449054
744.288260	3680.750590
744.617477	3646.947133
744.946647	3633.091521
745.275768	3610.882718
745.604842	3608.659569
745.933869	3557.272567
746.262847	3552.896846
746.591778	3587.683328
746.920662	3558.502609
747.249498	3529.268958
747.578286	3576.219744
747.907027	3590.589553
748.235720	3587.726178
748.564365	3615.853296
748.892963	3614.479581
749.221514	3597.909309
749.550017	3575.695464
749.878473	3570.082139
750.206881	3544.596586
750.535242	3537.407901
750.863555	3542.144065
751.191821	3536.581152
751.520039	3517.936444
751.848210	3494.898371
752.176334	3526.594626
752.504411	3534.279865
752.832440	3493.691015
753.160421	3478.244919
753.488356	3488.939727
753.816243	3498.253259
754.144082	3453.966722
754.471875	3446.062193
754.799620	3460.086683
755.127318	3452.156948
755.454969	3451.864561
755.782572	3458.680201
756.110129	3433.328238
756.437638	3422.792227
756.765100	3437.628343
757.092515	3447.040177
757.419882	3455.577371
757.747203	3427.525870
758.074477	3431.669699
758.401703	3449.127215
758.728882	3464.974082
759.056014	3471.635967
759.383099	3477.745845
759.710138	3473.208807
760.037129	3487.528204
760.364073	3519.179088
760.690970	3504.963035
761.017820	3481.309941
761.344623	3503.188548
761.671379	3547.573387
761.998088	3596.364195
762.324751	3723.068556
762.651366	3966.823468
762.977935	4433.619190
763.304456	4868.509450
763.630931	4954.839210
763.957359	4603.929532
764.283740	4265.647944
764.610074	4078.376641
764.936362	3885.146693
765.262602	3725.856314
765.588796	3616.264150
765.914943	3530.307436
766.241044	3442.830813
766.567097	3413.718150
766.893104	3368.935060
767.219064	3338.163857
767.544978	3310.601348
767.870845	3254.427771
768.196665	3239.851274
768.522438	3247.677666
768.848165	3244.035432
769.173846	3209.193497
769.499479	3191.478883
769.825066	3175.148065
770.150607	3158.832370
770.476101	3174.706964
770.801548	3165.441323
771.126949	3123.030096
771.452303	3105.567539
771.777611	3114.145062
772.102872	3118.724950
772.428087	3092.803337
772.753256	3083.840166
773.078378	3075.993610
773.403453	3041.111346
773.728482	3031.833102
774.053465	3049.424208
774.378401	3040.161088
774.703291	3008.696727
775.028135	3008.971469
775.352932	3003.282527
775.677683	2992.277688
776.002388	2990.188130
776.327046	2991.317349
776.651658	2982.916266
776.976224	2970.983855
777.300743	2970.630974
777.625216	2959.263172
777.949643	2956.412399
778.274024	2957.050105
778.598359	2946.655246
778.922647	2953.397789
779.246889	2950.108437
779.571086	2935.030345
779.895236	2933.147474
780.219339	2942.871860
780.543397	2954.403500
780.867409	2957.607153
781.191374	2950.942748
781.515294	2944.948816
781.839167	2947.358487
782.162995	2937.785336
782.486776	2947.766821
782.810511	2947.063580
783.134201	2929.354006
783.457844	2937.513114
783.781441	2929.238060
784.104993	2908.909607
784.428498	2911.389854
784.751958	2921.494847
785.075372	2918.084507
785.398739	2900.246384
785.722061	2917.532500
786.045337	2928.214705
786.368568	2913.318096
786.691752	2907.041859
787.014891	2958.602781
787.337983	2982.283601
787.661030	3009.997344
787.984031	3075.350863
788.306987	3121.109416
788.629897	3113.030967
788.952760	3098.257866
789.275579	3079.953436
789.598351	3022.287677
789.921078	2979.657160
790.243759	2972.816314
790.566395	2954.020372
790.888984	2933.775098
791.211529	2914.207859
791.534027	2906.865419
791.856480	2895.149777
792.178888	2880.101933
792.501249	2871.857126
792.823566	2869.404605
793.145836	2869.452496
793.468062	2863.042668
793.790241	2860.723738
794.112375	2867.236908
794.434464	2880.356511
794.756507	2882.879609
795.078505	2890.728685
795.400457	2904.160840
795.722364	2939.090995
796.044226	2964.263997
796.366042	2963.195272
796.687812	2955.988943
797.009538	2974.762199
797.331218	2963.475056
797.652852	2944.956377
797.974442	2929.608584
798.295986	2927.256886
798.617484	2921.041143
798.938938	2909.789288
799.260346	2890.237173
799.581709	2883.033364
799.903026	2879.678476
800.224299	2874.528938
800.545526	2864.885210
800.866708	2849.239989
801.187845	2840.949812
801.508936	2841.272446
801.829983	2851.120340
802.150984	2837.413442
802.471940	2824.034220
802.792851	2824.258551
803.113717	2821.710248
803.434538	2825.448264
803.755314	2819.678663
804.076045	2813.067190
804.396731	2814.105667
804.717372	2813.198260
805.037967	2807.433700
805.358518	2815.290339
805.679024	2826.211998
805.999485	2824.288798
806.319901	2824.868531
806.640272	2818.269661
806.960598	2821.997594
807.280879	2833.425890
807.601115	2840.014678
807.921306	2826.600167
808.241453	2823.197388
808.561554	2829.261897
808.881611	2830.794407
809.201623	2829.506392
809.521590	2825.191165
809.841513	2820.437357
810.161390	2828.031855
810.481223	2819.005669
810.801011	2812.734474
811.120755	2807.703402
811.440453	2809.722384
811.760107	2808.086530
812.079716	2807.829431
812.399281	2797.658903
812.718801	2791.823767
813.038276	2787.135494
813.357707	2793.631021
813.677093	2798.649490
813.996434	2795.937349
814.315731	2791.319652
814.634983	2781.812036
814.954191	2787.914353
815.273354	2800.683595
815.592473	2809.198104
815.911547	2808.462096
816.230577	2819.237562
816.549562	2826.829540
816.868502	2825.639827
817.187399	2837.148782
817.506250	2853.403982
817.825058	2845.892663
818.143821	2857.812471
818.462539	2871.126159
818.781213	2899.016342
819.099843	2934.833740
819.418429	2990.961947
819.736970	3049.293138
820.055466	3120.822070
820.373919	3225.451218
820.692327	3363.961962
821.010691	3526.161087
821.329011	3962.873724
821.647286	4847.185370
821.965517	6203.505291
822.283704	6916.006853
822.601847	6892.888121
822.919945	6271.003821
823.237999	5776.756495
823.556010	5206.334814
823.873976	4666.467566
824.191897	4265.411010
824.509775	3979.867453
824.827609	3715.111094
825.145398	3598.920060
825.463144	3584.348605
825.780845	3674.325639
826.098502	3780.570477
826.416116	4059.356367
826.733685	4368.371536
827.051210	4422.175771
827.368692	4309.531188
827.686129	4049.669790
828.003522	3728.573496
828.320872	3480.717605
828.638177	3291.041671
828.955439	3158.426557
829.272656	3077.684917
829.589830	3007.660769
829.906960	2960.465487
830.224046	2915.763055
830.541088	2885.138046
830.858086	2867.027701
831.175041	2850.568333
831.491952	2850.923735
831.808819	2864.096270
832.125642	2889.493603
832.442421	2934.112855
832.759157	3013.720236
833.075849	3186.737677
833.392497	3462.960141
833.709101	3660.230573
834.025662	3610.517234
834.342179	3452.991259
834.658653	3278.232099
834.975083	3135.043165
835.291469	3035.583721
835.607811	2955.668829
835.924110	2899.911147
836.240366	2852.584795
836.556578	2808.343629
836.872746	2788.322686
837.188871	2768.319388
837.504952	2747.587642
837.820990	2741.132445
838.136984	2727.443192
838.452935	2721.587892
838.768842	2720.743498
839.084706	2735.771178
839.400526	2816.149855
839.716303	2946.148610
840.032037	3022.300280
840.347727	3004.961232
840.663373	2945.599124
840.978977	2873.724873
841.294537	2804.310706
841.610054	2757.773294
841.925527	2735.665314
842.240957	2713.290152
842.556344	2693.256607
842.871687	2679.859741
843.186987	2670.773061
843.502244	2662.276196
843.817458	2663.037410
844.132629	2648.775986
844.447756	2638.696199
844.762840	2633.322329
845.077881	2636.384830
845.392879	2635.321146
845.707833	2630.038017
846.022745	2624.535598
846.337613	2625.846298
846.652438	2626.794035
846.967221	2624.586009
847.281960	2623.038375
847.596656	2621.702469
847.911309	2619.219701
848.225919	2617.344392
848.540485	2616.063939
848.855009	2613.669391
849.169490	2615.927827
849.483928	2615.895060
849.798323	2615.421192
850.112675	2612.940944
850.426984	2611.441201
850.741251	2611.257198
851.055474	2612.368773
851.369654	2615.388424
851.683792	2614.768362
851.997887	2614.891870
852.311938	2612.615789
852.625947	2615.252313
852.939914	2616.356326
853.253837	2618.468569
853.567718	2611.239554
853.881555	2609.603700
854.195350	2614.624689
854.509103	2615.365739
854.822812	2614.274329
855.136479	2611.118567
855.450103	2613.613938
855.763685	2620.099382
856.077224	2611.433639
856.390720	2607.655294
856.704173	2611.799122
857.017584	2615.771552
857.330953	2618.892026
857.644278	2621.531070
857.957561	2619.607870
858.270802	2616.187447
858.584000	2614.717951
858.897155	2620.545524
859.210268	2619.307921
859.523339	2614.271808
859.836367	2610.911879
860.149352	2609.432301
860.462295	2615.537138
860.775195	2609.510439
861.088054	2609.187805
861.400869	2605.447269
861.713642	2605.235540
862.026373	2605.447269
862.339062	2609.651591
862.651708	2617.425050
862.964312	2616.936058
863.276873	2613.566047
863.589392	2613.608897
863.901869	2623.741616
864.214303	2625.473252
864.526696	2627.709004
864.839045	2628.850825
865.151353	2632.286372
865.463619	2634.459109
865.775842	2632.707308
866.088023	2631.542802
866.400162	2633.279479
866.712258	2631.905765
867.024313	2632.903913
867.336325	2625.674898
867.648296	2629.027266
867.960224	2635.694192
868.272110	2633.783594
868.583954	2625.518623
868.895755	2628.276134
869.207515	2629.642287
869.519233	2637.793832
869.830909	2636.357103
870.142542	2629.221350
870.454134	2635.116980
870.765684	2639.558236
871.077191	2637.602268
871.388657	2644.070069
871.700081	2641.698206
872.011463	2640.145531
872.322803	2642.174595
872.634101	2644.180974
872.945357	2650.868065
873.256571	2656.809065
873.567744	2656.375525
873.878874	2652.675318
874.189963	2656.186482
874.501010	2658.371822
874.812015	2664.721156
875.122979	2664.892555
875.433900	2656.516678
875.744780	2654.880823
876.055618	2661.968686
876.366415	2665.726866
876.677169	2665.162257
876.987882	2658.429796
877.298554	2656.234373
877.609183	2671.927485
877.919771	2675.055521
878.230317	2681.601459
878.540822	2693.102852
878.851285	2703.517876
879.161707	2726.175342
879.472087	2763.618512
879.782425	2808.033598
880.092722	2921.646082
880.402977	3101.464040
880.713191	3355.656661
881.023363	3636.983292
881.333494	3820.065397
881.643583	3990.267354
881.953631	3985.531190
882.263637	3815.699758
882.573602	3598.879731
882.883526	3474.050679
883.193408	3365.706201
883.503248	3264.442023
883.813048	3153.438336
884.122806	3046.807850
884.432522	2961.723255
884.742197	2896.611712
885.051831	2865.280941
885.361424	2831.779953
885.670975	2796.383491
885.980485	2766.065992
886.289954	2748.230390
886.599382	2733.658934
886.908768	2723.710217
887.218113	2706.477033
887.527417	2692.881041
887.836680	2683.403672
888.145901	2682.211439
888.455082	2673.177691
888.764221	2661.474652
889.073319	2655.402583
889.382376	2656.005001
889.691392	2656.602377
890.000366	2656.839312
890.309300	2652.042654
890.618193	2656.511637
890.927044	2661.880465
891.235855	2660.743685
891.544625	2656.788900
891.853353	2659.001967
892.162041	2664.902637
892.470687	2684.979032
892.779293	2693.866587
893.087858	2703.497711
893.396381	2726.944117
893.704864	2765.531630
894.013306	2836.564008
894.321707	2923.047523
894.630068	2970.986375
894.938387	2988.953048
895.246665	2981.366111
895.554903	2942.486212
895.863100	2899.081877
896.171256	2845.043229
896.479371	2784.388066
896.787446	2745.971953
897.095480	2729.618450
897.403473	2725.005794
897.711425	2707.180274
898.019336	2690.176462
898.327207	2678.506191
898.635038	2677.079544
898.942827	2674.952177
899.250576	2666.931702
899.558284	2654.777480
899.865952	2648.748260
900.173579	2647.041829
900.481165	2646.318423
900.788711	2637.657721
901.096216	2632.921557
901.403681	2626.418469
901.711105	2630.831999
902.018489	2626.710856
902.325832	2630.663120
902.633135	2633.415590
902.940397	2647.941675
903.247619	2684.578261
903.554800	2748.855493
903.861941	2870.571632
904.169041	2993.353975
904.476101	3047.841286
904.783121	3041.615461
905.090100	2985.577995
905.397039	2915.758014
905.703938	2846.386696
906.010796	2787.642130
906.317614	2737.275962
906.624391	2704.014429
906.931129	2675.161385
907.237826	2652.231697
907.544483	2636.457927
907.851099	2626.355454
908.157675	2614.768362
908.464211	2609.412136
908.770707	2601.648759
909.077163	2593.986205
909.383578	2590.439754
909.689954	2592.743561
909.996289	2588.521595
910.302584	2589.300453
910.608839	2586.185020
910.915054	2586.716862
911.221229	2588.390525
911.527363	2590.177614
911.833458	2589.638210
912.139513	2591.541246
912.445527	2591.909250
912.751502	2596.496700
913.057436	2602.475508
913.363331	2605.268308
913.669186	2616.744494
913.975000	2631.068933
914.280775	2645.652991
914.586510	2663.097904
914.892205	2697.680219
915.197859	2761.992740
915.503475	2842.746983
915.809050	2906.837693
916.114585	2916.975453
916.420081	2929.598502
916.725536	2941.760286
917.030952	2916.312541
917.336328	2872.535161
917.641665	2826.065805
917.946961	2777.930347
918.252218	2744.444483
918.557435	2719.286605
918.862612	2698.509489
919.167750	2684.114474
919.472848	2666.994716
919.777906	2653.456697
920.082925	2640.183339
920.387904	2630.461474
920.692843	2624.676750
920.997743	2623.355968
921.302603	2616.646192
921.607423	2607.544389
921.912204	2605.842999
922.216946	2599.413007
922.521647	2600.479212
922.826310	2595.001998
923.130932	2588.826584
923.435516	2586.114444
923.740059	2583.397262
924.044564	2583.770307
924.349028	2582.472210
924.653454	2572.866291
924.957840	2572.384861
925.262186	2566.953018
925.566493	2569.856722
925.870761	2565.506207
926.174989	2566.537123
926.479178	2563.300702
926.783328	2565.042421
927.087438	2560.351627
927.391509	2562.035372
927.695541	2562.967986
927.999533	2559.018242
928.303486	2558.216698
928.607400	2560.870866
928.911275	2558.251986
929.215110	2559.850032
929.518906	2556.734599
929.822663	2556.318704
930.126381	2556.633776
930.430060	2558.773746
930.733699	2556.560679
931.037299	2557.515978
931.340861	2559.252655
931.644383	2558.584703
931.947866	2559.960938
932.251309	2558.698128
932.554714	2560.661658
932.858080	2559.542522
933.161407	2558.292316
933.464694	2558.315001
933.767943	2555.708724
934.071153	2559.378684
934.374323	2555.973385
934.677455	2556.417006
934.980548	2553.034392
935.283602	2555.355843
935.586617	2555.350802
935.889593	2556.500185
936.192530	2556.865669
936.495428	2555.247459
936.798287	2555.617983
937.101108	2556.240566
937.403890	2559.565207
937.706632	2561.591751
938.009336	2566.562328
938.312002	2569.347566
938.614628	2572.576425
938.917216	2577.814184
939.219765	2576.221179
939.522275	2578.635892
939.824747	2573.995510
940.127179	2567.925961
940.429573	2566.932853
940.731929	2571.182546
941.034246	2566.161557
941.336524	2567.678944
941.638763	2566.373285
941.940964	2566.585014
942.243126	2565.959911
942.545250	2566.111145
942.847335	2562.032852
943.149381	2562.557132
943.451389	2560.155022
943.753359	2560.870866
944.055290	2560.853222
944.357182	2557.609239
944.659036	2557.299208
944.960851	2558.514126
945.262628	2559.943293
945.564367	2559.343396
945.866067	2557.561348
946.167729	2561.758109
946.469352	2556.779969
946.770937	2559.880279
947.072484	2556.714434
947.373992	2558.410783
947.675462	2557.468087
947.976893	2556.454815
948.278286	2554.655123
948.579641	2554.937428
948.880958	2555.955741
949.182236	2555.144115
949.483476	2556.525391
949.784678	2557.165618
950.085841	2555.529763
950.386967	2555.580175
950.688054	2553.470452
950.989103	2556.348951
951.290114	2557.021945
951.591087	2560.548232
951.892021	2556.948848
952.192917	2559.638304
952.493776	2560.966648
952.794596	2564.198027
953.095378	2563.620815
953.396122	2561.717780
953.696828	2561.095197
953.997496	2559.754250
954.298126	2557.586554
954.598718	2556.885834
954.899272	2556.394321
955.199788	2555.512119
955.500266	2553.717468
955.800706	2550.123126
956.101108	2544.174564
956.401472	2547.884853
956.701798	2544.484595
957.002087	2547.479041
957.302337	2548.131870
957.602550	2547.297559
957.902724	2544.114070
958.202861	2544.940820
958.502960	2542.702547
958.803022	2541.588452
959.103045	2543.604914
959.403031	2542.576518
959.702979	2544.749256
960.002889	2546.715306
960.302762	2542.321940
960.602596	2545.500388
960.902393	2542.589121
961.202153	2547.138763
961.501875	2537.946219
961.801559	2543.380583
962.101205	2544.706406
962.400814	2544.698844
962.700385	2540.741538
962.999918	2545.081972
963.299414	2542.573998
963.598873	2542.533669
963.898293	2544.023330
964.197677	2543.120963
964.497022	2542.906714
964.796331	2543.393185
965.095601	2540.214738
965.394835	2540.010571
965.694030	2538.684748
965.993189	2541.235572
966.292309	2539.824048
966.591393	2540.771785
966.890439	2541.641384
967.189447	2541.951415
967.488419	2539.549306
967.787353	2542.175747
968.086249	2542.180788
968.385108	2543.362938
968.683930	2540.416384
968.982714	2541.187681
969.281462	2541.137269
969.580172	2543.118442
969.878844	2541.328833
970.177480	2540.643236
970.476078	2540.968390
970.774639	2541.979142
971.073162	2540.660880
971.371649	2536.290200
971.670098	2538.949408
971.968510	2540.088709
972.266885	2538.291538
972.565223	2543.062990
972.863524	2541.704399
973.161788	2541.684234
973.460014	2542.306817
973.758204	2540.706250
974.056356	2543.380582
974.354471	2541.921168
974.652550	2543.723381
974.950591	2541.258257
975.248595	2541.669111
975.546563	2541.895963
975.844493	2543.279759
976.142386	2541.371683
976.440243	2539.662732
976.738062	2540.857485
977.035845	2542.815973
977.333590	2540.882691
977.631299	2542.705068
977.928971	2539.430838
978.226606	2540.060983
978.524204	2538.490663
978.821765	2542.919317
979.119290	2537.938657
979.416777	2541.091899
979.714228	2541.401930
980.011642	2540.681045
980.309020	2541.427135
980.606360	2540.577701
980.903664	2539.473688
981.200931	2538.364634
981.498162	2540.852444
981.795356	2546.745553
982.092513	2548.411654
982.389633	2548.565409
982.686717	2551.645554
982.983764	2553.621687
983.280775	2558.675443
983.577749	2554.713096
983.874686	2553.747715
984.171587	2550.473486
984.468451	2548.739329
984.765279	2547.985677
985.062070	2545.727240
985.358824	2541.810263
985.655543	2542.168185
985.952224	2540.711292
986.248869	2543.070552
986.545478	2536.562422
986.842050	2541.031405
987.138586	2535.546629
987.435086	2534.775333
987.731549	2533.605785
988.027975	2541.903524
988.324366	2539.282124
988.620719	2538.190715
988.917037	2537.883204
989.213318	2539.249357
989.509563	2536.025539
989.805772	2538.344470
990.101944	2536.575025
990.398080	2538.548637
990.694180	2535.876825
990.990244	2537.782381
991.286271	2537.172402
991.582262	2537.885725
991.878217	2535.778523
992.174136	2540.156765
992.470019	2538.805735
992.765865	2537.696682
993.061676	2535.332380
993.357450	2539.660211
993.653188	2540.991076
993.948890	2535.662576
994.244556	2537.938657
994.540186	2540.358411
994.835780	2538.326826
995.131337	2538.475540
995.426859	2541.147351
995.722345	2538.651980
996.017795	2539.912269
996.313208	2541.107022
996.608586	2540.204656
996.903928	2541.545603
997.199234	2542.205994
997.494504	2542.014430
997.789738	2541.966539
998.084936	2537.099305
998.380099	2539.135931
998.675225	2540.434028
998.970316	2541.848072
999.265371	2538.425128
999.560390	2537.621064
999.855373	2536.398584
1000.150320	2539.362783
1000.445232	2539.115766
1000.740108	2536.776671
1001.034948	2538.268853
1001.329752	2537.694161
1001.624521	2536.353214
1001.919254	2533.363810
1002.213951	2535.138296
1002.508613	2532.101001
1002.803239	2533.966228
1003.097829	2530.266021
1003.392384	2538.301620
1003.686903	2535.947401
1003.981386	2537.303472
1004.275834	2535.244160
1004.570246	2537.313554
1004.864623	2537.278266
1005.158964	2536.799356
1005.453270	2535.776002
1005.747540	2535.523944
1006.041775	2536.829603
1006.335974	2537.464788
1006.630138	2536.194418
1006.924266	2535.944881
1007.218359	2538.296579
1007.512416	2538.145344
1007.806438	2538.543595
1008.100425	2536.249870
1008.394376	2535.181146
1008.688292	2536.370858
1008.982172	2535.002185
1009.276017	2535.970086
1009.569827	2534.951773
1009.863602	2538.291538
1010.157341	2538.392361
1010.451045	2533.376413
1010.744714	2535.526465
1011.038347	2536.244829
1011.331945	2536.960673
1011.625508	2536.101156
1011.919036	2534.934129
1012.212528	2533.683923
1012.505986	2537.358924
1012.799408	2533.779705
1013.092795	2536.209541
1013.386147	2535.476053
1013.679464	2535.907072
1013.972745	2535.216434
1014.265992	2537.754655
1014.559204	2534.309026
1014.852380	2536.380940
1015.145521	2533.326001
1015.438628	2534.452699
1015.731699	2533.399098
1016.024736	2535.037473
1016.317737	2536.670807
1016.610703	2535.632329
1016.903635	2529.708973
1017.196531	2531.836340
1017.489393	2532.126207
1017.782219	2529.041020
1018.075011	2532.025383
1018.367768	2536.990920
1018.660490	2532.030425
1018.953177	2532.030425
1019.245829	2532.030425
