Dividing Wavelength (nm)	Counts (n)	Blue Motor Position (mm): 35.800000	Red Motor Position (mm): 0.000000	
326.493990	2130.515124
326.888308	2130.515124
327.282561	2130.515124
327.676750	2097.387181
328.070874	2094.564135
328.464933	2098.372727
328.858929	2105.619385
329.252859	2113.231528
329.646726	2130.265587
330.040528	2141.789664
330.434265	2155.115954
330.827938	2175.146979
331.221547	2191.238342
331.615091	2210.349357
332.008571	2228.789897
332.401986	2249.458628
332.795338	2269.847575
333.188625	2287.879782
333.581847	2307.996507
333.975006	2328.211533
334.368100	2344.491940
334.761129	2364.341483
335.154095	2376.609131
335.546996	2400.133675
335.939833	2425.336924
336.332606	2438.499377
336.725315	2451.568568
337.117960	2459.790690
337.510540	2472.423822
337.903056	2480.555203
338.295508	2488.880668
338.687896	2496.323932
339.080220	2505.440859
339.472480	2513.443690
339.864676	2517.053157
340.256807	2520.700431
340.648875	2524.519105
341.040879	2524.967768
341.432818	2528.312574
341.824694	2530.203006
342.216506	2529.706453
342.608253	2531.680064
342.999937	2528.788963
343.391557	2529.661082
343.783113	2527.959693
344.174605	2527.032121
344.566033	2526.810310
344.957397	2523.047088
345.348697	2524.514064
345.739934	2517.998373
346.131106	2518.648682
346.522215	2517.955523
346.913260	2516.864113
347.304241	2513.539472
347.695159	2511.056704
348.086012	2508.631909
348.476802	2509.889677
348.867528	2509.441014
349.258191	2505.140910
349.648789	2506.068482
350.039324	2501.319715
350.429796	2503.368944
350.820203	2500.936588
351.210548	2501.576814
351.600828	2498.166474
351.991045	2499.313336
352.381198	2498.617657
352.771288	2498.746206
353.161314	2497.223778
353.551276	2496.805362
353.941175	2496.870897
354.331010	2494.867038
354.720782	2496.291164
355.110490	2497.407780
355.500135	2497.841319
355.889717	2496.649086
356.279235	2497.939622
356.668689	2497.438027
357.058080	2496.384426
357.447408	2495.887872
357.836672	2494.309991
358.225873	2495.799652
358.615010	2492.336379
359.004084	2497.949704
359.393095	2498.879797
359.782043	2498.728562
360.170927	2500.296361
360.559748	2501.188645
360.948505	2501.894407
361.337199	2504.546054
361.725830	2500.243429
362.114398	2504.220899
362.502903	2503.280724
362.891344	2506.544871
363.279722	2505.130828
363.668037	2509.100736
364.056289	2507.530417
364.444478	2509.128463
364.832603	2506.852382
365.220665	2508.024450
365.608665	2508.052176
365.996601	2508.463030
366.384474	2508.389934
366.772284	2509.259533
367.160031	2509.196518
367.547715	2510.529903
367.935336	2508.609224
368.322893	2511.074348
368.710388	2510.451766
369.097820	2513.368073
369.485189	2510.761797
369.872495	2513.766324
370.259738	2511.580984
370.646918	2511.833042
371.034035	2511.946468
371.421090	2512.647188
371.808081	2508.626868
372.195010	2513.758763
372.581875	2511.954029
372.968678	2513.473937
373.355418	2512.949657
373.742096	2516.049967
374.128710	2514.464524
374.515262	2517.716068
374.901751	2512.543844
375.288177	2514.328413
375.674540	2513.758763
376.060841	2514.817405
376.447079	2516.831346
376.833254	2514.353619
377.219367	2512.821108
377.605417	2513.584843
377.991404	2512.072497
378.377329	2512.811026
378.763191	2512.846314
379.148991	2514.787158
379.534727	2519.755215
379.920402	2519.419978
380.306013	2517.027951
380.691563	2520.846625
381.077049	2519.319155
381.462474	2518.729340
381.847835	2518.547859
382.233134	2520.781090
382.618371	2519.868641
383.003545	2519.041892
383.388657	2520.120699
383.773706	2523.047088
384.158693	2520.571882
384.543618	2523.919208
384.928480	2522.439629
385.313280	2522.462315
385.698017	2523.858714
386.082692	2524.660258
386.467305	2523.644465
386.851856	2525.955834
387.236344	2523.523478
387.620770	2525.928108
388.005133	2526.134795
388.389435	2527.100176
388.773674	2527.183355
389.157851	2528.055475
389.541965	2527.256452
389.926018	2524.718231
390.310008	2527.211082
390.693936	2526.172604
391.077802	2527.397604
391.461606	2525.345855
391.845348	2529.746782
392.229027	2529.078829
392.612645	2529.562780
392.996200	2531.493542
393.379694	2530.838192
393.763125	2534.132586
394.146494	2528.481452
394.529801	2533.061341
394.913047	2531.559077
395.296230	2533.814993
395.679351	2531.957328
396.062410	2536.149047
396.445408	2532.557225
396.828343	2536.625436
397.211217	2533.694005
397.594028	2531.072605
397.976778	2532.206865
398.359466	2535.539068
398.742092	2532.547143
399.124656	2537.903369
399.507158	2539.791281
399.889598	2543.705737
400.271977	2542.077444
400.654294	2548.265461
401.036549	2550.594474
401.418742	2556.744681
401.800874	2558.526729
402.182944	2562.496638
402.564952	2570.517114
402.946898	2580.833835
403.328783	2586.043868
403.710606	2593.502255
404.092367	2609.674276
404.474067	2620.323714
404.855705	2630.723614
405.237282	2640.132928
405.618797	2662.883655
406.000250	2681.472910
406.381642	2703.255736
406.762972	2718.759804
407.144240	2737.258318
407.525447	2758.342944
407.906593	2784.272119
408.287677	2810.158444
408.668700	2823.817450
409.049661	2853.807275
409.430560	2888.094683
409.811399	2905.562281
410.192176	2958.161680
410.572891	2978.752273
410.953545	3027.565765
411.334138	3034.225130
411.714669	3082.317737
412.095139	3087.179930
412.475547	3159.754902
412.855894	3192.507278
413.236180	3231.755181
413.616405	3253.212853
413.996568	3318.836073
414.376670	3337.606809
414.756711	3355.807895
415.136691	3409.085330
415.516609	3484.445538
415.896466	3535.399001
416.276262	3594.768670
416.655997	3627.216057
417.035670	3749.700972
417.415283	3840.348479
417.794834	3862.128785
418.174324	3879.644274
418.553753	3875.066906
418.933121	4021.356149
419.312428	4106.571814
419.691674	4122.824494
420.070859	4244.792691
420.449983	4235.166608
420.829045	4351.927292
421.208047	4337.171835
421.586988	4432.616001
421.965867	4480.436386
422.344686	4624.439466
422.723444	4554.674938
423.102141	4461.826967
423.480777	4722.419332
423.859352	4589.048046
424.237866	4828.013862
424.616319	4853.322974
424.994712	4972.936952
425.373044	4914.376389
425.751314	5068.769287
426.129524	4937.406900
426.507673	5134.710100
426.885762	5226.728802
427.263789	5202.760636
427.641756	5130.125170
428.019662	5262.268936
428.397508	5294.272701
428.775292	5267.179020
429.153016	5383.768306
429.530679	5336.782231
429.908282	5439.074804
430.285824	5334.337272
430.663305	5606.400783
431.040726	5374.084249
431.418086	5390.654522
431.795385	5503.185678
432.172624	5528.509915
432.549802	5534.619793
432.926920	5557.554523
433.303977	5578.016566
433.680974	5625.012723
434.057910	5649.230426
434.434786	5661.971942
434.811601	5640.511750
435.188355	5882.698863
435.565050	5760.826449
435.941683	5752.180870
436.318257	5964.385720
436.694770	5950.073885
437.071222	5990.201469
437.447614	5925.601603
437.823946	5844.176886
438.200218	5996.339074
438.576429	5870.602615
438.952580	5970.190609
439.328670	6014.313308
439.704700	5924.321150
440.080670	5913.759933
440.456580	6181.508217
440.832429	6066.675773
441.208218	5915.461322
441.583947	6073.020065
441.959616	6073.778759
442.335224	6002.085989
442.710773	6142.358616
443.086261	6167.783675
443.461689	5955.772909
443.837057	6115.063288
444.212365	6264.336895
444.587612	6159.574156
444.962800	6309.354399
445.337927	6295.939888
445.712995	5904.640486
446.088002	6483.828733
446.462949	6314.420758
446.837837	6246.619760
447.212664	6415.785759
447.587431	6560.136679
447.962139	7100.419822
448.336786	8025.290071
448.711374	7764.657376
449.085901	6841.266706
449.460369	6765.906497
449.834776	6696.323450
450.209124	7090.347597
450.583412	7239.951399
450.957640	7379.697224
451.331808	7147.940259
451.705917	6703.378545
452.079965	6624.658407
452.453954	6838.415933
452.827883	6714.083435
453.201752	6808.496685
453.575562	6609.562672
453.949311	6816.529764
454.323001	6702.062804
454.696632	6775.678773
455.070202	6912.649444
455.443713	7069.262971
455.817164	7171.757190
456.190556	7249.884992
456.563888	7330.457754
456.937160	7369.524176
457.310373	7025.581372
457.683526	7056.266876
458.056619	6939.286901
458.429653	6931.498318
458.802628	6867.160592
459.175542	6972.061963
459.548398	7332.910276
459.921194	7490.315263
460.293930	7488.150088
460.666607	8019.459977
461.039224	8329.248963
461.411782	8452.394269
461.784280	8467.525292
462.156719	8363.047379
462.529099	8238.309068
462.901419	7823.568300
463.273680	7724.328145
463.645882	7735.784167
464.018024	7601.712160
464.390106	7760.894155
464.762130	8160.410638
465.134094	8617.799568
465.505999	9643.084561
465.877845	10865.221570
466.249631	11506.398366
466.621358	11123.164809
466.993026	10495.029478
467.364634	10239.513554
467.736184	9881.427794
468.107674	9543.315085
468.479105	9580.995189
468.850477	9344.176905
469.221790	9119.185168
469.593043	8786.400958
469.964238	8648.061614
470.335373	8661.037544
470.706449	8718.390752
471.077467	8706.788536
471.448425	10010.047793
471.819324	11070.870400
472.190164	11101.225708
472.560945	9857.212611
472.931667	9062.683915
473.302330	8935.745141
473.672934	8580.794978
474.043479	8935.208258
474.413965	8876.012509
474.784393	8755.050022
475.154761	8913.299403
475.525070	9008.136110
475.895321	8826.949479
476.265513	9003.450358
476.635645	9173.385133
477.005719	9176.089712
477.375734	9286.483420
477.745691	9531.337303
478.115588	9655.959668
478.485427	9901.337831
478.855207	10442.624163
479.224928	11254.186918
479.594591	11869.147194
479.964194	11685.631550
480.333739	11620.545212
480.703226	11545.852956
481.072653	11633.488375
481.442022	11865.870444
481.811333	12057.177191
482.180584	11867.198788
482.549777	11579.762278
482.918912	11397.315358
483.287988	11420.779409
483.657005	11431.254927
484.025964	11110.720721
484.394864	11246.889848
484.763706	11214.954138
485.132489	10977.263735
485.501213	10942.235277
485.869879	11012.980310
486.238487	10863.704183
486.607036	10969.293670
486.975527	10745.700853
487.343959	10938.799731
487.712333	10987.220013
488.080648	10920.828017
488.448905	10959.450818
488.817104	10904.348485
489.185244	11166.707776
489.553326	11323.159985
489.921350	11863.367511
490.289315	12910.810895
490.657222	13256.714708
491.025070	13169.822859
491.392861	13032.325388
491.760593	12664.084223
492.128267	12312.625059
492.495883	11983.372178
492.863440	11651.654173
493.230939	11311.817389
493.598380	11250.965621
493.965763	11116.313881
494.333088	11016.819148
494.700354	10935.873341
495.067563	10999.200316
495.434713	10832.161683
495.801805	10956.237082
496.168839	10880.057686
496.535815	10815.394805
496.902733	10818.250619
497.269593	10751.170505
497.636395	10845.785401
498.003139	10839.438588
498.369825	10707.758609
498.736453	10864.442712
499.103023	10789.248861
499.469535	10819.367234
499.835989	10810.106635
500.202385	10772.003073
500.568723	10623.964550
500.935003	10849.193221
501.301226	10653.709878
501.667390	10905.404607
502.033497	11010.268169
502.399546	10866.433967
502.765537	10773.686819
503.131470	10848.797491
503.497345	11019.443069
503.863163	10629.502257
504.228923	10941.199320
504.594625	10998.184523
504.960269	10751.379713
505.325856	10977.651903
505.691385	10766.162897
506.056856	10922.138717
506.422270	10942.608323
506.787625	10835.072949
507.152924	10950.863212
507.518164	10933.100706
507.883347	10856.273522
508.248472	10770.284040
508.613540	11005.632828
508.978550	10893.300797
509.343503	10863.890705
509.708398	10984.359159
510.073236	11095.367887
510.438016	11104.792324
510.802738	11048.835516
511.167403	11105.503127
511.532010	11004.314566
511.896561	11234.430636
512.261053	11303.111316
512.625488	11173.984681
512.989866	11149.709005
513.354186	11144.146092
513.718449	11045.140351
514.082655	11236.217725
514.446803	11136.622169
514.810894	11259.369224
515.174927	11120.492998
515.538904	11148.597430
515.902822	11298.085286
516.266684	11188.190653
516.630488	11124.425098
516.994235	11183.053717
517.357925	11239.270144
517.721558	11338.946358
518.085133	11347.468429
518.448651	11358.158196
518.812112	11238.057747
519.175516	11258.275294
519.538863	11376.157636
519.902152	11291.539348
520.265385	11450.386105
520.628560	11367.207067
520.991678	11343.594302
521.354739	11405.421534
521.717743	11338.530463
522.080690	11318.265025
522.443580	11449.864346
522.806413	11406.472614
523.169189	11432.767273
523.531908	11496.621048
523.894569	11316.114973
524.257174	11323.459934
524.619722	11440.344127
524.982213	11383.910930
525.344647	11440.366812
525.707025	11394.404092
526.069345	11489.744914
526.431608	11402.981615
526.793815	11506.821823
527.155964	11302.503857
527.518057	11354.702485
527.880093	11303.310442
528.242072	11365.021727
528.603995	11273.287850
528.965860	11199.366891
529.327669	11246.131154
529.689421	11196.294307
530.051117	11162.342136
530.412755	11271.742737
530.774337	11162.700058
531.135862	11140.120730
531.497331	11164.446818
531.858743	11019.221258
532.220098	11188.634274
532.581396	11056.024202
532.942638	11037.986953
533.303824	11000.057312
533.664953	11012.365289
534.026025	10931.081724
534.387040	11024.670745
534.747999	11029.853052
535.108902	11087.118039
535.469748	10845.412356
535.830537	10957.391506
536.191270	10926.416136
536.551947	10959.312186
536.912567	10952.884715
537.273131	10879.793025
537.633638	10858.705878
537.994089	10853.289159
538.354483	10796.278750
538.714821	10946.648807
539.075103	10941.824423
539.435328	10913.664538
539.795497	10739.737168
540.155609	10901.270861
540.515665	10986.244550
540.875665	10722.123377
541.235609	10791.293049
541.595496	10784.583273
541.955328	10940.682602
542.315102	10822.517956
542.674821	10776.736717
543.034483	10773.412076
543.394090	10776.726635
543.753640	10707.340193
544.113134	10930.759090
544.472571	10776.998857
544.831953	10928.263719
545.191278	10734.514533
545.550548	10757.650908
545.909761	10890.255940
546.268918	10873.317663
546.628019	10958.762700
546.987064	10818.182563
547.346053	10740.720193
547.704986	10844.003353
548.063863	10829.202526
548.422684	10824.685652
548.781449	10737.733310
549.140158	10839.050420
549.498811	10714.347397
549.857408	10577.696840
550.215949	10802.164297
550.574434	10653.845989
550.932864	10751.253684
551.291237	10816.609723
551.649555	10757.434139
552.007817	10773.245718
552.366022	10731.361291
552.724173	10731.295756
553.082267	10713.966790
553.440305	10847.020484
553.798288	10650.438169
554.156215	10805.325100
554.514086	10782.160998
554.871902	10633.648606
555.229661	10669.022383
555.587365	10640.552466
555.945014	10542.449092
556.302606	10661.385035
556.660143	10557.822091
557.017625	10711.904958
557.375050	10609.166242
557.732421	10742.310677
558.089735	10656.923613
558.446994	10655.060907
558.804197	10694.933913
559.161345	10696.433657
559.518437	10541.014884
559.875474	10634.719851
560.232455	10656.548047
560.589381	10610.923085
560.946251	10607.999215
561.303065	10716.661287
561.659825	10650.760803
562.016528	10583.108518
562.373177	10461.488161
562.729770	10574.553680
563.086307	10489.416153
563.442789	10588.699158
563.799216	10462.284663
564.155587	10514.238795
564.511904	10467.875303
564.868164	10460.391710
565.224370	10466.869593
565.580520	10394.791175
565.936615	10400.926259
566.292654	10274.637794
566.648638	10402.718390
567.004567	10359.261123
567.360441	10341.377630
567.716260	10249.333722
568.072023	10344.321663
568.427732	10298.762236
568.783385	10210.778977
569.138982	10283.885791
569.494525	10294.946082
569.850013	10171.256331
570.205445	10252.371017
570.560823	10145.508638
570.916145	10070.110621
571.271412	10137.324325
571.626625	10085.586963
571.981782	10057.837932
572.336884	10032.342296
572.691931	10040.332525
573.046923	9981.240119
573.401860	9940.915930
573.756743	9872.872956
574.111570	9916.920037
574.466342	9904.609540
574.821059	9934.864025
575.175722	9822.743722
575.530330	9833.151184
575.884882	9820.644081
576.239380	9751.161858
576.593823	9734.538653
576.948211	9747.612886
577.302544	9625.765677
577.656823	9647.336774
578.011047	9645.559767
578.365216	9617.793092
578.719330	9545.298779
579.073389	9550.796157
579.427394	9503.908385
579.781344	9476.600455
580.135239	9427.371067
580.489080	9434.524464
580.842866	9329.514709
581.196597	9338.359413
581.550273	9388.919666
581.903895	9348.219910
582.257463	9413.094519
582.610975	9293.442733
582.964434	9319.729829
583.317837	9246.091175
583.671186	9223.665602
584.024481	9225.137619
584.377721	9133.121438
584.730906	9117.496381
585.084037	9150.301690
585.437113	9087.022606
585.790135	9103.088763
586.143103	9002.918516
586.496016	8981.349939
586.848874	9032.210140
587.201679	9019.158593
587.554428	8909.279083
587.907124	8951.508829
588.259765	8922.260054
588.612352	8929.456302
588.964884	8808.221593
589.317362	8816.955392
589.669786	8815.422881
590.022155	8870.797435
590.374470	8882.631544
590.726731	8819.561668
591.078937	8678.457252
591.431090	8787.807440
591.783188	8656.745002
592.135232	8652.427254
592.487222	8651.318200
592.839157	8703.466416
593.191038	8639.920151
593.542866	8583.819670
593.894639	8482.759659
594.246358	8535.863174
594.598022	8554.384373
594.949633	8450.937376
595.301190	8423.846215
595.652692	8454.854352
596.004141	8565.966424
596.355535	8339.371600
596.706876	8322.640010
597.058162	8261.110207
597.409395	8332.727359
597.760573	8392.331442
598.111698	8303.344994
598.462768	8293.338303
598.813785	8254.244155
599.164748	8223.362047
599.515657	8213.635141
599.866511	8126.019887
600.217312	8247.730985
600.568060	8108.872402
600.918753	8211.883340
601.269392	8184.194802
601.619978	8092.181142
601.970510	8156.065164
602.320988	8150.950913
602.671412	8212.384934
603.021783	8142.499419
603.372100	8117.157538
603.722363	8123.053168
604.072572	8098.588448
604.422728	8105.318388
604.772830	8038.500415
605.122878	8043.206332
605.472872	8035.143006
605.822813	8072.414777
606.172701	8012.931682
606.522534	8089.484124
606.872314	8089.554700
607.222041	8060.494969
607.571714	8112.227290
607.921333	8066.209117
608.270899	8077.695386
608.620411	8170.830703
608.969870	8074.458965
609.319276	8067.182060
609.668627	8080.024399
610.017926	8117.989329
610.367171	8161.423910
610.716362	8137.672514
611.065500	8135.956001
611.414585	8155.182962
611.763616	8147.464955
612.112594	8127.900237
612.461518	8140.735015
612.810389	8206.816980
613.159207	8141.430694
613.507971	8090.394052
613.856682	8204.127524
614.205340	8167.886669
614.553945	8238.793019
614.902496	8143.671487
615.250994	8200.981844
615.599439	8178.087444
615.947830	8189.273765
616.296169	8168.892380
616.644454	8179.778751
616.992686	8179.390582
617.340864	8230.611226
617.688990	8141.372721
618.037063	8229.146771
618.385082	8177.117022
618.733048	8259.088704
619.080961	8196.270886
619.428821	8219.250986
619.776628	8225.731389
620.124382	8177.981580
620.472083	8163.127820
620.819731	8184.106582
621.167326	8080.737722
621.514868	8091.891275
621.862357	7970.064231
622.209793	7986.848752
622.557176	7932.031246
622.904506	7898.968838
623.251783	7830.953590
623.599007	7786.016745
623.946179	7788.822147
624.293297	7744.777586
624.640363	7664.744228
624.987376	7648.529356
625.334336	7597.661593
625.681243	7544.913480
626.028097	7529.742128
626.374899	7508.536514
626.721647	7502.156934
627.068343	7429.662621
627.414987	7405.631440
627.761577	7358.789039
628.108115	7397.474853
628.454600	7291.287989
628.801032	7344.613314
629.147412	7300.931716
629.493739	7287.723893
629.840014	7233.039977
630.186236	7287.532329
630.532405	7169.518918
630.878521	7215.713531
631.224585	7177.844383
631.570597	7094.771209
631.916556	7134.606407
632.262462	7128.708257
632.608316	7090.753409
632.954117	7067.576705
633.299866	7051.613891
633.645562	7044.581481
633.991206	6970.340409
634.336797	6909.564258
634.682336	6868.085644
635.027823	6836.888463
635.373257	6824.373799
635.718639	6757.797801
636.063968	6770.647702
636.409245	6662.681310
636.754470	6662.509911
637.099642	6627.141175
637.444762	6570.178658
637.789829	6572.777372
638.134845	6516.245873
638.479808	6503.204408
638.824719	6509.170614
639.169577	6435.176557
639.514383	6454.032993
639.859137	6381.384925
640.203839	6394.275156
640.548489	6377.596498
640.893086	6359.138313
641.237632	6328.069682
641.582125	6346.921077
641.926566	6318.536860
642.270955	6331.568243
642.615292	6327.825186
642.959576	6345.108782
643.303809	6329.508932
643.647990	6337.017730
643.992118	6328.258726
644.336195	6278.590757
644.680219	6301.543131
645.024192	6291.196162
645.368112	6388.230812
645.711981	6409.237300
646.055797	6487.226471
646.399562	6439.753925
646.743274	6569.205715
647.086935	6622.367203
647.430544	6618.215813
647.774101	6638.511498
648.117606	6644.485265
648.461059	6633.024202
648.804460	6599.510611
649.147810	6505.180540
649.491108	6475.236087
649.834354	6451.209947
650.177548	6367.501588
650.520690	6284.559483
650.863781	6258.685761
651.206820	6278.326097
651.549807	6203.787596
651.892742	6143.384491
652.235626	6150.595861
652.578458	6136.566330
652.921238	6042.412700
653.263967	6082.817548
653.606644	6020.251787
653.949269	6025.159351
654.291843	5968.461493
654.634365	6016.115521
654.976836	5967.380166
655.319255	5968.801771
655.661622	5943.860663
656.003938	5946.023318
656.346203	5898.142438
656.688416	5934.282470
657.030577	5889.988372
657.372687	5857.382189
657.714746	5844.048337
658.056753	5886.343618
658.398708	5826.260626
658.740612	5825.877498
659.082465	5863.842428
659.424266	5861.818404
659.766016	5859.083578
660.107715	5829.970915
660.449362	5845.981619
660.790958	5843.952555
661.132503	5827.281459
661.473996	5864.109609
661.815438	5855.448906
662.156829	5850.629563
662.498168	5841.036248
662.839456	5821.572353
663.180693	5855.249781
663.521879	5851.809193
663.863013	5843.335014
664.204097	5861.899063
664.545129	5905.008490
664.886110	5898.707048
665.227040	5933.450680
665.567918	5898.366770
665.908746	5926.292241
666.249522	5933.929589
666.590248	5912.444192
666.930922	5946.845026
667.271545	5961.219876
667.612118	5959.319361
667.952639	5933.243993
668.293109	5956.851716
668.633528	5912.444192
668.973896	5918.294451
669.314213	5902.331637
669.654480	5890.520214
669.994695	5878.837340
670.334859	5874.864910
670.674973	5866.700762
671.015035	5869.233942
671.355047	5865.216142
671.695008	5852.270459
672.034918	5830.522921
672.374777	5834.802861
672.714585	5824.244164
673.054342	5827.399926
673.394049	5815.898534
673.733705	5852.875397
674.073310	5837.285629
674.412864	5794.912210
674.752368	5792.373989
675.091820	5791.829545
675.431223	5727.048197
675.770574	5730.161110
676.109875	5681.634963
676.449125	5688.642167
676.788324	5658.085213
677.127473	5597.626655
677.466571	5591.310089
677.805619	5580.070836
678.144616	5566.346295
678.483562	5545.823758
678.822458	5509.734137
679.161303	5507.110217
679.500098	5498.557899
679.838842	5483.313450
680.177535	5482.695909
680.516179	5498.918342
680.854771	5507.889075
681.193314	5591.983083
681.531805	5699.442839
681.870247	5851.171487
682.208638	5957.502025
682.546978	5964.859589
682.885268	5941.367812
683.223508	5861.349577
683.561697	5802.443694
683.899836	5772.834477
684.237925	5726.324792
684.575963	5692.544020
684.913951	5648.691022
685.251889	5712.754006
685.589776	5681.627401
685.927614	5653.618750
686.265401	5721.081992
686.603137	5704.103386
686.940824	5788.136900
687.278460	5807.535260
687.616046	5819.175284
687.953582	5884.465788
688.291068	5866.960381
688.628504	5934.708448
688.965889	5893.615482
689.303224	5842.062122
689.640510	5790.420542
689.977745	5715.272062
690.314930	5616.833451
690.652065	5560.183484
690.989150	5469.258713
691.326185	5393.170057
691.663170	5339.340617
692.000105	5263.461169
692.336990	5180.642573
692.673825	5159.913348
693.010610	5094.209470
693.347345	5023.749263
693.684030	5007.771325
694.020665	4966.955623
694.357251	4880.537643
694.693786	4886.660125
695.030272	4852.854147
695.366707	4818.297037
695.703093	4782.749341
696.039429	4807.400583
696.375716	4792.418274
696.711952	4766.022793
697.048139	4752.900669
697.384276	4730.959047
697.720363	4744.068568
698.056400	4754.168519
698.392388	4700.190365
698.728326	4683.158826
699.064214	4658.298376
699.400053	4656.223941
699.735842	4623.945433
700.071581	4594.580712
700.407270	4568.404521
700.742910	4549.391809
701.078501	4495.842152
701.414042	4499.456660
701.749533	4464.705466
702.084974	4402.069129
702.420366	4456.385041
702.755709	4399.165424
703.091002	4345.754399
703.426246	4393.645361
703.761440	4350.644319
704.096584	4312.898679
704.431679	4331.777800
704.766725	4315.265501
705.101721	4306.919871
705.436668	4331.402234
705.771565	4282.311478
706.106413	4309.800890
706.441212	4342.875901
706.775961	4355.564485
707.110661	4333.930373
707.445311	4355.635061
707.779913	4384.052045
708.114465	4392.725350
708.448967	4415.735697
708.783421	4477.820027
709.117825	4518.774361
709.452180	4529.328017
709.786485	4569.387546
710.120742	4658.111853
710.454949	4638.254748
710.789107	4707.013566
711.123216	4783.586173
711.457275	4770.285088
711.791286	4845.065564
712.125247	4860.766238
712.459159	4762.176392
712.793023	4837.836550
713.126837	4798.865910
713.460602	4792.516577
713.794318	4710.892734
714.127985	4719.044280
714.461602	4632.938852
714.795171	4606.107310
715.128691	4539.483421
715.462162	4483.990400
715.795584	4432.419396
716.128957	4415.377775
716.462281	4368.734499
716.795556	4334.363912
717.128782	4300.008449
717.461960	4234.725507
717.795088	4241.251280
718.128167	4199.465156
718.461198	4142.633708
718.794180	4136.163387
719.127113	4119.333495
719.459997	4098.639558
719.792833	4055.162127
720.125619	4042.773492
720.458357	4010.394160
720.791046	4010.063965
721.123686	3986.738546
721.456278	3943.886218
721.788821	3963.637458
722.121315	3936.889096
722.453761	3910.629726
722.786158	3921.006941
723.118506	3944.198769
723.450805	3896.244793
723.783056	3920.691869
724.115259	3935.351544
724.447412	3940.929581
724.779518	3934.842388
725.111574	3936.110238
725.443582	3966.997387
725.775542	3952.052887
726.107453	4004.264117
726.439315	4000.047192
726.771129	4018.883463
727.102895	4052.674318
727.434612	4101.870938
727.766281	4111.554995
728.097901	4118.673104
728.429473	4120.046818
728.760996	4127.389259
729.092471	4122.305255
729.423897	4103.148871
729.755276	4111.363431
730.086606	4111.910396
730.417887	4154.898835
730.749120	4212.521744
731.080305	4280.305099
731.411442	4302.841577
731.742530	4270.643728
732.073570	4275.962145
732.404562	4336.745858
732.735506	4326.025844
733.066401	4293.177685
733.397249	4223.294690
733.728048	4150.291221
734.058798	4063.512798
734.389501	3988.545800
734.720156	3927.903239
735.050762	3884.395561
735.381320	3878.270559
735.711831	3829.081501
736.042293	3798.257365
736.372707	3819.962053
736.703073	3796.467756
737.033391	3782.604583
737.363661	3799.462201
737.693883	3826.913804
738.024056	3835.019980
738.354182	3829.124350
738.684260	3890.707086
739.014290	3914.972680
739.344272	3908.126793
739.674207	3950.361580
740.004093	3956.620172
740.333931	3950.550623
740.663722	3951.871405
740.993464	3949.471816
741.323159	3927.507509
741.652806	3897.147160
741.982405	3866.517109
742.311956	3838.052234
742.641460	3828.786593
742.970915	3804.140392
743.300323	3763.498610
743.629683	3728.767580
743.958996	3718.528997
744.288260	3694.333979
744.617477	3664.145029
744.946647	3648.986279
745.275768	3619.727422
745.604842	3618.197432
745.933869	3571.100452
746.262847	3560.909760
746.591778	3602.456429
746.920662	3571.639856
747.249498	3541.448386
747.578286	3587.585026
747.907027	3604.921554
748.235720	3602.700925
748.564365	3628.572127
748.892963	3628.030203
749.221514	3611.747276
749.550017	3587.688369
749.878473	3587.731219
750.206881	3556.662588
750.535242	3549.299983
750.863555	3557.091086
751.191821	3549.362997
751.520039	3529.740306
751.848210	3505.205010
752.176334	3540.775392
752.504411	3548.732853
752.832440	3507.264321
753.160421	3489.642968
753.488356	3498.593537
753.816243	3512.406298
754.144082	3464.361582
754.471875	3456.363791
754.799620	3473.934733
755.127318	3461.730099
755.454969	3464.696818
755.782572	3467.686222
756.110129	3441.746965
756.437638	3436.299999
756.765100	3451.592339
757.092515	3463.781849
757.419882	3465.400059
757.747203	3439.029783
758.074477	3441.308385
758.401703	3457.949234
758.728882	3479.167450
759.056014	3485.809171
759.383099	3491.782938
759.710138	3483.354129
760.037129	3501.472036
760.364073	3535.094011
760.690970	3518.105323
761.017820	3497.245028
761.344623	3514.556350
761.671379	3561.277764
761.998088	3611.752317
762.324751	3741.448603
762.651366	3982.582115
762.977935	4460.985094
763.304456	4899.956168
763.630931	4995.037371
763.957359	4637.884224
764.283740	4296.363695
764.610074	4103.617698
764.936362	3903.859456
765.262602	3744.049838
765.588796	3632.363075
765.914943	3544.082388
766.241044	3456.550314
766.567097	3429.106272
766.893104	3381.295969
767.219064	3348.596525
767.544978	3323.952844
767.870845	3269.952004
768.196665	3246.929054
768.522438	3256.207298
768.848165	3254.226125
769.173846	3217.670197
769.499479	3199.479194
769.825066	3182.732481
770.150607	3168.193793
770.476101	3182.475382
770.801548	3176.637726
771.126949	3131.786580
771.452303	3112.685648
771.777611	3120.386011
772.102872	3125.986732
772.428087	3100.299533
772.753256	3088.697317
773.078378	3084.364446
773.403453	3051.972512
773.728482	3035.462733
774.053465	3060.955848
774.378401	3045.051007
774.703291	3013.667304
775.028135	3017.669980
775.352932	3011.325688
775.677683	3001.823113
776.002388	2997.578462
776.327046	2996.114007
776.651658	2986.046822
776.976224	2972.793629
777.300743	2973.169195
777.625216	2966.608133
777.949643	2961.355251
778.274024	2963.422124
778.598359	2951.409054
778.922647	2956.286371
779.246889	2956.694704
779.571086	2941.014195
779.895236	2935.388267
780.219339	2946.819084
780.543397	2958.423820
780.867409	2963.638893
781.191374	2953.332254
781.515294	2952.326544
781.839167	2953.523818
782.162995	2945.533589
782.486776	2952.543314
782.810511	2948.013837
783.134201	2938.284410
783.457844	2940.487394
783.781441	2933.792742
784.104993	2915.150555
784.428498	2913.028229
784.751958	2928.955755
785.075372	2920.012748
785.398739	2907.044380
785.722061	2922.462749
786.045337	2933.313833
786.368568	2921.104158
786.691752	2912.077972
787.014891	2958.196968
787.337983	2986.777790
787.661030	3017.969929
787.984031	3085.105495
788.306987	3130.455715
788.629897	3122.089921
788.952760	3108.751027
789.275579	3091.109510
789.598351	3032.440561
789.921078	2987.735609
790.243759	2979.906697
790.566395	2962.769294
790.888984	2941.251129
791.211529	2922.568613
791.534027	2913.807088
791.856480	2899.951476
792.178888	2887.706514
792.501249	2878.403064
792.823566	2877.339381
793.145836	2871.887373
793.468062	2869.641539
793.790241	2867.070550
794.112375	2871.824358
794.434464	2885.311966
794.756507	2889.854045
795.078505	2893.231618
795.400457	2908.841551
795.722364	2943.428908
796.044226	2970.885552
796.366042	2972.511324
796.687812	2963.036476
797.009538	2981.880309
797.331218	2967.520582
797.652852	2952.061884
797.974442	2940.953701
798.295986	2931.103287
798.617484	2926.160435
798.938938	2912.806419
799.260346	2899.633884
799.581709	2891.656258
799.903026	2886.108468
800.224299	2882.320041
800.545526	2869.727238
800.866708	2854.931452
801.187845	2844.297138
801.508936	2846.641274
801.829983	2853.371215
802.150984	2840.254132
802.471940	2826.133861
802.792851	2827.333655
803.113717	2826.459015
803.434538	2832.326918
803.755314	2823.421720
804.076045	2815.993580
804.396731	2818.564568
804.717372	2820.313848
805.037967	2813.278918
805.358518	2819.986173
805.679024	2830.759119
805.999485	2825.841474
806.319901	2830.726352
806.640272	2822.423571
806.960598	2829.478666
807.280879	2836.876559
807.601115	2844.476099
807.921306	2832.828513
808.241453	2828.059581
808.561554	2831.306084
808.881611	2836.609378
809.201623	2829.720642
809.521590	2827.653768
809.841513	2824.684529
810.161390	2829.854232
810.481223	2824.460197
810.801011	2813.372180
811.120755	2812.953764
811.440453	2813.992242
811.760107	2813.289001
812.079716	2812.734474
812.399281	2802.024542
812.718801	2794.225877
813.038276	2789.018365
813.357707	2795.942390
813.677093	2803.488997
813.996434	2794.672019
814.315731	2793.202523
814.634983	2789.736730
814.954191	2790.104734
815.273354	2804.555202
815.592473	2812.724391
815.911547	2814.466110
816.230577	2823.199909
816.549562	2832.561332
816.868502	2829.017401
817.187399	2842.613392
817.506250	2857.419261
817.825058	2849.345853
818.143821	2864.386136
818.462539	2877.104967
818.781213	2905.915161
819.099843	2941.430090
819.418429	3000.494769
819.736970	3062.216136
820.055466	3133.498052
820.373919	3240.057962
820.692327	3378.931668
821.010691	3547.225548
821.329011	3995.086697
821.647286	4894.814191
821.965517	6278.263082
822.283704	7026.778647
822.601847	7006.079669
822.919945	6370.906887
823.237999	5867.305700
823.556010	5278.919867
823.873976	4722.454621
824.191897	4316.392199
824.509775	4015.586549
824.827609	3747.460179
825.145398	3623.223463
825.463144	3613.131073
825.780845	3701.328580
826.098502	3806.156853
826.416116	4089.663784
826.733685	4408.473915
827.051210	4472.249552
827.368692	4362.470866
827.686129	4089.439453
828.003522	3762.324021
828.320872	3504.942870
828.638177	3311.138231
828.955439	3170.893331
829.272656	3088.687235
829.589830	3019.671318
829.906960	2968.480922
830.224046	2925.207657
830.541088	2889.544014
830.858086	2875.741335
831.175041	2860.605271
831.491952	2859.655013
831.808819	2871.355531
832.125642	2897.685478
832.442421	2942.879422
832.759157	3023.381608
833.075849	3204.096891
833.392497	3482.345898
833.709101	3688.075386
834.025662	3637.389105
834.342179	3474.695947
834.658653	3300.256900
834.975083	3151.114364
835.291469	3052.683314
835.607811	2969.549646
835.924110	2909.983373
836.240366	2857.671319
836.556578	2816.444763
836.872746	2792.970630
837.188871	2770.658483
837.504952	2752.404465
837.820990	2746.523959
838.136984	2732.214644
838.452935	2724.294991
838.768842	2722.223077
839.084706	2741.281159
839.400526	2818.675473
839.716303	2955.789817
840.032037	3030.046013
840.347727	3019.971267
840.663373	2956.624128
840.978977	2881.437839
841.294537	2806.922023
841.610054	2763.996598
841.925527	2737.573390
842.240957	2716.619834
842.556344	2695.724252
842.871687	2680.973836
843.186987	2671.574604
843.502244	2665.666372
843.817458	2664.227122
844.132629	2651.195740
844.447756	2642.640902
844.762840	2632.351907
845.077881	2637.577063
845.392879	2635.308543
845.707833	2632.225878
846.022745	2621.997377
846.337613	2627.020887
846.652438	2625.377470
846.967221	2628.308901
847.281960	2621.231121
847.596656	2620.540483
847.911309	2623.270268
848.225919	2617.498147
848.540485	2614.503702
848.855009	2614.186109
849.169490	2618.400513
849.483928	2616.247941
849.798323	2612.676283
850.112675	2611.859616
850.426984	2615.136366
850.741251	2613.883640
851.055474	2612.590584
851.369654	2616.482354
851.683792	2617.462859
851.997887	2614.279370
852.311938	2611.375666
852.625947	2615.804319
852.939914	2617.495626
853.253837	2616.731892
853.567718	2615.312807
853.881555	2612.270470
854.195350	2615.136366
854.509103	2616.452107
854.822812	2611.849534
855.136479	2612.247785
855.450103	2613.986983
855.763685	2615.154010
856.077224	2610.979935
856.390720	2609.704523
856.704173	2612.514966
857.017584	2616.628548
857.330953	2619.073507
857.644278	2619.824639
857.957561	2619.343209
858.270802	2616.666357
858.584000	2615.723661
858.897155	2618.944958
859.210268	2620.981584
859.523339	2618.839094
859.836367	2609.654112
860.149352	2612.676283
860.462295	2613.104781
860.775195	2609.858278
861.088054	2608.008175
861.400869	2606.815942
861.713642	2606.536158
862.026373	2607.758638
862.339062	2609.286107
862.651708	2615.423712
862.964312	2619.370936
863.276873	2614.239041
863.589392	2615.605194
863.901869	2621.195833
864.214303	2627.104066
864.526696	2628.860908
864.839045	2627.386370
865.151353	2633.894500
865.463619	2634.559932
865.775842	2633.171094
866.088023	2633.871815
866.400162	2631.961217
866.712258	2634.668317
867.024313	2630.627832
867.336325	2627.598099
867.648296	2631.273100
867.960224	2635.056486
868.272110	2633.975158
868.583954	2624.147429
868.895755	2628.681947
869.207515	2633.866773
869.519233	2639.013792
869.830909	2636.984727
870.142542	2632.387195
870.454134	2634.411218
870.765684	2641.362969
871.077191	2641.095788
871.388657	2645.877322
871.700081	2640.107722
872.011463	2642.300624
872.322803	2642.797177
872.634101	2649.224649
872.945357	2655.440391
873.256571	2661.318377
873.567744	2656.864517
873.878874	2657.683705
874.189963	2655.909219
874.501010	2661.368788
874.812015	2664.771567
875.122979	2663.191165
875.433900	2659.191010
875.744780	2655.773107
876.055618	2662.432472
876.366415	2669.623678
876.677169	2665.837771
876.987882	2660.970537
877.298554	2661.401556
877.609183	2672.408915
877.919771	2675.756241
878.230317	2685.132787
878.540822	2695.802390
878.851285	2711.510625
879.161707	2733.676578
879.472087	2772.248967
879.782425	2819.897953
880.092722	2936.033535
880.402977	3126.314407
880.713191	3385.371742
881.023363	3682.522555
881.333494	3874.567832
881.643583	4048.439748
881.953631	4047.640726
882.263637	3870.088767
882.573602	3649.770179
882.883526	3515.688089
883.193408	3398.466139
883.503248	3298.202630
883.813048	3182.046884
884.122806	3070.168557
884.432522	2978.583394
884.742197	2916.035278
885.051831	2877.024309
885.361424	2843.651870
885.670975	2805.460089
885.980485	2777.854730
886.289954	2756.691966
886.599382	2740.953484
886.908768	2733.787484
887.218113	2712.599514
887.527417	2700.029397
887.836680	2691.346010
888.145901	2686.370391
888.455082	2678.354956
888.764221	2668.290292
889.073319	2657.230001
889.382376	2657.071205
889.691392	2658.109682
890.000366	2659.306956
890.309300	2656.791421
890.618193	2659.992553
890.927044	2660.809220
891.235855	2662.797955
891.544625	2661.648572
891.853353	2662.588747
892.162041	2670.561332
892.470687	2689.689991
892.779293	2698.136444
893.087858	2710.330995
893.396381	2734.503328
893.704864	2774.220058
894.013306	2848.375431
894.321707	2939.748865
894.630068	2992.045795
894.938387	3013.536234
895.246665	3002.760768
895.554903	2958.796865
895.863100	2915.921852
896.171256	2857.930938
896.479371	2796.678399
896.787446	2759.441916
897.095480	2737.197824
897.403473	2729.807493
897.711425	2715.634289
898.019336	2697.755837
898.327207	2682.153466
898.635038	2680.885615
898.942827	2680.109278
899.250576	2669.414470
899.558284	2659.806031
899.865952	2654.046512
900.173579	2652.304794
900.481165	2651.997283
900.788711	2642.575367
901.096216	2634.683440
901.403681	2632.145219
901.711105	2633.471043
902.018489	2627.643469
902.325832	2633.602113
902.633135	2634.907772
902.940397	2654.240597
903.247619	2689.173272
903.554800	2756.263468
903.861941	2889.319683
904.169041	3014.126049
904.476101	3076.540575
904.783121	3071.701067
905.090100	3012.996831
905.397039	2936.028494
905.703938	2863.645086
906.010796	2801.323822
906.317614	2747.633013
906.624391	2710.104143
906.931129	2683.073476
907.237826	2661.915753
907.544483	2642.383803
907.851099	2628.485342
908.157675	2620.432098
908.464211	2613.238372
908.770707	2601.752103
909.077163	2596.340424
909.383578	2594.606267
909.689954	2593.784559
909.996289	2587.732654
910.302584	2590.059147
910.608839	2586.731985
910.915054	2587.331882
911.221229	2589.234918
911.527363	2592.975454
911.833458	2593.184662
912.139513	2588.597212
912.445527	2593.388829
912.751502	2599.904520
913.057436	2604.973400
913.363331	2611.421036
913.669186	2621.233642
913.975000	2633.274438
914.280775	2651.639361
914.586510	2670.916734
914.892205	2707.926365
915.197859	2774.477157
915.503475	2863.143492
915.809050	2926.626742
916.114585	2942.340018
916.420081	2955.051288
916.725536	2966.368678
917.030952	2940.802467
917.336328	2892.170455
917.641665	2843.445183
917.946961	2791.657409
918.252218	2757.125506
918.557435	2733.253122
918.862612	2709.078268
919.167750	2690.025227
919.472848	2672.890345
919.777906	2657.482059
920.082925	2647.835811
920.387904	2633.539098
920.692843	2627.131792
920.997743	2626.390742
921.302603	2616.038733
921.607423	2610.357352
921.912204	2603.125817
922.216946	2603.677824
922.521647	2599.395363
922.826310	2597.769591
923.130932	2592.753643
923.435516	2587.198292
923.740059	2583.530852
924.044564	2584.566809
924.349028	2581.287539
924.653454	2571.832855
924.957840	2572.442834
925.262186	2569.120714
925.566493	2569.173646
925.870761	2564.503017
926.174989	2566.859757
926.479178	2564.742472
926.783328	2562.594940
927.087438	2560.961607
927.391509	2563.051165
927.695541	2558.970351
927.999533	2559.048489
928.303486	2557.329455
928.607400	2557.553787
928.911275	2557.760474
929.215110	2556.815257
929.518906	2551.078424
929.822663	2554.503888
930.126381	2557.263920
930.430060	2554.632438
930.733699	2555.502037
931.037299	2557.400031
931.340861	2559.240053
931.644383	2558.556976
931.947866	2556.285936
932.251309	2556.628735
932.554714	2557.251317
932.858080	2558.519167
933.161407	2557.357182
933.464694	2555.439022
933.767943	2553.863662
934.071153	2551.809392
934.374323	2554.473642
934.677455	2553.155380
934.980548	2554.201419
935.283602	2551.801830
935.586617	2554.763508
935.889593	2556.359033
936.192530	2550.780996
936.495428	2555.396173
936.798287	2553.374670
937.101108	2555.607901
937.403890	2558.985474
937.706632	2562.337842
938.009336	2564.752554
938.312002	2569.652556
938.614628	2572.057186
938.917216	2575.999368
939.219765	2576.952147
939.522275	2577.073134
939.824747	2578.174626
940.127179	2572.473081
940.429573	2568.944274
940.731929	2567.356310
941.034246	2562.688202
941.336524	2567.189952
941.638763	2567.573080
941.940964	2566.516958
942.243126	2563.492266
942.545250	2566.219530
942.847335	2564.442523
943.149381	2563.126782
943.451389	2559.040927
943.753359	2557.001780
944.055290	2559.933211
944.357182	2557.170659
944.659036	2557.125288
944.960851	2554.816440
945.262628	2555.935576
945.564367	2557.513457
945.866067	2555.723848
946.167729	2559.101421
946.469352	2557.112686
946.770937	2556.779969
947.072484	2556.396842
947.373992	2554.428271
947.675462	2556.459856
947.976893	2554.982798
948.278286	2554.166131
948.579641	2553.765359
948.880958	2554.617314
949.182236	2552.011038
949.483476	2551.028013
949.784678	2552.671429
950.085841	2552.447098
950.386967	2554.191337
950.688054	2552.242931
950.989103	2555.663354
951.290114	2555.136553
951.591087	2557.533622
951.892021	2559.066133
952.192917	2556.192675
952.493776	2558.062943
952.794596	2560.800290
953.095378	2562.390774
953.396122	2558.786349
953.696828	2560.833057
953.997496	2558.110834
954.298126	2559.381205
954.598718	2557.631924
954.899272	2553.253682
955.199788	2554.783673
955.500266	2552.903322
955.800706	2549.036757
956.101108	2546.634647
956.401472	2545.843186
956.701798	2540.754141
957.002087	2543.289842
957.302337	2543.947712
957.602550	2544.219935
957.902724	2542.069882
958.202861	2544.262784
958.502960	2546.075079
958.803022	2541.958977
959.103045	2541.648946
959.403031	2540.711292
959.702979	2541.994265
960.002889	2540.597866
960.302762	2536.489325
960.602596	2542.989893
960.902393	2540.302958
961.202153	2542.032074
961.501875	2539.786240
961.801559	2541.089378
962.101205	2540.817156
962.400814	2541.026364
962.700385	2538.767927
962.999918	2538.818338
963.299414	2539.350180
963.598873	2541.676672
963.898293	2538.780530
964.197677	2538.183153
964.497022	2536.824562
964.796331	2538.142824
965.095601	2537.187525
965.394835	2537.026208
965.694030	2534.402288
965.993189	2538.583925
966.292309	2536.880015
966.591393	2537.870601
966.890439	2535.380271
967.189447	2538.888914
967.488419	2537.573173
967.787353	2537.910931
968.086249	2535.274407
968.385108	2538.185673
968.683930	2538.941847
968.982714	2539.098122
969.281462	2536.227185
969.580172	2536.363296
969.878844	2539.917310
970.177480	2537.520241
970.476078	2537.013605
970.774639	2540.986034
971.073162	2537.774819
971.371649	2535.753317
971.670098	2535.123172
971.968510	2535.256763
972.266885	2533.638553
972.565223	2538.664583
972.863524	2539.410674
973.161788	2543.932589
973.460014	2539.171219
973.758204	2539.554347
974.056356	2538.755324
974.354471	2539.617361
974.652550	2539.627443
974.950591	2539.201466
975.248595	2539.277083
975.546563	2539.433359
975.844493	2538.097453
976.142386	2540.184491
976.440243	2537.547967
976.738062	2536.398584
977.035845	2537.968904
977.333590	2541.245654
977.631299	2536.922864
977.928971	2536.779192
978.226606	2536.819521
978.524204	2535.183666
978.821765	2538.833462
979.119290	2536.438914
979.416777	2535.670138
979.714228	2538.291538
980.011642	2534.911444
980.309020	2538.969573
980.606360	2539.148534
980.903664	2539.705581
981.200931	2538.934285
981.498162	2538.283976
981.795356	2542.982331
982.092513	2543.627599
982.389633	2543.620037
982.686717	2552.331151
982.983764	2553.122612
983.280775	2554.231666
983.577749	2552.878116
983.874686	2552.913404
984.171587	2548.489792
984.468451	2547.854607
984.765279	2540.902855
985.062070	2543.352856
985.358824	2541.026364
985.655543	2541.459903
985.952224	2538.268853
986.248869	2538.460416
986.545478	2532.040507
986.842050	2537.154758
987.138586	2529.898017
987.435086	2532.811803
987.731549	2530.487832
988.027975	2536.146527
988.324366	2534.122503
988.620719	2535.443286
988.917037	2530.944056
989.213318	2534.014119
989.509563	2532.723583
989.805772	2535.171063
990.101944	2531.997657
990.398080	2533.036135
990.694180	2534.903882
990.990244	2534.639222
991.286271	2533.177287
991.582262	2533.018491
991.878217	2532.078316
992.174136	2535.385312
992.470019	2535.319777
992.765865	2531.652338
993.061676	2532.935312
993.357450	2535.544109
993.653188	2535.450847
993.948890	2532.589993
994.244556	2533.802390
994.540186	2533.706608
994.835780	2535.806249
995.131337	2534.591331
995.426859	2536.869932
995.722345	2536.267514
996.017795	2535.420601
996.313208	2540.335726
996.608586	2538.311702
996.903928	2537.984027
997.199234	2539.622402
997.494504	2537.187525
997.789738	2536.869932
998.084936	2534.243491
998.380099	2536.426311
998.675225	2533.875487
998.970316	2534.089736
999.265371	2534.548481
999.560390	2535.851619
999.855373	2533.378933
1000.150320	2534.079654
1000.445232	2535.783564
1000.740108	2534.654345
1001.034948	2532.247194
1001.329752	2531.294416
1001.624521	2534.457740
1001.919254	2529.154446
1002.213951	2530.197965
1002.508613	2529.623274
1002.803239	2532.133768
1003.097829	2529.703932
1003.392384	2531.332225
1003.686903	2531.518747
1003.981386	2532.232071
1004.275834	2532.232071
1004.570246	2531.158305
1004.864623	2531.566638
1005.158964	2531.218799
1005.453270	2534.240971
1005.747540	2530.792821
1006.041775	2530.795342
1006.335974	2533.406660
1006.630138	2532.317770
1006.924266	2533.671320
1007.218359	2533.376413
1007.512416	2531.604447
1007.806438	2528.922553
1008.100425	2532.927750
1008.394376	2532.526978
1008.688292	2530.162677
1008.982172	2530.250897
1009.276017	2531.153264
1009.569827	2531.133099
1009.863602	2533.744417
1010.157341	2531.969931
1010.451045	2532.007739
1010.744714	2530.681916
1011.038347	2533.605785
1011.331945	2531.566638
1011.625508	2530.870959
1011.919036	2531.881711
1012.212528	2532.521937
1012.505986	2529.998840
1012.799408	2531.206196
1013.092795	2531.080167
1013.386147	2529.330887
1013.679464	2529.681247
1013.972745	2529.961031
1014.265992	2532.191742
1014.559204	2530.442461
1014.852380	2532.474046
1015.145521	2528.345341
1015.438628	2531.995137
1015.731699	2531.488501
1016.024736	2530.349200
1016.317737	2530.497914
1016.610703	2533.835158
1016.903635	2527.717717
1017.196531	2526.941380
1017.489393	2528.781401
1017.782219	2528.509179
1018.075011	2531.216278
1018.367768	2531.848943
1018.660490	2533.504962
1018.953177	2533.504962
1019.245829	2533.504962
