Dividing Wavelength (nm)	Counts (n)	Blue Motor Position (mm): 7.600000	Red Motor Position (mm): 0.000000	
326.493990	2143.591877
326.888308	2143.591877
327.282561	2143.591877
327.676750	2108.376897
328.070874	2108.724736
328.464933	2111.015941
328.858929	2119.104472
329.252859	2126.565380
329.646726	2137.784468
330.040528	2151.045223
330.434265	2168.921154
330.827938	2185.990501
331.221547	2203.795857
331.615091	2223.650441
332.008571	2240.681979
332.401986	2260.171080
332.795338	2280.507095
333.188625	2302.040383
333.581847	2319.671819
333.975006	2335.254025
334.368100	2356.094155
334.761129	2373.380272
335.154095	2390.568086
335.546996	2405.837741
335.939833	2421.485482
336.332606	2436.765220
336.725315	2450.550255
337.117960	2460.272120
337.510540	2467.256639
337.903056	2477.439770
338.295508	2489.639362
338.687896	2493.687408
339.080220	2504.667042
339.472480	2509.554440
339.864676	2513.494102
340.256807	2517.252282
340.648875	2520.642458
341.040879	2524.206554
341.432818	2526.270906
341.824694	2525.272758
342.216506	2526.792666
342.608253	2527.926925
342.999937	2526.810310
343.391557	2529.620753
343.783113	2524.703108
344.174605	2524.657737
344.566033	2524.193951
344.957397	2522.321162
345.348697	2517.398476
345.739934	2519.210770
346.131106	2518.366377
346.522215	2511.991838
346.913260	2512.679956
347.304241	2511.835562
347.695159	2510.418998
348.086012	2509.398164
348.476802	2506.819614
348.867528	2505.894562
349.258191	2501.977586
349.648789	2503.114366
350.039324	2498.405928
350.429796	2500.001454
350.820203	2500.734942
351.210548	2498.100939
351.600828	2496.288644
351.991045	2499.338542
352.381198	2493.604229
352.771288	2495.285454
353.161314	2492.500217
353.551276	2496.402070
353.941175	2492.603560
354.331010	2494.093221
354.720782	2494.098263
355.110490	2492.817809
355.500135	2493.004332
355.889717	2491.733961
356.279235	2492.623725
356.668689	2495.083808
357.058080	2492.139774
357.447408	2491.265134
357.836672	2488.197592
358.225873	2494.821668
358.615010	2490.977788
359.004084	2497.750578
359.393095	2497.881648
359.782043	2498.937770
360.170927	2497.944663
360.559748	2498.526916
360.948505	2500.699653
361.337199	2498.345435
361.725830	2501.569253
362.114398	2503.205107
362.502903	2500.538337
362.891344	2503.038749
363.279722	2503.462206
363.668037	2505.214007
364.056289	2502.388440
364.444478	2504.576301
364.832603	2504.472957
365.220665	2504.019253
365.608665	2507.638802
365.996601	2503.888183
366.384474	2504.556136
366.772284	2504.551095
367.160031	2504.944305
367.547715	2508.452948
367.935336	2507.046466
368.322893	2505.569408
368.710388	2507.033863
369.097820	2508.886487
369.485189	2506.489419
369.872495	2511.323885
370.259738	2508.369769
370.646918	2508.417660
371.034035	2507.696775
371.421090	2508.657115
371.808081	2510.262722
372.195010	2510.582836
372.581875	2509.990500
372.968678	2511.351612
373.355418	2509.007475
373.742096	2511.510408
374.128710	2510.240037
374.515262	2512.490912
374.901751	2512.760614
375.288177	2511.162568
375.674540	2510.814729
376.060841	2510.812208
376.447079	2511.240706
376.833254	2512.132990
377.219367	2506.247443
377.605417	2507.459841
377.991404	2511.132321
378.377329	2511.210459
378.763191	2510.492095
379.148991	2514.756911
379.534727	2511.056704
379.920402	2514.341016
380.306013	2512.833711
380.691563	2515.997035
381.077049	2514.913187
381.462474	2513.221880
381.847835	2513.985614
382.233134	2513.668022
382.618371	2515.170286
383.003545	2513.937723
383.388657	2515.873527
383.773706	2516.619617
384.158693	2517.297653
384.543618	2515.639113
384.928480	2514.832528
385.313280	2515.225738
385.698017	2516.788496
386.082692	2518.489885
386.467305	2518.870493
386.851856	2517.494258
387.236344	2517.504340
387.620770	2518.131963
388.005133	2516.969977
388.389435	2520.181193
388.773674	2519.263702
389.157851	2517.849659
389.541965	2517.821932
389.926018	2519.750174
390.310008	2515.495440
390.693936	2519.780421
391.077802	2518.809999
391.461606	2519.359484
391.845348	2520.508868
392.229027	2515.734895
392.612645	2519.258661
392.996200	2520.014834
393.379694	2522.858045
393.763125	2522.396780
394.146494	2520.072808
394.529801	2521.839732
394.913047	2520.466018
395.296230	2521.232273
395.679351	2522.762263
396.062410	2522.358971
396.445408	2523.077335
396.828343	2524.125895
397.211217	2517.272447
397.594028	2519.999711
397.976778	2519.629186
398.359466	2522.076666
398.742092	2517.990811
399.124656	2524.632531
399.507158	2523.578930
399.889598	2524.587161
400.271977	2522.636234
400.654294	2527.800897
401.036549	2525.270237
401.418742	2524.604805
401.800874	2522.517767
402.182944	2525.055988
402.564952	2523.558766
402.946898	2524.554393
403.328783	2522.432068
403.710606	2525.487007
404.092367	2524.221677
404.474067	2526.553211
404.855705	2527.750485
405.237282	2525.741585
405.618797	2526.137316
406.000250	2524.819054
406.381642	2527.442975
406.762972	2525.965917
407.144240	2525.797038
407.525447	2529.346010
407.906593	2526.187727
408.287677	2527.415248
408.668700	2529.686288
409.049661	2527.304343
409.430560	2527.294261
409.811399	2529.945907
410.192176	2528.299971
410.572891	2529.466998
410.953545	2526.976668
411.334138	2527.695032
411.714669	2527.410207
412.095139	2528.761236
412.475547	2529.721576
412.855894	2527.697553
413.236180	2531.092770
413.616405	2529.779549
413.996568	2531.085208
414.376670	2530.550846
414.756711	2530.792821
415.136691	2529.363654
415.516609	2531.415404
415.896466	2527.959693
416.276262	2531.269210
416.655997	2526.747295
417.035670	2527.843746
417.415283	2530.263500
417.794834	2526.248221
418.174324	2532.315250
418.553753	2530.394570
418.933121	2530.840712
419.312428	2532.539581
419.691674	2533.104190
420.070859	2534.671989
420.449983	2528.486493
420.829045	2531.012112
421.208047	2530.886083
421.586988	2533.116793
421.965867	2529.925743
422.344686	2533.517565
422.723444	2533.010929
423.102141	2533.809952
423.480777	2531.685106
423.859352	2535.017308
424.237866	2534.228368
424.616319	2532.751310
424.994712	2532.731145
425.373044	2534.243491
425.751314	2535.465971
426.129524	2536.945550
426.507673	2532.514375
426.885762	2533.441948
427.263789	2534.772812
427.641756	2536.746424
428.019662	2533.983872
428.397508	2534.092257
428.775292	2535.765920
429.153016	2534.873635
429.530679	2536.375899
429.908282	2533.318439
430.285824	2533.101670
430.663305	2534.656866
431.040726	2536.169212
431.418086	2533.152081
431.795385	2535.350024
432.172624	2535.196269
432.549802	2534.298944
432.926920	2535.581918
433.303977	2539.019984
433.680974	2534.213244
434.057910	2535.662576
434.434786	2536.900179
434.811601	2534.631660
435.188355	2536.091074
435.565050	2536.582587
435.941683	2536.559901
436.318257	2534.871115
436.694770	2534.545960
437.071222	2535.289531
437.447614	2533.590662
437.823946	2532.998326
438.200218	2538.883873
438.576429	2537.038811
438.952580	2535.917154
439.328670	2539.347659
439.704700	2537.953780
440.080670	2537.069058
440.456580	2537.111908
440.832429	2538.273894
441.208218	2535.987730
441.583947	2540.507125
441.959616	2535.463450
442.335224	2538.236085
442.710773	2540.844882
443.086261	2538.185673
443.461689	2539.209028
443.837057	2538.977135
444.212365	2538.601569
444.587612	2538.714995
444.962800	2537.999151
445.337927	2538.790612
445.712995	2541.054090
446.088002	2541.018802
446.462949	2538.346990
446.837837	2543.020140
447.212664	2539.612320
447.587431	2537.358924
447.962139	2540.532331
448.336786	2545.684390
448.711374	2538.142824
449.085901	2541.374203
449.460369	2541.263298
449.834776	2541.117104
450.209124	2539.619882
450.583412	2541.749769
450.957640	2539.622402
451.331808	2541.603576
451.705917	2541.432177
452.079965	2540.986034
452.453954	2541.969059
452.827883	2540.474357
453.201752	2541.280942
453.575562	2542.135418
453.949311	2541.200283
454.323001	2541.255736
454.696632	2542.027033
455.070202	2542.228679
455.443713	2540.973432
455.817164	2539.299768
456.190556	2536.489325
456.563888	2538.646939
456.937160	2535.087884
457.310373	2542.657177
457.683526	2543.463762
458.056619	2543.040305
458.429653	2542.848741
458.802628	2542.387475
459.175542	2543.733463
459.548398	2544.227496
459.921194	2542.687424
460.293930	2545.608772
460.666607	2543.446117
461.039224	2544.895449
461.411782	2541.777496
461.784280	2543.504091
462.156719	2543.564585
462.529099	2543.085675
462.901419	2541.964018
463.273680	2546.100285
463.645882	2540.746580
464.018024	2543.020140
464.390106	2540.224820
464.762130	2544.867723
465.134094	2541.056611
465.505999	2539.776158
465.877845	2545.654143
466.249631	2542.745397
466.621358	2543.272198
466.993026	2544.086344
467.364634	2548.255378
467.736184	2543.325130
468.107674	2545.018958
468.479105	2541.890922
468.850477	2542.011909
469.221790	2545.071890
469.593043	2546.155738
469.964238	2544.232537
470.335373	2544.935778
470.706449	2543.229348
471.077467	2546.168341
471.448425	2545.596170
471.819324	2546.135573
472.190164	2546.692621
472.560945	2540.744059
472.931667	2545.195398
473.302330	2544.570295
473.672934	2546.503577
474.043479	2544.895449
474.413965	2544.608103
474.784393	2540.633154
475.154761	2544.507280
475.525070	2542.808412
475.895321	2541.596014
476.265513	2542.551313
476.635645	2545.084493
477.005719	2543.849410
477.375734	2546.319575
477.745691	2544.356046
478.115588	2545.281097
478.485427	2543.095757
478.855207	2544.741694
479.224928	2547.703372
479.594591	2544.996272
479.964194	2547.080789
480.333739	2545.470141
480.703226	2544.857641
481.072653	2545.936447
481.442022	2545.676828
481.811333	2546.364946
482.180584	2544.953422
482.549777	2547.171530
482.918912	2545.200439
483.287988	2549.432488
483.657005	2545.959133
484.025964	2544.270346
484.394864	2547.597508
484.763706	2547.080789
485.132489	2546.246478
485.501213	2546.869061
485.869879	2545.044163
486.238487	2546.009544
486.607036	2546.939637
486.975527	2545.936448
487.343959	2545.850748
487.712333	2548.358722
488.080648	2547.002652
488.448905	2546.977446
488.817104	2544.141797
489.185244	2545.424770
489.553326	2548.096582
489.921350	2546.029709
490.289315	2546.942158
490.657222	2546.405275
491.025070	2549.266130
491.392861	2546.541386
491.760593	2550.569268
492.128267	2546.909390
492.495883	2549.331665
492.863440	2550.957437
493.230939	2548.121788
493.598380	2548.265461
493.965763	2542.682383
494.333088	2545.112219
494.700354	2543.236910
495.067563	2544.754297
495.434713	2542.261446
495.801805	2548.280584
496.168839	2548.315872
496.535815	2545.356715
496.902733	2549.913918
497.269593	2547.158927
497.636395	2547.481561
498.003139	2550.130688
498.369825	2546.438042
498.736453	2550.851572
499.103023	2546.861499
499.469535	2547.085831
499.835989	2547.269833
500.202385	2548.401572
500.568723	2547.514329
500.935003	2550.617159
501.301226	2549.031716
501.667390	2548.951058
502.033497	2548.482230
502.399546	2546.846376
502.765537	2546.808567
503.131470	2548.358722
503.497345	2548.325954
503.863163	2550.060111
504.228923	2550.397869
504.594625	2548.046170
504.960269	2548.918290
505.325856	2550.705379
505.691385	2549.591284
506.056856	2551.262427
506.422270	2550.849052
506.787625	2550.155893
507.152924	2550.236552
507.518164	2549.838301
507.883347	2551.249824
508.248472	2548.320913
508.613540	2547.632796
508.978550	2548.323434
509.343503	2548.041129
509.708398	2549.548434
510.073236	2547.897456
510.438016	2549.918959
510.802738	2549.175389
511.167403	2549.833259
511.532010	2549.646737
511.896561	2549.099772
512.261053	2553.528425
512.625488	2545.175233
512.989866	2544.146838
513.354186	2547.587425
513.718449	2546.017106
514.082655	2546.085162
514.446803	2546.773279
514.810894	2550.738147
515.174927	2550.604556
515.538904	2551.522046
515.902822	2551.050698
516.266684	2548.948537
516.630488	2551.078424
516.994235	2550.065153
517.357925	2550.891902
517.721558	2550.450801
518.085133	2551.254865
518.448651	2548.724206
518.812112	2548.157076
519.175516	2550.188661
519.538863	2551.786707
519.902152	2551.766542
520.265385	2549.825698
520.628560	2550.400389
520.991678	2547.978115
521.354739	2551.753939
521.717743	2550.153373
522.080690	2553.155380
522.443580	2549.712272
522.806413	2547.443753
523.169189	2552.782334
523.531908	2548.671273
523.894569	2551.519525
524.257174	2549.581202
524.619722	2551.600184
524.982213	2553.770401
525.344647	2551.688404
525.707025	2548.835111
526.069345	2551.635472
526.431608	2549.477858
526.793815	2552.114382
527.155964	2551.496840
527.518057	2550.342416
527.880093	2551.252344
528.242072	2550.591953
528.603995	2553.500699
528.965860	2550.014741
529.327669	2551.572457
529.689421	2550.259237
530.051117	2549.291335
530.412755	2550.163455
530.774337	2549.797971
531.135862	2553.556152
531.497331	2548.643547
531.858743	2546.899308
532.220098	2548.565409
532.581396	2546.987528
532.942638	2547.186654
533.303824	2549.750080
533.664953	2552.580688
534.026025	2551.320400
534.387040	2552.661347
534.747999	2547.751263
535.108902	2549.823177
535.469748	2554.713096
535.830537	2550.047508
536.191270	2552.762170
536.551947	2551.985832
536.912567	2550.201264
537.273131	2552.142108
537.633638	2551.237221
537.994089	2553.558672
538.354483	2552.852911
538.714821	2553.931718
539.075103	2552.205122
539.435328	2553.462890
539.795497	2549.482899
540.155609	2555.965823
540.515665	2553.175544
540.875665	2552.885678
541.235609	2551.524567
541.595496	2555.988508
541.955328	2553.304094
542.315102	2552.142108
542.674821	2553.314176
543.034483	2553.687222
543.394090	2553.898950
543.753640	2554.032541
544.113134	2554.942469
544.472571	2554.846687
544.831953	2551.390976
545.191278	2555.204609
545.550548	2552.464742
545.909761	2554.715617
546.268918	2551.116233
546.628019	2554.002294
546.987064	2554.899619
547.346053	2553.762839
547.704986	2551.915256
548.063863	2554.140925
548.422684	2554.619835
548.781449	2554.776111
549.140158	2555.678477
549.498811	2556.545556
549.857408	2553.435164
550.215949	2550.564227
550.574434	2547.887374
550.932864	2552.895760
551.291237	2551.017931
551.649555	2554.057746
552.007817	2557.478169
552.366022	2556.807696
552.724173	2553.979608
553.082267	2555.476831
553.440305	2554.934907
553.798288	2553.195709
554.156215	2554.271995
554.514086	2555.930535
554.871902	2555.933056
555.229661	2553.873744
555.587365	2554.685370
555.945014	2555.227294
556.302606	2555.643189
556.660143	2556.069167
557.017625	2557.810885
557.375050	2554.357695
557.732421	2557.079918
558.089735	2556.018755
558.446994	2557.475649
558.804197	2555.572613
559.161345	2555.199568
559.518437	2553.525905
559.875474	2555.340720
560.232455	2556.815258
560.589381	2555.277706
560.946251	2554.861810
561.303065	2554.143446
561.659825	2554.077911
562.016528	2555.345761
562.373177	2556.210319
562.729770	2556.132181
563.086307	2554.075390
563.442789	2554.226625
563.799216	2554.312325
564.155587	2554.176213
564.511904	2555.988508
564.868164	2555.958261
565.224370	2553.939279
565.580520	2553.402396
565.936615	2557.117727
566.292654	2554.496327
566.648638	2556.928683
567.004567	2556.422047
567.360441	2555.726368
567.716260	2556.575803
568.072023	2557.233673
568.427732	2550.065152
568.783385	2555.164280
569.138982	2550.158414
569.494525	2553.667057
569.850013	2552.396686
570.205445	2553.571275
570.560823	2553.906512
570.916145	2554.634958
571.271412	2554.183775
571.626625	2556.137222
571.981782	2556.495144
572.336884	2556.477500
572.691931	2552.676470
573.046923	2555.093703
573.401860	2557.044630
573.756743	2555.013045
574.111570	2553.467931
574.466342	2556.169990
574.821059	2557.347099
575.175722	2555.194527
575.530330	2555.098745
575.884882	2554.846687
576.239380	2554.801317
576.593823	2555.502037
576.948211	2552.676470
577.302544	2552.121943
577.656823	2554.151008
578.011047	2553.601522
578.365216	2555.262582
578.719330	2555.950700
579.073389	2553.997253
579.427394	2553.079763
579.781344	2555.426420
580.135239	2552.043805
580.489080	2551.612787
580.842866	2555.587737
581.196597	2555.494475
581.550273	2556.159907
581.903895	2554.098076
582.257463	2554.773590
582.610975	2553.692263
582.964434	2553.079762
583.317837	2555.917932
583.671186	2555.955741
584.024481	2553.238559
584.377721	2555.179403
584.730906	2552.610935
585.084037	2556.114537
585.437113	2552.159752
585.790135	2556.568241
586.143103	2555.093703
586.496016	2554.513971
586.848874	2550.075235
587.201679	2555.128992
587.554428	2547.627755
587.907124	2550.584391
588.259765	2548.106664
588.612352	2552.341233
588.964884	2555.524722
589.317362	2552.189999
589.669786	2554.455998
590.022155	2552.799978
590.374470	2552.192519
590.726731	2553.041954
591.078937	2554.604712
591.431090	2554.745864
591.783188	2553.044474
592.135232	2552.817623
592.487222	2555.363405
592.839157	2554.198899
593.191038	2555.522202
593.542866	2550.919628
593.894639	2552.626059
594.246358	2553.581357
594.598022	2552.709238
594.949633	2556.006152
595.301190	2552.215205
595.652692	2555.350802
596.004141	2552.275698
596.355535	2553.636810
596.706876	2553.707386
597.058162	2553.964485
597.409395	2550.463404
597.760573	2555.852397
598.111698	2551.295194
598.462768	2551.769062
598.813785	2555.008004
599.164748	2553.664536
599.515657	2554.032541
599.866511	2551.264947
600.217312	2553.432643
600.568060	2551.932900
600.918753	2554.385421
601.269392	2555.096224
601.619978	2552.739485
601.970510	2553.087324
602.320988	2552.406768
602.671412	2552.152190
603.021783	2551.655637
603.372100	2557.478169
603.722363	2554.211502
604.072572	2553.102448
604.422728	2554.987839
604.772830	2549.709751
605.122878	2549.913918
605.472872	2551.461552
605.822813	2546.959802
606.172701	2549.881150
606.522534	2553.795606
606.872314	2552.628579
607.222041	2553.480534
607.571714	2552.142108
607.921333	2553.717468
608.270899	2555.055895
608.620411	2552.063970
608.969870	2556.963972
609.319276	2557.755433
609.668627	2559.355999
610.017926	2558.433468
610.367171	2560.676781
610.716362	2562.201730
611.065500	2561.526216
611.414585	2556.699311
611.763616	2557.518498
612.112594	2555.910370
612.461518	2554.660164
612.810389	2555.176882
613.159207	2555.428940
613.507971	2556.956410
613.856682	2555.428940
614.205340	2554.277037
614.553945	2554.692932
614.902496	2555.723848
615.250994	2555.754095
615.599439	2555.098745
615.947830	2555.560010
616.296169	2555.126471
616.644454	2553.803168
616.992686	2552.626059
617.340864	2555.630586
617.688990	2554.057746
618.037063	2553.735113
618.385082	2553.961964
618.733048	2553.362067
619.080961	2553.576316
619.428821	2554.554300
619.776628	2555.486913
620.124382	2554.183775
620.472083	2556.623694
620.819731	2555.645710
621.167326	2552.237890
621.514868	2555.300391
621.862357	2554.420709
622.209793	2555.819630
622.557176	2553.760318
622.904506	2553.228477
623.251783	2549.505584
623.599007	2550.614638
623.946179	2549.697148
624.293297	2551.433826
624.640363	2553.334341
624.987376	2556.263251
625.334336	2554.743343
625.681243	2552.663867
626.028097	2555.738971
626.374899	2551.484237
626.721647	2554.592109
627.068343	2553.987170
627.414987	2554.239228
627.761577	2550.443239
628.108115	2555.373487
628.454600	2553.926676
628.801032	2554.937428
629.147412	2555.605381
629.493739	2555.965823
629.840014	2556.623694
630.186236	2554.849207
630.532405	2555.887685
630.878521	2554.874413
631.224585	2552.028682
631.570597	2555.368446
631.916556	2554.561862
632.262462	2554.380380
632.608316	2553.140256
632.954117	2552.515153
633.299866	2553.747715
633.645562	2552.603373
633.991206	2553.326779
634.336797	2554.662685
634.682336	2553.341902
635.027823	2552.807540
635.373257	2554.443395
635.718639	2552.502550
636.063968	2555.260062
636.409245	2554.788714
636.754470	2554.730740
637.099642	2554.713096
637.444762	2552.847869
637.789829	2553.556152
638.134845	2553.140256
638.479808	2558.834240
638.824719	2554.017417
639.169577	2556.026317
639.514383	2553.374670
639.859137	2554.773590
640.203839	2553.208312
640.548489	2555.955741
640.893086	2550.680173
641.237632	2551.995914
641.582125	2550.919628
641.926566	2551.955585
642.270955	2553.946841
642.615292	2553.903991
642.959576	2553.901471
643.303809	2554.960113
643.647990	2555.953220
643.992118	2554.617314
644.336195	2553.167983
644.680219	2553.906512
645.024192	2555.628066
645.368112	2554.508930
645.711981	2555.118909
646.055797	2554.032541
646.399562	2553.876265
646.743274	2557.137891
647.086935	2554.791234
647.430544	2555.406255
647.774101	2555.849877
648.117606	2555.728889
648.461059	2554.539177
648.804460	2558.463715
649.147810	2556.570762
649.491108	2558.173848
649.834354	2556.449774
650.177548	2553.278888
650.520690	2555.249979
650.863781	2555.713765
651.206820	2555.701163
651.549807	2554.524053
651.892742	2554.944989
652.235626	2555.496996
652.578458	2553.467931
652.921238	2554.387942
653.263967	2555.005483
653.606644	2555.721327
653.949269	2555.091183
654.291843	2552.615976
654.634365	2556.996739
654.976836	2555.282747
655.319255	2556.669064
655.661622	2553.803168
656.003938	2556.842984
656.346203	2556.870710
656.688416	2555.502037
657.030577	2554.796275
657.372687	2555.801986
657.714746	2553.505740
658.056753	2557.049671
658.398708	2550.496171
658.740612	2556.079249
659.082465	2551.685883
659.424266	2551.143959
659.766016	2550.165976
660.107715	2557.480690
660.449362	2556.190154
660.790958	2557.858776
661.132503	2557.266441
661.473996	2559.608057
661.815438	2555.275185
662.156829	2556.706873
662.498168	2559.000598
662.839456	2557.810885
663.180693	2556.406924
663.521879	2559.250135
663.863013	2559.867676
664.204097	2558.708211
664.545129	2560.149981
664.886110	2559.136709
665.227040	2560.386915
665.567918	2556.989177
665.908746	2560.218036
666.249522	2559.562686
666.590248	2561.122923
666.930922	2560.727193
667.271545	2561.334652
667.612118	2561.271637
667.952639	2562.781463
668.293109	2564.031669
668.633528	2560.530588
668.973896	2559.277861
669.314213	2562.239539
669.654480	2561.899261
669.994695	2562.426062
670.334859	2565.085270
670.674973	2563.535116
671.015035	2562.350444
671.355047	2562.055537
671.695008	2563.237687
672.034918	2561.448078
672.374777	2561.581668
672.714585	2564.187945
673.054342	2565.392781
673.394049	2564.326577
673.733705	2565.869170
674.073310	2570.524675
674.412864	2567.626012
674.752368	2569.040056
675.091820	2567.376475
675.431223	2567.089129
675.770574	2568.563667
676.109875	2562.660475
676.449125	2568.099880
676.788324	2563.938408
677.127473	2565.516289
677.466571	2562.698284
677.805619	2566.579972
678.144616	2567.870508
678.483562	2573.972825
678.822458	2568.170457
679.161303	2574.285376
679.500098	2572.263873
679.838842	2570.847309
680.177535	2570.738924
680.516179	2572.518452
680.854771	2576.072465
681.193314	2572.765468
681.531805	2575.495253
681.870247	2577.126066
682.208638	2578.993814
682.546978	2579.601273
682.885268	2580.317117
683.223508	2579.545820
683.561697	2582.026068
683.899836	2581.567323
684.237925	2582.056315
684.575963	2582.938517
684.913951	2584.254258
685.251889	2587.130236
685.589776	2584.866758
685.927614	2586.754670
686.265401	2589.996132
686.603137	2589.053436
686.940824	2591.299270
687.278460	2593.618201
687.616046	2594.331524
687.953582	2599.165991
688.291068	2599.907041
688.628504	2604.663369
688.965889	2601.363934
689.303224	2601.653800
689.640510	2601.081629
689.977745	2600.396032
690.314930	2599.445775
690.652065	2601.157247
690.989150	2595.795980
691.326185	2598.341762
691.663170	2597.177256
692.000105	2593.981164
692.336990	2594.475197
692.673825	2596.080805
693.010610	2594.679364
693.347345	2589.877665
693.684030	2592.894796
694.020665	2591.634507
694.357251	2587.410020
694.693786	2590.858169
695.030272	2592.453695
695.366707	2593.731627
695.703093	2590.938828
696.039429	2594.402101
696.375716	2596.305136
696.711952	2596.322780
697.048139	2592.713314
697.384276	2594.969230
697.720363	2597.701536
698.056400	2599.652462
698.392388	2599.095415
698.728326	2597.797318
699.064214	2597.683892
699.400053	2598.785384
699.735842	2599.818820
700.071581	2599.604571
700.407270	2598.908892
700.742910	2599.007195
701.078501	2597.056268
701.414042	2598.629108
701.749533	2598.601382
702.084974	2594.676843
702.420366	2597.920826
702.755709	2597.918305
703.091002	2596.496700
703.426246	2602.004161
703.761440	2600.058275
704.096584	2598.271186
704.431679	2599.597010
704.766725	2599.662545
705.101721	2600.259921
705.436668	2604.852413
705.771565	2600.234716
706.106413	2601.285796
706.441212	2604.963318
706.775961	2608.305603
707.110661	2600.953080
707.445311	2608.837445
707.779913	2612.363732
708.114465	2615.143928
708.448967	2610.795933
708.783421	2618.120729
709.117825	2619.582664
709.452180	2622.110803
709.786485	2620.863117
710.120742	2628.611371
710.454949	2629.869138
710.789107	2628.321504
711.123216	2632.437606
711.457275	2635.898358
711.791286	2639.404481
712.125247	2645.479071
712.459159	2641.299955
712.793023	2641.975469
713.126837	2649.663229
713.460602	2650.500061
713.794318	2639.971611
714.127985	2646.822539
714.461602	2640.838689
714.795171	2637.650159
715.128691	2637.103194
715.462162	2636.276445
715.795584	2633.859212
716.128957	2635.923564
716.462281	2631.454581
716.795556	2631.222688
717.128782	2631.295785
717.461960	2630.211937
717.795088	2630.121196
718.128167	2628.727317
718.461198	2624.717079
718.794180	2623.119033
719.127113	2626.156329
719.459997	2624.359157
719.792833	2623.373612
720.125619	2622.352778
720.458357	2621.561317
720.791046	2626.925105
721.123686	2624.724641
721.456278	2622.980402
721.788821	2624.013838
722.121315	2624.023921
722.453761	2618.602160
722.786158	2628.235805
723.118506	2625.684981
723.450805	2623.678602
723.783056	2624.770011
724.115259	2631.250415
724.447412	2628.941566
724.779518	2626.604991
725.111574	2631.157153
725.443582	2632.059520
725.775542	2635.081692
726.107453	2637.854326
726.439315	2642.169554
726.771129	2645.118629
727.102895	2643.341622
727.434612	2650.742036
727.766281	2649.685914
728.097901	2648.977632
728.429473	2647.798002
728.760996	2652.718168
729.092471	2648.196253
729.423897	2652.166162
729.755276	2660.426092
730.086606	2655.873931
730.417887	2654.729589
730.749120	2661.693943
731.080305	2673.502846
731.411442	2673.853206
731.742530	2667.168636
732.073570	2668.282731
732.404562	2677.974349
732.735506	2678.206242
733.066401	2677.283711
733.397249	2671.642660
733.728048	2665.164777
734.058798	2665.600837
734.389501	2658.999446
734.720156	2651.629279
735.050762	2651.294042
735.381320	2654.565751
735.711831	2648.440749
736.042293	2647.298928
736.372707	2653.678508
736.703073	2651.357057
737.033391	2645.113588
737.363661	2650.432005
737.693883	2654.205309
738.024056	2656.463746
738.354182	2651.072232
738.684260	2662.109838
739.014290	2662.545898
739.344272	2658.268479
739.674207	2667.463543
740.004093	2668.048317
740.333931	2669.323729
740.663722	2675.184070
740.993464	2674.085099
741.323159	2673.865809
741.652806	2672.587876
741.982405	2670.284069
742.311956	2668.489418
742.641460	2668.224757
742.970915	2664.267452
743.300323	2662.765188
743.629683	2657.802172
743.958996	2659.004487
744.288260	2658.202944
744.617477	2655.372336
744.946647	2651.485606
745.275768	2653.202119
745.604842	2654.535504
745.933869	2643.520583
746.262847	2642.837507
746.591778	2655.183292
746.920662	2648.047539
747.249498	2646.573002
747.578286	2658.371822
747.907027	2659.735454
748.235720	2649.391007
748.564365	2657.479538
748.892963	2662.384581
749.221514	2663.125630
749.550017	2658.747388
749.878473	2658.424754
750.206881	2655.541214
750.535242	2657.335865
750.863555	2658.248314
751.191821	2657.192192
751.520039	2654.979126
751.848210	2646.051242
752.176334	2656.322593
752.504411	2661.804848
752.832440	2653.713796
753.160421	2649.544762
753.488356	2654.621204
753.816243	2662.452636
754.144082	2651.742705
754.471875	2650.860503
754.799620	2653.005514
755.127318	2651.765390
755.454969	2652.019968
755.782572	2657.908036
756.110129	2651.936789
756.437638	2652.657674
756.765100	2655.314362
757.092515	2658.994405
757.419882	2659.463232
757.747203	2654.338899
758.074477	2654.686739
758.401703	2658.328973
758.728882	2661.091525
759.056014	2663.410456
759.383099	2663.087822
759.710138	2659.223777
760.037129	2660.524395
760.364073	2670.337001
760.690970	2668.711229
761.017820	2664.025476
761.344623	2667.471105
761.671379	2675.723474
761.998088	2679.650533
762.324751	2698.844726
762.651366	2720.478838
762.977935	2769.713267
763.304456	2829.594613
763.630931	2862.314222
763.957359	2811.585091
764.283740	2771.031528
764.610074	2757.117944
764.936362	2737.787639
765.262602	2712.813763
765.588796	2701.251877
765.914943	2688.152439
766.241044	2673.215500
766.567097	2675.521828
766.893104	2666.556136
767.219064	2660.703356
767.544978	2661.315856
767.870845	2648.682725
768.196665	2646.421767
768.522438	2646.174751
768.848165	2650.285812
769.173846	2646.941006
769.499479	2641.662918
769.825066	2637.486322
770.150607	2637.418266
770.476101	2643.477733
770.801548	2644.974956
771.126949	2633.226547
771.452303	2633.594551
771.777611	2638.265180
772.102872	2638.151754
772.428087	2634.827113
772.753256	2635.384161
773.078378	2634.940539
773.403453	2627.272944
773.728482	2623.930659
774.053465	2630.983233
774.378401	2629.617081
774.703291	2620.260699
775.028135	2622.506533
775.352932	2622.312449
775.677683	2619.658281
776.002388	2622.957717
776.327046	2624.752367
776.651658	2623.048457
776.976224	2619.761625
777.300743	2615.542179
777.625216	2620.301028
777.949643	2616.492437
778.274024	2617.233486
778.598359	2613.568567
778.922647	2615.874895
779.246889	2616.217694
779.571086	2612.600666
779.895236	2613.729884
780.219339	2614.851541
780.543397	2622.062912
780.867409	2621.284053
781.191374	2620.371605
781.515294	2618.455966
781.839167	2617.896398
782.162995	2618.841614
782.486776	2619.509567
782.810511	2621.150463
783.134201	2618.251799
783.457844	2622.665330
783.781441	2618.302211
784.104993	2612.033536
784.428498	2613.596294
784.751958	2617.508229
785.075372	2616.452107
785.398739	2612.590584
785.722061	2617.394803
786.045337	2624.316307
786.368568	2618.009824
786.691752	2614.312138
787.014891	2626.226905
787.337983	2629.218830
787.661030	2630.579941
787.984031	2643.482774
788.306987	2654.843015
788.629897	2650.797489
788.952760	2652.826553
789.275579	2652.329999
789.598351	2639.477578
789.921078	2629.095321
790.243759	2635.656383
790.566395	2630.852163
790.888984	2623.028293
791.211529	2622.970319
791.534027	2620.774897
791.856480	2618.584516
792.178888	2615.927827
792.501249	2610.876591
792.823566	2615.010337
793.145836	2611.811725
793.468062	2610.793412
793.790241	2610.967332
794.112375	2613.319030
794.434464	2614.692745
794.756507	2617.266254
795.078505	2616.973867
795.400457	2615.290122
795.722364	2623.539970
796.044226	2631.802421
796.366042	2630.189252
796.687812	2624.654065
797.009538	2632.593882
797.331218	2634.912813
797.652852	2631.744448
797.974442	2626.352934
798.295986	2628.409724
798.617484	2629.249077
798.938938	2626.151287
799.260346	2619.010493
799.581709	2619.643158
799.903026	2618.960082
800.224299	2617.697272
800.545526	2616.663836
800.866708	2610.339708
801.187845	2611.111005
801.508936	2610.397682
801.829983	2614.954885
802.150984	2612.719133
802.471940	2608.330809
802.792851	2608.204780
803.113717	2607.050356
803.434538	2610.725357
803.755314	2609.487753
804.076045	2605.681682
804.396731	2607.980448
804.717372	2604.978441
805.037967	2603.695468
805.358518	2606.866353
805.679024	2611.534462
805.999485	2609.966663
806.319901	2611.753752
806.640272	2607.705706
806.960598	2609.233175
807.280879	2613.215687
807.601115	2614.967488
807.921306	2612.048660
808.241453	2608.098916
808.561554	2611.867178
808.881611	2615.741305
809.201623	2613.576129
809.521590	2613.505553
809.841513	2611.912548
810.161390	2610.276694
810.481223	2609.729729
810.801011	2609.853237
811.120755	2608.149327
811.440453	2609.273504
811.760107	2609.071858
812.079716	2611.771396
812.399281	2606.674790
812.718801	2604.418873
813.038276	2604.522217
813.357707	2608.441714
813.677093	2610.695110
813.996434	2611.894904
814.315731	2608.630757
814.634983	2605.956425
814.954191	2612.373814
815.273354	2613.707199
815.592473	2616.121912
815.911547	2614.279370
816.230577	2616.724330
816.549562	2617.598970
816.868502	2619.421347
817.187399	2623.106431
817.506250	2628.210599
817.825058	2624.795217
818.143821	2628.024076
818.462539	2633.753347
818.781213	2639.795170
819.099843	2650.691624
819.418429	2658.303767
819.736970	2673.671724
820.055466	2687.187058
820.373919	2719.760473
820.692327	2754.466297
821.010691	2788.511729
821.329011	2866.034593
821.647286	3003.726149
821.965517	3219.764797
822.283704	3336.059175
822.601847	3356.659850
822.919945	3303.105152
823.237999	3278.506842
823.556010	3174.792663
823.873976	3072.144689
824.191897	2989.822647
824.509775	2926.117585
824.827609	2853.686287
825.145398	2829.108141
825.463144	2825.937256
825.780845	2850.906091
826.098502	2861.104345
826.416116	2919.750608
826.733685	2977.643219
827.051210	2996.534943
827.368692	2982.331492
827.686129	2946.771193
828.003522	2866.568956
828.320872	2805.644091
828.638177	2758.887389
828.955439	2718.802654
829.272656	2697.357586
829.589830	2677.379493
829.906960	2669.341373
830.224046	2654.175062
830.541088	2649.254896
830.858086	2645.345481
831.175041	2639.646456
831.491952	2641.252064
831.808819	2644.533855
832.125642	2651.190699
832.442421	2662.130003
832.759157	2683.005421
833.075849	2724.335320
833.392497	2786.691873
833.709101	2843.818228
834.025662	2839.717250
834.342179	2804.459420
834.658653	2762.078439
834.975083	2721.350957
835.291469	2704.362269
835.607811	2677.437466
835.924110	2659.203613
836.240366	2643.034112
836.556578	2631.111783
836.872746	2623.928139
837.188871	2615.491768
837.504952	2609.865840
837.820990	2609.996910
838.136984	2605.374172
838.452935	2602.810745
838.768842	2601.437031
839.084706	2607.239399
839.400526	2627.285547
839.716303	2659.105310
840.032037	2676.769513
840.347727	2680.835204
840.663373	2672.633247
840.978977	2653.547438
841.294537	2632.109931
841.610054	2615.398506
841.925527	2611.453803
842.240957	2605.419542
842.556344	2597.515013
842.871687	2591.218612
843.186987	2587.899012
843.502244	2584.430698
843.817458	2586.739547
844.132629	2584.042529
844.447756	2578.315779
844.762840	2573.193966
845.077881	2575.606158
845.392879	2574.156827
845.707833	2577.451221
846.022745	2569.828996
846.337613	2577.889801
846.652438	2574.635736
846.967221	2573.758576
847.281960	2573.224213
847.596656	2571.369069
847.911309	2572.921744
848.225919	2570.854871
848.540485	2569.871846
848.855009	2570.131465
849.169490	2570.103739
849.483928	2569.080385
849.798323	2570.837227
850.112675	2570.834706
850.426984	2569.917216
850.741251	2572.276476
851.055474	2569.445868
851.369654	2570.786815
851.683792	2572.253791
851.997887	2571.555591
852.311938	2569.491239
852.625947	2569.367731
852.939914	2571.225396
853.253837	2575.371745
853.567718	2569.644994
853.881555	2570.345714
854.195350	2570.335632
854.509103	2571.215313
854.822812	2570.217165
855.136479	2568.301527
855.450103	2571.220355
855.763685	2571.691702
856.077224	2571.235478
856.390720	2570.217165
856.704173	2570.716239
857.017584	2572.571384
857.330953	2571.653894
857.644278	2572.962073
857.957561	2572.377299
858.270802	2572.972156
858.584000	2572.518452
858.897155	2575.235634
859.210268	2572.268915
859.523339	2572.084912
859.836367	2569.539130
860.149352	2571.444686
860.462295	2573.816549
860.775195	2568.903944
861.088054	2568.785477
861.400869	2569.342525
861.713642	2565.128120
862.026373	2567.799932
862.339062	2570.398647
862.651708	2576.385017
862.964312	2570.479305
863.276873	2573.998030
863.589392	2572.226065
863.901869	2574.315623
864.214303	2573.594738
864.526696	2578.164544
864.839045	2575.744790
865.151353	2578.219997
865.463619	2580.470872
865.775842	2582.512539
866.088023	2579.540779
866.400162	2579.523135
866.712258	2582.245358
867.024313	2581.340471
867.336325	2581.214442
867.648296	2580.687642
867.960224	2581.784092
868.272110	2582.237796
868.583954	2578.479616
868.895755	2580.554051
869.207515	2581.834504
869.519233	2583.142683
869.830909	2582.278126
870.142542	2579.916345
870.454134	2581.504308
870.765684	2581.640420
871.077191	2583.213260
871.388657	2586.016141
871.700081	2582.263002
872.011463	2584.113106
872.322803	2584.697879
872.634101	2583.760225
872.945357	2589.429002
873.256571	2590.800196
873.567744	2588.350195
873.878874	2590.759867
874.189963	2589.577716
874.501010	2593.315732
874.812015	2598.256063
875.122979	2596.713470
875.433900	2592.438571
875.744780	2590.427151
876.055618	2594.455033
876.366415	2597.116762
876.677169	2595.433017
876.987882	2589.799527
877.298554	2590.659044
877.609183	2601.323605
877.919771	2603.695468
878.230317	2607.622527
878.540822	2612.504884
878.851285	2619.975874
879.161707	2629.433079
879.472087	2646.101654
879.782425	2660.980619
880.092722	2704.420242
880.402977	2760.714807
880.713191	2818.020123
881.023363	2870.188504
881.333494	2901.698236
881.643583	2954.554734
881.953631	2981.260247
882.263637	2952.462655
882.573602	2902.792167
882.883526	2875.206973
883.193408	2847.974660
883.503248	2822.234528
883.813048	2789.489713
884.122806	2746.405492
884.432522	2717.552448
884.742197	2696.288861
885.051831	2682.488702
885.361424	2670.369768
885.670975	2655.279074
885.980485	2643.840696
886.289954	2636.581435
886.599382	2628.881072
886.908768	2626.703294
887.218113	2615.670729
887.527417	2612.177209
887.836680	2607.425922
888.145901	2607.947681
888.455082	2604.965838
888.764221	2598.901330
889.073319	2594.666761
889.382376	2595.987543
889.691392	2597.159612
890.000366	2595.317070
890.309300	2595.886720
890.618193	2597.139447
890.927044	2596.809252
891.235855	2596.882348
891.544625	2596.441247
891.853353	2596.461412
892.162041	2595.243973
892.470687	2610.022116
892.779293	2611.572271
893.087858	2614.138218
893.396381	2620.474948
893.704864	2637.297279
894.013306	2659.405259
894.321707	2694.837009
894.630068	2709.741180
894.938387	2721.991184
895.246665	2725.774570
895.554903	2714.011037
895.863100	2701.445961
896.171256	2680.946109
896.479371	2652.849238
896.787446	2637.002371
897.095480	2631.184880
897.403473	2630.756382
897.711425	2622.186420
898.019336	2612.328444
898.327207	2608.371138
898.635038	2608.101436
898.942827	2605.812752
899.250576	2601.532813
899.558284	2596.262286
899.865952	2592.564600
900.173579	2596.398397
900.481165	2595.301947
900.788711	2592.904878
901.096216	2584.493713
901.403681	2585.595205
901.711105	2586.248034
902.018489	2582.532704
902.325832	2589.776842
902.633135	2587.072263
902.940397	2594.230701
903.247619	2608.033381
903.554800	2636.142854
903.861941	2677.099709
904.169041	2717.985987
904.476101	2741.197980
904.783121	2744.719226
905.090100	2728.300188
905.397039	2709.191694
905.703938	2677.999555
906.010796	2655.526091
906.317614	2634.948101
906.624391	2621.087448
906.931129	2612.005810
907.237826	2595.763212
907.544483	2589.058477
907.851099	2585.590164
908.157675	2578.850141
908.464211	2576.657239
908.770707	2567.908317
909.077163	2569.816393
909.383578	2564.936556
909.689954	2565.672565
909.996289	2565.768347
910.302584	2566.511917
910.608839	2564.750034
910.915054	2564.757595
911.221229	2566.166598
911.527363	2565.909499
911.833458	2567.696588
912.139513	2567.787329
912.445527	2567.419325
912.751502	2571.991651
913.057436	2574.197156
913.363331	2575.951477
913.669186	2581.524473
913.975000	2586.384145
914.280775	2595.274220
914.586510	2600.227154
914.892205	2613.273660
915.197859	2641.635192
915.503475	2675.297496
915.809050	2697.854139
916.114585	2695.777184
916.420081	2706.300592
916.725536	2712.967518
917.030952	2708.624564
917.336328	2693.493541
917.641665	2673.346570
917.946961	2652.365287
918.252218	2638.590335
918.557435	2627.257821
918.862612	2619.552417
919.167750	2611.032867
919.472848	2604.401229
919.777906	2598.510641
920.082925	2589.345823
920.387904	2583.374577
920.692843	2586.104361
920.997743	2581.670667
921.302603	2580.133115
921.607423	2574.981055
921.912204	2574.797053
922.216946	2570.345714
922.521647	2573.398133
922.826310	2570.544840
923.130932	2566.053172
923.435516	2562.821792
923.740059	2563.782132
924.044564	2564.739951
924.349028	2562.829354
924.653454	2559.822306
924.957840	2556.540515
925.262186	2553.125133
925.566493	2555.890206
925.870761	2551.224618
926.174989	2557.135371
926.479178	2554.398024
926.783328	2555.194527
927.087438	2553.581357
927.391509	2554.266954
927.695541	2553.936759
927.999533	2552.910884
928.303486	2550.604556
928.607400	2548.855276
928.911275	2550.710420
929.215110	2552.709238
929.518906	2551.234700
929.822663	2549.883671
930.126381	2550.445760
930.430060	2551.184289
930.733699	2551.637993
931.037299	2551.456511
931.340861	2551.446429
931.644383	2552.661347
931.947866	2549.976932
932.251309	2550.874258
932.554714	2551.476676
932.858080	2553.664536
933.161407	2549.911397
933.464694	2549.465255
933.767943	2550.849052
934.071153	2551.801830
934.374323	2547.468958
934.677455	2547.537014
934.980548	2549.555996
935.283602	2549.588763
935.586617	2549.369473
935.889593	2551.345606
936.192530	2549.215718
936.495428	2548.172199
936.798287	2550.203784
937.101108	2548.439380
937.403890	2552.119423
937.706632	2551.885009
938.009336	2557.291647
938.312002	2555.199568
938.614628	2558.912377
938.917216	2559.567727
939.219765	2561.682492
939.522275	2560.520506
939.824747	2562.352965
940.127179	2555.910370
940.429573	2556.311142
940.731929	2554.251831
941.034246	2551.993394
941.336524	2555.416337
941.638763	2557.546225
941.940964	2557.389949
942.243126	2554.924825
942.545250	2554.584547
942.847335	2554.856769
943.149381	2553.271326
943.451389	2553.493137
943.753359	2553.651933
944.055290	2554.110678
944.357182	2552.142108
944.659036	2552.694114
944.960851	2554.362736
945.262628	2553.036913
945.564367	2552.031203
945.866067	2551.706048
946.167729	2551.438867
946.469352	2554.607232
946.770937	2549.180430
947.072484	2552.497509
947.373992	2554.902140
947.675462	2552.870555
947.976893	2552.182437
948.278286	2550.730585
948.579641	2551.360729
948.880958	2551.370811
949.182236	2552.590771
949.483476	2548.668753
949.784678	2552.200081
950.085841	2549.319062
950.386967	2552.719320
950.688054	2551.693445
950.989103	2549.009031
951.290114	2552.895760
951.591087	2552.658826
951.892021	2553.563713
952.192917	2551.118754
952.493776	2552.124464
952.794596	2555.602860
953.095378	2552.275698
953.396122	2556.278375
953.696828	2550.728064
953.997496	2550.241593
954.298126	2552.593291
954.598718	2551.895091
954.899272	2549.424926
955.199788	2550.342416
955.500266	2548.494833
955.800706	2547.622713
956.101108	2542.480737
956.401472	2544.661036
956.701798	2543.746066
957.002087	2543.194060
957.302337	2546.465769
957.602550	2546.259081
957.902724	2544.048535
958.202861	2546.067517
958.502960	2546.838814
958.803022	2547.358053
959.103045	2544.204811
959.403031	2544.071221
959.702979	2545.376879
960.002889	2544.804708
960.302762	2542.843700
960.602596	2542.700027
960.902393	2542.752959
961.202153	2546.012065
961.501875	2544.250182
961.801559	2543.310006
962.101205	2544.056097
962.400814	2544.348484
962.700385	2541.868236
962.999918	2543.264636
963.299414	2542.309337
963.598873	2545.371838
963.898293	2545.298742
964.197677	2544.056097
964.497022	2541.817825
964.796331	2544.532486
965.095601	2542.843700
965.394835	2544.837476
965.694030	2544.847558
965.993189	2542.763041
966.292309	2544.240099
966.591393	2543.574667
966.890439	2542.795809
967.189447	2542.319420
967.488419	2541.699358
967.787353	2542.584080
968.086249	2544.161961
968.385108	2542.876467
968.683930	2543.146169
968.982714	2543.214224
969.281462	2543.383103
969.580172	2543.090716
969.878844	2544.625748
970.177480	2542.768082
970.476078	2543.557023
970.774639	2546.052394
971.073162	2543.665408
971.371649	2539.551826
971.670098	2540.824717
971.968510	2540.580222
972.266885	2537.462268
972.565223	2544.068700
972.863524	2544.247661
973.161788	2544.761859
973.460014	2543.405788
973.758204	2542.626930
974.056356	2544.381252
974.354471	2542.269008
974.652550	2543.804039
974.950591	2544.882846
975.248595	2543.793957
975.546563	2543.216745
975.844493	2542.856302
976.142386	2546.105326
976.440243	2542.566436
976.738062	2544.557692
977.035845	2541.359080
977.333590	2544.834955
977.631299	2543.564585
977.928971	2543.410829
978.226606	2541.754810
978.524204	2541.124666
978.821765	2542.271529
979.119290	2543.854451
979.416777	2539.695499
979.714228	2545.873433
980.011642	2539.831610
980.309020	2547.191695
980.606360	2541.999306
980.903664	2543.103319
981.200931	2544.897970
981.498162	2542.785726
981.795356	2546.838814
982.092513	2543.930068
982.389633	2548.278063
982.686717	2550.050029
982.983764	2547.905018
983.280775	2551.249824
983.577749	2549.525749
983.874686	2552.799978
984.171587	2549.866027
984.468451	2549.069525
984.765279	2545.344112
985.062070	2545.792775
985.358824	2547.305121
985.655543	2544.640871
985.952224	2544.832435
986.248869	2542.508463
986.545478	2537.928575
986.842050	2540.645757
987.138586	2539.292207
987.435086	2540.393699
987.731549	2536.083512
988.027975	2543.458720
988.324366	2540.459234
988.620719	2541.507794
988.917037	2538.016795
989.213318	2540.751621
989.509563	2540.209697
989.805772	2542.639533
990.101944	2542.410160
990.398080	2541.638864
990.694180	2540.668442
990.990244	2540.885211
991.286271	2540.469316
991.582262	2541.936292
991.878217	2543.267157
992.174136	2543.224307
992.470019	2541.414532
992.765865	2541.469985
993.061676	2539.887063
993.357450	2541.621220
993.653188	2540.731456
993.948890	2540.786909
994.244556	2540.751621
994.540186	2542.190870
994.835780	2540.494522
995.131337	2543.383103
995.426859	2541.096940
995.722345	2538.790612
996.017795	2542.483257
996.313208	2546.690100
996.608586	2543.443597
996.903928	2543.909904
997.199234	2542.032074
997.494504	2543.829245
997.789738	2545.954092
998.084936	2542.367311
998.380099	2542.342105
998.675225	2544.121632
998.970316	2541.278421
999.265371	2541.868236
999.560390	2541.195242
999.855373	2542.374872
1000.150320	2540.769265
1000.445232	2539.619882
1000.740108	2540.391178
1001.034948	2539.856816
1001.329752	2540.474357
1001.624521	2541.774975
1001.919254	2537.177443
1002.213951	2540.766744
1002.508613	2537.532844
1002.803239	2539.730787
1003.097829	2537.525282
1003.392384	2541.336395
1003.686903	2540.081147
1003.981386	2543.037784
1004.275834	2537.542926
1004.570246	2541.903524
1004.864623	2539.506456
1005.158964	2542.599204
1005.453270	2540.751621
1005.747540	2540.106353
1006.041775	2539.544264
1006.335974	2541.243133
1006.630138	2539.612320
1006.924266	2540.517207
1007.218359	2539.932433
1007.512416	2542.213555
1007.806438	2539.236754
1008.100425	2540.396219
1008.394376	2543.612476
1008.688292	2538.205838
1008.982172	2538.157947
1009.276017	2541.056611
1009.569827	2541.472506
1009.863602	2540.774306
1010.157341	2540.653318
1010.451045	2539.085519
1010.744714	2541.132228
1011.038347	2542.054759
1011.331945	2540.552495
1011.625508	2539.178781
1011.919036	2540.250026
1012.212528	2541.038967
1012.505986	2540.045859
1012.799408	2543.113401
1013.092795	2537.893287
1013.386147	2541.790098
1013.679464	2542.183308
1013.972745	2538.951929
1014.265992	2541.769934
1014.559204	2541.855633
1014.852380	2540.860006
1015.145521	2541.545603
1015.438628	2539.193904
1015.731699	2542.828576
1016.024736	2542.455531
1016.317737	2540.595345
1016.610703	2540.968390
1016.903635	2539.105684
1017.196531	2535.342463
1017.489393	2537.716846
1017.782219	2534.787936
1018.075011	2539.292207
1018.367768	2539.440921
1018.660490	2540.935623
1018.953177	2540.935623
1019.245829	2540.935623
