Dividing Wavelength (nm)	Counts (n)	Blue Motor Position (mm): 41.100000	Red Motor Position (mm): 0.000000	
326.493990	2130.293313
326.888308	2130.293313
327.282561	2130.293313
327.676750	2097.684609
328.070874	2095.768971
328.464933	2095.703436
328.858929	2103.978490
329.252859	2112.384614
329.646726	2126.734258
330.040528	2139.067441
330.434265	2155.264668
330.827938	2173.143121
331.221547	2191.258507
331.615091	2211.297093
332.008571	2230.685371
332.401986	2247.394276
332.795338	2268.153747
333.188625	2288.764505
333.581847	2306.191773
333.975006	2326.018632
334.368100	2342.919100
334.761129	2359.169259
335.154095	2378.774307
335.546996	2400.804149
335.939833	2425.838519
336.332606	2439.295879
336.725315	2451.596294
337.117960	2461.784466
337.510540	2471.105560
337.903056	2477.379276
338.295508	2486.586943
338.687896	2496.084477
339.080220	2505.030005
339.472480	2513.473937
339.864676	2518.716737
340.256807	2518.832684
340.648875	2525.166894
341.040879	2527.561442
341.432818	2527.374919
341.824694	2531.606968
342.216506	2528.393232
342.608253	2530.369364
342.999937	2529.063706
343.391557	2528.471370
343.783113	2529.136802
344.174605	2528.524302
344.566033	2526.041534
344.957397	2523.911646
345.348697	2523.735206
345.739934	2521.834691
346.131106	2520.017355
346.522215	2517.332941
346.913260	2515.082065
347.304241	2514.300687
347.695159	2509.809018
348.086012	2509.297341
348.476802	2508.495798
348.867528	2506.920437
349.258191	2503.469768
349.648789	2504.891373
350.039324	2502.542195
350.429796	2505.582011
350.820203	2499.525065
351.210548	2500.024139
351.600828	2496.896103
351.991045	2499.673779
352.381198	2497.012049
352.771288	2498.753768
353.161314	2498.073212
353.551276	2497.228819
353.941175	2497.090187
354.331010	2495.020794
354.720782	2500.243429
355.110490	2497.730414
355.500135	2496.089518
355.889717	2498.098418
356.279235	2496.875938
356.668689	2498.146309
357.058080	2495.882831
357.447408	2494.468787
357.836672	2493.430310
358.225873	2495.562718
358.615010	2492.041472
359.004084	2500.175373
359.393095	2500.268635
359.782043	2502.496825
360.170927	2500.392143
360.559748	2501.463388
360.948505	2501.211331
361.337199	2503.550426
361.725830	2502.436331
362.114398	2505.181239
362.502903	2504.480519
362.891344	2506.570077
363.279722	2506.305417
363.668037	2504.561177
364.056289	2503.240395
364.444478	2505.975221
364.832603	2508.904131
365.220665	2506.910355
365.608665	2508.510921
365.996601	2510.421519
366.384474	2510.159379
366.772284	2510.638288
367.160031	2506.252484
367.547715	2512.243896
367.935336	2511.349091
368.322893	2511.301200
368.710388	2509.728360
369.097820	2514.779596
369.485189	2509.728360
369.872495	2511.258350
370.259738	2513.796571
370.646918	2511.782630
371.034035	2514.197343
371.421090	2513.665501
371.808081	2513.438649
372.195010	2516.876716
372.581875	2514.333454
372.968678	2520.055164
373.355418	2514.278001
373.742096	2516.811181
374.128710	2517.239679
374.515262	2515.858403
374.901751	2520.947448
375.288177	2517.804288
375.674540	2519.372087
376.060841	2517.690862
376.447079	2519.513240
376.833254	2521.486851
377.219367	2518.162210
377.605417	2518.784793
377.991404	2517.421161
378.377329	2518.573064
378.763191	2514.769514
379.148991	2521.990967
379.534727	2521.580113
379.920402	2521.111285
380.306013	2524.773684
380.691563	2524.627490
381.077049	2526.054137
381.462474	2524.718231
381.847835	2525.106400
382.233134	2526.260824
382.618371	2530.132430
383.003545	2527.793335
383.388657	2530.540764
383.773706	2530.210568
384.158693	2531.496062
384.543618	2535.987730
384.928480	2539.778678
385.313280	2543.945192
385.698017	2545.810419
386.082692	2557.798282
386.467305	2561.614436
386.851856	2573.133472
387.236344	2582.883064
387.620770	2594.513006
388.005133	2607.504059
388.389435	2622.418313
388.773674	2636.588997
389.157851	2653.101296
389.541965	2673.880932
389.926018	2684.157324
390.310008	2710.981304
390.693936	2732.411249
391.077802	2756.875968
391.461606	2779.445214
391.845348	2812.726912
392.229027	2836.054851
392.612645	2860.665764
392.996200	2909.075965
393.379694	2946.826645
393.763125	2990.702328
394.146494	3014.945237
394.529801	3067.332907
394.913047	3113.698920
395.296230	3134.206334
395.679351	3184.995959
396.062410	3232.700398
396.445408	3263.209461
396.828343	3305.809731
397.211217	3352.838656
397.594028	3348.722553
397.976778	3419.139911
398.359466	3469.695122
398.742092	3521.429964
399.124656	3505.464629
399.507158	3590.672732
399.889598	3639.309785
400.271977	3714.695199
400.654294	3724.890933
401.036549	3766.324176
401.418742	3773.573356
401.800874	3879.462792
402.182944	3924.850821
402.564952	4004.501052
402.946898	4023.140718
403.328783	4048.724574
403.710606	4005.814272
404.092367	4192.669681
404.474067	4184.041746
404.855705	4213.930747
405.237282	4173.331814
405.618797	4286.868681
406.000250	4339.989840
406.381642	4428.517543
406.762972	4411.420469
407.144240	4442.741158
407.525447	4456.692552
407.906593	4524.606976
408.287677	4583.001182
408.668700	4526.605794
409.049661	4584.200976
409.430560	4636.235766
409.811399	4575.252928
410.192176	4742.757868
410.572891	4683.330226
410.953545	4792.597235
411.334138	4683.675545
411.714669	4758.075414
412.095139	4651.863343
412.475547	4797.177123
412.855894	4784.118014
413.236180	4798.278616
413.616405	4754.639867
413.996568	4845.700750
414.376670	4787.190598
414.756711	4743.813989
415.136691	4777.894710
415.516609	4854.517728
415.896466	4895.625817
416.276262	4932.176703
416.655997	4909.478908
417.035670	5094.138894
417.415283	5185.716494
417.794834	5128.748935
418.174324	5083.529785
418.553753	4994.712216
418.933121	5176.292057
419.312428	5248.355352
419.691674	5186.253377
420.070859	5312.015042
420.449983	5220.250919
420.829045	5338.526470
421.208047	5246.298561
421.586988	5316.143747
421.965867	5328.005582
422.344686	5460.905521
422.723444	5316.005116
423.102141	5135.980471
423.480777	5429.471406
423.859352	5202.982446
424.237866	5459.930058
424.616319	5452.852278
424.994712	5560.370007
425.373044	5436.770997
425.751314	5578.787863
426.129524	5385.177308
426.507673	5577.807358
426.885762	5661.553527
427.263789	5589.293627
427.641756	5474.400690
428.019662	5596.091623
428.397508	5604.230566
428.775292	5548.485487
429.153016	5647.554242
429.530679	5574.094548
429.908282	5662.183671
430.285824	5533.961923
430.663305	5804.510567
431.040726	5540.946441
431.418086	5541.233787
431.795385	5650.878883
432.172624	5661.351880
432.549802	5654.032125
432.926920	5671.091390
433.303977	5675.583058
433.680974	5711.521443
434.057910	5726.062652
434.434786	5739.729220
434.811601	5710.326690
435.188355	5940.470487
435.565050	5813.700591
435.941683	5796.326254
436.318257	6009.960272
436.694770	5992.429659
437.071222	6029.950967
437.447614	5959.387416
437.823946	5874.895157
438.200218	6025.192118
438.576429	5890.139607
438.952580	5988.028732
439.328670	6033.895670
439.704700	5945.478873
440.080670	5929.861378
440.456580	6200.621751
440.832429	6085.265028
441.208218	5930.718374
441.583947	6088.352735
441.959616	6087.369710
442.335224	6018.378999
442.710773	6155.548795
443.086261	6181.185583
443.461689	5977.444829
443.837057	6121.354648
444.212365	6277.464059
444.587612	6171.246948
444.962800	6326.184291
445.337927	6301.026412
445.712995	5913.540643
446.088002	6493.721998
446.462949	6322.645401
446.837837	6256.124855
447.212664	6426.730104
447.587431	6569.200674
447.962139	7110.358457
448.336786	8036.110908
448.711374	7777.966022
449.085901	6855.626432
449.460369	6773.218690
449.834776	6708.049174
450.209124	7098.471416
450.583412	7252.002277
450.957640	7394.961838
451.331808	7162.138668
451.705917	6712.124947
452.079965	6632.015971
452.453954	6847.784918
452.827883	6718.502007
453.201752	6817.739641
453.575562	6613.928311
453.949311	6821.848181
454.323001	6712.765173
454.696632	6784.911647
455.070202	6922.232678
455.443713	7076.071049
455.817164	7177.647778
456.190556	7257.920592
456.563888	7337.265833
456.937160	7375.170268
457.310373	7033.501025
457.683526	7062.875829
458.056619	6955.816844
458.429653	6934.270953
458.802628	6871.374997
459.175542	6975.469783
459.548398	7336.943199
459.921194	7498.156778
460.293930	7500.942016
460.666607	8027.787963
461.039224	8333.954880
461.411782	8456.906102
461.784280	8478.073907
462.156719	8372.643215
462.529099	8243.332578
462.901419	7837.106319
463.273680	7731.269814
463.645882	7746.690704
464.018024	7618.932742
464.390106	7776.355374
464.762130	8164.861977
465.134094	8632.713822
465.505999	9662.800513
465.877845	10876.859073
466.249631	11525.605162
466.621358	11145.860084
466.993026	10516.272901
467.364634	10255.307489
467.736184	9895.391790
468.107674	9560.669257
468.479105	9591.100182
468.850477	9359.320531
469.221790	9127.331672
469.593043	8804.783526
469.964238	8668.122886
470.335373	8669.491559
470.706449	8732.816013
471.077467	8722.451401
471.448425	10027.795175
471.819324	11093.631209
472.190164	11116.351690
472.560945	9870.818686
472.931667	9086.037061
473.302330	8948.224517
473.672934	8595.358872
474.043479	8954.150394
474.413965	8891.314932
474.784393	8774.776057
475.154761	8931.540819
475.525070	9015.269343
475.895321	8846.373045
476.265513	9021.807719
476.635645	9192.987660
477.005719	9189.594963
477.375734	9305.107963
477.745691	9547.448831
478.115588	9676.106639
478.485427	9924.007900
478.855207	10451.052973
479.224928	11271.717531
479.594591	11899.759600
479.964194	11715.719676
480.333739	11651.308854
480.703226	11561.619165
481.072653	11651.684420
481.442022	11892.069320
481.811333	12077.175448
482.180584	11887.922971
482.549777	11604.474014
482.918912	11424.366190
483.287988	11435.817171
483.657005	11463.198198
484.025964	11136.475976
484.394864	11271.999835
484.763706	11240.227963
485.132489	10996.672177
485.501213	10959.118101
485.869879	11037.129957
486.238487	10885.388706
486.607036	10991.240334
486.975527	10770.513413
487.343959	10959.236568
487.712333	11006.439413
488.080648	10940.354927
488.448905	10982.307409
488.817104	10916.674107
489.185244	11184.765189
489.553326	11341.920639
489.921350	11882.042465
490.289315	12941.871965
490.657222	13279.732616
491.025070	13190.990664
491.392861	13061.866550
491.760593	12685.420907
492.128267	12337.861075
492.495883	12008.885458
492.863440	11663.384938
493.230939	11334.603404
493.598380	11262.106571
493.965763	11135.364402
494.333088	11032.232476
494.700354	10961.323606
495.067563	11016.816628
495.434713	10851.991062
495.801805	10976.850360
496.168839	10906.193548
496.535815	10833.336272
496.902733	10835.927425
497.269593	10759.627041
497.636395	10864.626714
498.003139	10858.789057
498.369825	10721.362163
498.736453	10880.219003
499.103023	10807.515482
499.469535	10841.450009
499.835989	10822.500312
500.202385	10786.304827
500.568723	10642.354679
500.935003	10858.063131
501.301226	10665.435602
501.667390	10926.774058
502.033497	11024.191836
502.399546	10881.570032
502.765537	10791.393872
503.131470	10866.116375
503.497345	11035.922601
503.863163	10653.440176
504.228923	10955.238933
504.594625	11023.584377
504.960269	10772.615574
505.325856	10989.095323
505.691385	10786.607296
506.056856	10938.325862
506.422270	10967.330141
506.787625	10851.507111
507.152924	10969.873403
507.518164	10948.204003
507.883347	10871.633918
508.248472	10800.286467
508.613540	11023.854078
508.978550	10907.617674
509.343503	10881.202028
509.708398	11003.006387
510.073236	11112.767429
510.438016	11127.762342
510.802738	11076.897099
511.167403	11123.376538
511.532010	11020.201763
511.896561	11253.022412
512.261053	11321.458596
512.625488	11194.514780
512.989866	11168.446974
513.354186	11167.088383
513.718449	11064.669781
514.082655	11258.199677
514.446803	11153.066413
514.810894	11271.253745
515.174927	11140.264403
515.538904	11162.818525
515.902822	11323.709471
516.266684	11204.788652
516.630488	11143.886472
516.994235	11196.165758
517.357925	11260.934503
517.721558	11353.790036
518.085133	11362.957374
518.448651	11372.608663
518.812112	11264.606983
519.175516	11275.006884
519.538863	11392.299410
519.902152	11309.100207
520.265385	11474.694549
520.628560	11381.367668
520.991678	11360.542662
521.354739	11426.400295
521.717743	11357.860768
522.080690	11335.881337
522.443580	11471.677419
522.806413	11421.775037
523.169189	11457.063114
523.531908	11516.503359
523.894569	11331.150214
524.257174	11339.100114
524.619722	11458.046139
524.982213	11404.156204
525.344647	11459.553444
525.707025	11405.686194
526.069345	11506.095897
526.431608	11417.696743
526.793815	11530.832838
527.155964	11312.810496
527.518057	11376.558407
527.880093	11322.229892
528.242072	11394.235213
528.603995	11300.958744
528.965860	11213.156967
529.327669	11265.511870
529.689421	11217.757020
530.051117	11180.538181
530.412755	11289.258226
530.774337	11187.462206
531.135862	11158.626806
531.497331	11183.729232
531.858743	11029.767352
532.220098	11203.772859
532.581396	11064.591643
532.942638	11056.656867
533.303824	11017.618171
533.664953	11035.032837
534.026025	10951.198449
534.387040	11043.075998
534.747999	11052.886083
535.108902	11108.079156
535.469748	10869.733402
535.830537	10968.708897
536.191270	10948.272059
536.551947	10967.990532
536.912567	10967.975409
537.273131	10896.209543
537.633638	10872.435461
537.994089	10863.754594
538.354483	10812.284413
538.714821	10959.748246
539.075103	10965.953906
539.435328	10929.103071
539.795497	10756.070507
540.155609	10917.573953
540.515665	10996.460448
540.875665	10742.552653
541.235609	10809.226953
541.595496	10799.293360
541.955328	10958.220776
542.315102	10838.626963
542.674821	10788.717019
543.034483	10794.683225
543.394090	10795.174737
543.753640	10726.572195
544.113134	10947.699888
544.472571	10798.932917
544.831953	10948.289703
545.191278	10744.768240
545.550548	10772.456777
545.909761	10914.612275
546.268918	10885.192101
546.628019	10974.234001
546.987064	10837.255769
547.346053	10757.802143
547.704986	10856.487771
548.063863	10852.187667
548.422684	10829.691518
548.781449	10750.928530
549.140158	10854.282266
549.498811	10738.048382
549.857408	10586.486091
550.215949	10816.864302
550.574434	10671.401807
550.932864	10766.268761
551.291237	10821.040898
551.649555	10775.000039
552.007817	10790.234406
552.366022	10757.073696
552.724173	10745.746224
553.082267	10729.980015
553.440305	10866.827177
553.798288	10671.056488
554.156215	10822.260857
554.514086	10795.469645
554.871902	10646.231326
555.229661	10679.669300
555.587365	10661.717751
555.945014	10552.954857
556.302606	10678.315750
556.660143	10575.511499
557.017625	10731.419264
557.375050	10630.568461
557.732421	10758.149983
558.089735	10674.373567
558.446994	10673.002374
558.804197	10711.715915
559.161345	10709.354134
559.518437	10563.241331
559.875474	10649.976903
560.232455	10676.871459
560.589381	10626.943872
560.946251	10627.233738
561.303065	10729.574202
561.659825	10666.355612
562.016528	10600.384553
562.373177	10471.373864
562.729770	10589.369631
563.086307	10506.135140
563.442789	10601.299522
563.799216	10479.233023
564.155587	10528.653974
564.511904	10484.785854
564.868164	10471.003339
565.224370	10489.327933
565.580520	10418.439228
565.936615	10416.949567
566.292654	10287.575915
566.648638	10418.340925
567.004567	10377.048834
567.360441	10359.329178
567.716260	10265.488100
568.072023	10360.844045
568.427732	10317.112036
568.783385	10219.333816
569.138982	10291.457604
569.494525	10306.906220
569.850013	10190.632006
570.205445	10266.151011
570.560823	10163.084621
570.916145	10080.139996
571.271412	10154.129011
571.626625	10096.309497
571.981782	10073.939377
572.336884	10047.818638
572.691931	10055.965143
573.046923	9990.296552
573.401860	9953.097878
573.756743	9888.003979
574.111570	9936.633470
574.466342	9913.693699
574.821059	9943.973390
575.175722	9835.828037
575.530330	9844.415642
575.884882	9837.799128
576.239380	9765.645093
576.593823	9743.655580
576.948211	9760.379608
577.302544	9643.684458
577.656823	9653.479420
578.011047	9654.570830
578.365216	9622.173854
578.719330	9558.461232
579.073389	9568.662006
579.427394	9513.630250
579.781344	9490.163679
580.135239	9439.326163
580.489080	9447.974263
580.842866	9354.279377
581.196597	9348.958439
581.550273	9396.841839
581.903895	9357.556127
582.257463	9424.207743
582.610975	9308.770361
582.964434	9336.400925
583.317837	9248.024457
583.671186	9238.778981
584.024481	9230.176252
584.377721	9156.159511
584.730906	9132.647569
585.084037	9159.897526
585.437113	9097.437630
585.790135	9118.852452
586.143103	9011.405298
586.496016	8987.870672
586.848874	9047.089106
587.201679	9033.064616
587.554428	8925.257020
587.907124	8963.902506
588.259765	8937.885111
588.612352	8937.365872
588.964884	8811.977252
589.317362	8834.768309
589.669786	8828.048451
590.022155	8883.924600
590.374470	8896.217454
590.726731	8830.410231
591.078937	8689.346144
591.431090	8795.452350
591.783188	8673.675717
592.135232	8660.359509
592.487222	8666.862598
592.839157	8718.020227
593.191038	8650.279722
593.542866	8590.592461
593.894639	8494.440013
594.246358	8544.324751
594.598022	8556.473931
594.949633	8463.686454
595.301190	8437.301054
595.652692	8462.642935
596.004141	8575.559740
596.355535	8352.571861
596.706876	8332.034200
597.058162	8266.741176
597.409395	8348.700255
597.760573	8403.709326
598.111698	8316.565420
598.462768	8298.876011
598.813785	8265.818645
599.164748	8236.774037
599.515657	8234.079540
599.866511	8136.024057
600.217312	8262.410825
600.568060	8118.190975
600.918753	8220.516316
601.269392	8189.775359
601.619978	8099.571473
601.970510	8168.988162
602.320988	8163.442892
602.671412	8219.503044
603.021783	8156.133219
603.372100	8129.788149
603.722363	8129.924260
604.072572	8102.099612
604.422728	8116.325748
604.772830	8041.963687
605.122878	8057.992036
605.472872	8051.488948
605.822813	8076.808143
606.172701	8018.401334
606.522534	8098.714477
606.872314	8095.362110
607.222041	8067.542502
607.571714	8123.133826
607.921333	8077.639933
608.270899	8087.409689
608.620411	8182.082559
608.969870	8080.785613
609.319276	8079.399296
609.668627	8093.383457
610.017926	8124.810010
610.367171	8167.095208
610.716362	8148.813464
611.065500	8136.296279
611.414585	8169.802308
611.763616	8154.094073
612.112594	8135.628326
612.461518	8154.492324
612.810389	8211.643885
613.159207	8147.888412
613.507971	8100.337728
613.856682	8221.448929
614.205340	8176.927979
614.553945	8252.573013
614.902496	8154.499885
615.250994	8209.892084
615.599439	8189.971964
615.947830	8205.012247
616.296169	8172.030498
616.644454	8186.244031
616.992686	8185.492899
617.340864	8243.002382
617.688990	8144.886405
618.037063	8240.708657
618.385082	8187.360647
618.733048	8270.388451
619.080961	8208.006692
619.428821	8227.982264
619.776628	8234.858398
620.124382	8181.409565
620.472083	8168.050507
620.819731	8195.328190
621.167326	8090.358764
621.514868	8100.136082
621.862357	7980.159141
622.209793	8002.446082
622.557176	7930.871780
622.904506	7900.415649
623.251783	7842.739808
623.599007	7793.054196
623.946179	7796.025956
624.293297	7759.008763
624.640363	7668.537696
624.987376	7648.950292
625.334336	7601.016481
625.681243	7549.057308
626.028097	7539.406019
626.374899	7512.178748
626.721647	7512.927359
627.068343	7440.344826
627.414987	7412.396669
627.761577	7368.735235
628.108115	7405.714619
628.454600	7301.151006
628.801032	7353.755447
629.147412	7311.976884
629.493739	7299.613454
629.840014	7234.922848
630.186236	7296.578680
630.532405	7174.028230
630.878521	7227.303144
631.224585	7183.586257
631.570597	7106.663291
631.916556	7138.049515
632.262462	7136.816953
632.608316	7099.961077
632.954117	7076.244969
633.299866	7062.333905
633.645562	7056.602113
633.991206	6971.091541
634.336797	6919.739827
634.682336	6872.204267
635.027823	6843.368867
635.373257	6835.522311
635.718639	6763.461537
636.063968	6781.322345
636.409245	6665.395971
636.754470	6672.488875
637.099642	6629.752493
637.444762	6577.180820
637.789829	6582.640390
638.134845	6526.423963
638.479808	6505.046950
638.824719	6516.956676
639.169577	6438.274347
639.514383	6466.363656
639.859137	6390.572428
640.203839	6394.494446
640.548489	6384.142437
640.893086	6361.371545
641.237632	6330.398695
641.582125	6355.044897
641.926566	6323.144475
642.270955	6337.922617
642.615292	6332.077400
642.959576	6345.517116
643.303809	6336.100240
643.647990	6340.995201
643.992118	6336.289284
644.336195	6282.306088
644.680219	6307.247196
645.024192	6289.933353
645.368112	6389.970010
645.711981	6416.552015
646.055797	6488.761502
646.399562	6442.718124
646.743274	6575.479431
647.086935	6630.869109
647.430544	6619.879393
647.774101	6641.006869
648.117606	6646.887375
648.461059	6640.296066
648.804460	6600.148317
649.147810	6510.554410
649.491108	6477.620552
649.834354	6457.191276
650.177548	6370.087700
650.520690	6291.294465
650.863781	6264.745228
651.206820	6281.615450
651.549807	6206.766918
651.892742	6150.651314
652.235626	6153.597868
652.578458	6137.415764
652.921238	6045.729779
653.263967	6094.515545
653.606644	6026.094485
653.949269	6025.073651
654.291843	5969.280681
654.634365	6018.288258
654.976836	5972.653213
655.319255	5976.169418
655.661622	5948.327125
656.003938	5946.792093
656.346203	5911.418317
656.688416	5939.532832
657.030577	5895.924331
657.372687	5859.600297
657.714746	5850.163257
658.056753	5892.786212
658.398708	5828.919834
658.740612	5823.903886
659.082465	5872.840887
659.424266	5862.748497
659.766016	5863.983580
660.107715	5839.102965
660.449362	5850.017063
660.790958	5849.341548
661.132503	5833.429146
661.473996	5873.561772
661.815438	5857.808166
662.156829	5855.922775
662.498168	5845.679150
662.839456	5819.858360
663.180693	5860.311099
663.521879	5861.329412
663.863013	5849.475139
664.204097	5868.258478
664.545129	5905.376494
664.886110	5901.885495
665.227040	5935.903201
665.567918	5901.777110
665.908746	5936.775321
666.249522	5933.065032
666.590248	5922.551705
666.930922	5948.755623
667.271545	5961.444207
667.612118	5965.179702
667.952639	5942.302946
668.293109	5963.012006
668.633528	5919.814359
668.973896	5918.251601
669.314213	5910.936887
669.654480	5893.532303
669.994695	5883.187855
670.334859	5875.021186
670.674973	5869.750660
671.015035	5875.558069
671.355047	5872.288881
671.695008	5853.966807
672.034918	5827.445297
672.374777	5839.705383
672.714585	5828.080482
673.054342	5828.183826
673.394049	5822.542775
673.733705	5858.531572
674.073310	5843.987843
674.412864	5803.514939
674.752368	5789.268639
675.091820	5800.996883
675.431223	5735.058591
675.770574	5733.778138
676.109875	5684.107649
676.449125	5695.394792
676.788324	5657.137476
677.127473	5603.507161
677.466571	5592.961067
677.805619	5578.099745
678.144616	5569.812088
678.483562	5544.147574
678.822458	5516.191855
679.161303	5510.505434
679.500098	5504.531667
679.838842	5480.921423
680.177535	5491.606148
680.516179	5503.596532
680.854771	5518.120097
681.193314	5599.202015
681.531805	5706.102203
681.870247	5855.201890
682.208638	5955.273835
682.546978	5969.704138
682.885268	5947.112207
683.223508	5867.734198
683.561697	5806.395959
683.899836	5778.558707
684.237925	5733.132870
684.575963	5696.854206
684.913951	5656.328371
685.251889	5718.309357
685.589776	5689.148803
685.927614	5661.301469
686.265401	5730.892077
686.603137	5711.085384
686.940824	5789.394668
687.278460	5812.730169
687.616046	5825.224668
687.953582	5890.994082
688.291068	5873.937338
688.628504	5936.072080
688.965889	5897.285442
689.303224	5845.500189
689.640510	5797.941944
689.977745	5720.313216
690.314930	5620.538699
690.652065	5566.341254
690.989150	5472.737109
691.326185	5396.003186
691.663170	5345.470660
692.000105	5266.450573
692.336990	5184.662893
692.673825	5164.513401
693.010610	5097.708031
693.347345	5028.866034
693.684030	5011.945401
694.020665	4971.714473
694.357251	4878.725349
694.693786	4895.903080
695.030272	4855.399930
695.366707	4819.378365
695.703093	4785.327891
696.039429	4814.001974
696.375716	4791.198315
696.711952	4767.152011
697.048139	4751.819342
697.384276	4732.234459
697.720363	4747.254577
698.056400	4754.302110
698.392388	4703.507444
698.728326	4685.689486
699.064214	4665.303059
699.400053	4660.776103
699.735842	4627.557420
700.071581	4600.496506
700.407270	4572.150098
700.742910	4556.467068
701.078501	4498.738295
701.414042	4496.033716
701.749533	4471.422803
702.084974	4405.408893
702.420366	4461.874858
702.755709	4405.527361
703.091002	4343.566539
703.426246	4397.368253
703.761440	4350.092312
704.096584	4316.233403
704.431679	4335.266279
704.766725	4322.575174
705.101721	4304.651352
705.436668	4336.221578
705.771565	4284.267446
706.106413	4310.894821
706.441212	4342.512938
706.775961	4354.536089
707.110661	4332.808716
707.445311	4361.129919
707.779913	4383.966346
708.114465	4397.963109
708.448967	4420.590328
708.783421	4481.721880
709.117825	4522.318292
709.452180	4525.864744
709.786485	4574.963062
710.120742	4659.404909
710.454949	4644.714987
710.789107	4710.600347
711.123216	4787.964415
711.457275	4775.258187
711.791286	4847.024053
712.125247	4864.126167
712.459159	4768.868524
712.793023	4842.439123
713.126837	4803.034944
713.460602	4794.467503
713.794318	4712.803332
714.127985	4725.214652
714.461602	4636.308863
714.795171	4610.215851
715.128691	4544.398546
715.462162	4485.560719
715.795584	4436.618677
716.128957	4417.222837
716.462281	4368.230384
716.795556	4339.657124
717.128782	4302.226557
717.461960	4232.101586
717.795088	4242.544336
718.128167	4202.764591
718.461198	4144.887104
718.794180	4141.209582
719.127113	4118.743680
719.459997	4098.785752
719.792833	4056.417374
720.125619	4046.456054
720.458357	4009.343080
720.791046	4017.250130
721.123686	3986.108402
721.456278	3948.846713
721.788821	3962.369608
722.121315	3937.257100
722.453761	3910.740631
722.786158	3927.212601
723.118506	3944.778502
723.450805	3899.602202
723.783056	3922.947785
724.115259	3937.856998
724.447412	3944.624747
724.779518	3938.424127
725.111574	3937.403294
725.443582	3968.945793
725.775542	3951.652115
726.107453	4005.113552
726.439315	4004.707739
726.771129	4019.609390
727.102895	4055.940985
727.434612	4107.206999
727.766281	4114.264615
728.097901	4115.459368
728.429473	4120.926500
728.760996	4127.996718
729.092471	4120.308958
729.423897	4106.365127
729.755276	4112.971559
730.086606	4114.236888
730.417887	4151.541427
730.749120	4215.979976
731.080305	4280.695788
731.411442	4306.597237
731.742530	4275.715128
732.073570	4280.035397
732.404562	4333.779138
732.735506	4326.043488
733.066401	4290.999907
733.397249	4226.067325
733.728048	4148.305006
734.058798	4061.176224
734.389501	3991.694000
734.720156	3929.914660
735.050762	3886.858165
735.381320	3879.513204
735.711831	3825.456911
736.042293	3799.815082
736.372707	3822.923731
736.703073	3795.845173
737.033391	3785.520890
737.363661	3801.884476
737.693883	3827.412879
738.024056	3833.910926
738.354182	3831.186182
738.684260	3893.787231
739.014290	3915.910334
739.344272	3913.861105
739.674207	3953.908032
740.004093	3958.558496
740.333931	3950.888380
740.663722	3954.918783
740.993464	3953.184626
741.323159	3928.397272
741.652806	3897.613467
741.982405	3873.181514
742.311956	3840.013243
742.641460	3829.325997
742.970915	3806.333294
743.300323	3763.339813
743.629683	3730.526943
743.958996	3723.890264
744.288260	3695.818599
744.617477	3664.019000
744.946647	3650.118018
745.275768	3623.288998
745.604842	3618.693986
745.933869	3574.649425
746.262847	3565.850091
746.591778	3601.143209
746.920662	3572.852253
747.249498	3541.637429
747.578286	3586.786003
747.907027	3602.985751
748.235720	3602.993312
748.564365	3625.237404
748.892963	3626.447281
749.221514	3609.123355
749.550017	3589.656940
749.878473	3584.119232
750.206881	3556.859193
750.535242	3552.518759
750.863555	3553.123698
751.191821	3549.027760
751.520039	3530.723331
751.848210	3509.968900
752.176334	3542.227244
752.504411	3547.528017
752.832440	3509.802542
753.160421	3489.171620
753.488356	3498.202847
753.816243	3511.665249
754.144082	3468.366778
754.471875	3456.895633
754.799620	3477.095536
755.127318	3466.199082
755.454969	3463.035758
755.782572	3475.142089
756.110129	3446.344498
756.437638	3437.149433
756.765100	3452.282977
757.092515	3462.322435
757.419882	3470.075729
757.747203	3443.057665
758.074477	3440.196811
758.401703	3456.767083
758.728882	3479.895897
759.056014	3489.620283
759.383099	3489.496775
759.710138	3485.738594
760.037129	3504.095956
760.364073	3534.037889
760.690970	3517.810415
761.017820	3498.376767
761.344623	3516.214890
761.671379	3559.982188
761.998088	3611.807770
762.324751	3738.242429
762.651366	3981.825942
762.977935	4457.617603
763.304456	4904.112599
763.630931	5000.522146
763.957359	4640.924039
764.283740	4298.044919
764.610074	4102.019652
764.936362	3905.059251
765.262602	3750.482350
765.588796	3634.026655
765.914943	3543.051473
766.241044	3457.777835
766.567097	3428.526539
766.893104	3379.589538
767.219064	3349.541741
767.544978	3321.018893
767.870845	3271.834875
768.196665	3248.617841
768.522438	3256.683687
768.848165	3252.726381
769.173846	3215.686503
769.499479	3200.628577
769.825066	3182.414888
770.150607	3164.599450
770.476101	3182.246009
770.801548	3174.328877
771.126949	3131.645428
771.452303	3114.681945
771.777611	3122.921711
772.102872	3129.702063
772.428087	3100.206272
772.753256	3089.791248
773.078378	3083.555341
773.403453	3050.185423
773.728482	3039.233516
774.053465	3059.282185
774.378401	3044.188970
774.703291	3015.240144
775.028135	3014.458765
775.352932	3010.244361
775.677683	2998.564007
776.002388	2995.980416
776.327046	2997.018894
776.651658	2987.632265
776.976224	2978.326295
777.300743	2975.127683
777.625216	2966.182156
777.949643	2961.456074
778.274024	2963.911116
778.598359	2950.695731
778.922647	2957.707976
779.246889	2956.170424
779.571086	2941.898918
779.895236	2936.527568
780.219339	2945.601645
780.543397	2957.849128
780.867409	2964.248873
781.191374	2953.475927
781.515294	2951.920731
781.839167	2949.934517
782.162995	2942.130811
782.486776	2951.966102
782.810511	2952.114816
783.134201	2936.252825
783.457844	2942.498815
783.781441	2935.405911
784.104993	2914.749783
784.428498	2915.079979
784.751958	2931.153698
785.075372	2924.143974
785.398739	2906.447003
785.722061	2922.356885
786.045337	2932.829882
786.368568	2918.714651
786.691752	2913.469330
787.014891	2960.087401
787.337983	2987.324755
787.661030	3020.180475
787.984031	3084.298911
788.306987	3131.126189
788.629897	3122.102523
788.952760	3107.047118
789.275579	3093.375508
789.598351	3032.783360
789.921078	2986.286277
790.243759	2977.426449
790.566395	2959.101855
790.888984	2940.658794
791.211529	2918.679363
791.534027	2911.846079
791.856480	2904.957342
792.178888	2886.743653
792.501249	2877.815770
792.823566	2874.934750
793.145836	2873.734956
793.468062	2869.336549
793.790241	2865.285982
794.112375	2871.773947
794.434464	2883.489588
794.756507	2890.814385
795.078505	2894.975858
795.400457	2909.131418
795.722364	2947.058538
796.044226	2969.937815
796.366042	2972.594503
796.687812	2962.292905
797.009538	2980.980463
797.331218	2970.144503
797.652852	2953.359981
797.974442	2935.463885
798.295986	2933.757454
798.617484	2926.329314
798.938938	2913.670977
799.260346	2896.767988
799.581709	2891.250445
799.903026	2885.311966
800.224299	2877.745194
800.545526	2871.042980
800.866708	2852.461287
801.187845	2845.438959
801.508936	2845.229751
801.829983	2850.928776
802.150984	2837.360510
802.471940	2828.014211
802.792851	2830.174345
803.113717	2830.431444
803.434538	2832.770540
803.755314	2825.571772
804.076045	2822.937769
804.396731	2818.317552
804.717372	2818.246975
805.037967	2812.429484
805.358518	2818.967860
805.679024	2832.740293
805.999485	2828.243583
806.319901	2832.556291
806.640272	2823.315856
806.960598	2827.676454
807.280879	2840.012157
807.601115	2847.911645
807.921306	2830.660817
808.241453	2827.101762
808.561554	2835.661641
808.881611	2837.070644
809.201623	2829.576969
809.521590	2831.706856
809.841513	2825.627225
810.161390	2831.608554
810.481223	2823.729230
810.801011	2813.931748
811.120755	2811.610296
811.440453	2813.286480
811.760107	2812.994093
812.079716	2813.107519
812.399281	2801.389357
812.718801	2794.624128
813.038276	2789.719086
813.357707	2797.913481
813.677093	2805.298772
813.996434	2800.429017
814.315731	2794.588840
814.634983	2789.381328
814.954191	2788.494085
815.273354	2806.914462
815.592473	2814.617345
815.911547	2815.643219
816.230577	2821.886688
816.549562	2832.667196
816.868502	2831.374140
817.187399	2840.730522
817.506250	2858.402286
817.825058	2850.787623
818.143821	2864.917978
818.462539	2880.739639
818.781213	2906.174781
819.099843	2942.501335
819.418429	3001.951663
819.736970	3065.434913
820.055466	3135.373361
820.373919	3244.448807
820.692327	3383.579612
821.010691	3554.600756
821.329011	3998.993591
821.647286	4911.039145
821.965517	6301.429705
822.283704	7059.742752
822.601847	7039.074021
822.919945	6400.281691
823.237999	5883.923864
823.556010	5292.362104
823.873976	4736.564810
824.191897	4321.882015
824.509775	4025.991490
824.827609	3755.221035
825.145398	3627.170686
825.463144	3615.833131
825.780845	3706.135320
826.098502	3814.076506
826.416116	4097.472531
826.733685	4415.758382
827.051210	4483.009895
827.368692	4366.902040
827.686129	4100.235084
828.003522	3768.065895
828.320872	3511.319930
828.638177	3309.875422
828.955439	3174.817869
829.272656	3090.965837
829.589830	3024.936804
829.906960	2973.459061
830.224046	2927.725713
830.541088	2890.832029
830.858086	2877.546068
831.175041	2858.848428
831.491952	2860.832122
831.808819	2874.937271
832.125642	2897.327556
832.442421	2942.642488
832.759157	3022.635517
833.075849	3205.236192
833.392497	3487.815550
833.709101	3692.226777
834.025662	3646.611896
834.342179	3481.516628
834.658653	3305.603044
834.975083	3156.878923
835.291469	3057.512740
835.607811	2971.354379
835.924110	2912.960174
836.240366	2859.879344
836.556578	2816.928714
836.872746	2794.099848
837.188871	2772.047321
837.504952	2755.822367
837.820990	2745.563619
838.136984	2731.554253
838.452935	2725.177193
838.768842	2722.835577
839.084706	2737.618761
839.400526	2818.693117
839.716303	2953.765794
840.032037	3034.562887
840.347727	3024.170548
840.663373	2960.634366
840.978977	2883.305586
841.294537	2811.373362
841.610054	2763.260590
841.925527	2738.662280
842.240957	2718.359032
842.556344	2696.356917
842.871687	2681.558609
843.186987	2672.920592
843.502244	2664.138902
843.817458	2660.862152
844.132629	2650.865544
844.447756	2640.800881
844.762840	2635.001033
845.077881	2636.712505
845.392879	2632.540950
845.707833	2631.005919
846.022745	2623.602984
846.337613	2625.385032
846.652438	2625.775722
846.967221	2625.150618
847.281960	2621.712552
847.596656	2623.938221
847.911309	2620.752212
848.225919	2618.904629
848.540485	2615.993362
848.855009	2615.489247
849.169490	2614.538990
849.483928	2616.376490
849.798323	2615.343054
850.112675	2613.069493
850.426984	2612.038577
850.741251	2610.710233
851.055474	2609.921293
851.369654	2613.639144
851.683792	2615.769031
851.997887	2614.334823
852.311938	2611.405912
852.625947	2613.109822
852.939914	2614.738115
853.253837	2615.096037
853.567718	2612.550254
853.881555	2611.907507
854.195350	2616.300873
854.509103	2613.750049
854.822812	2610.503546
855.136479	2610.823659
855.450103	2612.628392
855.763685	2615.532097
856.077224	2613.515635
856.390720	2609.255860
856.704173	2612.633433
857.017584	2617.278857
857.330953	2615.514453
857.644278	2618.355143
857.957561	2621.553755
858.270802	2615.645523
858.584000	2615.574947
858.897155	2619.476800
859.210268	2619.993518
859.523339	2615.867334
859.836367	2610.173350
860.149352	2614.256685
860.462295	2611.317692
860.775195	2611.189143
861.088054	2607.390633
861.400869	2606.291662
861.713642	2605.033894
862.026373	2606.914244
862.339062	2610.866509
862.651708	2613.654267
862.964312	2616.353805
863.276873	2614.357508
863.589392	2617.982098
863.901869	2620.122067
864.214303	2626.453757
864.526696	2629.198665
864.839045	2631.134468
865.151353	2631.366361
865.463619	2633.153450
865.775842	2633.181177
866.088023	2633.783594
866.400162	2633.816362
866.712258	2634.993471
867.024313	2631.174797
867.336325	2628.928963
867.648296	2631.736886
867.960224	2634.330560
868.272110	2631.784777
868.583954	2628.079529
868.895755	2629.876700
869.207515	2633.521454
869.519233	2640.717702
869.830909	2636.717546
870.142542	2633.057668
870.454134	2633.687812
870.765684	2638.839872
871.077191	2642.338432
871.388657	2646.883033
871.700081	2641.632671
872.011463	2643.528145
872.322803	2641.839358
872.634101	2645.703403
872.945357	2655.858807
873.256571	2661.756957
873.567744	2657.618170
873.878874	2656.655309
874.189963	2657.325783
874.501010	2663.014725
874.812015	2667.047648
875.122979	2666.450271
875.433900	2659.513644
875.744780	2656.741009
876.055618	2661.761998
876.366415	2669.684172
876.677169	2669.658966
876.987882	2664.522030
877.298554	2661.393994
877.609183	2673.691889
877.919771	2674.957218
878.230317	2688.006245
878.540822	2698.474201
878.851285	2711.500543
879.161707	2734.611712
879.472087	2771.840634
879.782425	2823.958603
880.092722	2942.763475
880.402977	3131.960500
880.713191	3394.395407
881.023363	3697.363712
881.333494	3892.922673
881.643583	4065.617480
881.953631	4065.982964
882.263637	3887.679873
882.573602	3663.197292
882.883526	3529.513454
883.193408	3409.597007
883.503248	3306.197900
883.813048	3188.139118
884.122806	3072.671489
884.432522	2986.848366
884.742197	2921.061308
885.051831	2880.994217
885.361424	2844.234123
885.670975	2808.668783
885.980485	2776.279370
886.289954	2758.693304
886.599382	2743.547158
886.908768	2735.030128
887.218113	2713.607745
887.527417	2701.377906
887.836680	2689.314425
888.145901	2686.834177
888.455082	2678.065090
888.764221	2666.684685
889.073319	2657.257727
889.382376	2657.696308
889.691392	2659.168325
890.000366	2660.347955
890.309300	2658.805362
890.618193	2660.920126
890.927044	2661.633449
891.235855	2664.786691
891.544625	2661.953562
891.853353	2661.146977
892.162041	2669.311126
892.470687	2686.884588
892.779293	2703.086857
893.087858	2712.118084
893.396381	2733.338821
893.704864	2775.707199
894.013306	2851.289218
894.321707	2943.454113
894.630068	2996.570231
894.938387	3017.554034
895.246665	3008.795029
895.554903	2963.512865
895.863100	2919.196081
896.171256	2859.168542
896.479371	2795.481125
896.787446	2760.359406
897.095480	2741.324009
897.403473	2731.314798
897.711425	2718.916080
898.019336	2699.797504
898.327207	2682.579443
898.635038	2683.086079
898.942827	2680.499967
899.250576	2669.974038
899.558284	2659.241421
899.865952	2656.332676
900.173579	2651.409989
900.481165	2650.464772
900.788711	2643.833135
901.096216	2633.997843
901.403681	2631.240332
901.711105	2633.057668
902.018489	2630.920219
902.325832	2636.107566
902.633135	2637.461116
902.940397	2651.959475
903.247619	2689.823581
903.554800	2762.305291
903.861941	2890.232132
904.169041	3020.697193
904.476101	3083.633478
904.783121	3082.461410
905.090100	3021.952441
905.397039	2940.799946
905.703938	2869.071888
906.010796	2803.136117
906.317614	2751.562592
906.624391	2711.833259
906.931129	2684.759742
907.237826	2662.697132
907.544483	2644.329688
907.851099	2628.215640
908.157675	2620.096862
908.464211	2613.402209
908.770707	2602.170519
909.077163	2599.806218
909.383578	2593.892944
909.689954	2592.350351
909.996289	2592.713314
910.302584	2592.504106
910.608839	2585.050760
910.915054	2588.201481
911.221229	2589.539908
911.527363	2591.395052
911.833458	2588.440936
912.139513	2590.606112
912.445527	2591.422779
912.751502	2598.770260
913.057436	2602.220930
913.363331	2609.790223
913.669186	2620.598457
913.975000	2634.572535
914.280775	2652.345123
914.586510	2673.109636
914.892205	2712.062631
915.197859	2777.660646
915.503475	2864.885210
915.809050	2932.408945
916.114585	2949.463169
916.420081	2960.543625
916.725536	2973.529637
917.030952	2945.775565
917.336328	2898.018194
917.641665	2847.223528
917.946961	2796.191927
918.252218	2762.822009
918.557435	2732.635580
918.862612	2711.487940
919.167750	2693.077646
919.472848	2676.605676
919.777906	2659.339724
920.082925	2645.589977
920.387904	2632.571197
920.692843	2629.488531
920.997743	2628.283696
921.302603	2616.381531
921.607423	2612.444390
921.912204	2607.861981
922.216946	2602.374685
922.521647	2600.753954
922.826310	2597.706577
923.130932	2586.492530
923.435516	2587.614187
923.740059	2585.479258
924.044564	2579.639082
924.349028	2584.589495
924.653454	2571.530386
924.957840	2574.665983
925.262186	2568.490570
925.566493	2573.551888
925.870761	2562.912533
926.174989	2567.467216
926.479178	2565.344890
926.783328	2562.020249
927.087438	2560.225598
927.391509	2560.021431
927.695541	2559.731565
927.999533	2556.699311
928.303486	2557.563869
928.607400	2558.441030
928.911275	2552.605894
929.215110	2556.081770
929.518906	2557.606719
929.822663	2554.914743
930.126381	2554.012376
930.430060	2553.881306
930.733699	2553.936759
931.037299	2556.666543
931.340861	2558.274672
931.644383	2555.766697
931.947866	2555.948179
932.251309	2555.008004
932.554714	2556.956410
932.858080	2557.261400
933.161407	2557.115206
933.464694	2556.132181
933.767943	2554.314845
934.071153	2555.915412
934.374323	2555.592778
934.677455	2554.758467
934.980548	2554.395504
935.283602	2551.509443
935.586617	2550.964998
935.889593	2550.203784
936.192530	2548.774617
936.495428	2552.552962
936.798287	2554.269475
937.101108	2554.513971
937.403890	2559.963458
937.706632	2563.857749
938.009336	2563.761967
938.312002	2568.689695
938.614628	2572.523493
938.917216	2575.389389
939.219765	2576.513566
939.522275	2577.489029
939.824747	2575.858216
940.127179	2570.693554
940.429573	2568.712381
940.731929	2568.367062
941.034246	2564.026628
941.336524	2568.669531
941.638763	2563.666186
941.940964	2564.555949
942.243126	2565.849005
942.545250	2564.729869
942.847335	2562.834395
943.149381	2560.533108
943.451389	2560.449929
943.753359	2558.327604
944.055290	2560.139898
944.357182	2554.594629
944.659036	2555.413817
944.960851	2556.570762
945.262628	2552.885678
945.564367	2557.798283
945.866067	2558.325083
946.167729	2555.184444
946.469352	2554.650082
946.770937	2556.119578
947.072484	2557.357182
947.373992	2556.681667
947.675462	2556.371636
947.976893	2554.576985
948.278286	2553.236038
948.579641	2554.428271
948.880958	2552.489947
949.182236	2552.048847
949.483476	2552.570606
949.784678	2553.921635
950.085841	2552.603373
950.386967	2552.926007
950.688054	2552.699155
950.989103	2554.824002
951.290114	2553.793086
951.591087	2554.871893
951.892021	2559.605536
952.192917	2557.911708
952.493776	2561.052347
952.794596	2561.032183
953.095378	2562.118551
953.396122	2564.210630
953.696828	2559.696277
953.997496	2557.926832
954.298126	2556.903478
954.598718	2555.111347
954.899272	2555.373487
955.199788	2552.399207
955.500266	2553.072201
955.800706	2546.128011
956.101108	2545.215563
956.401472	2543.494008
956.701798	2543.211704
957.002087	2543.562064
957.302337	2542.256405
957.602550	2545.613814
957.902724	2540.272711
958.202861	2544.109029
958.502960	2541.429656
958.803022	2540.343287
959.103045	2540.570139
959.403031	2539.642567
959.702979	2541.414532
960.002889	2540.365972
960.302762	2540.388658
960.602596	2541.071734
960.902393	2538.112577
961.202153	2540.199614
961.501875	2537.270704
961.801559	2537.265663
962.101205	2536.937988
962.400814	2537.888245
962.700385	2539.143493
962.999918	2539.456044
963.299414	2537.724408
963.598873	2534.339273
963.898293	2536.610313
964.197677	2536.922864
964.497022	2534.861033
964.796331	2537.502597
965.095601	2536.567463
965.394835	2535.851619
965.694030	2535.226516
965.993189	2537.416898
966.292309	2535.929757
966.591393	2534.140148
966.890439	2537.051414
967.189447	2536.456558
967.488419	2538.145344
967.787353	2534.669469
968.086249	2537.021167
968.385108	2538.992258
968.683930	2536.244829
968.982714	2537.220293
969.281462	2535.072761
969.580172	2536.479243
969.878844	2535.939839
970.177480	2537.530323
970.476078	2536.751465
970.774639	2538.281455
971.073162	2536.610313
971.371649	2534.949253
971.670098	2534.709798
971.968510	2536.378420
972.266885	2533.212575
972.565223	2538.591486
972.863524	2537.875643
973.161788	2538.621733
973.460014	2536.922864
973.758204	2538.359593
974.056356	2538.213400
974.354471	2538.606610
974.652550	2537.520241
974.950591	2538.810777
975.248595	2536.837165
975.546563	2538.203318
975.844493	2538.374717
976.142386	2538.490663
976.440243	2534.147709
976.738062	2538.934285
977.035845	2538.846065
977.333590	2536.469161
977.631299	2537.109387
977.928971	2538.112577
978.226606	2536.645601
978.524204	2536.517052
978.821765	2535.909592
979.119290	2537.868081
979.416777	2535.029911
979.714228	2533.966228
980.011642	2533.709129
980.309020	2536.582587
980.606360	2535.039993
980.903664	2539.365303
981.200931	2537.603420
981.498162	2538.087371
981.795356	2540.786909
982.092513	2542.846220
982.389633	2542.846220
982.686717	2549.926521
982.983764	2547.791592
983.280775	2555.985988
983.577749	2551.920297
983.874686	2551.038095
984.171587	2548.802343
984.468451	2547.247147
984.765279	2545.061807
985.062070	2541.616179
985.358824	2540.307999
985.655543	2538.677186
985.952224	2535.100487
986.248869	2533.630991
986.545478	2532.136289
986.842050	2534.062010
987.138586	2529.938346
987.435086	2529.711494
987.731549	2529.880372
988.027975	2535.294572
988.324366	2532.756351
988.620719	2534.505631
988.917037	2534.006557
989.213318	2536.809438
989.509563	2531.329704
989.805772	2534.603934
990.101944	2531.861546
990.398080	2535.367668
990.694180	2533.905734
990.990244	2532.952956
991.286271	2534.593851
991.582262	2532.859694
991.878217	2534.689633
992.174136	2531.054961
992.470019	2533.545291
992.765865	2533.575538
993.061676	2532.239633
993.357450	2533.003367
993.653188	2534.508152
993.948890	2533.326001
994.244556	2533.389016
994.540186	2533.837678
994.835780	2534.717360
995.131337	2535.803728
995.426859	2534.477905
995.722345	2536.683410
996.017795	2532.932791
996.313208	2538.248688
996.608586	2538.939326
996.903928	2536.612833
997.199234	2534.901362
997.494504	2536.464119
997.789738	2535.960004
998.084936	2535.329860
998.380099	2532.532019
998.675225	2534.021680
998.970316	2535.760878
999.265371	2534.873635
999.560390	2531.526309
999.855373	2532.290044
1000.150320	2532.695857
1000.445232	2532.022863
1000.740108	2530.379447
1001.034948	2531.062523
1001.329752	2532.998326
1001.624521	2529.918181
1001.919254	2524.937521
1002.213951	2529.277955
1002.508613	2524.360309
1002.803239	2532.358100
1003.097829	2527.788294
1003.392384	2531.123017
1003.686903	2532.050589
1003.981386	2531.183511
1004.275834	2529.119158
1004.570246	2534.051927
1004.864623	2532.620240
1005.158964	2531.690147
1005.453270	2529.144364
1005.747540	2531.649817
1006.041775	2527.967255
1006.335974	2529.088911
1006.630138	2530.961700
1006.924266	2530.203006
1007.218359	2531.541433
1007.512416	2530.387008
1007.806438	2531.060002
1008.100425	2530.051772
1008.394376	2529.217461
1008.688292	2530.160157
1008.982172	2528.680578
1009.276017	2530.482790
1009.569827	2530.641587
1009.863602	2532.032945
1010.157341	2529.585465
1010.451045	2530.409694
1010.744714	2528.247039
1011.038347	2531.632173
1011.331945	2528.340300
1011.625508	2531.460774
1011.919036	2529.275434
1012.212528	2530.843233
1012.505986	2529.472039
1012.799408	2532.882380
1013.092795	2528.267203
1013.386147	2528.665454
1013.679464	2528.060516
1013.972745	2528.758716
1014.265992	2529.822399
1014.559204	2528.841895
1014.852380	2529.197296
1015.145521	2529.824920
1015.438628	2530.437420
1015.731699	2528.763757
1016.024736	2528.398273
1016.317737	2532.776515
1016.610703	2530.296268
1016.903635	2526.369209
1017.196531	2524.216636
1017.489393	2528.562111
1017.782219	2525.292923
1018.075011	2527.919364
1018.367768	2531.745599
1018.660490	2530.308871
1018.953177	2530.308871
1019.245829	2530.308871
