Dividing Wavelength (nm)	Counts (n)	Blue Motor Position (mm): 13.000000	Red Motor Position (mm): 0.000000	
326.493990	2136.582152
326.888308	2136.582152
327.282561	2136.582152
327.676750	2106.514190
328.070874	2102.929930
328.464933	2107.766917
328.858929	2113.352515
329.252859	2123.429782
329.646726	2135.873870
330.040528	2147.725623
330.434265	2162.788591
330.827938	2181.687876
331.221547	2200.902234
331.615091	2219.488968
332.008571	2238.216855
332.401986	2257.453898
332.795338	2275.309665
333.188625	2296.404373
333.581847	2314.204688
333.975006	2334.371823
334.368100	2353.797910
334.761129	2367.066227
335.154095	2384.470810
335.546996	2405.633574
335.939833	2422.448343
336.332606	2440.162957
336.725315	2450.116716
337.117960	2460.367902
337.510540	2469.608337
337.903056	2476.983545
338.295508	2486.516367
338.687896	2494.108345
339.080220	2503.747031
339.472480	2509.869512
339.864676	2514.272960
340.256807	2518.981398
340.648875	2523.205885
341.040879	2526.913653
341.432818	2525.234949
341.824694	2527.435413
342.216506	2527.657224
342.608253	2528.849457
342.999937	2527.095135
343.391557	2526.545649
343.783113	2529.005732
344.174605	2524.037675
344.566033	2524.075484
344.957397	2522.268230
345.348697	2520.324865
345.739934	2518.192457
346.131106	2516.992663
346.522215	2513.995697
346.913260	2515.278670
347.304241	2513.831859
347.695159	2509.919924
348.086012	2509.206601
348.476802	2505.382885
348.867528	2507.021260
349.258191	2503.489932
349.648789	2501.050014
350.039324	2501.821310
350.429796	2503.542864
350.820203	2497.637153
351.210548	2497.861484
351.600828	2493.135402
351.991045	2496.815444
352.381198	2494.110865
352.771288	2496.094559
353.161314	2495.396360
353.551276	2493.170690
353.941175	2495.449292
354.331010	2495.214878
354.720782	2493.967193
355.110490	2493.856287
355.500135	2493.788232
355.889717	2495.350989
356.279235	2494.728407
356.668689	2493.160608
357.058080	2496.797800
357.447408	2493.914260
357.836672	2491.837305
358.225873	2494.849394
358.615010	2492.782521
359.004084	2499.184787
359.393095	2497.296875
359.782043	2498.892400
360.170927	2496.966679
360.559748	2499.943480
360.948505	2499.449447
361.337199	2498.773933
361.725830	2500.112359
362.114398	2502.234685
362.502903	2500.850888
362.891344	2500.492966
363.279722	2501.223933
363.668037	2503.205107
364.056289	2504.757782
364.444478	2502.164109
364.832603	2503.981445
365.220665	2504.377175
365.608665	2504.268790
365.996601	2507.280880
366.384474	2505.904645
366.772284	2503.389109
367.160031	2506.605365
367.547715	2504.236023
367.935336	2505.445900
368.322893	2505.740807
368.710388	2507.822804
369.097820	2509.763648
369.485189	2507.487567
369.872495	2508.611744
370.259738	2511.485202
370.646918	2509.156189
371.034035	2509.960253
371.421090	2510.718947
371.808081	2509.327588
372.195010	2510.378669
372.581875	2509.698113
372.968678	2510.466889
373.355418	2511.366735
373.742096	2509.241889
374.128710	2512.730367
374.515262	2512.221211
374.901751	2512.793382
375.288177	2512.473268
375.674540	2512.082579
376.060841	2511.376817
376.447079	2514.199863
376.833254	2512.180881
377.219367	2511.278515
377.605417	2510.451766
377.991404	2506.761641
378.377329	2512.261540
378.763191	2512.417816
379.148991	2516.412930
379.534727	2514.504853
379.920402	2514.391427
380.306013	2511.391941
380.691563	2515.172806
381.077049	2513.824297
381.462474	2514.129287
381.847835	2513.877230
382.233134	2515.800430
382.618371	2516.861593
383.003545	2515.533249
383.388657	2516.314628
383.773706	2518.530215
384.158693	2516.102899
384.543618	2516.044926
384.928480	2515.281191
385.313280	2518.830163
385.698017	2516.566685
386.082692	2519.868641
386.467305	2517.390914
386.851856	2520.687828
387.236344	2515.162724
387.620770	2519.495596
388.005133	2518.736902
388.389435	2519.808147
388.773674	2518.595750
389.157851	2519.692201
389.541965	2520.276974
389.926018	2519.845956
390.310008	2522.527850
390.693936	2519.805627
391.077802	2519.977026
391.461606	2519.475431
391.845348	2518.106758
392.229027	2521.968282
392.612645	2519.709845
392.996200	2522.101872
393.379694	2522.222860
393.763125	2519.966943
394.146494	2522.999197
394.529801	2522.270751
394.913047	2521.819568
395.296230	2520.287057
395.679351	2521.779238
396.062410	2521.814526
396.445408	2524.025072
396.828343	2523.553724
397.211217	2520.831501
397.594028	2522.706811
397.976778	2520.012314
398.359466	2523.899043
398.742092	2520.413086
399.124656	2524.451050
399.507158	2522.991636
399.889598	2524.451050
400.271977	2526.338962
400.654294	2529.565300
401.036549	2524.456091
401.418742	2527.818541
401.800874	2525.615556
402.182944	2527.453057
402.564952	2524.372912
402.946898	2525.081194
403.328783	2525.560104
403.710606	2527.785773
404.092367	2524.698066
404.474067	2527.357275
404.855705	2525.711338
405.237282	2527.720238
405.618797	2525.199661
406.000250	2526.744775
406.381642	2527.611853
406.762972	2528.927594
407.144240	2526.843077
407.525447	2528.247039
407.906593	2528.294930
408.287677	2527.090094
408.668700	2528.126051
409.049661	2528.506658
409.430560	2525.310567
409.811399	2528.110928
410.192176	2527.873993
410.572891	2527.934487
410.953545	2527.788294
411.334138	2528.985568
411.714669	2530.334076
412.095139	2529.928263
412.475547	2529.096473
412.855894	2529.618232
413.236180	2530.137471
413.616405	2530.092101
413.996568	2530.714683
414.376670	2531.995137
414.756711	2530.843233
415.136691	2529.749302
415.516609	2530.606299
415.896466	2533.089067
416.276262	2532.844571
416.655997	2527.251411
417.035670	2525.088756
417.415283	2530.034128
417.794834	2526.449867
418.174324	2529.514889
418.553753	2531.422966
418.933121	2532.975641
419.312428	2530.613860
419.691674	2530.525640
420.070859	2532.388347
420.449983	2531.186031
420.829045	2535.549150
421.208047	2532.348017
421.586988	2535.985210
421.965867	2532.829448
422.344686	2533.262987
422.723444	2533.106711
423.102141	2533.477236
423.480777	2534.180477
423.859352	2532.027904
424.237866	2532.032945
424.616319	2534.581248
424.994712	2532.607637
425.373044	2537.389171
425.751314	2536.403626
426.129524	2529.938346
426.507673	2534.319108
426.885762	2535.229037
427.263789	2533.570497
427.641756	2535.342463
428.019662	2534.666948
428.397508	2534.548481
428.775292	2537.376568
429.153016	2534.669469
429.530679	2535.024870
429.908282	2538.039480
430.285824	2533.530168
430.663305	2535.042514
431.040726	2534.959335
431.418086	2536.837165
431.795385	2537.031249
432.172624	2535.443286
432.549802	2537.018646
432.926920	2535.334901
433.303977	2536.179294
433.680974	2537.452186
434.057910	2536.721218
434.434786	2535.561753
434.811601	2536.779192
435.188355	2540.555016
435.565050	2538.692309
435.941683	2539.108205
436.318257	2535.234078
436.694770	2535.710467
437.071222	2534.225847
437.447614	2532.834489
437.823946	2535.249201
438.200218	2536.403626
438.576429	2536.910262
438.952580	2537.633667
439.328670	2540.343287
439.704700	2537.273225
440.080670	2536.867412
440.456580	2541.054090
440.832429	2540.055942
441.208218	2539.362783
441.583947	2540.570139
441.959616	2536.905220
442.335224	2538.599048
442.710773	2539.312371
443.086261	2537.936136
443.461689	2538.818338
443.837057	2539.939995
444.212365	2536.673327
444.587612	2539.559388
444.962800	2539.070396
445.337927	2542.584080
445.712995	2537.111908
446.088002	2539.045190
446.462949	2540.776827
446.837837	2540.602907
447.212664	2540.958308
447.587431	2541.066693
447.962139	2538.830941
448.336786	2544.381252
448.711374	2539.561908
449.085901	2542.188350
449.460369	2537.343801
449.834776	2537.338760
450.209124	2542.203473
450.583412	2539.705581
450.957640	2542.316899
451.331808	2540.255067
451.705917	2542.034594
452.079965	2544.509801
452.453954	2543.254554
452.827883	2541.417053
453.201752	2540.915458
453.575562	2544.086344
453.949311	2539.801363
454.323001	2540.912938
454.696632	2539.594676
455.070202	2545.397044
455.443713	2540.386137
455.817164	2537.356404
456.190556	2539.105684
456.563888	2539.536703
456.937160	2536.736342
457.310373	2542.889070
457.683526	2541.769934
458.056619	2542.768082
458.429653	2544.230017
458.802628	2543.698175
459.175542	2543.173895
459.548398	2543.249513
459.921194	2542.112732
460.293930	2542.747918
460.666607	2543.826725
461.039224	2541.066693
461.411782	2544.028371
461.784280	2544.517363
462.156719	2544.610624
462.529099	2544.716488
462.901419	2542.737835
463.273680	2543.105840
463.645882	2542.654656
464.018024	2543.872095
464.390106	2543.695655
464.762130	2544.424101
465.134094	2542.989893
465.505999	2545.457538
465.877845	2547.068187
466.249631	2547.973074
466.621358	2543.302445
466.993026	2547.085831
467.364634	2548.230172
467.736184	2542.730274
468.107674	2543.244471
468.479105	2544.489636
468.850477	2541.979142
469.221790	2546.223793
469.593043	2544.592980
469.964238	2543.075593
470.335373	2545.903680
470.706449	2547.247147
471.077467	2544.724050
471.448425	2547.524411
471.819324	2546.049873
472.190164	2548.141952
472.560945	2547.325285
472.931667	2547.138763
473.302330	2545.087013
473.672934	2546.259081
474.043479	2547.010213
474.413965	2544.161961
474.784393	2544.197249
475.154761	2542.246323
475.525070	2544.557692
475.895321	2543.269677
476.265513	2541.366642
476.635645	2543.735984
477.005719	2545.273536
477.375734	2548.973743
477.745691	2546.178423
478.115588	2548.315872
478.485427	2547.393341
478.855207	2548.406613
479.224928	2548.192364
479.594591	2545.886036
479.964194	2548.215049
480.333739	2548.333516
480.703226	2548.386448
481.072653	2548.172199
481.442022	2548.157076
481.811333	2549.687066
482.180584	2547.519370
482.549777	2549.984494
482.918912	2550.097920
483.287988	2546.780841
483.657005	2551.229659
484.025964	2549.755122
484.394864	2546.259081
484.763706	2550.596994
485.132489	2549.208156
485.501213	2546.972405
485.869879	2547.877292
486.238487	2549.823177
486.607036	2550.120605
486.975527	2548.247817
487.343959	2547.473999
487.712333	2549.674463
488.080648	2547.027857
488.448905	2550.344937
488.817104	2548.948537
489.185244	2547.897456
489.553326	2549.835780
489.921350	2550.158414
490.289315	2551.436346
490.657222	2550.307128
491.025070	2550.100441
491.392861	2551.789227
491.760593	2550.102961
492.128267	2550.733105
492.495883	2551.184289
492.863440	2551.703528
493.230939	2553.029351
493.598380	2551.426264
493.965763	2543.652805
494.333088	2546.145655
494.700354	2545.518032
495.067563	2551.698486
495.434713	2542.974770
495.801805	2551.587581
496.168839	2549.654298
496.535815	2553.024310
496.902733	2552.265616
497.269593	2549.641696
497.636395	2550.486089
498.003139	2552.341233
498.369825	2550.289484
498.736453	2547.529452
499.103023	2551.612787
499.469535	2549.805533
499.835989	2553.316697
500.202385	2552.247972
500.568723	2552.038764
500.935003	2551.360729
501.301226	2551.133877
501.667390	2551.186809
502.033497	2551.252344
502.399546	2552.056408
502.765537	2550.092879
503.131470	2552.411810
503.497345	2552.200081
503.863163	2552.033723
504.228923	2551.063301
504.594625	2551.849721
504.960269	2551.370811
505.325856	2555.635627
505.691385	2552.308466
506.056856	2553.288970
506.422270	2553.190668
506.787625	2553.483055
507.152924	2553.220915
507.518164	2551.035575
507.883347	2551.675801
508.248472	2552.431974
508.613540	2553.021789
508.978550	2555.673436
509.343503	2553.954403
509.708398	2551.247303
510.073236	2554.738302
510.438016	2555.456667
510.802738	2555.688560
511.167403	2554.277037
511.532010	2554.087993
511.896561	2553.369629
512.261053	2555.474311
512.625488	2552.227808
512.989866	2549.298897
513.354186	2553.656975
513.718449	2549.583722
514.082655	2553.553631
514.446803	2553.500699
514.810894	2554.408107
515.174927	2556.406924
515.538904	2555.141594
515.902822	2557.611760
516.266684	2556.205278
516.630488	2556.449774
516.994235	2554.972716
517.357925	2556.419527
517.721558	2556.691749
518.085133	2559.789538
518.448651	2557.498334
518.812112	2560.034034
519.175516	2557.319373
519.538863	2558.690567
519.902152	2558.728375
520.265385	2559.668551
520.628560	2559.761812
520.991678	2560.157542
521.354739	2560.520506
521.717743	2562.471432
522.080690	2560.674261
522.443580	2561.183417
522.806413	2561.904302
523.169189	2562.262224
523.531908	2563.348593
523.894569	2561.760629
524.257174	2560.381874
524.619722	2563.459498
524.982213	2564.770198
525.344647	2560.424724
525.707025	2562.650393
526.069345	2566.423697
526.431608	2563.542677
526.793815	2561.990002
527.155964	2566.254818
527.518057	2563.383881
527.880093	2565.962431
528.242072	2564.515620
528.603995	2566.020404
528.965860	2563.489745
529.327669	2565.352452
529.689421	2564.926474
530.051117	2570.562484
530.412755	2568.057031
530.774337	2568.924109
531.135862	2566.698440
531.497331	2567.910837
531.858743	2564.261042
532.220098	2566.819427
532.581396	2567.605847
532.942638	2567.071485
533.303824	2570.940571
533.664953	2567.936043
534.026025	2569.329922
534.387040	2571.172464
534.747999	2570.338153
535.108902	2571.540468
535.469748	2572.347053
535.830537	2570.202042
536.191270	2569.687844
536.551947	2573.650191
536.912567	2567.890672
537.273131	2573.221693
537.633638	2569.869325
537.994089	2573.493915
538.354483	2570.940571
538.714821	2573.372927
539.075103	2572.699933
539.435328	2573.670355
539.795497	2572.425190
540.155609	2573.786302
540.515665	2573.657752
540.875665	2574.061045
541.235609	2571.611044
541.595496	2575.260839
541.955328	2573.413257
542.315102	2574.149265
542.674821	2573.869481
543.034483	2575.064234
543.394090	2573.685479
543.753640	2574.461817
544.113134	2574.030798
544.472571	2576.984914
544.831953	2575.921231
545.191278	2577.254616
545.550548	2575.167578
545.909761	2575.694379
546.268918	2575.649008
546.628019	2577.945254
546.987064	2577.075655
547.346053	2578.577919
547.704986	2576.276632
548.063863	2576.874009
548.422684	2579.555902
548.781449	2580.181006
549.140158	2578.663618
549.498811	2578.787127
549.857408	2580.362487
550.215949	2575.270922
550.574434	2574.260170
550.932864	2574.832341
551.291237	2578.202353
551.649555	2577.030284
552.007817	2581.393403
552.366022	2580.876685
552.724173	2581.506829
553.082267	2581.355594
553.440305	2580.110429
553.798288	2580.516242
554.156215	2583.477920
554.514086	2581.080852
554.871902	2582.688980
555.229661	2581.040522
555.587365	2582.628486
555.945014	2580.954823
556.302606	2582.951120
556.660143	2580.831314
557.017625	2585.028075
557.375050	2584.425657
557.732421	2583.273753
558.089735	2583.243507
558.446994	2584.105544
558.804197	2585.955647
559.161345	2584.420616
559.518437	2585.166707
559.875474	2585.091089
560.232455	2585.711151
560.589381	2586.021182
560.946251	2589.653334
561.303065	2587.422623
561.659825	2588.866914
562.016528	2589.645772
562.373177	2588.735844
562.729770	2587.286512
563.086307	2592.254569
563.442789	2589.751636
563.799216	2590.850608
564.155587	2589.817171
564.511904	2593.807244
564.868164	2592.620053
565.224370	2598.621546
565.580520	2593.953438
565.936615	2590.850608
566.292654	2597.492328
566.648638	2597.646083
567.004567	2600.738831
567.360441	2599.781012
567.716260	2599.665065
568.072023	2602.662031
568.427732	2598.077102
568.783385	2599.279417
569.138982	2602.145313
569.494525	2603.546754
569.850013	2603.617330
570.205445	2610.690069
570.560823	2610.206118
570.916145	2611.330295
571.271412	2613.114864
571.626625	2615.053187
571.981782	2617.107457
572.336884	2616.225256
572.691931	2616.933538
573.046923	2620.923611
573.401860	2623.285392
573.756743	2621.536111
574.111570	2624.505351
574.466342	2625.006946
574.821059	2630.385857
575.175722	2632.243522
575.530330	2631.666310
575.884882	2634.897689
576.239380	2636.709984
576.593823	2640.059831
576.948211	2639.711991
577.302544	2637.798873
577.656823	2642.696354
578.011047	2646.182312
578.365216	2649.832108
578.719330	2649.408651
579.073389	2653.179434
579.427394	2653.867551
579.781344	2656.189003
580.135239	2660.524395
580.489080	2663.750733
580.842866	2664.496824
581.196597	2670.538647
581.550273	2673.026457
581.903895	2676.053669
582.257463	2681.775379
582.610975	2684.583302
582.964434	2687.978519
583.317837	2692.722245
583.671186	2695.126875
584.024481	2697.435723
584.377721	2700.742720
584.730906	2704.115252
585.084037	2710.144472
585.437113	2710.467106
585.790135	2717.184444
586.143103	2721.658468
586.496016	2723.571586
586.848874	2729.124417
587.201679	2732.953173
587.554428	2733.968965
587.907124	2743.098495
588.259765	2746.045049
588.612352	2759.915784
588.964884	2758.768922
589.317362	2767.462392
589.669786	2772.163267
590.022155	2780.201387
590.374470	2786.112140
590.726731	2787.044754
591.078937	2792.751340
591.431090	2802.465643
591.783188	2801.384316
592.135232	2812.913435
592.487222	2814.813950
592.839157	2824.392142
593.191038	2828.646876
593.542866	2835.071826
593.894639	2840.690192
594.246358	2846.540451
594.598022	2859.072760
594.949633	2858.372039
595.301190	2865.843029
595.652692	2872.252857
596.004141	2889.740619
596.355535	2881.911707
596.706876	2892.540980
597.058162	2898.766805
597.409395	2910.653846
597.760573	2922.813109
598.111698	2923.755805
598.462768	2934.304419
598.813785	2938.939760
599.164748	2948.207922
599.515657	2952.213118
599.866511	2962.723924
600.217312	2976.093064
600.568060	2978.253198
600.918753	2995.902278
601.269392	3003.653052
601.619978	3007.058352
601.970510	3024.911598
602.320988	3032.566590
602.671412	3050.762635
603.021783	3053.114333
603.372100	3060.275292
603.722363	3076.976635
604.072572	3082.209352
604.422728	3094.383739
604.772830	3098.421703
605.122878	3110.107098
605.472872	3122.485651
605.822813	3138.874442
606.172701	3144.891059
606.522534	3166.021056
606.872314	3179.896832
607.222041	3193.008873
607.571714	3208.250802
607.921333	3219.409396
608.270899	3235.697364
608.620411	3255.710744
608.969870	3262.291971
609.319276	3277.032305
609.668627	3296.786066
610.017926	3314.016730
610.367171	3341.566636
610.716362	3348.720033
611.065500	3368.113352
611.414585	3384.902915
611.763616	3394.665109
612.112594	3406.353024
612.461518	3427.848504
612.810389	3453.225673
613.159207	3460.129533
613.507971	3469.349803
613.856682	3505.658714
614.205340	3511.839168
614.553945	3541.478632
614.902496	3543.880742
615.250994	3573.023653
615.599439	3585.984459
615.947830	3605.710494
616.296169	3620.483596
616.644454	3642.145434
616.992686	3656.784944
617.340864	3689.469265
617.688990	3689.552444
618.037063	3723.045871
618.385082	3732.379567
618.733048	3772.436575
619.080961	3775.524282
619.428821	3798.237201
619.776628	3818.116991
620.124382	3827.364988
620.472083	3840.872759
620.819731	3866.234804
621.167326	3860.926469
621.514868	3877.776526
621.862357	3866.491903
622.209793	3888.478896
622.557176	3893.983836
622.904506	3901.490114
623.251783	3897.379053
623.599007	3908.603182
623.946179	3919.968463
624.293297	3926.768980
624.640363	3924.142539
624.987376	3936.100156
625.334336	3937.529323
625.681243	3949.769244
626.028097	3959.836428
626.374899	3969.694405
626.721647	3989.165862
627.068343	3982.289728
627.414987	3999.840505
627.761577	3999.684229
628.108115	4021.714071
628.454600	4008.861650
628.801032	4048.991755
629.147412	4044.943708
629.493739	4063.507757
629.840014	4058.983322
630.186236	4095.670319
630.532405	4075.588883
630.878521	4106.385291
631.224585	4110.430817
631.570597	4094.508333
631.916556	4127.878251
632.262462	4141.270076
632.608316	4145.033297
632.954117	4155.113084
633.299866	4158.566275
633.645562	4178.816590
633.991206	4166.324611
634.336797	4158.629289
634.682336	4161.991739
635.027823	4166.317049
635.373257	4173.200744
635.718639	4163.829239
636.063968	4181.664842
636.409245	4157.651305
636.754470	4173.258718
637.099642	4168.661185
637.444762	4164.890402
637.789829	4181.906817
638.134845	4169.414838
638.479808	4183.855223
638.824719	4198.373746
639.169577	4179.726518
639.514383	4203.856001
639.859137	4184.871016
640.203839	4201.471535
640.548489	4216.302610
640.893086	4218.240933
641.237632	4217.401581
641.582125	4237.916557
641.926566	4241.437803
642.270955	4258.986059
642.615292	4269.769088
642.959576	4299.461484
643.303809	4300.656237
643.647990	4323.396882
643.992118	4330.671267
644.336195	4316.994617
644.680219	4346.666848
645.024192	4347.163402
645.368112	4411.773350
645.711981	4436.233029
646.055797	4482.362107
646.399562	4478.614009
646.743274	4552.910534
647.086935	4594.913428
647.430544	4603.740489
647.774101	4634.254593
648.117606	4643.880676
648.461059	4655.699661
648.804460	4653.635309
649.147810	4611.997899
649.491108	4617.891007
649.834354	4616.053507
650.177548	4586.872788
650.520690	4559.824477
650.863781	4556.053694
651.206820	4585.120987
651.549807	4549.227972
651.892742	4533.877658
652.235626	4545.704205
652.578458	4554.322058
652.921238	4510.653062
653.263967	4546.465419
653.606644	4518.456768
653.949269	4535.228687
654.291843	4510.567363
654.634365	4551.791398
654.976836	4541.741858
655.319255	4545.043814
655.661622	4550.631933
656.003938	4560.439498
656.346203	4536.128533
656.688416	4575.106735
657.030577	4554.037232
657.372687	4547.912230
657.714746	4549.888363
658.056753	4585.486471
658.398708	4559.436308
658.740612	4559.917738
659.082465	4606.319039
659.424266	4607.972537
659.766016	4618.498467
660.107715	4616.797077
660.449362	4633.833657
660.790958	4642.075943
661.132503	4643.686592
661.473996	4681.996840
661.815438	4676.229760
662.156829	4682.634546
662.498168	4692.099313
662.839456	4679.309905
663.180693	4716.196028
663.521879	4722.270618
663.863013	4730.384356
664.204097	4753.056945
664.545129	4785.244712
664.886110	4792.849293
665.227040	4835.936035
665.567918	4812.005677
665.908746	4842.542467
666.249522	4857.834807
666.590248	4851.079661
666.930922	4881.248446
667.271545	4902.595212
667.612118	4911.538219
667.952639	4896.805447
668.293109	4928.040436
668.633528	4904.170573
668.973896	4919.127676
669.314213	4921.688582
669.654480	4919.198252
669.994695	4923.997431
670.334859	4928.216877
670.674973	4933.905819
671.015035	4943.088280
671.355047	4956.409529
671.695008	4949.324188
672.034918	4933.157207
672.374777	4948.830155
672.714585	4948.126914
673.054342	4955.981031
673.394049	4959.973625
673.733705	4994.311445
674.073310	4996.963092
674.412864	4966.272547
674.752368	4972.100121
675.091820	4981.990865
675.431223	4941.515440
675.770574	4952.916010
676.109875	4920.007358
676.449125	4938.823464
676.788324	4918.890742
677.127473	4882.569228
677.466571	4886.466040
677.805619	4887.570053
678.144616	4885.026791
678.483562	4878.818610
678.822458	4859.891598
679.161303	4862.931414
679.500098	4868.025500
679.838842	4855.475547
680.177535	4866.676991
680.516179	4880.444382
680.854771	4898.325355
681.193314	4963.971260
681.531805	5053.043408
681.870247	5176.193755
682.208638	5254.666876
682.546978	5272.799907
682.885268	5264.522332
683.223508	5206.581830
683.561697	5167.059184
683.899836	5151.101412
684.237925	5117.802070
684.575963	5093.009675
684.913951	5066.767949
685.251889	5123.904387
685.589776	5096.800623
685.927614	5076.981327
686.265401	5141.273682
686.603137	5129.923524
686.940824	5194.157907
687.278460	5219.030960
687.616046	5226.007917
687.953582	5276.270741
688.291068	5271.640441
688.628504	5327.551878
688.965889	5299.356705
689.303224	5263.100727
689.640510	5230.038319
689.977745	5175.825751
690.314930	5105.471408
690.652065	5064.078493
690.989150	4994.762628
691.326185	4939.468732
691.663170	4903.737033
692.000105	4843.611192
692.336990	4788.153458
692.673825	4771.379019
693.010610	4716.564032
693.347345	4662.422040
693.684030	4659.082276
694.020665	4627.035661
694.357251	4554.012027
694.693786	4567.076177
695.030272	4541.605747
695.366707	4517.309906
695.703093	4487.191532
696.039429	4513.193804
696.375716	4500.185106
696.711952	4481.101818
697.048139	4473.411538
697.384276	4455.515442
697.720363	4468.803924
698.056400	4481.817662
698.392388	4437.223615
698.728326	4421.099485
699.064214	4403.011825
699.400053	4403.415117
699.735842	4379.119276
700.071581	4357.752346
700.407270	4339.541177
700.742910	4329.620187
701.078501	4279.652270
701.414042	4284.978249
701.749533	4259.931276
702.084974	4201.615208
702.420366	4258.386162
702.755709	4207.107545
703.091002	4157.028723
703.426246	4209.025704
703.761440	4172.719314
704.096584	4138.696567
704.431679	4162.977284
704.766725	4145.890293
705.101721	4139.989623
705.436668	4169.122451
705.771565	4124.629227
706.106413	4150.220645
706.441212	4185.763300
706.775961	4189.085420
707.110661	4174.617309
707.445311	4202.633521
707.779913	4225.084300
708.114465	4235.738778
708.448967	4258.381121
708.783421	4313.289369
709.117825	4354.589022
709.452180	4358.863920
709.786485	4401.234818
710.120742	4481.694154
710.454949	4461.998366
710.789107	4521.070607
711.123216	4591.671966
711.457275	4580.667127
711.791286	4645.556860
712.125247	4663.939427
712.459159	4575.232764
712.793023	4645.327487
713.126837	4615.047797
713.460602	4604.884831
713.794318	4539.498545
714.127985	4549.792581
714.461602	4472.428513
714.795171	4450.630564
715.128691	4391.122263
715.462162	4344.423535
715.795584	4301.997184
716.128957	4284.481695
716.462281	4238.995364
716.795556	4219.382755
717.128782	4186.090975
717.461960	4120.767703
717.795088	4132.644662
718.128167	4093.953806
718.461198	4035.635218
718.794180	4038.967420
719.127113	4020.980583
719.459997	4002.295547
719.792833	3965.880772
720.125619	3951.894091
720.458357	3920.538114
720.791046	3928.571192
721.123686	3904.620670
721.456278	3865.357644
721.788821	3879.646794
722.121315	3858.531921
722.453761	3832.028055
722.786158	3849.268801
723.118506	3871.696895
723.450805	3824.415913
723.783056	3844.688913
724.115259	3861.458311
724.447412	3863.996532
724.779518	3859.106613
725.111574	3865.803786
725.443582	3892.779000
725.775542	3880.667628
726.107453	3927.595729
726.439315	3927.232766
726.771129	3941.746248
727.102895	3974.541474
727.434612	4021.920759
727.766281	4034.324518
728.097901	4034.521123
728.429473	4038.727966
728.760996	4044.462278
729.092471	4040.217627
729.423897	4028.353271
729.755276	4037.765105
730.086606	4036.260321
730.417887	4072.549067
730.749120	4132.909322
731.080305	4198.703942
731.411442	4222.677149
731.742530	4192.382335
732.073570	4197.093293
732.404562	4250.408536
732.735506	4240.863111
733.066401	4207.977144
733.397249	4148.983041
733.728048	4074.802462
734.058798	3998.129033
734.389501	3935.132254
734.720156	3872.584138
735.050762	3829.373887
735.381320	3824.471365
735.711831	3774.528654
736.042293	3748.435642
736.372707	3769.507665
736.703073	3742.749220
737.033391	3735.668920
737.363661	3752.045108
737.693883	3775.481432
738.024056	3783.262453
738.354182	3779.824386
738.684260	3841.084488
739.014290	3860.896223
739.344272	3858.768856
739.674207	3896.393507
740.004093	3902.160587
740.333931	3894.951737
740.663722	3897.348806
740.993464	3897.784866
741.323159	3873.950290
741.652806	3843.642873
741.982405	3819.836024
742.311956	3788.107002
742.641460	3782.193729
742.970915	3758.659102
743.300323	3720.495047
743.629683	3686.948688
743.958996	3676.750434
744.288260	3652.086589
744.617477	3620.425622
744.946647	3608.135289
745.275768	3586.997731
745.604842	3584.721650
745.933869	3534.698281
746.262847	3528.636293
746.591778	3568.985688
746.920662	3537.541491
747.249498	3508.948067
747.578286	3553.471537
747.907027	3569.063826
748.235720	3567.085173
748.564365	3592.971498
748.892963	3596.578444
749.221514	3575.123293
749.550017	3553.380797
749.878473	3551.031619
750.206881	3521.581198
750.535242	3520.353677
750.863555	3521.213194
751.191821	3515.700692
751.520039	3495.667147
751.848210	3477.161071
752.176334	3509.696678
752.504411	3517.553316
752.832440	3478.378510
753.160421	3460.593319
753.488356	3471.641008
753.816243	3480.536124
754.144082	3439.160853
754.471875	3426.888164
754.799620	3445.162347
755.127318	3438.117335
755.454969	3437.877880
755.782572	3442.787964
756.110129	3421.582350
756.437638	3411.593304
756.765100	3421.025303
757.092515	3434.507868
757.419882	3439.700257
757.747203	3412.455341
758.074477	3415.855599
758.401703	3431.364709
758.728882	3452.005713
759.056014	3459.151549
759.383099	3458.912094
759.710138	3456.383956
760.037129	3475.782316
760.364073	3504.758868
760.690970	3490.825119
761.017820	3470.118579
761.344623	3487.603821
761.671379	3530.514123
761.998088	3582.254005
762.324751	3705.147254
762.651366	3952.315027
762.977935	4410.107249
763.304456	4841.206561
763.630931	4923.150517
763.957359	4569.695056
764.283740	4237.639293
764.610074	4051.351015
764.936362	3863.762118
765.262602	3708.948284
765.588796	3603.807459
765.914943	3517.865868
766.241044	3431.531067
766.567097	3403.572828
766.893104	3356.816126
767.219064	3327.413596
767.544978	3299.614153
767.870845	3245.560381
768.196665	3228.453226
768.522438	3239.637025
768.848165	3233.133937
769.173846	3199.302753
769.499479	3184.191895
769.825066	3168.403001
770.150607	3150.650578
770.476101	3166.600788
770.801548	3159.916218
771.126949	3116.431225
771.452303	3098.343565
771.777611	3107.566356
772.102872	3109.086264
772.428087	3087.374015
772.753256	3078.844382
773.078378	3070.160995
773.403453	3035.845861
773.728482	3025.882020
774.053465	3045.033363
774.378401	3037.630429
774.703291	3002.193638
775.028135	3004.686489
775.352932	3001.918895
775.677683	2992.486896
776.002388	2985.421719
776.327046	2987.133191
776.651658	2974.227837
776.976224	2962.325673
777.300743	2962.393728
777.625216	2954.995835
777.949643	2949.808488
778.274024	2953.727985
778.598359	2944.174998
778.922647	2949.006944
779.246889	2944.956377
779.571086	2935.000098
779.895236	2927.602205
780.219339	2934.644697
780.543397	2950.635237
780.867409	2953.899384
781.191374	2944.419494
781.515294	2942.808846
781.839167	2943.267591
782.162995	2935.098401
782.486776	2943.605348
782.810511	2939.433793
783.134201	2925.817637
783.457844	2934.702670
783.781441	2923.662543
784.104993	2902.134296
784.428498	2907.729977
784.751958	2920.037954
785.075372	2914.709454
785.398739	2898.371075
785.722061	2913.849938
786.045337	2926.480548
786.368568	2910.777354
786.691752	2902.162022
787.014891	2949.503498
787.337983	2976.299751
787.661030	3005.261180
787.984031	3070.655028
788.306987	3116.083386
788.629897	3108.509052
788.952760	3090.096238
789.275579	3075.718867
789.598351	3019.177285
789.921078	2972.856643
790.243759	2965.010087
790.566395	2953.173458
790.888984	2925.338727
791.211529	2910.984042
791.534027	2899.966600
791.856480	2892.961917
792.178888	2877.518342
792.501249	2868.207331
792.823566	2868.287989
793.145836	2864.560056
793.468062	2860.259952
793.790241	2856.607636
794.112375	2864.817155
794.434464	2879.076058
794.756507	2882.297356
795.078505	2887.091493
795.400457	2901.110942
795.722364	2935.085798
796.044226	2960.127730
796.366042	2957.866772
796.687812	2950.478961
797.009538	2969.952939
797.331218	2958.133953
797.652852	2943.741459
797.974442	2926.601536
798.295986	2923.849066
798.617484	2916.405803
798.938938	2902.850140
799.260346	2890.524519
799.581709	2884.492778
799.903026	2876.605893
800.224299	2871.806714
800.545526	2862.717514
800.866708	2845.675893
801.187845	2836.168277
801.508936	2835.712053
801.829983	2844.329905
802.150984	2834.577793
802.471940	2821.513643
802.792851	2821.803509
803.113717	2817.737819
803.434538	2824.253510
803.755314	2815.900318
804.076045	2814.214052
804.396731	2813.805719
804.717372	2814.498877
805.037967	2804.966056
805.358518	2813.604073
805.679024	2825.594457
805.999485	2819.494661
806.319901	2823.956082
806.640272	2817.362253
806.960598	2823.020948
807.280879	2830.557473
807.601115	2839.815552
807.921306	2825.307111
808.241453	2820.734785
808.561554	2829.518995
808.881611	2828.898933
809.201623	2823.250321
809.521590	2823.588078
809.841513	2820.109682
810.161390	2825.927173
810.481223	2818.284784
810.801011	2807.821869
811.120755	2803.068061
811.440453	2806.372537
811.760107	2806.823721
812.079716	2803.640232
812.399281	2797.290899
812.718801	2788.952830
813.038276	2783.614248
813.357707	2792.811834
813.677093	2798.152936
813.996434	2792.317801
814.315731	2789.227573
814.634983	2779.707354
814.954191	2783.374794
815.273354	2797.716876
815.592473	2804.492187
815.911547	2808.388999
816.230577	2815.565082
816.549562	2824.455156
816.868502	2824.646720
817.187399	2833.088132
817.506250	2849.754187
817.825058	2840.964935
818.143821	2853.315762
818.462539	2870.201107
818.781213	2894.020559
819.099843	2934.760644
819.418429	2986.452635
819.736970	3045.713919
820.055466	3114.351749
820.373919	3220.140363
820.692327	3355.422247
821.010691	3517.533152
821.329011	3943.956794
821.647286	4822.781144
821.965517	6158.006357
822.283704	6864.130859
822.601847	6823.738614
822.919945	6216.725717
823.237999	5733.306790
823.556010	5168.715203
823.873976	4637.372547
824.191897	4244.712032
824.509775	3960.383394
824.827609	3700.247252
825.145398	3580.860126
825.463144	3575.297213
825.780845	3665.309536
826.098502	3766.351903
826.416116	4039.660579
826.733685	4344.163915
827.051210	4400.584509
827.368692	4290.647026
827.686129	4033.084394
828.003522	3718.239130
828.320872	3466.824185
828.638177	3279.084054
828.955439	3149.453304
829.272656	3065.964234
829.589830	3001.898731
829.906960	2954.958027
830.224046	2911.052097
830.541088	2880.593446
830.858086	2866.989892
831.175041	2850.482634
831.491952	2849.151769
831.808819	2859.160980
832.125642	2885.488406
832.442421	2928.686053
832.759157	3005.735049
833.075849	3182.548479
833.392497	3456.167186
833.709101	3649.475271
834.025662	3596.162549
834.342179	3440.277469
834.658653	3272.091974
834.975083	3127.113430
835.291469	3033.169008
835.607811	2955.452060
835.924110	2897.067936
836.240366	2847.150431
836.556578	2807.597538
836.872746	2783.273971
837.188871	2763.285796
837.504952	2747.393558
837.820990	2742.357445
838.136984	2725.252810
838.452935	2719.823488
838.768842	2717.630586
839.084706	2736.227402
839.400526	2812.500060
839.716303	2938.939760
840.032037	3017.322141
840.347727	3004.522651
840.663373	2944.215328
840.978977	2869.906199
841.294537	2798.909109
841.610054	2756.223139
841.925527	2733.056517
842.240957	2712.407950
842.556344	2693.009590
842.871687	2675.267249
843.186987	2668.489418
843.502244	2664.716114
843.817458	2660.983140
844.132629	2648.284473
844.447756	2638.471867
844.762840	2634.998512
845.077881	2634.907772
845.392879	2633.060189
845.707833	2628.472739
846.022745	2621.389918
846.337613	2626.627677
846.652438	2623.529887
846.967221	2625.856380
847.281960	2622.453601
847.596656	2622.309928
847.911309	2621.594084
848.225919	2617.528394
848.540485	2612.393979
848.855009	2617.934207
849.169490	2616.026130
849.483928	2613.729884
849.798323	2613.785337
850.112675	2614.448249
850.426984	2615.544700
850.741251	2612.187291
851.055474	2611.181581
851.369654	2614.685183
851.683792	2614.990173
851.997887	2610.150665
852.311938	2608.935747
852.625947	2615.847169
852.939914	2614.783486
853.253837	2615.456480
853.567718	2613.240892
853.881555	2611.383227
854.195350	2613.908845
854.509103	2612.149483
854.822812	2611.985645
855.136479	2610.022116
855.450103	2611.998248
855.763685	2613.843310
856.077224	2608.555140
856.390720	2607.587238
856.704173	2614.977570
857.017584	2616.767180
857.330953	2618.375308
857.644278	2618.380349
857.957561	2617.160390
858.270802	2613.664349
858.584000	2613.263578
858.897155	2617.818260
859.210268	2619.743981
859.523339	2613.319030
859.836367	2610.485902
860.149352	2611.355501
860.462295	2609.492795
860.775195	2609.752414
861.088054	2608.298041
861.400869	2609.611262
861.713642	2602.846033
862.026373	2604.673452
862.339062	2606.826024
862.651708	2614.949844
862.964312	2613.918928
863.276873	2612.477158
863.589392	2616.610904
863.901869	2618.012345
864.214303	2625.397635
864.526696	2625.216153
864.839045	2626.854528
865.151353	2631.257976
865.463619	2627.162039
865.775842	2632.462812
866.088023	2629.591875
866.400162	2633.453399
866.712258	2629.770836
867.024313	2630.569859
867.336325	2623.991153
867.648296	2627.048613
867.960224	2633.743265
868.272110	2631.409211
868.583954	2622.922428
868.895755	2625.125413
869.207515	2630.950466
869.519233	2638.368524
869.830909	2634.799387
870.142542	2626.047944
870.454134	2629.468367
870.765684	2634.683440
871.077191	2640.097640
871.388657	2641.720891
871.700081	2640.702578
872.011463	2637.307361
872.322803	2640.016981
872.634101	2645.136273
872.945357	2650.651295
873.256571	2656.294867
873.567744	2652.266985
873.878874	2650.104330
874.189963	2652.710607
874.501010	2660.615136
874.812015	2662.724859
875.122979	2661.862821
875.433900	2653.948210
875.744780	2654.366626
876.055618	2659.133037
876.366415	2665.005981
876.677169	2661.472132
876.987882	2657.431647
877.298554	2658.253355
877.609183	2667.430776
877.919771	2672.366065
878.230317	2679.738753
878.540822	2689.011955
878.851285	2702.524768
879.161707	2726.407235
879.472087	2762.504417
879.782425	2805.830613
880.092722	2915.611821
880.402977	3093.899788
880.713191	3342.670648
881.023363	3621.615335
881.333494	3797.228970
881.643583	3966.200885
881.953631	3963.826502
882.263637	3786.841673
882.573602	3574.999785
882.883526	3457.649285
883.193408	3344.722398
883.503248	3255.171341
883.813048	3143.328302
884.122806	3033.789070
884.432522	2954.721092
884.742197	2891.477297
885.051831	2858.298943
885.361424	2826.469097
885.670975	2789.358643
885.980485	2761.365116
886.289954	2743.831983
886.599382	2728.985785
886.908768	2721.235011
887.218113	2701.781198
887.527417	2690.264682
887.836680	2683.159176
888.145901	2680.792354
888.455082	2669.260715
888.764221	2660.128664
889.073319	2649.859834
889.382376	2652.632469
889.691392	2653.497027
890.000366	2653.305463
890.309300	2648.700369
890.618193	2653.376039
890.927044	2654.293529
891.235855	2657.678664
891.544625	2652.327479
891.853353	2653.696152
892.162041	2662.298881
892.470687	2682.226562
892.779293	2693.123016
893.087858	2698.012936
893.396381	2720.020093
893.704864	2760.462749
894.013306	2827.510096
894.321707	2917.633323
894.630068	2961.456074
894.938387	2980.882160
895.246665	2974.742035
895.554903	2931.322577
895.863100	2892.286402
896.171256	2838.030984
896.479371	2780.702982
896.787446	2742.899369
897.095480	2725.293140
897.403473	2720.529249
897.711425	2705.189018
898.019336	2687.464321
898.327207	2674.800943
898.635038	2675.947805
898.942827	2673.427228
899.250576	2663.171001
899.558284	2652.307314
899.865952	2650.192550
900.173579	2647.160296
900.481165	2644.659884
900.788711	2635.706795
901.096216	2628.215640
901.403681	2629.286885
901.711105	2628.195475
902.018489	2628.041720
902.325832	2630.884931
902.633135	2631.399129
902.940397	2646.686428
903.247619	2680.421829
903.554800	2745.475399
903.861941	2867.153729
904.169041	2984.199239
904.476101	3036.894421
904.783121	3033.287475
905.090100	2978.691779
905.397039	2908.224010
905.703938	2840.365038
906.010796	2780.791202
906.317614	2732.776732
906.624391	2699.396732
906.931129	2674.387568
907.237826	2653.708755
907.544483	2635.331229
907.851099	2624.540639
908.157675	2613.250975
908.464211	2608.469440
908.770707	2596.761361
909.077163	2595.251535
909.383578	2590.903540
909.689954	2589.668457
909.996289	2589.572675
910.302584	2588.178796
910.608839	2582.671336
910.915054	2585.257447
911.221229	2587.972109
911.527363	2590.389342
911.833458	2589.723910
912.139513	2589.302973
912.445527	2590.540577
912.751502	2595.296905
913.057436	2601.144644
913.363331	2607.972887
913.669186	2614.856582
913.975000	2629.503655
914.280775	2643.754997
914.586510	2660.998263
914.892205	2694.922708
915.197859	2760.109869
915.503475	2835.107114
915.809050	2896.881414
916.114585	2908.602096
916.420081	2920.037954
916.725536	2931.065478
917.030952	2907.457754
917.336328	2863.682895
917.641665	2817.717654
917.946961	2769.630088
918.252218	2740.028432
918.557435	2716.435832
918.862612	2697.682740
919.167750	2679.806808
919.472848	2666.641835
919.777906	2648.203815
920.082925	2637.924902
920.387904	2629.526340
920.692843	2622.360340
920.997743	2619.363374
921.302603	2617.745163
921.607423	2605.888370
921.912204	2599.929726
922.216946	2601.278234
922.521647	2596.965527
922.826310	2592.443612
923.130932	2589.320617
923.435516	2582.215111
923.740059	2584.685277
924.044564	2581.615214
924.349028	2580.932138
924.653454	2573.335119
924.957840	2571.059038
925.262186	2565.483522
925.566493	2571.381672
925.870761	2563.376319
926.174989	2565.959911
926.479178	2565.639797
926.783328	2564.132492
927.087438	2561.100238
927.391509	2561.165773
927.695541	2559.595454
927.999533	2557.130330
928.303486	2557.324414
928.607400	2556.595967
928.911275	2553.941800
929.215110	2554.508930
929.518906	2556.984136
929.822663	2557.382387
930.126381	2557.785680
930.430060	2555.325597
930.733699	2555.348282
931.037299	2556.618653
931.340861	2558.952707
931.644383	2560.276010
931.947866	2558.811554
932.251309	2557.773077
932.554714	2555.204609
932.858080	2558.826678
933.161407	2558.340207
933.464694	2558.814075
933.767943	2552.956254
934.071153	2555.524722
934.374323	2553.667057
934.677455	2552.873075
934.980548	2552.648744
935.283602	2552.820143
935.586617	2554.506409
935.889593	2553.694783
936.192530	2553.586398
936.495428	2554.884496
936.798287	2554.841646
937.101108	2555.673436
937.403890	2557.858776
937.706632	2558.650238
938.009336	2562.597461
938.312002	2567.683985
938.614628	2570.065930
938.917216	2576.357290
939.219765	2574.663463
939.522275	2576.362332
939.824747	2574.958370
940.127179	2570.474264
940.429573	2566.232133
940.731929	2569.045097
941.034246	2563.562842
941.336524	2564.865980
941.638763	2565.828841
941.940964	2563.976217
942.243126	2563.245249
942.545250	2560.787687
942.847335	2561.606874
943.149381	2560.023952
943.451389	2557.889023
943.753359	2559.943293
944.055290	2557.820968
944.357182	2557.188303
944.659036	2558.514126
944.960851	2558.955227
945.262628	2556.159908
945.564367	2558.473797
945.866067	2558.433468
946.167729	2558.430947
946.469352	2554.829043
946.770937	2559.262738
947.072484	2557.420196
947.373992	2556.424568
947.675462	2556.530432
947.976893	2557.669733
948.278286	2554.609753
948.579641	2554.796275
948.880958	2555.933056
949.182236	2555.935576
949.483476	2553.656975
949.784678	2553.591440
950.085841	2554.841646
950.386967	2553.294012
950.688054	2553.520863
950.989103	2558.209137
951.290114	2559.078736
951.591087	2559.025803
951.892021	2556.182593
952.192917	2559.373643
952.493776	2559.164435
952.794596	2563.383881
953.095378	2563.078891
953.396122	2563.877914
953.696828	2564.170301
953.997496	2560.424724
954.298126	2558.269630
954.598718	2558.418344
954.899272	2556.036399
955.199788	2554.176213
955.500266	2552.857952
955.800706	2548.862837
956.101108	2549.427447
956.401472	2545.034081
956.701798	2547.562220
957.002087	2545.485264
957.302337	2545.545758
957.602550	2548.862837
957.902724	2543.572146
958.202861	2542.798329
958.502960	2542.415202
958.803022	2545.316386
959.103045	2544.298072
959.403031	2542.886549
959.702979	2545.555840
960.002889	2543.378062
960.302762	2543.136087
960.602596	2544.545089
960.902393	2541.641384
961.202153	2543.650284
961.501875	2544.363607
961.801559	2540.499563
962.101205	2543.514173
962.400814	2543.604914
962.700385	2542.949564
962.999918	2545.172713
963.299414	2540.791950
963.598873	2541.926210
963.898293	2542.145500
964.197677	2545.328988
964.497022	2545.023999
964.796331	2542.168185
965.095601	2541.512835
965.394835	2540.605427
965.694030	2541.616179
965.993189	2544.494678
966.292309	2542.261446
966.591393	2541.969059
966.890439	2539.357742
967.189447	2540.718853
967.488419	2542.644574
967.787353	2542.884029
968.086249	2541.810263
968.385108	2542.538710
968.683930	2539.990407
968.982714	2542.694986
969.281462	2541.527958
969.580172	2543.282280
969.878844	2541.780016
970.177480	2540.862526
970.476078	2539.272042
970.774639	2540.403781
971.073162	2542.886549
971.371649	2537.936136
971.670098	2538.699871
971.968510	2537.764737
972.266885	2538.657021
972.565223	2541.681714
972.863524	2542.216076
973.161788	2542.657177
973.460014	2544.759338
973.758204	2541.215407
974.056356	2541.477547
974.354471	2541.928730
974.652550	2544.010727
974.950591	2543.221786
975.248595	2541.033925
975.546563	2541.530479
975.844493	2542.710109
976.142386	2542.379913
976.440243	2543.405788
976.738062	2543.115922
977.035845	2541.364121
977.333590	2539.808925
977.631299	2540.295396
977.928971	2540.857485
978.226606	2541.991745
978.524204	2542.969728
978.821765	2541.406971
979.119290	2540.345808
979.416777	2541.089378
979.714228	2540.441590
980.011642	2541.454862
980.309020	2544.560212
980.606360	2542.687424
980.903664	2542.261446
981.200931	2542.185829
981.498162	2542.884029
981.795356	2544.040974
982.092513	2547.083310
982.389633	2550.171017
982.686717	2552.951213
982.983764	2551.176727
983.280775	2557.284085
983.577749	2553.478014
983.874686	2554.400545
984.171587	2551.093548
984.468451	2550.720503
984.765279	2548.323434
985.062070	2545.301262
985.358824	2545.318906
985.655543	2542.165664
985.952224	2544.850079
986.248869	2543.012578
986.545478	2536.743903
986.842050	2538.026877
987.138586	2537.210210
987.435086	2536.834644
987.731549	2536.290200
988.027975	2539.476209
988.324366	2538.568801
988.620719	2541.122146
988.917037	2540.890252
989.213318	2538.193235
989.509563	2538.528472
989.805772	2540.318082
990.101944	2538.475540
990.398080	2537.805066
990.694180	2539.330015
990.990244	2536.209541
991.286271	2537.694161
991.582262	2539.571991
991.878217	2538.546116
992.174136	2538.162988
992.470019	2535.087884
992.765865	2537.588297
993.061676	2542.745397
993.357450	2540.683565
993.653188	2538.871270
993.948890	2539.088040
994.244556	2537.613503
994.540186	2538.722556
994.835780	2540.141641
995.131337	2542.795809
995.426859	2540.365972
995.722345	2543.108360
996.017795	2542.175747
996.313208	2542.810932
996.608586	2544.603062
996.903928	2542.871426
997.199234	2543.312527
997.494504	2540.275232
997.789738	2541.230530
998.084936	2542.117773
998.380099	2539.680376
998.675225	2540.307999
998.970316	2538.853626
999.265371	2541.744728
999.560390	2536.416228
999.855373	2538.775488
1000.150320	2537.119469
1000.445232	2539.216589
1000.740108	2540.116435
1001.034948	2539.463606
1001.329752	2535.917154
1001.624521	2540.202135
1001.919254	2532.282482
1002.213951	2536.494366
1002.508613	2532.796680
1002.803239	2537.842875
1003.097829	2535.435724
1003.392384	2538.941847
1003.686903	2538.233564
1003.981386	2539.045190
1004.275834	2537.835313
1004.570246	2537.636188
1004.864623	2538.064686
1005.158964	2535.891948
1005.453270	2538.924203
1005.747540	2536.005374
1006.041775	2538.357073
1006.335974	2537.366486
1006.630138	2539.458565
1006.924266	2536.489325
1007.218359	2536.103677
1007.512416	2536.920344
1007.806438	2537.603420
1008.100425	2539.975283
1008.394376	2537.931095
1008.688292	2535.445806
1008.982172	2537.605941
1009.276017	2536.915303
1009.569827	2536.421270
1009.863602	2539.173740
1010.157341	2537.719367
1010.451045	2539.425797
1010.744714	2535.662576
1011.038347	2537.724408
1011.331945	2537.391692
1011.625508	2537.789943
1011.919036	2536.741383
1012.212528	2536.842206
1012.505986	2535.937319
1012.799408	2537.782381
1013.092795	2534.566125
1013.386147	2535.960004
1013.679464	2537.553009
1013.972745	2537.406815
1014.265992	2538.473019
1014.559204	2537.726928
1014.852380	2537.285827
1015.145521	2536.653163
1015.438628	2538.180632
1015.731699	2537.578214
1016.024736	2534.926568
1016.317737	2539.002340
1016.610703	2539.413194
1016.903635	2534.616537
1017.196531	2534.361958
1017.489393	2532.907585
1017.782219	2532.017822
1018.075011	2536.416228
1018.367768	2536.204500
1018.660490	2534.258615
1018.953177	2534.258615
1019.245829	2534.258615
