Dividing Wavelength (nm)	Counts (n)	Blue Motor Position (mm): 20.000000	Red Motor Position (mm): 0.000000	
326.493990	2133.801956
326.888308	2133.801956
327.282561	2133.801956
327.676750	2101.715012
328.070874	2101.362131
328.464933	2104.565784
328.858929	2110.456373
329.252859	2120.856273
329.646726	2132.642491
330.040528	2143.526342
330.434265	2161.465288
330.827938	2177.745694
331.221547	2195.077181
331.615091	2213.689121
332.008571	2234.740979
332.401986	2252.944586
332.795338	2272.650456
333.188625	2293.641821
333.581847	2311.177475
333.975006	2333.063644
334.368100	2348.436643
334.761129	2367.865250
335.154095	2381.559544
335.546996	2402.606361
335.939833	2422.685277
336.332606	2437.781012
336.725315	2452.337344
337.117960	2461.897892
337.510540	2466.616412
337.903056	2479.249544
338.295508	2486.027375
338.687896	2495.693788
339.080220	2502.380878
339.472480	2512.138032
339.864676	2516.181037
340.256807	2520.176151
340.648875	2523.324352
341.040879	2523.455422
341.432818	2529.358613
341.824694	2527.740403
342.216506	2528.811648
342.608253	2530.341638
342.999937	2528.640249
343.391557	2528.718387
343.783113	2525.819723
344.174605	2526.679240
344.566033	2526.144877
344.957397	2523.054650
345.348697	2523.021883
345.739934	2521.018024
346.131106	2516.831346
346.522215	2514.741787
346.913260	2513.214318
347.304241	2512.269102
347.695159	2509.216683
348.086012	2508.924296
348.476802	2504.309120
348.867528	2504.278873
349.258191	2506.219717
349.648789	2503.875580
350.039324	2499.935919
350.429796	2501.319715
350.820203	2497.874087
351.210548	2500.684530
351.600828	2497.390136
351.991045	2498.398367
352.381198	2496.893582
352.771288	2494.892244
353.161314	2495.429127
353.551276	2497.284272
353.941175	2495.852584
354.331010	2496.076915
354.720782	2494.592296
355.110490	2495.681185
355.500135	2497.453150
355.889717	2496.076915
356.279235	2496.218068
356.668689	2497.301916
357.058080	2494.851915
357.447408	2494.189003
357.836672	2493.352172
358.225873	2495.240084
358.615010	2493.750423
359.004084	2497.700167
359.393095	2498.892400
359.782043	2498.867194
360.170927	2497.758140
360.559748	2499.741834
360.948505	2500.790394
361.337199	2502.799294
361.725830	2500.215703
362.114398	2504.417504
362.502903	2501.256701
362.891344	2501.150837
363.279722	2504.651918
363.668037	2502.322905
364.056289	2502.262411
364.444478	2504.225941
364.832603	2503.873060
365.220665	2507.595952
365.608665	2504.591424
365.996601	2507.669049
366.384474	2506.499501
366.772284	2506.839779
367.160031	2506.375993
367.547715	2508.778102
367.935336	2508.480674
368.322893	2508.004285
368.710388	2507.548061
369.097820	2508.969666
369.485189	2509.504029
369.872495	2508.886487
370.259738	2509.632578
370.646918	2508.425222
371.034035	2508.130314
371.421090	2510.320696
371.808081	2510.315654
372.195010	2512.614421
372.581875	2509.993021
372.968678	2510.517301
373.355418	2507.048987
373.742096	2511.402023
374.128710	2510.925634
374.515262	2511.704492
374.901751	2512.039729
375.288177	2512.102743
375.674540	2512.644668
376.060841	2512.284225
376.447079	2510.164420
376.833254	2513.216838
377.219367	2508.669718
377.605417	2512.253978
377.991404	2511.036539
378.377329	2513.330264
378.763191	2509.735922
379.148991	2515.626510
379.534727	2513.957888
379.920402	2514.646006
380.306013	2514.819925
380.691563	2517.438805
381.077049	2513.786489
381.462474	2516.266737
381.847835	2516.417971
382.233134	2518.809999
382.618371	2515.424864
383.003545	2518.492406
383.388657	2518.119361
383.773706	2517.206912
384.158693	2517.151459
384.543618	2518.689011
384.928480	2520.493744
385.313280	2519.712365
385.698017	2516.417971
386.082692	2516.133146
386.467305	2518.275636
386.851856	2520.211439
387.236344	2517.867303
387.620770	2521.748991
388.005133	2517.988291
388.389435	2523.440298
388.773674	2519.503157
389.157851	2516.788496
389.541965	2520.413086
389.926018	2521.282685
390.310008	2521.552386
390.693936	2523.573889
391.077802	2520.899557
391.461606	2522.999198
391.845348	2519.220853
392.229027	2523.301667
392.612645	2522.169928
392.996200	2522.220339
393.379694	2522.865607
393.763125	2523.157994
394.146494	2524.728313
394.529801	2525.048427
394.913047	2520.440812
395.296230	2525.277799
395.679351	2521.741430
396.062410	2525.350896
396.445408	2523.969620
396.828343	2525.802079
397.211217	2520.730678
397.594028	2520.496265
397.976778	2522.011131
398.359466	2524.468694
398.742092	2522.215298
399.124656	2524.892151
399.507158	2524.841739
399.889598	2526.313756
400.271977	2524.506502
400.654294	2528.090763
401.036549	2523.387366
401.418742	2523.183200
401.800874	2527.218643
402.182944	2524.750998
402.564952	2529.925743
402.946898	2526.389373
403.328783	2527.831143
403.710606	2527.261493
404.092367	2526.006246
404.474067	2527.417769
404.855705	2527.173273
405.237282	2526.558252
405.618797	2529.935825
406.000250	2529.131761
406.381642	2528.491535
406.762972	2529.013294
407.144240	2531.586803
407.525447	2530.374406
407.906593	2528.642769
408.287677	2530.240815
408.668700	2528.952800
409.049661	2530.026566
409.430560	2527.652183
409.811399	2531.997657
410.192176	2531.158305
410.572891	2532.461443
410.953545	2529.532533
411.334138	2530.051772
411.714669	2527.800897
412.095139	2529.804755
412.475547	2530.830630
412.855894	2530.613860
413.236180	2530.676875
413.616405	2532.209386
413.996568	2530.344159
414.376670	2534.044366
414.756711	2532.395908
415.136691	2533.169725
415.516609	2532.771474
415.896466	2533.943542
416.276262	2534.064530
416.655997	2529.272913
417.035670	2530.220650
417.415283	2531.846422
417.794834	2528.226874
418.174324	2530.865918
418.553753	2532.380785
418.933121	2535.871784
419.312428	2533.154602
419.691674	2533.227699
420.070859	2534.855991
420.449983	2531.415404
420.829045	2532.310209
421.208047	2535.544109
421.586988	2531.743079
421.965867	2531.266690
422.344686	2534.457740
422.723444	2534.414890
423.102141	2535.166022
423.480777	2537.200128
423.859352	2534.881197
424.237866	2537.626105
424.616319	2536.922864
424.994712	2533.421783
425.373044	2535.561753
425.751314	2534.893800
426.129524	2536.585107
426.507673	2535.801208
426.885762	2536.436393
427.263789	2538.757844
427.641756	2535.080323
428.019662	2536.622916
428.397508	2536.322967
428.775292	2538.145344
429.153016	2536.668286
429.530679	2537.996630
429.908282	2539.672814
430.285824	2537.258101
430.663305	2534.024201
431.040726	2538.694830
431.418086	2536.575025
431.795385	2537.555529
432.172624	2539.120807
432.549802	2536.799356
432.926920	2536.133924
433.303977	2538.127700
433.680974	2540.718853
434.057910	2542.125335
434.434786	2540.255067
434.811601	2540.139121
435.188355	2535.881866
435.565050	2540.812115
435.941683	2541.593493
436.318257	2539.193904
436.694770	2533.996475
437.071222	2539.637526
437.447614	2536.149047
437.823946	2538.483102
438.200218	2540.817156
438.576429	2540.383617
438.952580	2540.640715
439.328670	2540.791950
439.704700	2539.992927
440.080670	2536.892618
440.456580	2540.986034
440.832429	2543.471323
441.208218	2539.017464
441.583947	2543.327650
441.959616	2540.527289
442.335224	2540.255067
442.710773	2542.334543
443.086261	2541.396888
443.461689	2541.601055
443.837057	2542.826056
444.212365	2541.575849
444.587612	2543.327650
444.962800	2541.553164
445.337927	2541.946374
445.712995	2541.296065
446.088002	2541.245654
446.462949	2542.732794
446.837837	2542.389996
447.212664	2545.208001
447.587431	2543.327650
447.962139	2540.885211
448.336786	2545.422250
448.711374	2543.360418
449.085901	2544.038453
449.460369	2543.476364
449.834776	2543.436035
450.209124	2545.772610
450.583412	2543.622558
450.957640	2546.241437
451.331808	2544.620706
451.705917	2546.664894
452.079965	2545.956612
452.453954	2543.859492
452.827883	2544.691282
453.201752	2544.202291
453.575562	2544.333361
453.949311	2546.185985
454.323001	2542.833617
454.696632	2546.831252
455.070202	2546.226314
455.443713	2546.836293
455.817164	2542.677342
456.190556	2542.982331
456.563888	2545.659184
456.937160	2542.790767
457.310373	2546.874102
457.683526	2544.658515
458.056619	2545.394523
458.429653	2544.512322
458.802628	2544.870243
459.175542	2550.816284
459.548398	2545.875954
459.921194	2546.450645
460.293930	2548.169679
460.666607	2547.058104
461.039224	2545.099616
461.411782	2548.918290
461.784280	2549.906356
462.156719	2549.818136
462.529099	2549.147662
462.901419	2548.446942
463.273680	2550.919628
463.645882	2547.058104
464.018024	2547.295038
464.390106	2550.423074
464.762130	2549.278733
465.134094	2549.167827
465.505999	2549.351829
465.877845	2549.671942
466.249631	2550.498692
466.621358	2552.313507
466.993026	2553.349464
467.364634	2555.025648
467.736184	2551.280071
468.107674	2550.574309
468.479105	2552.704197
468.850477	2550.206305
469.221790	2551.711089
469.593043	2550.095399
469.964238	2552.280740
470.335373	2552.205122
470.706449	2554.405586
471.077467	2552.106820
471.448425	2554.667726
471.819324	2553.593960
472.190164	2555.736451
472.560945	2554.607232
472.931667	2553.563713
473.302330	2551.002807
473.672934	2553.251162
474.043479	2552.699155
474.413965	2551.499361
474.784393	2549.409802
475.154761	2553.180586
475.525070	2553.586398
475.895321	2553.162942
476.265513	2550.014741
476.635645	2554.551779
477.005719	2558.209137
477.375734	2557.490772
477.745691	2555.983467
478.115588	2558.186451
478.485427	2559.686195
478.855207	2561.390105
479.224928	2559.870197
479.594591	2560.117213
479.964194	2563.053685
480.333739	2562.181566
480.703226	2561.748027
481.072653	2563.446895
481.442022	2564.046793
481.811333	2565.332287
482.180584	2564.180383
482.549777	2563.867832
482.918912	2565.710373
483.287988	2567.578121
483.657005	2567.641135
484.025964	2567.527709
484.394864	2566.370765
484.763706	2570.905283
485.132489	2569.697926
485.501213	2575.137331
485.869879	2572.440314
486.238487	2573.395612
486.607036	2577.070614
486.975527	2577.423494
487.343959	2579.886098
487.712333	2584.486151
488.080648	2586.414392
488.448905	2587.374732
488.817104	2592.562079
489.185244	2594.409662
489.553326	2603.090529
489.921350	2606.216045
490.289315	2620.444701
490.657222	2628.288737
491.025070	2631.971300
491.392861	2638.444141
491.760593	2641.219296
492.128267	2641.728453
492.495883	2642.439256
492.863440	2647.303969
493.230939	2647.157776
493.598380	2655.760505
493.965763	2660.768891
494.333088	2666.470436
494.700354	2668.542350
495.067563	2679.385872
495.434713	2684.805112
495.801805	2695.691484
496.168839	2707.364276
496.535815	2716.730740
496.902733	2725.096535
497.269593	2735.370406
497.636395	2741.321488
498.003139	2759.872934
498.369825	2765.287134
498.736453	2782.719444
499.103023	2793.484828
499.469535	2808.283135
499.835989	2819.819815
500.202385	2830.958245
500.568723	2844.897035
500.935003	2864.484438
501.301226	2880.313662
501.667390	2901.952814
502.033497	2924.675815
502.399546	2933.507917
502.765537	2948.124743
503.131470	2970.741879
503.497345	2994.894047
503.863163	2998.354799
504.228923	3033.015253
504.594625	3058.881413
504.960269	3062.057340
505.325856	3101.501848
505.691385	3113.950978
506.056856	3147.552789
506.422270	3177.436749
506.787625	3191.761187
507.152924	3226.774521
507.518164	3248.222110
507.883347	3273.062396
508.248472	3296.770943
508.613540	3344.593848
508.978550	3368.423383
509.343503	3397.306674
509.708398	3442.185546
510.073236	3484.460662
510.438016	3517.218080
510.802738	3551.502967
511.167403	3592.306066
511.532010	3621.932927
511.896561	3677.516690
512.261053	3727.106520
512.625488	3751.425046
512.989866	3789.785706
513.354186	3827.241479
513.718449	3858.831870
514.082655	3926.889967
514.446803	3959.140749
514.810894	4025.033671
515.174927	4054.010223
515.538904	4098.879013
515.902822	4170.821320
516.266684	4199.266030
516.630488	4241.863780
516.994235	4296.144404
517.357925	4365.190568
517.721558	4426.364970
518.085133	4489.389475
518.448651	4534.958986
518.812112	4564.921083
519.175516	4626.271926
519.538863	4710.000450
519.902152	4736.426178
520.265385	4845.093291
520.628560	4868.368298
520.991678	4936.431437
521.354739	5000.126416
521.717743	5038.421541
522.080690	5087.718984
522.443580	5199.136046
522.806413	5242.094238
523.169189	5306.946162
523.531908	5388.234768
523.894569	5396.754318
524.257174	5457.200273
524.619722	5557.108381
524.982213	5586.520993
525.344647	5686.098905
525.707025	5724.658690
526.069345	5818.356096
526.431608	5866.761256
526.793815	5963.644671
527.155964	5951.273679
527.518057	6022.860584
527.880093	6070.870013
528.242072	6151.155429
528.603995	6188.243198
528.965860	6218.991716
529.327669	6301.424664
529.689421	6336.836249
530.051117	6386.625205
530.412755	6506.869327
530.774337	6508.114492
531.135862	6575.693680
531.497331	6635.655684
531.858743	6637.841024
532.220098	6776.588702
532.581396	6777.735564
532.942638	6829.722463
533.303824	6865.749069
533.664953	6947.403159
534.026025	6961.291537
534.387040	7072.413692
534.747999	7127.425283
535.108902	7224.122176
535.469748	7152.792369
535.830537	7266.430059
536.191270	7319.221022
536.551947	7391.922023
536.912567	7447.778007
537.273131	7459.251673
537.633638	7500.712643
537.994089	7565.375523
538.354483	7582.139881
538.714821	7728.708908
539.075103	7786.485572
539.435328	7825.262128
539.795497	7753.851663
540.155609	7926.760719
540.515665	8030.547995
540.875665	7915.584481
541.235609	8017.987960
541.595496	8059.718631
541.955328	8226.003612
542.315102	8198.909930
542.674821	8214.159421
543.034483	8264.371833
543.394090	8316.731778
543.753640	8320.953744
544.113134	8530.350672
544.472571	8471.752300
544.831953	8625.749467
545.191278	8539.525572
545.550548	8599.081764
545.909761	8743.092406
546.268918	8773.598948
546.628019	8880.688179
546.987064	8832.867794
547.346053	8809.040780
547.704986	8937.227240
548.063863	8969.175553
548.422684	8989.012493
548.781449	8977.334660
549.140158	9101.563814
549.498811	9048.868633
549.857408	8964.734296
550.215949	9191.122433
550.574434	9107.721584
550.932864	9226.103000
551.291237	9306.716091
551.649555	9315.006268
552.007817	9350.959777
552.366022	9353.054377
552.724173	9386.847752
553.082267	9401.031038
553.440305	9556.636334
553.798288	9414.793388
554.156215	9583.069624
554.514086	9599.972613
554.871902	9495.988733
555.229661	9550.886898
555.587365	9561.594309
555.945014	9501.455864
556.302606	9644.188573
556.660143	9568.972037
557.017625	9744.905786
557.375050	9678.342391
557.732421	9823.320934
558.089735	9771.079457
558.446994	9793.487386
558.804197	9855.178506
559.161345	9877.586435
559.518437	9766.144167
559.875474	9868.409014
560.232455	9915.238813
560.589381	9889.488599
560.946251	9920.847096
561.303065	10020.548517
561.659825	9991.413168
562.016528	9943.466754
562.373177	9848.985448
562.729770	9984.814298
563.086307	9919.150748
563.442789	10029.501606
563.799216	9931.670454
564.155587	9990.110030
564.511904	9962.124064
564.868164	9976.521599
565.224370	9993.991718
565.580520	9943.865005
565.936615	9959.414444
566.292654	9856.458959
566.648638	9988.474175
567.004567	9961.181368
567.360441	9958.864958
567.716260	9890.736284
568.072023	9980.950253
568.427732	9957.178692
568.783385	9871.814313
569.138982	9956.026788
569.494525	9978.381785
569.850013	9872.585610
570.205445	9960.863776
570.560823	9865.890958
570.916145	9802.077512
571.271412	9869.931443
571.626625	9831.475000
571.981782	9815.746600
572.336884	9791.128126
572.691931	9803.380650
573.046923	9762.229711
573.401860	9726.871058
573.756743	9670.407614
574.111570	9717.307989
574.466342	9711.233399
574.821059	9739.688192
575.175722	9643.979365
575.530330	9658.865893
575.884882	9655.763063
576.239380	9588.100696
576.593823	9563.257889
576.948211	9590.028937
577.302544	9480.651022
577.656823	9497.186007
578.011047	9504.987192
578.365216	9471.907141
578.719330	9402.051872
579.073389	9418.523842
579.427394	9378.950784
579.781344	9352.814922
580.135239	9307.573087
580.489080	9320.483482
580.842866	9225.608967
581.196597	9237.417869
581.550273	9271.889279
581.903895	9242.340556
582.257463	9309.755907
582.610975	9193.980767
582.964434	9219.922545
583.317837	9153.621290
583.671186	9130.048854
584.024481	9128.972568
584.377721	9047.159682
584.730906	9025.543214
585.084037	9058.477073
585.437113	9001.970779
585.790135	9017.532821
586.143103	8918.726206
586.496016	8896.051096
586.848874	8958.873955
587.201679	8944.405843
587.554428	8833.906272
587.907124	8877.431594
588.259765	8857.614818
588.612352	8856.478038
588.964884	8735.485304
589.317362	8748.541893
589.669786	8748.821677
590.022155	8794.839850
590.374470	8813.129156
590.726731	8753.499868
591.078937	8605.602496
591.431090	8726.872493
591.783188	8597.231660
592.135232	8588.838139
592.487222	8587.774456
592.839157	8642.004668
593.191038	8573.833145
593.542866	8517.170575
593.894639	8420.450998
594.246358	8471.195252
594.598022	8494.621494
594.949633	8390.758602
595.301190	8366.800518
595.652692	8389.778097
596.004141	8505.936364
596.355535	8282.184751
596.706876	8264.984334
597.058162	8204.787916
597.409395	8276.200901
597.760573	8340.452927
598.111698	8250.932117
598.462768	8232.229437
598.813785	8203.956125
599.164748	8172.383379
599.515657	8162.119589
599.866511	8070.521824
600.217312	8193.122686
600.568060	8057.661841
600.918753	8155.702201
601.269392	8132.094477
601.619978	8043.791106
601.970510	8105.973738
602.320988	8102.959128
602.671412	8155.064495
603.021783	8096.766071
603.372100	8071.857730
603.722363	8074.398471
604.072572	8048.892753
604.422728	8063.915392
604.772830	7987.647775
605.122878	7998.309816
605.472872	7989.107189
605.822813	8018.557610
606.172701	7964.334959
606.522534	8038.263481
606.872314	8038.868419
607.222041	8011.474789
607.571714	8070.332781
607.921333	8022.507354
608.270899	8031.092439
608.620411	8119.796582
608.969870	8024.307046
609.319276	8018.819750
609.668627	8033.923047
610.017926	8070.799087
610.367171	8116.131663
610.716362	8098.822862
611.065500	8086.406500
611.414585	8116.199719
611.763616	8102.144982
612.112594	8084.884071
612.461518	8096.332532
612.810389	8154.494844
613.159207	8101.161957
613.507971	8043.511322
613.856682	8165.708891
614.205340	8125.069629
614.553945	8198.408335
614.902496	8098.280938
615.250994	8149.133577
615.599439	8132.986761
615.947830	8147.530490
616.296169	8121.797920
616.644454	8133.659755
616.992686	8129.780587
617.340864	8187.128754
617.688990	8083.628824
618.037063	8186.458280
618.385082	8128.195145
618.733048	8213.078093
619.080961	8154.018455
619.428821	8177.028802
619.776628	8172.683327
620.124382	8119.504195
620.472083	8111.047660
620.819731	8143.716857
621.167326	8037.121659
621.514868	8042.664408
621.862357	7935.307996
622.209793	7947.910880
622.557176	7881.846559
622.904506	7855.435954
623.251783	7792.300543
623.599007	7738.768531
623.946179	7750.746312
624.293297	7703.162861
624.640363	7625.582024
624.987376	7606.332378
625.334336	7552.402114
625.681243	7502.023343
626.028097	7490.774008
626.374899	7472.293138
626.721647	7463.140923
627.068343	7396.365800
627.414987	7368.145420
627.761577	7320.907288
628.108115	7360.964297
628.454600	7248.912050
628.801032	7304.001779
629.147412	7259.241374
629.493739	7254.550580
629.840014	7189.882659
630.186236	7246.361226
630.532405	7130.444934
630.878521	7183.447626
631.224585	7143.667881
631.570597	7063.105201
631.916556	7095.141734
632.262462	7094.957732
632.608316	7055.059520
632.954117	7031.824842
633.299866	7020.593151
633.645562	7008.287694
633.991206	6931.969666
634.336797	6877.066460
634.682336	6836.875861
635.027823	6798.205169
635.373257	6793.274921
635.718639	6728.012143
636.063968	6733.227217
636.409245	6636.293390
636.754470	6626.115301
637.099642	6587.333704
637.444762	6527.379261
637.789829	6541.970881
638.134845	6486.056923
638.479808	6468.967412
638.824719	6480.040306
639.169577	6402.658595
639.514383	6425.963849
639.859137	6349.618094
640.203839	6361.890783
640.548489	6347.210943
640.893086	6327.356359
641.237632	6294.142717
641.582125	6314.226674
641.926566	6286.631398
642.270955	6302.427853
642.615292	6292.280011
642.959576	6307.584954
643.303809	6296.980887
643.647990	6302.669829
643.992118	6296.930475
644.336195	6241.785293
644.680219	6268.763028
645.024192	6260.845896
645.368112	6352.431058
645.711981	6373.621548
646.055797	6450.630215
646.399562	6408.652527
646.743274	6537.995931
647.086935	6584.999650
647.430544	6576.722075
647.774101	6607.243741
648.117606	6609.850018
648.461059	6605.257527
648.804460	6563.536937
649.147810	6471.293904
649.491108	6440.716786
649.834354	6416.332724
650.177548	6332.573953
650.520690	6249.687302
650.863781	6224.920113
651.206820	6249.115131
651.549807	6173.923801
651.892742	6107.554490
652.235626	6118.881962
652.578458	6105.210353
652.921238	6010.988667
653.263967	6051.277569
653.606644	5992.061655
653.949269	5997.397716
654.291843	5937.387821
654.634365	5984.709132
654.976836	5939.147184
655.319255	5934.726092
655.661622	5919.138844
656.003938	5912.681126
656.346203	5872.757708
656.688416	5908.302884
657.030577	5858.438311
657.372687	5827.112581
657.714746	5813.072967
658.056753	5859.176840
658.398708	5797.523528
658.740612	5793.230986
659.082465	5837.197409
659.424266	5829.154248
659.766016	5830.603580
660.107715	5805.082738
660.449362	5819.419780
660.790958	5809.276978
661.132503	5799.237520
661.473996	5837.308314
661.815438	5820.380120
662.156829	5823.745090
662.498168	5811.674047
662.839456	5789.165295
663.180693	5823.036808
663.521879	5823.450182
663.863013	5815.472556
664.204097	5833.424105
664.545129	5870.705958
664.886110	5869.065063
665.227040	5900.395834
665.567918	5867.386359
665.908746	5894.356532
666.249522	5897.434156
666.590248	5885.274893
666.930922	5915.176497
667.271545	5929.684938
667.612118	5928.621254
667.952639	5898.729733
668.293109	5920.419297
668.633528	5880.311877
668.973896	5884.692640
669.314213	5872.916504
669.654480	5859.799422
669.994695	5859.776737
670.334859	5842.717472
670.674973	5834.165155
671.015035	5839.798644
671.355047	5834.593653
671.695008	5825.343136
672.034918	5797.780627
672.374777	5812.440302
672.714585	5794.947498
673.054342	5795.686028
673.394049	5790.102950
673.733705	5820.453216
674.073310	5805.279343
674.412864	5767.316934
674.752368	5758.149596
675.091820	5762.394248
675.431223	5698.230441
675.770574	5699.634403
676.109875	5653.996837
676.449125	5656.898021
676.788324	5622.600531
677.127473	5566.784875
677.466571	5560.753135
677.805619	5548.871135
678.144616	5534.113157
678.483562	5514.215723
678.822458	5486.209593
679.161303	5480.576103
679.500098	5468.210153
679.838842	5453.210200
680.177535	5459.395696
680.516179	5474.751050
680.854771	5487.013657
681.193314	5564.221449
681.531805	5673.591802
681.870247	5820.813659
682.208638	5924.001037
682.546978	5937.818840
682.885268	5911.299850
683.223508	5827.334391
683.561697	5772.859683
683.899836	5743.255507
684.237925	5698.656419
684.575963	5668.999311
684.913951	5627.248475
685.251889	5685.365417
685.589776	5653.739738
685.927614	5627.099761
686.265401	5694.946130
686.603137	5675.734292
686.940824	5758.605820
687.278460	5774.460249
687.616046	5785.654131
687.953582	5855.448906
688.291068	5834.507953
688.628504	5899.561523
688.965889	5861.054669
689.303224	5805.271782
689.640510	5755.089616
689.977745	5682.378533
690.314930	5582.243574
690.652065	5532.956212
690.989150	5437.880051
691.326185	5361.723340
691.663170	5311.442871
692.000105	5234.494699
692.336990	5160.639275
692.673825	5132.078618
693.010610	5068.628135
693.347345	4996.285056
693.684030	4985.718798
694.020665	4939.695584
694.357251	4855.374724
694.693786	4862.076938
695.030272	4830.421012
695.366707	4794.976660
695.703093	4758.745887
696.039429	4784.864105
696.375716	4770.060757
696.711952	4740.275099
697.048139	4730.485179
697.384276	4706.045665
697.720363	4720.412953
698.056400	4732.015169
698.392388	4680.779402
698.728326	4663.677287
699.064214	4637.175942
699.400053	4634.559583
699.735842	4601.229994
700.071581	4575.285696
700.407270	4546.478022
700.742910	4533.305487
701.078501	4482.064679
701.414042	4474.336590
701.749533	4451.827838
702.084974	4382.408629
702.420366	4441.112866
702.755709	4375.933267
703.091002	4326.759332
703.426246	4373.085015
703.761440	4332.460877
704.096584	4289.502684
704.431679	4312.107218
704.766725	4294.934528
705.101721	4287.052683
705.436668	4313.889266
705.771565	4264.115433
706.106413	4291.501502
706.441212	4323.101975
706.775961	4332.082790
707.110661	4312.513031
707.445311	4337.796938
707.779913	4367.713666
708.114465	4379.623392
708.448967	4397.453953
708.783421	4460.208756
709.117825	4498.082945
709.452180	4503.366074
709.786485	4547.269483
710.120742	4633.894150
710.454949	4618.226244
710.789107	4682.846275
711.123216	4759.018109
711.457275	4743.718207
711.791286	4824.243078
712.125247	4838.040717
712.459159	4740.333073
712.793023	4816.678827
713.126837	4779.651552
713.460602	4765.924490
713.794318	4688.406667
714.127985	4699.295560
714.461602	4610.614102
714.795171	4584.410184
715.128691	4516.435266
715.462162	4463.384683
715.795584	4418.944392
716.128957	4395.382038
716.462281	4348.547199
716.795556	4319.868074
717.128782	4280.196714
717.461960	4214.114749
717.795088	4222.528435
718.128167	4182.141231
718.461198	4122.648054
718.794180	4120.697127
719.127113	4099.221812
719.459997	4078.351435
719.792833	4035.915002
720.125619	4029.971481
720.458357	3989.833814
720.791046	3998.121471
721.123686	3970.412769
721.456278	3929.730658
721.788821	3947.906538
722.121315	3919.514759
722.453761	3893.804875
722.786158	3905.903644
723.118506	3925.687652
723.450805	3881.083523
723.783056	3901.495155
724.115259	3919.368566
724.447412	3926.171603
724.779518	3916.774892
725.111574	3922.022733
725.443582	3954.013896
725.775542	3936.168211
726.107453	3987.885408
726.439315	3984.434739
726.771129	4000.750433
727.102895	4036.850136
727.434612	4087.296962
727.766281	4094.233590
728.097901	4096.607973
728.429473	4099.922532
728.760996	4108.038790
729.092471	4103.272379
729.423897	4084.794029
729.755276	4093.515226
730.086606	4093.966409
730.417887	4128.546204
730.749120	4194.645813
731.080305	4256.233589
731.411442	4284.327940
731.742530	4252.737549
732.073570	4257.839197
732.404562	4309.024553
732.735506	4305.054644
733.066401	4263.339096
733.397249	4203.586299
733.728048	4125.440853
734.058798	4041.205693
734.389501	3974.758244
734.720156	3914.085437
735.050762	3865.682798
735.381320	3860.273640
735.711831	3811.573573
736.042293	3783.912762
736.372707	3806.726504
736.703073	3774.130403
737.033391	3766.437602
737.363661	3784.515180
737.693883	3809.433603
738.024056	3817.131445
738.354182	3813.932833
738.684260	3875.603789
739.014290	3895.609608
739.344272	3890.563413
739.674207	3936.319446
740.004093	3939.762554
740.333931	3933.960186
740.663722	3932.415072
740.993464	3933.423303
741.323159	3909.813059
741.652806	3880.891959
741.982405	3852.802650
742.311956	3820.433401
742.641460	3813.648008
742.970915	3791.724030
743.300323	3744.006988
743.629683	3714.569170
743.958996	3704.897717
744.288260	3677.851926
744.617477	3647.617606
744.946647	3634.021614
745.275768	3608.740228
745.604842	3603.414249
745.933869	3555.591343
746.262847	3550.789644
746.591778	3590.340016
746.920662	3557.330541
747.249498	3528.371632
747.578286	3575.148499
747.907027	3588.825149
748.235720	3587.096034
748.564365	3613.791464
748.892963	3613.395733
749.221514	3599.487190
749.550017	3575.398036
749.878473	3569.459557
750.206881	3543.593397
750.535242	3538.222047
750.863555	3542.872512
751.191821	3535.106614
751.520039	3517.999458
751.848210	3494.800068
752.176334	3526.405583
752.504411	3534.481511
752.832440	3494.923577
753.160421	3474.211996
753.488356	3487.810509
753.816243	3498.522961
754.144082	3457.147690
754.471875	3443.264353
754.799620	3461.354533
755.127318	3452.819860
755.454969	3451.733491
755.782572	3455.547124
756.110129	3434.764967
756.437638	3423.281219
756.765100	3438.485339
757.092515	3446.563788
757.419882	3454.049901
757.747203	3426.232814
758.074477	3428.997887
758.401703	3444.950619
758.728882	3465.483238
759.056014	3471.751913
759.383099	3479.676607
759.710138	3474.043118
760.037129	3488.138184
760.364073	3520.144469
760.690970	3502.185359
761.017820	3479.797595
761.344623	3502.921367
761.671379	3544.049621
761.998088	3593.813371
762.324751	3723.968402
762.651366	3966.314311
762.977935	4433.644396
763.304456	4870.130181
763.630931	4955.580260
763.957359	4598.069191
764.283740	4262.252727
764.610074	4075.508224
764.936362	3884.660222
765.262602	3726.226839
765.588796	3618.323461
765.914943	3529.412631
766.241044	3445.427008
766.567097	3416.624375
766.893104	3367.657127
767.219064	3337.826099
767.544978	3313.532779
767.870845	3254.778131
768.196665	3238.913620
768.522438	3247.634816
768.848165	3242.825555
769.173846	3205.190821
769.499479	3188.255065
769.825066	3170.979031
770.150607	3157.249448
770.476101	3172.877025
770.801548	3167.906447
771.126949	3121.424488
771.452303	3105.058382
771.777611	3113.298148
772.102872	3113.870319
772.428087	3092.284098
772.753256	3083.913263
773.078378	3074.072930
773.403453	3043.281562
773.728482	3030.068698
774.053465	3052.136349
774.378401	3037.922816
774.703291	3008.036335
775.028135	3010.756038
775.352932	3006.856705
775.677683	2994.858759
776.002388	2990.346927
776.327046	2989.341216
776.651658	2979.523569
776.976224	2967.964203
777.300743	2969.390850
777.625216	2963.006229
777.949643	2955.142029
778.274024	2958.459108
778.598359	2946.287242
778.922647	2951.840073
779.246889	2949.727829
779.571086	2936.734255
779.895236	2930.473142
780.219339	2943.260029
780.543397	2953.347378
780.867409	2958.512040
781.191374	2948.039043
781.515294	2945.163065
781.839167	2947.408899
782.162995	2938.218875
782.486776	2948.175154
782.810511	2945.526028
783.134201	2933.626384
783.457844	2936.414142
783.781441	2926.354520
784.104993	2909.617889
784.428498	2909.151582
784.751958	2923.528953
785.075372	2917.983684
785.398739	2898.696229
785.722061	2918.376894
786.045337	2927.493820
786.368568	2912.405647
786.691752	2904.097825
787.014891	2953.196143
787.337983	2983.012048
787.661030	3009.183198
787.984031	3074.569484
788.306987	3118.160341
788.629897	3114.074486
788.952760	3095.548246
789.275579	3081.818663
789.598351	3024.906557
789.921078	2980.977942
790.243759	2972.657518
790.566395	2953.339816
790.888984	2935.776436
791.211529	2916.688107
791.534027	2906.920872
791.856480	2897.088101
792.178888	2879.146634
792.501249	2873.477857
792.823566	2870.629605
793.145836	2867.158771
793.468062	2863.861856
793.790241	2864.653317
794.112375	2868.897969
794.434464	2881.074876
794.756507	2884.303735
795.078505	2889.213819
795.400457	2904.188566
795.722364	2938.206272
796.044226	2964.891620
796.366042	2964.873976
796.687812	2954.902574
797.009538	2975.344453
797.331218	2962.494552
797.652852	2947.161882
797.974442	2929.457350
798.295986	2925.142122
798.617484	2921.237748
798.938938	2908.324833
799.260346	2891.615928
799.581709	2886.751215
799.903026	2878.783671
800.224299	2875.544730
800.545526	2865.066692
800.866708	2849.368539
801.187845	2839.505521
801.508936	2841.227075
801.829983	2847.838548
802.150984	2836.919409
802.471940	2823.202430
802.792851	2823.124292
803.113717	2820.681853
803.434538	2828.576300
803.755314	2820.712100
804.076045	2814.801347
804.396731	2813.306645
804.717372	2816.268322
805.037967	2811.519556
805.358518	2815.658343
805.679024	2829.708039
805.999485	2823.756957
806.319901	2827.706701
806.640272	2821.357367
806.960598	2823.025989
807.280879	2835.079388
807.601115	2838.444358
807.921306	2827.820127
808.241453	2823.555310
808.561554	2833.199038
808.881611	2832.042093
809.201623	2824.674447
809.521590	2824.404745
809.841513	2822.171514
810.161390	2824.079590
810.481223	2817.122798
810.801011	2810.264308
811.120755	2805.898669
811.440453	2809.369503
811.760107	2808.479740
812.079716	2809.843372
812.399281	2797.369037
812.718801	2792.174128
813.038276	2785.371091
813.357707	2794.160342
813.677093	2800.318112
813.996434	2793.762091
814.315731	2790.447532
814.634983	2784.942592
814.954191	2787.868982
815.273354	2798.853657
815.592473	2809.119966
815.911547	2809.976962
816.230577	2822.068170
816.549562	2828.452791
816.868502	2823.908191
817.187399	2835.820438
817.506250	2851.758046
817.825058	2843.730008
818.143821	2859.743233
818.462539	2874.591952
818.781213	2898.991137
819.099843	2933.570931
819.418429	2990.203254
819.736970	3051.412944
820.055466	3122.468007
820.373919	3225.357957
820.692327	3359.190509
821.010691	3527.580171
821.329011	3957.182261
821.647286	4842.270245
821.965517	6196.097316
822.283704	6910.239773
822.601847	6878.462859
822.919945	6264.200784
823.237999	5777.888234
823.556010	5204.225091
823.873976	4664.496475
824.191897	4262.391359
824.509775	3977.808142
824.827609	3714.649829
825.145398	3593.558793
825.463144	3585.225766
825.780845	3674.834796
826.098502	3779.882360
826.416116	4050.216755
826.733685	4363.161504
827.051210	4420.547478
827.368692	4307.323163
827.686129	4047.784398
828.003522	3731.315883
828.320872	3476.823314
828.638177	3291.684418
828.955439	3154.983449
829.272656	3072.961356
829.589830	3009.659587
829.906960	2958.887606
830.224046	2913.809608
830.541088	2882.728374
830.858086	2866.137937
831.175041	2848.040195
831.491952	2853.484641
831.808819	2865.167515
832.125642	2887.545197
832.442421	2932.179573
832.759157	3011.454238
833.075849	3185.789941
833.392497	3460.026189
833.709101	3658.781241
834.025662	3604.409877
834.342179	3452.396403
834.658653	3280.654374
834.975083	3135.844709
835.291469	3038.016077
835.607811	2958.262503
835.924110	2900.919378
836.240366	2849.502129
836.556578	2810.904535
836.872746	2786.452418
837.188871	2766.809562
837.504952	2750.579567
837.820990	2743.554719
838.136984	2725.068808
838.452935	2721.991184
838.768842	2718.616131
839.084706	2735.670355
839.400526	2814.292190
839.716303	2943.557457
840.032037	3020.276257
840.347727	3004.283196
840.663373	2947.973508
840.978977	2874.473485
841.294537	2802.505972
841.610054	2758.574837
841.925527	2736.035838
842.240957	2714.109340
842.556344	2693.276772
842.871687	2678.438135
843.186987	2671.241888
843.502244	2666.412463
843.817458	2660.693274
844.132629	2652.239259
844.447756	2640.090078
844.762840	2632.760240
845.077881	2637.486322
845.392879	2634.965745
845.707833	2630.343007
846.022745	2625.715228
846.337613	2625.264044
846.652438	2625.740433
846.967221	2626.852008
847.281960	2623.865124
847.596656	2626.032820
847.911309	2623.227418
848.225919	2617.795575
848.540485	2616.315996
848.855009	2615.060749
849.169490	2615.244751
849.483928	2615.597632
849.798323	2615.574947
850.112675	2615.393465
850.426984	2612.910697
850.741251	2611.922631
851.055474	2611.295007
851.369654	2620.449742
851.683792	2618.491254
851.997887	2612.671242
852.311938	2614.193671
852.625947	2615.489247
852.939914	2619.459156
853.253837	2615.010337
853.567718	2612.794750
853.881555	2613.003958
854.195350	2616.336161
854.509103	2613.046808
854.822812	2613.540841
855.136479	2612.542693
855.450103	2615.897581
855.763685	2614.997735
856.077224	2614.851541
856.390720	2610.619492
856.704173	2617.049484
857.017584	2617.702314
857.330953	2619.318003
857.644278	2619.391100
857.957561	2623.920577
858.270802	2616.835235
858.584000	2617.336830
858.897155	2621.747840
859.210268	2622.085597
859.523339	2619.028137
859.836367	2610.982456
860.149352	2613.354318
860.462295	2611.814246
860.775195	2609.712085
861.088054	2609.931375
861.400869	2608.106477
861.713642	2606.889039
862.026373	2606.722681
862.339062	2609.177722
862.651708	2614.947323
862.964312	2617.009155
863.276873	2612.149483
863.589392	2615.995883
863.901869	2623.756739
864.214303	2627.698922
864.526696	2627.845115
864.839045	2630.204375
865.151353	2632.351907
865.463619	2633.203862
865.775842	2632.666979
866.088023	2630.451392
866.400162	2632.054479
866.712258	2635.477422
867.024313	2630.433748
867.336325	2624.182717
867.648296	2630.509365
867.960224	2634.431383
868.272110	2633.405508
868.583954	2627.242697
868.895755	2629.065074
869.207515	2632.523306
869.519233	2639.122176
869.830909	2634.842237
870.142542	2632.906434
870.454134	2633.841568
870.765684	2640.710140
871.077191	2640.634522
871.388657	2643.724750
871.700081	2643.041673
872.011463	2643.243320
872.322803	2642.950933
872.634101	2644.697692
872.945357	2652.272026
873.256571	2662.228305
873.567744	2653.655823
873.878874	2653.509629
874.189963	2656.110865
874.501010	2658.359219
874.812015	2663.352482
875.122979	2664.388439
875.433900	2656.798982
875.744780	2653.731440
876.055618	2660.867193
876.366415	2664.464057
876.677169	2665.525220
876.987882	2658.185300
877.298554	2658.838129
877.609183	2670.939419
877.919771	2675.189112
878.230317	2680.525173
878.540822	2689.700073
878.851285	2705.272197
879.161707	2729.348748
879.472087	2765.115734
879.782425	2811.179278
880.092722	2921.933428
880.402977	3100.375150
880.713191	3354.638348
881.023363	3632.118579
881.333494	3816.975170
881.643583	3982.120849
881.953631	3983.025736
882.263637	3809.405877
882.573602	3594.420830
882.883526	3470.544557
883.193408	3364.604709
883.503248	3262.329779
883.813048	3153.004797
884.122806	3042.951367
884.432522	2961.083028
884.742197	2900.170767
885.051831	2865.911085
885.361424	2830.020590
885.670975	2795.297122
885.980485	2764.382247
886.289954	2748.028743
886.599382	2734.425190
886.908768	2725.683829
887.218113	2706.119111
887.527417	2691.756864
887.836680	2686.256965
888.145901	2680.441994
888.455082	2670.964625
888.764221	2663.531443
889.073319	2654.139774
889.382376	2654.041471
889.691392	2656.151194
890.000366	2658.507933
890.309300	2654.636327
890.618193	2654.159938
890.927044	2657.910557
891.235855	2656.796462
891.544625	2657.731596
891.853353	2659.198572
892.162041	2666.238543
892.470687	2683.852334
892.779293	2696.437575
893.087858	2705.584749
893.396381	2727.864128
893.704864	2765.105652
894.013306	2833.524192
894.321707	2923.516350
894.630068	2969.768937
894.938387	2989.805003
895.246665	2982.414671
895.554903	2938.836417
895.863100	2902.144378
896.171256	2843.074658
896.479371	2786.205402
896.787446	2744.482292
897.095480	2730.283882
897.403473	2725.701473
897.711425	2711.619010
898.019336	2692.029086
898.327207	2678.266736
898.635038	2679.552230
898.942827	2676.141890
899.250576	2665.779798
899.558284	2655.090031
899.865952	2650.023672
900.173579	2649.713641
900.481165	2644.899339
900.788711	2638.973462
901.096216	2633.034983
901.403681	2628.208078
901.711105	2630.111114
902.018489	2630.209416
902.325832	2630.151443
902.633135	2633.337452
902.940397	2645.907569
903.247619	2683.320493
903.554800	2748.467324
903.861941	2869.046683
904.169041	2987.901967
904.476101	3049.469579
904.783121	3039.041952
905.090100	2987.672594
905.397039	2917.330854
905.703938	2846.122036
906.010796	2787.526184
906.317614	2740.651015
906.624391	2701.322453
906.931129	2678.697755
907.237826	2652.884526
907.544483	2637.940026
907.851099	2625.248921
908.157675	2613.621500
908.464211	2609.523042
908.770707	2598.676999
909.077163	2594.250866
909.383578	2590.175093
909.689954	2593.961000
909.996289	2590.159970
910.302584	2590.865731
910.608839	2586.114444
910.915054	2588.093097
911.221229	2588.773652
911.527363	2590.046544
911.833458	2591.115268
912.139513	2589.484455
912.445527	2588.687953
912.751502	2599.670106
913.057436	2602.170519
913.363331	2608.209821
913.669186	2618.163579
913.975000	2633.055148
914.280775	2648.924700
914.586510	2663.914571
914.892205	2700.513348
915.197859	2761.851587
915.503475	2842.121880
915.809050	2905.622774
916.114585	2918.152562
916.420081	2927.632452
916.725536	2940.391613
917.030952	2914.840524
917.336328	2869.507948
917.641665	2824.190496
917.946961	2776.037394
918.252218	2745.790471
918.557435	2721.812223
918.862612	2700.253728
919.167750	2683.212108
919.472848	2665.999088
919.777906	2653.575164
920.082925	2638.461785
920.387904	2627.779580
920.692843	2626.675567
920.997743	2622.078035
921.302603	2614.838938
921.607423	2608.371138
921.912204	2604.673452
922.216946	2602.281424
922.521647	2600.660693
922.826310	2594.021493
923.130932	2591.271544
923.435516	2586.525298
923.740059	2584.317272
924.044564	2585.300297
924.349028	2584.864237
924.653454	2573.272104
924.957840	2570.673389
925.262186	2570.007957
925.566493	2570.837227
925.870761	2565.047462
926.174989	2568.798080
926.479178	2566.499314
926.783328	2563.714077
927.087438	2563.167111
927.391509	2564.893707
927.695541	2562.065619
927.999533	2558.259548
928.303486	2559.338355
928.607400	2557.304249
928.911275	2559.126627
929.215110	2560.137378
929.518906	2557.246276
929.822663	2558.809034
930.126381	2559.182079
930.430060	2557.392470
930.733699	2557.647048
931.037299	2559.134188
931.340861	2559.928170
931.644383	2558.085628
931.947866	2562.075702
932.251309	2561.833726
932.554714	2557.921791
932.858080	2561.133006
933.161407	2559.557645
933.464694	2559.139229
933.767943	2557.301729
934.071153	2557.223591
934.374323	2554.700493
934.677455	2554.713096
934.980548	2555.854918
935.283602	2556.840463
935.586617	2555.975905
935.889593	2557.485731
936.192530	2556.684188
936.495428	2554.902140
936.798287	2553.462890
937.101108	2561.727862
937.403890	2559.053530
937.706632	2563.172152
938.009336	2566.834551
938.312002	2567.671382
938.614628	2571.656414
938.917216	2575.908628
939.219765	2573.330078
939.522275	2577.526838
939.824747	2575.255798
940.127179	2571.837896
940.429573	2570.438976
940.731929	2568.982082
941.034246	2566.030487
941.336524	2568.041907
941.638763	2566.756413
941.940964	2565.743141
942.243126	2567.356310
942.545250	2565.637277
942.847335	2562.544529
943.149381	2560.270968
943.451389	2560.028993
943.753359	2561.160732
944.055290	2558.625032
944.357182	2561.067471
944.659036	2557.568910
944.960851	2559.582851
945.262628	2555.799465
945.564367	2559.494631
945.866067	2557.168138
946.167729	2561.075032
946.469352	2560.550753
946.770937	2557.780638
947.072484	2554.599670
947.373992	2558.166287
947.675462	2557.120247
947.976893	2555.650751
948.278286	2557.233673
948.579641	2558.269630
948.880958	2554.100596
949.182236	2553.772921
949.483476	2555.897767
949.784678	2554.919784
950.085841	2553.825853
950.386967	2552.041285
950.688054	2556.154866
950.989103	2557.004301
951.290114	2555.060936
951.591087	2559.227450
951.892021	2560.195351
952.192917	2560.659137
952.493776	2559.756771
952.794596	2563.625856
953.095378	2560.097049
953.396122	2563.066288
953.696828	2561.488407
953.997496	2562.443706
954.298126	2559.171997
954.598718	2559.915567
954.899272	2553.581357
955.199788	2556.545556
955.500266	2555.418858
955.800706	2550.039947
956.101108	2545.891077
956.401472	2551.088507
956.701798	2545.649102
957.002087	2550.244113
957.302337	2548.020965
957.602550	2547.418547
957.902724	2548.232693
958.202861	2546.183464
958.502960	2546.942158
958.803022	2547.554658
959.103045	2544.295552
959.403031	2545.568443
959.702979	2545.749925
960.002889	2545.911242
960.302762	2544.083823
960.602596	2542.765562
960.902393	2543.430994
961.202153	2542.813453
961.501875	2544.295552
961.801559	2542.813453
962.101205	2544.406457
962.400814	2543.410829
962.700385	2541.948895
962.999918	2545.570964
963.299414	2541.164995
963.598873	2539.534182
963.898293	2539.892104
964.197677	2542.873947
964.497022	2540.262629
964.796331	2544.056097
965.095601	2541.096940
965.394835	2543.945192
965.694030	2541.636343
965.993189	2543.693134
966.292309	2540.015612
966.591393	2543.562064
966.890439	2542.942002
967.189447	2541.724563
967.488419	2541.512835
967.787353	2541.316230
968.086249	2542.422763
968.385108	2539.695499
968.683930	2540.343287
968.982714	2540.875129
969.281462	2542.367311
969.580172	2541.669111
969.878844	2542.140459
970.177480	2541.996786
970.476078	2541.177598
970.774639	2541.008720
971.073162	2543.284801
971.371649	2540.827238
971.670098	2536.756506
971.968510	2536.126362
972.266885	2537.984027
972.565223	2539.385468
972.863524	2543.244471
973.161788	2540.812115
973.460014	2541.326312
973.758204	2542.072403
974.056356	2540.688606
974.354471	2543.284801
974.652550	2543.456200
974.950591	2542.543751
975.248595	2543.040305
975.546563	2543.645243
975.844493	2545.500388
976.142386	2544.598021
976.440243	2540.711292
976.738062	2541.737166
977.035845	2541.086857
977.333590	2540.945705
977.631299	2540.638195
977.928971	2541.928730
978.226606	2539.372865
978.524204	2543.735984
978.821765	2536.799356
979.119290	2540.950746
979.416777	2539.632485
979.714228	2541.033925
980.011642	2540.529810
980.309020	2545.381921
980.606360	2540.446631
980.903664	2545.255892
981.200931	2540.199614
981.498162	2543.025181
981.795356	2543.325130
982.092513	2546.052394
982.389633	2550.367622
982.686717	2552.346275
982.983764	2553.984650
983.280775	2555.428940
983.577749	2556.306101
983.874686	2554.723179
984.171587	2551.151521
984.468451	2548.953578
984.765279	2545.949050
985.062070	2545.306303
985.358824	2543.108360
985.655543	2541.502753
985.952224	2541.013761
986.248869	2543.035263
986.545478	2540.355890
986.842050	2539.382947
987.138586	2537.084181
987.435086	2536.544778
987.731549	2535.498738
988.027975	2540.350849
988.324366	2538.336908
988.620719	2539.229192
988.917037	2539.367824
989.213318	2539.382947
989.509563	2537.053934
989.805772	2536.764068
990.101944	2538.369676
990.398080	2537.275745
990.694180	2538.440252
990.990244	2538.934285
991.286271	2539.009902
991.582262	2538.752803
991.878217	2536.242309
992.174136	2539.173740
992.470019	2538.959491
992.765865	2537.860519
993.061676	2538.289017
993.357450	2538.460416
993.653188	2538.147865
993.948890	2539.385468
994.244556	2540.492001
994.540186	2539.435880
994.835780	2540.068544
995.131337	2541.386806
995.426859	2540.307999
995.722345	2540.335726
996.017795	2544.222455
996.313208	2544.131714
996.608586	2542.188350
996.903928	2541.386806
997.199234	2542.009389
997.494504	2541.674152
997.789738	2542.752959
998.084936	2544.098947
998.380099	2539.350180
998.675225	2540.013092
998.970316	2539.330015
999.265371	2539.829090
999.560390	2538.299099
999.855373	2536.708615
1000.150320	2539.365303
1000.445232	2537.951260
1000.740108	2536.391023
1001.034948	2540.426466
1001.329752	2538.793133
1001.624521	2536.650642
1001.919254	2530.649148
1002.213951	2535.120652
1002.508613	2533.817514
1002.803239	2536.333049
1003.097829	2532.889941
1003.392384	2536.580066
1003.686903	2536.209541
1003.981386	2537.318595
1004.275834	2536.517052
1004.570246	2538.314223
1004.864623	2537.409336
1005.158964	2535.193749
1005.453270	2537.298430
1005.747540	2540.227341
1006.041775	2536.350693
1006.335974	2537.500077
1006.630138	2536.043183
1006.924266	2534.046886
1007.218359	2537.127031
1007.512416	2534.906403
1007.806438	2532.423635
1008.100425	2536.796836
1008.394376	2534.966897
1008.688292	2535.400436
1008.982172	2534.314067
1009.276017	2537.159799
1009.569827	2536.832124
1009.863602	2537.540406
1010.157341	2541.495191
1010.451045	2535.294572
1010.744714	2537.779861
1011.038347	2537.416897
1011.331945	2535.382792
1011.625508	2536.176774
1011.919036	2537.885725
1012.212528	2535.287010
1012.505986	2536.443955
1012.799408	2536.058307
1013.092795	2535.619726
1013.386147	2535.256763
1013.679464	2534.707277
1013.972745	2533.454551
1014.265992	2538.099974
1014.559204	2539.559388
1014.852380	2535.503780
1015.145521	2536.065868
1015.438628	2536.564943
1015.731699	2537.999151
1016.024736	2534.218285
1016.317737	2536.869932
1016.610703	2535.145858
1016.903635	2530.628984
1017.196531	2531.473377
1017.489393	2531.632173
1017.782219	2531.700229
1018.075011	2532.705939
1018.367768	2535.493697
1018.660490	2536.063348
1018.953177	2536.063348
1019.245829	2536.063348
