Dividing Wavelength (nm)	Counts (n)	Blue Motor Position (mm): 8.700000	Red Motor Position (mm): 0.000000	
326.493990	2141.308234
326.888308	2141.308234
327.282561	2141.308234
327.676750	2106.481423
328.070874	2105.591659
328.464933	2109.652308
328.858929	2115.323607
329.252859	2126.590585
329.646726	2135.679786
330.040528	2149.517753
330.434265	2167.328150
330.827938	2183.333813
331.221547	2199.556246
331.615091	2220.918136
332.008571	2239.590569
332.401986	2261.965731
332.795338	2279.466096
333.188625	2297.465536
333.581847	2316.057312
333.975006	2334.817966
334.368100	2353.785307
334.761129	2371.804911
335.154095	2389.595143
335.546996	2407.713050
335.939833	2422.148394
336.332606	2437.919644
336.725315	2449.983125
337.117960	2457.260031
337.510540	2468.854685
337.903056	2478.521097
338.295508	2486.256748
338.687896	2492.527943
339.080220	2504.520848
339.472480	2508.573936
339.864676	2513.539472
340.256807	2519.278826
340.648875	2521.123888
341.040879	2524.977850
341.432818	2522.759743
341.824694	2527.823582
342.216506	2527.100176
342.608253	2528.350382
342.999937	2524.539270
343.391557	2525.287881
343.783113	2524.372912
344.174605	2527.470701
344.566033	2520.271933
344.957397	2521.181862
345.348697	2519.513240
345.739934	2518.162210
346.131106	2515.926459
346.522215	2516.947292
346.913260	2512.390089
347.304241	2513.131139
347.695159	2508.047135
348.086012	2505.846672
348.476802	2505.256857
348.867528	2507.008658
349.258191	2503.011023
349.648789	2502.423728
350.039324	2497.672441
350.429796	2501.269304
350.820203	2497.538850
351.210548	2498.088336
351.600828	2497.087667
351.991045	2493.306801
352.381198	2495.330825
352.771288	2495.429127
353.161314	2490.808910
353.551276	2496.606237
353.941175	2491.239928
354.331010	2493.442913
354.720782	2492.212871
355.110490	2494.645228
355.500135	2491.751605
355.889717	2495.267810
356.279235	2492.227994
356.668689	2494.398211
357.058080	2493.354692
357.447408	2493.047182
357.836672	2491.542398
358.225873	2494.005001
358.615010	2490.506440
359.004084	2495.711432
359.393095	2496.470125
359.782043	2497.460712
360.170927	2496.825527
360.559748	2497.642194
360.948505	2496.943994
361.337199	2501.057575
361.725830	2498.342914
362.114398	2500.417349
362.502903	2495.905516
362.891344	2499.250322
363.279722	2500.636639
363.668037	2502.179232
364.056289	2501.261742
364.444478	2503.144613
364.832603	2501.659993
365.220665	2501.687720
365.608665	2502.632936
365.996601	2506.958246
366.384474	2505.153513
366.772284	2503.447082
367.160031	2503.351300
367.547715	2506.305417
367.935336	2504.556136
368.322893	2506.025633
368.710388	2504.137720
369.097820	2508.435304
369.485189	2505.869357
369.872495	2507.447238
370.259738	2508.125273
370.646918	2507.701816
371.034035	2507.807680
371.421090	2510.383710
371.808081	2508.959584
372.195010	2510.058556
372.581875	2506.587721
372.968678	2509.841786
373.355418	2509.299862
373.742096	2510.265243
374.128710	2511.853206
374.515262	2510.993690
374.901751	2511.596108
375.288177	2509.493946
375.674540	2510.895387
376.060841	2511.535614
376.447079	2512.621982
376.833254	2509.438494
377.219367	2506.507063
377.605417	2510.421519
377.991404	2505.145951
378.377329	2510.809687
378.763191	2503.716784
379.148991	2512.659791
379.534727	2511.933865
379.920402	2512.889163
380.306013	2513.501664
380.691563	2512.715244
381.077049	2513.322703
381.462474	2515.792868
381.847835	2513.431088
382.233134	2512.034688
382.618371	2514.220028
383.003545	2514.835049
383.388657	2513.731036
383.773706	2514.467045
384.158693	2515.412261
384.543618	2518.444515
384.928480	2512.700120
385.313280	2517.254803
385.698017	2515.674401
386.082692	2514.393948
386.467305	2516.254134
386.851856	2518.436953
387.236344	2515.460152
387.620770	2516.753208
388.005133	2516.226407
388.389435	2518.068949
388.773674	2516.362518
389.157851	2516.760770
389.541965	2520.587005
389.926018	2519.661954
390.310008	2518.948630
390.693936	2516.259175
391.077802	2519.931655
391.461606	2518.099196
391.845348	2519.298991
392.229027	2517.945441
392.612645	2518.351254
392.996200	2519.145235
393.379694	2519.036851
393.763125	2521.033148
394.146494	2520.912160
394.529801	2520.188754
394.913047	2520.579444
395.296230	2522.986595
395.679351	2521.759074
396.062410	2520.955010
396.445408	2522.777387
396.828343	2522.621111
397.211217	2519.888806
397.594028	2522.820237
397.976778	2517.428722
398.359466	2521.088600
398.742092	2521.217150
399.124656	2523.528519
399.507158	2524.793848
399.889598	2522.928621
400.271977	2524.614887
400.654294	2524.962727
401.036549	2521.842253
401.418742	2523.483148
401.800874	2523.362161
402.182944	2524.408200
402.564952	2525.449198
402.946898	2524.274609
403.328783	2524.715710
403.710606	2525.207223
404.092367	2525.822244
404.474067	2525.091276
404.855705	2527.148067
405.237282	2525.330731
405.618797	2525.040865
406.000250	2526.039013
406.381642	2528.400794
406.762972	2527.175793
407.144240	2527.105217
407.525447	2527.604292
407.906593	2525.713859
408.287677	2526.769981
408.668700	2524.990453
409.049661	2528.191586
409.430560	2526.775022
409.811399	2530.238294
410.192176	2528.156298
410.572891	2527.100176
410.953545	2528.511699
411.334138	2527.009435
411.714669	2528.884745
412.095139	2528.098325
412.475547	2527.301822
412.855894	2525.292923
413.236180	2528.052954
413.616405	2529.245187
413.996568	2528.138654
414.376670	2530.528161
414.756711	2529.958510
415.136691	2529.295599
415.516609	2528.090763
415.896466	2528.824251
416.276262	2530.190403
416.655997	2525.519774
417.035670	2526.578417
417.415283	2529.945907
417.794834	2526.263345
418.174324	2527.221164
418.553753	2530.704601
418.933121	2531.685106
419.312428	2529.421627
419.691674	2528.413397
420.070859	2529.761905
420.449983	2531.370033
420.829045	2530.462626
421.208047	2532.471526
421.586988	2532.877338
421.965867	2534.099818
422.344686	2530.823068
422.723444	2533.371372
423.102141	2530.555887
423.480777	2531.528830
423.859352	2535.173584
424.237866	2533.557894
424.616319	2532.416073
424.994712	2532.080836
425.373044	2534.840868
425.751314	2531.629653
426.129524	2533.620909
426.507673	2531.680064
426.885762	2532.884900
427.263789	2532.900024
427.641756	2533.268028
428.019662	2535.471012
428.397508	2533.348686
428.775292	2535.712988
429.153016	2533.101670
429.530679	2536.973276
429.908282	2533.426824
430.285824	2534.155271
430.663305	2532.181659
431.040726	2535.130734
431.418086	2532.731145
431.795385	2535.745755
432.172624	2532.234591
432.549802	2535.289531
432.926920	2536.335570
433.303977	2537.714326
433.680974	2536.771630
434.057910	2537.409336
434.434786	2535.274407
434.811601	2535.201310
435.188355	2535.150899
435.565050	2536.325488
435.941683	2536.300282
436.318257	2533.381454
436.694770	2533.935981
437.071222	2534.500590
437.447614	2532.509334
437.823946	2532.388347
438.200218	2537.351362
438.576429	2536.890097
438.952580	2537.321116
439.328670	2536.769109
439.704700	2538.490663
440.080670	2537.182484
440.456580	2537.613503
440.832429	2535.133255
441.208218	2537.101825
441.583947	2538.397402
441.959616	2537.001002
442.335224	2537.510159
442.710773	2538.594007
443.086261	2540.759183
443.461689	2536.708615
443.837057	2536.943029
444.212365	2536.814480
444.587612	2536.703574
444.962800	2540.827238
445.337927	2537.807587
445.712995	2537.721887
446.088002	2539.067875
446.462949	2540.305479
446.837837	2540.560057
447.212664	2539.876981
447.587431	2538.944367
447.962139	2537.558050
448.336786	2539.337577
448.711374	2536.035621
449.085901	2537.989068
449.460369	2538.215920
449.834776	2540.129038
450.209124	2536.625436
450.583412	2539.859337
450.957640	2539.047711
451.331808	2540.945705
451.705917	2539.672814
452.079965	2538.883873
452.453954	2540.416384
452.827883	2541.643905
453.201752	2540.043339
453.575562	2539.965201
453.949311	2536.159130
454.323001	2539.198945
454.696632	2539.025026
455.070202	2541.860675
455.443713	2540.134079
455.817164	2539.476209
456.190556	2532.935312
456.563888	2537.288348
456.937160	2537.600900
457.310373	2540.673483
457.683526	2536.418749
458.056619	2536.839685
458.429653	2540.416384
458.802628	2540.560057
459.175542	2541.364121
459.548398	2541.240613
459.921194	2540.544933
460.293930	2541.848072
460.666607	2543.423432
461.039224	2540.928061
461.411782	2540.181970
461.784280	2542.548792
462.156719	2542.470654
462.529099	2538.747762
462.901419	2540.945705
463.273680	2542.737835
463.645882	2542.508463
464.018024	2542.528627
464.390106	2541.883360
464.762130	2545.523073
465.134094	2541.991745
465.505999	2543.020140
465.877845	2543.224307
466.249631	2544.754297
466.621358	2541.906045
466.993026	2546.158258
467.364634	2548.598177
467.736184	2544.751776
468.107674	2542.944523
468.479105	2542.354708
468.850477	2542.924358
469.221790	2543.221786
469.593043	2539.912269
469.964238	2542.508463
470.335373	2543.423432
470.706449	2543.975439
471.077467	2543.373021
471.448425	2545.545758
471.819324	2541.018802
472.190164	2545.112219
472.560945	2545.795295
472.931667	2544.940820
473.302330	2542.705068
473.672934	2543.022661
474.043479	2542.949564
474.413965	2544.522404
474.784393	2539.551826
475.154761	2542.309337
475.525070	2543.652805
475.895321	2543.541899
476.265513	2539.922351
476.635645	2545.049204
477.005719	2541.737166
477.375734	2548.343598
477.745691	2542.977290
478.115588	2545.195398
478.485427	2544.865202
478.855207	2545.727240
479.224928	2547.050542
479.594591	2544.391334
479.964194	2545.795295
480.333739	2545.908721
480.703226	2544.484595
481.072653	2545.893598
481.442022	2546.979966
481.811333	2545.626417
482.180584	2545.540717
482.549777	2544.887888
482.918912	2545.049204
483.287988	2548.509957
483.657005	2546.173382
484.025964	2546.082641
484.394864	2545.880995
484.763706	2548.777138
485.132489	2545.868392
485.501213	2548.875440
485.869879	2544.098947
486.238487	2543.297403
486.607036	2544.774462
486.975527	2548.547765
487.343959	2545.147507
487.712333	2546.392672
488.080648	2546.400234
488.448905	2545.850748
488.817104	2547.342929
489.185244	2544.222455
489.553326	2549.717313
489.921350	2549.137580
490.289315	2545.807898
490.657222	2546.594318
491.025070	2549.611449
491.392861	2546.594318
491.760593	2547.289997
492.128267	2548.394010
492.495883	2548.250337
492.863440	2547.282436
493.230939	2547.070707
493.598380	2546.674977
493.965763	2544.230017
494.333088	2540.479398
494.700354	2543.995603
495.067563	2545.170192
495.434713	2540.489481
495.801805	2545.888557
496.168839	2547.390820
496.535815	2549.147663
496.902733	2545.487785
497.269593	2548.257899
497.636395	2549.437529
498.003139	2547.320244
498.369825	2548.855276
498.736453	2549.051881
499.103023	2550.087838
499.469535	2546.795964
499.835989	2545.843186
500.202385	2549.520708
500.568723	2546.017106
500.935003	2547.569781
501.301226	2548.699000
501.667390	2547.337888
502.033497	2548.905687
502.399546	2548.018444
502.765537	2549.429967
503.131470	2548.204967
503.497345	2547.194215
503.863163	2549.072045
504.228923	2548.865358
504.594625	2549.051881
504.960269	2547.257230
505.325856	2547.516849
505.691385	2549.137580
506.056856	2549.979453
506.422270	2545.477703
506.787625	2549.500543
507.152924	2548.182282
507.518164	2547.317724
507.883347	2548.683876
508.248472	2548.058773
508.613540	2549.455173
508.978550	2548.310831
509.343503	2550.778476
509.708398	2551.736295
510.073236	2545.858310
510.438016	2547.698331
510.802738	2547.017775
511.167403	2548.459545
511.532010	2546.843855
511.896561	2547.194215
512.261053	2550.652447
512.625488	2545.512991
512.989866	2542.788247
513.354186	2545.215563
513.718449	2542.279090
514.082655	2546.064997
514.446803	2548.457024
514.810894	2548.762014
515.174927	2548.940975
515.538904	2548.666232
515.902822	2548.484751
516.266684	2547.065666
516.630488	2548.968702
516.994235	2550.415513
517.357925	2547.267312
517.721558	2551.859803
518.085133	2547.655481
518.448651	2551.625390
518.812112	2550.561706
519.175516	2548.474668
519.538863	2548.583053
519.902152	2548.651109
520.265385	2550.677653
520.628560	2552.532797
520.991678	2550.455842
521.354739	2550.831408
521.717743	2551.063301
522.080690	2550.249155
522.443580	2548.333516
522.806413	2549.654298
523.169189	2553.029351
523.531908	2552.842828
523.894569	2550.980122
524.257174	2547.622713
524.619722	2551.322920
524.982213	2550.228990
525.344647	2550.768393
525.707025	2552.273178
526.069345	2552.434495
526.431608	2549.470296
526.793815	2548.295708
527.155964	2550.196222
527.518057	2550.765873
527.880093	2551.227138
528.242072	2551.403579
528.603995	2550.478527
528.965860	2550.113043
529.327669	2551.879968
529.689421	2552.031202
530.051117	2553.656975
530.412755	2550.745708
530.774337	2549.359391
531.135862	2552.938610
531.497331	2548.840152
531.858743	2547.678166
532.220098	2551.653116
532.581396	2549.208156
532.942638	2548.404092
533.303824	2551.443908
533.664953	2549.924000
534.026025	2551.249824
534.387040	2553.619166
534.747999	2552.245452
535.108902	2552.850390
535.469748	2553.309135
535.830537	2551.774104
536.191270	2553.745195
536.551947	2554.720658
536.912567	2554.367777
537.273131	2554.758467
537.633638	2553.450287
537.994089	2551.811912
538.354483	2552.976419
538.714821	2552.452139
539.075103	2553.755277
539.435328	2551.338044
539.795497	2556.956410
540.155609	2553.561193
540.515665	2553.198230
540.875665	2555.013045
541.235609	2555.091183
541.595496	2555.461708
541.955328	2553.750236
542.315102	2554.879454
542.674821	2558.120916
543.034483	2557.420196
543.394090	2553.961964
543.753640	2556.517829
544.113134	2557.183262
544.472571	2557.357182
544.831953	2555.227294
545.191278	2556.419527
545.550548	2555.612942
545.909761	2556.353992
546.268918	2556.386759
546.628019	2558.219219
546.987064	2558.569579
547.346053	2554.735782
547.704986	2556.296019
548.063863	2557.626883
548.422684	2555.890206
548.781449	2556.326266
549.140158	2557.752912
549.498811	2559.247614
549.857408	2557.158056
550.215949	2556.732078
550.574434	2553.039433
550.932864	2556.752243
551.291237	2553.581357
551.649555	2558.360371
552.007817	2555.895247
552.366022	2557.626883
552.724173	2560.633932
553.082267	2560.006308
553.440305	2558.501523
553.798288	2560.812893
554.156215	2557.652089
554.514086	2559.020762
554.871902	2558.352809
555.229661	2556.522871
555.587365	2557.445402
555.945014	2555.607901
556.302606	2556.233004
556.660143	2559.015721
557.017625	2560.291133
557.375050	2556.888354
557.732421	2558.219219
558.089735	2558.524209
558.446994	2560.404559
558.804197	2558.922460
559.161345	2560.785166
559.518437	2559.149312
559.875474	2558.844322
560.232455	2558.635114
560.589381	2558.027655
560.946251	2562.426062
561.303065	2559.315670
561.659825	2557.551266
562.016528	2560.976730
562.373177	2558.123437
562.729770	2558.365412
563.086307	2558.783828
563.442789	2557.914229
563.799216	2559.673592
564.155587	2558.317521
564.511904	2559.572769
564.868164	2558.178890
565.224370	2557.573951
565.580520	2560.311298
565.936615	2558.050340
566.292654	2557.712583
566.648638	2558.342727
567.004567	2558.524209
567.360441	2557.513457
567.716260	2559.199723
568.072023	2556.795093
568.427732	2555.101265
568.783385	2556.517829
569.138982	2554.992880
569.494525	2554.224104
569.850013	2555.131512
570.205445	2557.233673
570.560823	2557.062274
570.916145	2556.449774
571.271412	2558.357851
571.626625	2559.925649
571.981782	2556.961451
572.336884	2558.340207
572.691931	2559.229970
573.046923	2557.359702
573.401860	2557.052192
573.756743	2557.006821
574.111570	2558.453632
574.466342	2557.591595
574.821059	2557.654610
575.175722	2558.403221
575.530330	2558.204095
575.884882	2556.086811
576.239380	2556.885834
576.593823	2555.749053
576.948211	2557.964641
577.302544	2556.122099
577.656823	2557.740309
578.011047	2558.856925
578.365216	2560.074363
578.719330	2558.095711
579.073389	2555.275185
579.427394	2552.069011
579.781344	2554.002294
580.135239	2557.652089
580.489080	2554.881975
580.842866	2556.903478
581.196597	2558.796431
581.550273	2556.409445
581.903895	2553.500699
582.257463	2556.535473
582.610975	2555.902809
582.964434	2553.263765
583.317837	2555.237376
583.671186	2553.788045
584.024481	2556.222922
584.377721	2556.979095
584.730906	2554.531615
585.084037	2557.253838
585.437113	2553.823333
585.790135	2557.125288
586.143103	2554.831563
586.496016	2555.176882
586.848874	2549.147662
587.201679	2551.821995
587.554428	2551.070863
587.907124	2553.145297
588.259765	2548.348640
588.612352	2552.938610
588.964884	2557.362223
589.317362	2554.337530
589.669786	2556.394321
590.022155	2554.894578
590.374470	2555.842315
590.726731	2556.716955
591.078937	2557.173179
591.431090	2554.889537
591.783188	2556.041440
592.135232	2555.413817
592.487222	2554.763508
592.839157	2554.425751
593.191038	2555.713765
593.542866	2554.582026
593.894639	2555.560010
594.246358	2558.080587
594.598022	2551.431305
594.949633	2554.478683
595.301190	2550.922149
595.652692	2552.966337
596.004141	2554.463559
596.355535	2557.667212
596.706876	2554.410627
597.058162	2553.193188
597.409395	2554.193858
597.760573	2556.457336
598.111698	2552.212684
598.462768	2554.413148
598.813785	2556.061605
599.164748	2554.483724
599.515657	2554.413148
599.866511	2556.353992
600.217312	2554.241748
600.568060	2551.028013
600.918753	2555.983467
601.269392	2554.060267
601.619978	2551.847200
601.970510	2556.043961
602.320988	2555.108827
602.671412	2555.660833
603.021783	2553.556152
603.372100	2555.595298
603.722363	2553.934238
604.072572	2553.299053
604.422728	2555.791903
604.772830	2554.398024
605.122878	2550.899463
605.472872	2552.457180
605.822813	2549.924000
606.172701	2554.128322
606.522534	2552.676470
606.872314	2555.696121
607.222041	2554.806358
607.571714	2556.157387
607.921333	2553.530946
608.270899	2555.217212
608.620411	2556.280895
608.969870	2558.158725
609.319276	2555.922973
609.668627	2560.568397
610.017926	2561.490928
610.367171	2563.867832
610.716362	2562.915054
611.065500	2561.916905
611.414585	2557.768036
611.763616	2560.134857
612.112594	2558.370453
612.461518	2556.490103
612.810389	2559.040927
613.159207	2558.151163
613.507971	2557.672254
613.856682	2557.359702
614.205340	2558.251986
614.553945	2556.096893
614.902496	2558.761143
615.250994	2557.490772
615.599439	2555.726368
615.947830	2558.524209
616.296169	2557.727706
616.644454	2557.049671
616.992686	2556.742161
617.340864	2559.300546
617.688990	2551.499361
618.037063	2560.013870
618.385082	2557.752912
618.733048	2560.490259
619.080961	2558.632593
619.428821	2557.097562
619.776628	2560.333983
620.124382	2557.606719
620.472083	2559.298026
620.819731	2557.747871
621.167326	2558.539332
621.514868	2556.911039
621.862357	2555.582695
622.209793	2555.217212
622.557176	2558.304918
622.904506	2555.345761
623.251783	2555.595298
623.599007	2555.290308
623.946179	2552.416851
624.293297	2553.654454
624.640363	2559.093859
624.987376	2556.112017
625.334336	2558.607388
625.681243	2557.301729
626.028097	2556.283416
626.374899	2557.505896
626.721647	2558.083108
627.068343	2558.541853
627.414987	2559.398849
627.761577	2559.058571
628.108115	2557.102603
628.454600	2561.364899
628.801032	2559.222408
629.147412	2560.384394
629.493739	2560.580999
629.840014	2559.913047
630.186236	2561.246432
630.532405	2559.580330
630.878521	2558.249466
631.224585	2561.168294
631.570597	2557.458005
631.916556	2556.969013
632.262462	2559.592933
632.608316	2561.974878
632.954117	2559.517316
633.299866	2560.505382
633.645562	2562.151319
633.991206	2560.550752
634.336797	2559.252655
634.682336	2559.897923
635.027823	2561.155691
635.373257	2559.214847
635.718639	2558.015052
636.063968	2563.542677
636.409245	2561.251473
636.754470	2560.291133
637.099642	2557.924311
637.444762	2561.909343
637.789829	2560.749878
638.134845	2561.997564
638.479808	2562.010167
638.824719	2559.935732
639.169577	2558.758622
639.514383	2559.736606
639.859137	2563.252811
640.203839	2562.065619
640.548489	2563.887996
640.893086	2557.619322
641.237632	2559.177038
641.582125	2559.015721
641.926566	2557.808365
642.270955	2561.001936
642.615292	2563.618295
642.959576	2564.437482
643.303809	2564.608881
643.647990	2564.392112
643.992118	2566.254818
644.336195	2564.618964
644.680219	2565.778429
645.024192	2568.500652
645.368112	2567.126938
645.711981	2566.239695
646.055797	2571.200190
646.399562	2566.015363
646.743274	2569.473595
647.086935	2572.127762
647.430544	2570.484346
647.774101	2572.042063
648.117606	2572.120201
648.461059	2572.664645
648.804460	2575.333936
649.147810	2574.665983
649.491108	2574.565160
649.834354	2573.861919
650.177548	2576.644636
650.520690	2575.006261
650.863781	2575.734708
651.206820	2580.201170
651.549807	2576.521128
651.892742	2574.386199
652.235626	2577.859554
652.578458	2575.371745
652.921238	2576.773186
653.263967	2580.569174
653.606644	2576.879050
653.949269	2578.416602
654.291843	2580.135635
654.634365	2580.375090
654.976836	2581.864751
655.319255	2578.708989
655.661622	2583.321644
656.003938	2587.021851
656.346203	2581.650502
656.688416	2583.863568
657.030577	2585.093610
657.372687	2585.310380
657.714746	2587.818354
658.056753	2585.817016
658.398708	2584.576892
658.740612	2585.983374
659.082465	2585.212077
659.424266	2588.801379
659.766016	2584.990266
660.107715	2592.902357
660.449362	2592.869590
660.790958	2594.265989
661.132503	2593.179621
661.473996	2599.360075
661.815438	2597.822523
662.156829	2598.228336
662.498168	2600.247318
662.839456	2601.613471
663.180693	2605.981631
663.521879	2603.519027
663.863013	2602.982144
664.204097	2606.863833
664.545129	2609.903649
664.886110	2608.091354
665.227040	2615.237189
665.567918	2612.605707
665.908746	2615.892539
666.249522	2618.365225
666.590248	2619.917901
666.930922	2622.730865
667.271545	2623.547532
667.612118	2627.895527
667.952639	2623.587861
668.293109	2630.317801
668.633528	2629.440640
668.973896	2627.749333
669.314213	2633.360137
669.654480	2638.456744
669.994695	2633.392905
670.334859	2633.201341
670.674973	2639.976652
671.015035	2640.324492
671.355047	2642.172074
671.695008	2641.816673
672.034918	2641.814152
672.374777	2646.189874
672.714585	2646.716675
673.054342	2649.832108
673.394049	2651.306645
673.733705	2656.050371
674.073310	2659.795948
674.412864	2656.861997
674.752368	2662.147647
675.091820	2662.724859
675.431223	2658.391987
675.770574	2661.668737
676.109875	2657.028355
676.449125	2662.613953
676.788324	2660.814261
677.127473	2661.893068
677.466571	2659.659837
677.805619	2666.520847
678.144616	2670.190807
678.483562	2672.804646
678.822458	2667.322391
679.161303	2671.720798
679.500098	2673.109636
679.838842	2674.876560
680.177535	2675.113494
680.516179	2677.409740
680.854771	2683.507015
681.193314	2687.643282
681.531805	2698.138964
681.870247	2709.111036
682.208638	2720.027654
682.546978	2720.120916
682.885268	2720.839280
683.223508	2724.476473
683.561697	2718.613611
683.899836	2723.742985
684.237925	2722.709548
684.575963	2723.488407
684.913951	2719.541183
685.251889	2733.626167
685.589776	2730.611557
685.927614	2732.363358
686.265401	2741.485326
686.603137	2745.213259
686.940824	2758.153901
687.278460	2758.042996
687.616046	2767.623708
687.953582	2769.957763
688.291068	2776.531427
688.628504	2790.815537
688.965889	2783.901594
689.303224	2782.308590
689.640510	2785.509722
689.977745	2779.856068
690.314930	2772.158226
690.652065	2769.788884
690.989150	2760.238418
691.326185	2762.375867
691.663170	2759.071391
692.000105	2753.765577
692.336990	2748.792478
692.673825	2753.707603
693.010610	2749.404978
693.347345	2736.250087
693.684030	2743.693351
694.020665	2744.129411
694.357251	2731.892010
694.693786	2739.657907
695.030272	2737.802763
695.366707	2742.788464
695.703093	2735.211610
696.039429	2743.847106
696.375716	2748.961357
696.711952	2741.903742
697.048139	2741.533217
697.384276	2745.011613
697.720363	2749.881367
698.056400	2757.286822
698.392388	2751.534866
698.728326	2746.034967
699.064214	2748.230390
699.400053	2751.910432
699.735842	2758.194230
700.071581	2751.713827
700.407270	2750.730802
700.742910	2749.299114
701.078501	2748.384145
701.414042	2750.380442
701.749533	2753.238776
702.084974	2739.163874
702.420366	2753.508478
702.755709	2747.224679
703.091002	2743.032960
703.426246	2754.385638
703.761440	2740.177146
704.096584	2738.987434
704.431679	2751.915473
704.766725	2752.472521
705.101721	2753.203488
705.436668	2759.557862
705.771565	2745.286356
706.106413	2754.436050
706.441212	2769.057917
706.775961	2772.395161
707.110661	2762.557349
707.445311	2764.694798
707.779913	2782.611059
708.114465	2783.435287
708.448967	2784.312448
708.783421	2798.205868
709.117825	2811.035605
709.452180	2810.181129
709.786485	2813.999803
710.120742	2831.520333
710.454949	2825.392811
710.789107	2842.010975
711.123216	2854.724765
711.457275	2851.939527
711.791286	2873.911396
712.125247	2880.550596
712.459159	2859.528984
712.793023	2867.246991
713.126837	2888.301370
713.460602	2890.383366
713.794318	2859.077801
714.127985	2870.032228
714.461602	2864.534850
714.795171	2854.697038
715.128691	2848.153621
715.462162	2848.808971
715.795584	2844.655060
716.128957	2843.208249
716.462281	2825.738130
716.795556	2825.579334
717.128782	2827.986485
717.461960	2819.066163
717.795088	2822.463901
718.128167	2821.087666
718.461198	2803.799028
718.794180	2806.475881
719.127113	2811.975780
719.459997	2813.377221
719.792833	2800.439099
720.125619	2795.334931
720.458357	2796.713687
720.791046	2805.883546
721.123686	2799.924902
721.456278	2793.620939
721.788821	2799.158646
722.121315	2796.070940
722.453761	2790.288736
722.786158	2799.940025
723.118506	2805.311375
723.450805	2787.425361
723.783056	2793.971299
724.115259	2808.593166
724.447412	2812.114412
724.779518	2804.885397
725.111574	2808.416725
725.443582	2817.896615
725.775542	2819.570278
726.107453	2831.195179
726.439315	2834.058554
726.771129	2829.105621
727.102895	2839.059379
727.434612	2859.463449
727.766281	2859.163501
728.097901	2854.548324
728.429473	2858.104858
728.760996	2862.248687
729.092471	2855.485979
729.423897	2865.066692
729.755276	2873.452651
730.086606	2867.297402
730.417887	2871.743700
730.749120	2889.276833
731.080305	2917.058632
731.411442	2918.429826
731.742530	2904.044893
732.073570	2909.804412
732.404562	2932.202258
732.735506	2931.995571
733.066401	2921.787234
733.397249	2908.092940
733.728048	2888.671895
734.058798	2888.961761
734.389501	2876.043804
734.720156	2848.461131
735.050762	2846.742097
735.381320	2855.307018
735.711831	2836.190962
736.042293	2832.629387
736.372707	2847.546162
736.703073	2838.315809
737.033391	2832.369768
737.363661	2839.162723
737.693883	2850.069259
738.024056	2852.763756
738.354182	2845.151613
738.684260	2869.545757
739.014290	2871.917620
739.344272	2867.423431
739.674207	2879.819628
740.004093	2883.124105
740.333931	2883.605535
740.663722	2892.127606
740.993464	2892.901423
741.323159	2883.325751
741.652806	2880.623692
741.982405	2879.670914
742.311956	2873.437528
742.641460	2869.512989
742.970915	2869.964173
743.300323	2857.293232
743.629683	2845.824607
743.958996	2849.519773
744.288260	2845.628002
744.617477	2842.646160
744.946647	2833.090653
745.275768	2835.540654
745.604842	2837.529389
745.933869	2818.829229
746.262847	2819.166986
746.591778	2844.239165
746.920662	2828.283913
747.249498	2814.874443
747.578286	2839.586180
747.907027	2840.405367
748.235720	2830.645693
748.564365	2846.338805
748.892963	2855.012110
749.221514	2847.089937
749.550017	2836.715242
749.878473	2840.574246
750.206881	2832.601661
750.535242	2837.350428
750.863555	2837.952846
751.191821	2840.309585
751.520039	2828.430106
751.848210	2820.598674
752.176334	2840.428052
752.504411	2846.356449
752.832440	2828.611588
753.160421	2821.548931
753.488356	2827.890703
753.816243	2842.192456
754.144082	2819.303097
754.471875	2813.581387
754.799620	2826.811896
755.127318	2821.566575
755.454969	2826.784169
755.782572	2831.658965
756.110129	2820.170176
756.437638	2815.580205
756.765100	2824.523212
757.092515	2832.513441
757.419882	2833.935046
757.747203	2822.501709
758.074477	2821.155721
758.401703	2828.858604
758.728882	2838.091477
759.056014	2842.925944
759.383099	2842.769668
759.710138	2838.083916
760.037129	2842.084071
760.364073	2864.973430
760.690970	2858.969416
761.017820	2847.546162
761.344623	2852.494054
761.671379	2873.727394
761.998088	2890.441340
762.324751	2935.312650
762.651366	3003.736231
762.977935	3134.511324
763.304456	3278.998355
763.630931	3340.755010
763.957359	3219.157338
764.283740	3118.414919
764.610074	3070.087898
764.936362	3014.736029
765.262602	2954.509364
765.588796	2921.444436
765.914943	2889.118037
766.241044	2856.587471
766.567097	2853.598067
766.893104	2835.339007
767.219064	2827.300888
767.544978	2818.093220
767.870845	2795.203861
768.196665	2787.392593
768.522438	2797.868111
768.848165	2801.598565
769.173846	2785.328241
769.499479	2776.513783
769.825066	2771.059255
770.150607	2768.871394
770.476101	2780.952519
770.801548	2781.464196
771.126949	2755.141812
771.452303	2748.948754
771.777611	2759.131885
772.102872	2765.201434
772.428087	2757.201123
772.753256	2755.383787
773.078378	2752.442274
773.403453	2733.905951
773.728482	2733.855539
774.053465	2747.963208
774.378401	2741.059348
774.703291	2724.859600
775.028135	2726.001422
775.352932	2722.835577
775.677683	2723.811040
776.002388	2720.793910
776.327046	2724.060577
776.651658	2718.512788
776.976224	2716.531614
777.300743	2716.206460
777.625216	2710.751931
777.949643	2713.093547
778.274024	2713.161603
778.598359	2708.170861
778.922647	2710.598176
779.246889	2712.344936
779.571086	2701.811445
779.895236	2701.854295
780.219339	2708.420398
780.543397	2717.464228
780.867409	2718.323744
781.191374	2711.810574
781.515294	2713.315358
781.839167	2711.256047
782.162995	2709.738659
782.486776	2714.459700
782.810511	2714.076572
783.134201	2710.154555
783.457844	2714.908363
783.781441	2713.149000
784.104993	2704.722711
784.428498	2702.960828
784.751958	2708.770758
785.075372	2708.269163
785.398739	2698.902699
785.722061	2709.746221
786.045337	2716.919783
786.368568	2705.284800
786.691752	2700.029397
787.014891	2727.276834
787.337983	2739.022722
787.661030	2740.174626
787.984031	2765.093049
788.306987	2789.570372
788.629897	2784.743467
788.952760	2783.397479
789.275579	2784.365380
789.598351	2757.571648
789.921078	2739.178998
790.243759	2741.573546
790.566395	2734.689850
790.888984	2723.896740
791.211529	2715.944320
791.534027	2712.740667
791.856480	2709.688248
792.178888	2702.544933
792.501249	2697.218954
792.823566	2699.600899
793.145836	2695.746937
793.468062	2692.545804
793.790241	2695.900692
794.112375	2696.324149
794.434464	2702.297916
794.756507	2704.778164
795.078505	2706.310675
795.400457	2708.687579
795.722364	2723.886658
796.044226	2732.985940
796.366042	2732.948132
796.687812	2729.467215
797.009538	2745.364494
797.331218	2741.049266
797.652852	2736.101373
797.974442	2727.266751
798.295986	2725.509909
798.617484	2728.524519
798.938938	2720.118395
799.260346	2711.707230
799.581709	2709.862168
799.903026	2709.625233
800.224299	2705.060469
800.545526	2703.162474
800.866708	2696.109900
801.187845	2689.700073
801.508936	2692.109744
801.829983	2700.651980
802.150984	2689.319466
802.471940	2682.531552
802.792851	2683.272602
803.113717	2684.633713
803.434538	2689.528674
803.755314	2683.053312
804.076045	2680.313444
804.396731	2683.784279
804.717372	2680.845286
805.037967	2676.172137
805.358518	2680.595749
805.679024	2690.811647
805.999485	2684.898374
806.319901	2687.640762
806.640272	2681.803105
806.960598	2684.840401
807.280879	2690.027748
807.601115	2696.165353
807.921306	2687.892819
808.241453	2683.244875
808.561554	2689.387521
808.881611	2694.370702
809.201623	2691.504806
809.521590	2691.502285
809.841513	2688.414579
810.161390	2690.511699
810.481223	2690.680577
810.801011	2683.116326
811.120755	2684.298477
811.440453	2687.678570
811.760107	2686.667819
812.079716	2686.110771
812.399281	2680.550379
812.718801	2675.632733
813.038276	2674.185922
813.357707	2678.221366
813.677093	2686.844259
813.996434	2683.222190
814.315731	2679.562312
814.634983	2675.839420
814.954191	2680.358815
815.273354	2689.952131
815.592473	2694.201823
815.911547	2694.370702
816.230577	2697.065199
816.549562	2702.665921
816.868502	2702.302957
817.187399	2708.445603
817.506250	2718.961450
817.825058	2714.757128
818.143821	2721.444219
818.462539	2733.185066
818.781213	2744.956160
819.099843	2767.641352
819.418429	2790.203037
819.736970	2821.100268
820.055466	2859.839015
820.373919	2927.599685
820.692327	3005.218330
821.010691	3086.595156
821.329011	3279.895680
821.647286	3617.884881
821.965517	4156.068383
822.283704	4450.960760
822.601847	4477.318433
822.919945	4284.655615
823.237999	4168.343593
823.556010	3941.421093
823.873976	3690.732074
824.191897	3494.575737
824.509775	3351.679190
824.827609	3205.954556
825.145398	3139.930564
825.463144	3139.491984
825.780845	3184.907739
826.098502	3230.169738
826.416116	3366.651417
826.733685	3500.337776
827.051210	3530.506561
827.368692	3501.298116
827.686129	3393.740057
828.003522	3227.573544
828.320872	3084.888726
828.638177	2978.520380
828.955439	2905.406005
829.272656	2858.934128
829.589830	2817.891574
829.906960	2794.344344
830.224046	2768.642022
830.541088	2751.262644
830.858086	2742.443145
831.175041	2733.099366
831.491952	2735.302351
831.808819	2746.536562
832.125642	2760.934097
832.442421	2787.077521
832.759157	2822.950372
833.075849	2920.000145
833.392497	3076.112077
833.709101	3191.020138
834.025662	3164.266734
834.342179	3085.420567
834.658653	2987.481031
834.975083	2908.377765
835.291469	2859.624766
835.607811	2804.449337
835.924110	2772.067486
836.240366	2739.927609
836.556578	2715.092365
836.872746	2699.336238
837.188871	2685.558765
837.504952	2679.297652
837.820990	2672.368586
838.136984	2663.576814
838.452935	2659.627070
838.768842	2657.540032
839.084706	2664.459016
839.400526	2715.036912
839.716303	2783.669701
840.032037	2828.709890
840.347727	2823.464570
840.663373	2793.590692
840.978977	2755.789600
841.294537	2712.309648
841.610054	2683.882581
841.925527	2670.591579
842.240957	2658.298726
842.556344	2645.151396
842.871687	2635.452216
843.186987	2627.283027
843.502244	2627.099024
843.817458	2620.565689
844.132629	2614.533948
844.447756	2606.238730
844.762840	2603.768564
845.077881	2604.958277
845.392879	2605.464913
845.707833	2603.692947
846.022745	2596.592482
846.337613	2600.335539
846.652438	2597.751947
846.967221	2600.131372
847.281960	2597.875456
847.596656	2598.044334
847.911309	2597.005857
848.225919	2596.831937
848.540485	2591.503437
848.855009	2592.612491
849.169490	2592.821699
849.483928	2594.056782
849.798323	2592.304981
850.112675	2591.029569
850.426984	2592.322625
850.741251	2590.885896
851.055474	2589.449167
851.369654	2592.342789
851.683792	2593.446802
851.997887	2592.405804
852.311938	2588.130905
852.625947	2590.517892
852.939914	2595.788418
853.253837	2594.694487
853.567718	2593.741709
853.881555	2588.234249
854.195350	2594.722214
854.509103	2593.794642
854.822812	2591.490834
855.136479	2588.183837
855.450103	2593.872779
855.763685	2595.007039
856.077224	2592.864549
856.390720	2588.418251
856.704173	2592.020155
857.017584	2594.250866
857.330953	2593.522419
857.644278	2597.986361
857.957561	2596.927719
858.270802	2594.974272
858.584000	2594.646597
858.897155	2597.845209
859.210268	2598.611464
859.523339	2595.029724
859.836367	2592.942687
860.149352	2591.682398
860.462295	2591.942017
860.775195	2590.485124
861.088054	2588.660226
861.400869	2588.120823
861.713642	2585.098651
862.026373	2586.777355
862.339062	2590.379260
862.651708	2597.013418
862.964312	2595.823706
863.276873	2591.561410
863.589392	2594.260948
863.901869	2598.225816
864.214303	2600.673296
864.526696	2602.704881
864.839045	2604.295365
865.151353	2608.267794
865.463619	2605.785026
865.775842	2607.052876
866.088023	2607.786364
866.400162	2609.034050
866.712258	2609.016406
867.024313	2603.642536
867.336325	2602.785539
867.648296	2604.222268
867.960224	2609.575974
868.272110	2607.239399
868.583954	2603.188832
868.895755	2602.110025
869.207515	2610.274173
869.519233	2614.052518
869.830909	2613.109822
870.142542	2606.541199
870.454134	2607.390633
870.765684	2614.007148
871.077191	2615.302724
871.388657	2615.133846
871.700081	2615.249792
872.011463	2611.718464
872.322803	2614.932200
872.634101	2618.899588
872.945357	2623.545011
873.256571	2627.588016
873.567744	2622.486369
873.878874	2623.285392
874.189963	2625.495937
874.501010	2629.430558
874.812015	2631.467184
875.122979	2632.215796
875.433900	2625.705145
875.744780	2626.673047
876.055618	2629.183542
876.366415	2635.177473
876.677169	2632.934160
876.987882	2627.754374
877.298554	2628.843264
877.609183	2638.655870
877.919771	2641.010088
878.230317	2647.835811
878.540822	2655.228663
878.851285	2667.269459
879.161707	2685.226049
879.472087	2711.218238
879.782425	2743.360635
880.092722	2823.749395
880.402977	2943.476799
880.713191	3081.589291
881.023363	3210.363045
881.333494	3296.276909
881.643583	3414.524735
881.953631	3443.350052
882.263637	3355.568440
882.573602	3231.873648
882.883526	3169.643125
883.193408	3106.459823
883.503248	3050.135011
883.813048	2974.454689
884.122806	2896.170611
884.432522	2841.189267
884.742197	2802.258956
885.051831	2776.801129
885.361424	2753.929414
885.670975	2732.103738
885.980485	2704.679862
886.289954	2695.230219
886.599382	2686.017510
886.908768	2679.053156
887.218113	2663.118069
887.527417	2657.214877
887.836680	2651.372180
888.145901	2646.888074
888.455082	2641.017650
888.764221	2633.957514
889.073319	2629.312091
889.382376	2629.980044
889.691392	2628.228243
890.000366	2630.857205
890.309300	2628.578603
890.618193	2627.943418
890.927044	2628.848305
891.235855	2630.020373
891.544625	2630.988275
891.853353	2630.368213
892.162041	2635.220323
892.470687	2651.503250
892.779293	2657.350989
893.087858	2661.431803
893.396381	2678.319668
893.704864	2706.038452
894.013306	2752.107037
894.321707	2817.190854
894.630068	2848.675380
894.938387	2865.248173
895.246665	2863.289685
895.554903	2834.577793
895.863100	2808.121818
896.171256	2768.952052
896.479371	2725.164590
896.787446	2694.963037
897.095480	2682.811336
897.403473	2680.963753
897.711425	2670.866322
898.019336	2655.573982
898.327207	2646.721716
898.635038	2645.206849
898.942827	2646.068886
899.250576	2636.994809
899.558284	2625.833695
899.865952	2626.519292
900.173579	2622.239352
900.481165	2620.295987
900.788711	2615.093517
901.096216	2614.637292
901.403681	2608.214862
901.711105	2611.773917
902.018489	2607.705706
902.325832	2611.189143
902.633135	2608.902980
902.940397	2622.980402
903.247619	2651.309166
903.554800	2697.697863
903.861941	2780.249278
904.169041	2861.167359
904.476101	2901.194121
904.783121	2903.820562
905.090100	2865.086856
905.397039	2819.653457
905.703938	2769.188987
906.010796	2728.214488
906.317614	2690.751153
906.624391	2665.192503
906.931129	2644.634678
907.237826	2627.467029
907.544483	2613.800461
907.851099	2605.782505
908.157675	2597.386464
908.464211	2594.134919
908.770707	2581.917683
909.077163	2580.909452
909.383578	2578.346026
909.689954	2579.714699
909.996289	2575.845613
910.302584	2578.056159
910.608839	2578.303176
910.915054	2576.553895
911.221229	2574.633216
911.527363	2579.752507
911.833458	2579.737384
912.139513	2576.463155
912.445527	2581.693352
912.751502	2585.668302
913.057436	2589.000504
913.363331	2594.543253
913.669186	2600.597679
913.975000	2611.668052
914.280775	2622.511574
914.586510	2631.320991
914.892205	2660.206802
915.197859	2708.853937
915.503475	2765.874428
915.809050	2810.839000
916.114585	2816.704382
916.420081	2822.179075
916.725536	2836.664831
917.030952	2822.030361
917.336328	2787.213632
917.641665	2757.564086
917.946961	2716.118240
918.252218	2693.768284
918.557435	2676.144410
918.862612	2662.450116
919.167750	2651.576347
919.472848	2636.999851
919.777906	2624.081894
920.082925	2616.681480
920.387904	2608.159409
920.692843	2605.170005
920.997743	2603.453492
921.302603	2598.334201
921.607423	2589.779362
921.912204	2587.238621
922.216946	2586.979002
922.521647	2586.406831
922.826310	2587.004207
923.130932	2578.928279
923.435516	2575.752352
923.740059	2574.212279
924.044564	2571.795046
924.349028	2572.647001
924.653454	2567.179870
924.957840	2565.375137
925.262186	2560.039075
925.566493	2562.932698
925.870761	2561.831206
926.174989	2560.946483
926.479178	2560.276010
926.783328	2560.689384
927.087438	2558.677964
927.391509	2558.055381
927.695541	2556.343910
927.999533	2555.265103
928.303486	2553.914073
928.607400	2554.370298
928.911275	2553.951882
929.215110	2556.137222
929.518906	2553.538507
929.822663	2552.820143
930.126381	2556.159908
930.430060	2554.526574
930.733699	2553.122612
931.037299	2554.488765
931.340861	2554.992880
931.644383	2555.938097
931.947866	2555.809547
932.251309	2552.348795
932.554714	2551.811912
932.858080	2554.750905
933.161407	2554.720658
933.464694	2550.160934
933.767943	2554.337530
934.071153	2551.340564
934.374323	2551.605225
934.677455	2553.132695
934.980548	2552.706717
935.283602	2552.197561
935.586617	2553.709907
935.889593	2552.502550
936.192530	2551.706048
936.495428	2552.883158
936.798287	2551.249824
937.101108	2556.253169
937.403890	2553.399876
937.706632	2559.547563
938.009336	2561.695094
938.312002	2562.617626
938.614628	2562.973027
938.917216	2567.865467
939.219765	2566.806824
939.522275	2567.943605
939.824747	2569.629871
940.127179	2562.320197
940.429573	2562.262224
940.731929	2562.768860
941.034246	2560.278530
941.336524	2562.337842
941.638763	2563.497307
941.940964	2560.550752
942.243126	2558.115875
942.545250	2559.461863
942.847335	2554.955072
943.149381	2557.175700
943.451389	2554.531615
943.753359	2557.160577
944.055290	2556.588406
944.357182	2555.048333
944.659036	2555.484393
944.960851	2557.601677
945.262628	2552.575647
945.564367	2556.721996
945.866067	2553.404917
946.167729	2555.572613
946.469352	2554.070349
946.770937	2557.624363
947.072484	2554.619835
947.373992	2552.961295
947.675462	2554.836605
947.976893	2555.401214
948.278286	2555.091183
948.579641	2554.564382
948.880958	2553.311656
949.182236	2551.375853
949.483476	2551.020451
949.784678	2552.847869
950.085841	2550.733105
950.386967	2552.923487
950.688054	2550.836449
950.989103	2552.681511
951.290114	2553.568754
951.591087	2556.449774
951.892021	2554.314845
952.192917	2558.105793
952.493776	2557.394990
952.794596	2558.519167
953.095378	2555.733930
953.396122	2559.045968
953.696828	2556.560679
953.997496	2555.789383
954.298126	2552.321069
954.598718	2557.231153
954.899272	2552.555483
955.199788	2554.826522
955.500266	2550.700338
955.800706	2546.004503
956.101108	2542.747918
956.401472	2545.979297
956.701798	2545.578526
957.002087	2543.975439
957.302337	2548.646068
957.602550	2544.464431
957.902724	2544.149358
958.202861	2543.234389
958.502960	2543.680531
958.803022	2544.073741
959.103045	2544.555171
959.403031	2546.548948
959.702979	2543.461241
960.002889	2544.585418
960.302762	2543.017619
960.602596	2545.500388
960.902393	2542.269008
961.202153	2544.945861
961.501875	2543.814122
961.801559	2542.667259
962.101205	2542.861344
962.400814	2541.475026
962.700385	2542.037115
962.999918	2542.926879
963.299414	2544.111550
963.598873	2541.989224
963.898293	2542.546272
964.197677	2542.702547
964.497022	2543.562064
964.796331	2540.522248
965.095601	2543.430994
965.394835	2545.565923
965.694030	2542.737835
965.993189	2545.157589
966.292309	2539.040149
966.591393	2541.351518
966.890439	2540.436549
967.189447	2538.974614
967.488419	2542.105171
967.787353	2542.236241
968.086249	2541.742208
968.385108	2545.817980
968.683930	2540.174409
968.982714	2541.185160
969.281462	2540.166847
969.580172	2542.929399
969.878844	2541.492670
970.177480	2541.817825
970.476078	2542.422763
970.774639	2544.973587
971.073162	2545.112219
971.371649	2539.987886
971.670098	2539.186343
971.968510	2543.330171
972.266885	2537.058976
972.565223	2539.947557
972.863524	2542.039636
973.161788	2543.085675
973.460014	2542.886549
973.758204	2541.820345
974.056356	2541.495191
974.354471	2542.324461
974.652550	2543.186498
974.950591	2543.491488
975.248595	2543.100798
975.546563	2543.995603
975.844493	2544.613145
976.142386	2544.046015
976.440243	2543.529297
976.738062	2541.863195
977.035845	2540.678524
977.333590	2542.982331
977.631299	2542.427804
977.928971	2543.236910
978.226606	2540.655839
978.524204	2544.167003
978.821765	2541.895963
979.119290	2540.983514
979.416777	2540.388658
979.714228	2542.992414
980.011642	2540.151723
980.309020	2543.955274
980.606360	2541.752290
980.903664	2541.510314
981.200931	2543.559543
981.498162	2544.739173
981.795356	2545.076931
982.092513	2547.186654
982.389633	2549.067004
982.686717	2551.879968
982.983764	2554.939948
983.280775	2551.910215
983.577749	2553.460370
983.874686	2552.550441
984.171587	2551.428785
984.468451	2548.643547
984.765279	2546.632127
985.062070	2543.438556
985.358824	2545.490305
985.655543	2543.403268
985.952224	2543.551982
986.248869	2542.437887
986.545478	2537.787422
986.842050	2540.275232
987.138586	2537.812628
987.435086	2537.311033
987.731549	2536.817000
988.027975	2540.360931
988.324366	2538.682227
988.620719	2539.035108
988.917037	2540.421425
989.213318	2540.239944
989.509563	2540.635674
989.805772	2541.079296
990.101944	2540.199614
990.398080	2537.807587
990.694180	2540.703730
990.990244	2543.143648
991.286271	2538.115097
991.582262	2535.453368
991.878217	2540.275232
992.174136	2541.883360
992.470019	2539.700540
992.765865	2537.754655
993.061676	2538.730118
993.357450	2540.691127
993.653188	2541.606096
993.948890	2540.870088
994.244556	2539.778678
994.540186	2541.495191
994.835780	2538.563760
995.131337	2544.214893
995.426859	2538.946888
995.722345	2542.208514
996.017795	2544.424101
996.313208	2542.972249
996.608586	2542.440407
996.903928	2542.889070
997.199234	2542.216076
997.494504	2540.207176
997.789738	2544.809750
998.084936	2540.486960
998.380099	2540.978473
998.675225	2539.851775
998.970316	2542.730274
999.265371	2542.082485
999.560390	2539.660211
999.855373	2541.853113
1000.150320	2539.138452
1000.445232	2540.880170
1000.740108	2539.027546
1001.034948	2541.094419
1001.329752	2541.192722
1001.624521	2539.259439
1001.919254	2536.922864
1002.213951	2538.105015
1002.508613	2537.981507
1002.803239	2538.122659
1003.097829	2536.411187
1003.392384	2538.924202
1003.686903	2538.714995
1003.981386	2539.934954
1004.275834	2538.367155
1004.570246	2539.466127
1004.864623	2541.230530
1005.158964	2538.651980
1005.453270	2541.391847
1005.747540	2539.682896
1006.041775	2538.992258
1006.335974	2538.226003
1006.630138	2540.076106
1006.924266	2539.219110
1007.218359	2539.176260
1007.512416	2539.108205
1007.806438	2539.824048
1008.100425	2538.583925
1008.394376	2537.326157
1008.688292	2537.210210
1008.982172	2536.640560
1009.276017	2537.747093
1009.569827	2538.009233
1009.863602	2539.743390
1010.157341	2536.978317
1010.451045	2537.832793
1010.744714	2537.008564
1011.038347	2538.815818
1011.331945	2541.870757
1011.625508	2538.344470
1011.919036	2538.452855
1012.212528	2539.692978
1012.505986	2538.636857
1012.799408	2539.622402
1013.092795	2536.194418
1013.386147	2538.483102
1013.679464	2538.379758
1013.972745	2538.427649
1014.265992	2536.466640
1014.559204	2538.404964
1014.852380	2537.941177
1015.145521	2540.718853
1015.438628	2539.009902
1015.731699	2539.670293
1016.024736	2540.628113
1016.317737	2539.433359
1016.610703	2542.170706
1016.903635	2536.128883
1017.196531	2534.578728
1017.489393	2536.751465
1017.782219	2534.646783
1018.075011	2536.950591
1018.367768	2538.725077
1018.660490	2541.366642
1018.953177	2541.366642
1019.245829	2541.366642
