Dividing Wavelength (nm)	Counts (n)	Blue Motor Position (mm): 7.500000	Red Motor Position (mm): 0.000000	
326.493990	2140.282359
326.888308	2140.282359
327.282561	2140.282359
327.676750	2110.315220
328.070874	2107.421598
328.464933	2109.458224
328.858929	2115.502568
329.252859	2125.665534
329.646726	2139.064921
330.040528	2149.580768
330.434265	2167.582728
330.827938	2187.170131
331.221547	2203.896680
331.615091	2221.838146
332.008571	2240.618965
332.401986	2261.824578
332.795338	2281.288473
333.188625	2298.408232
333.581847	2318.562765
333.975006	2335.490960
334.368100	2356.507530
334.761129	2372.538399
335.154095	2388.929711
335.546996	2406.840931
335.939833	2421.480441
336.332606	2437.229006
336.725315	2449.529421
337.117960	2460.035186
337.510540	2466.187914
337.903056	2479.057980
338.295508	2485.243476
338.687896	2492.840495
339.080220	2501.491115
339.472480	2509.423370
339.864676	2514.998886
340.256807	2518.689011
340.648875	2520.458456
341.040879	2525.043385
341.432818	2526.313756
341.824694	2526.946421
342.216506	2524.902233
342.608253	2526.908612
342.999937	2527.987419
343.391557	2524.866945
343.783113	2523.725124
344.174605	2523.221008
344.566033	2522.001049
344.957397	2521.207067
345.348697	2518.520132
345.739934	2517.930317
346.131106	2516.843949
346.522215	2514.676253
346.913260	2510.814729
347.304241	2511.452435
347.695159	2511.281035
348.086012	2509.438494
348.476802	2502.310302
348.867528	2503.626043
349.258191	2502.237205
349.648789	2503.474809
350.039324	2498.307626
350.429796	2500.956752
350.820203	2497.896772
351.210548	2497.448109
351.600828	2495.217399
351.991045	2494.574652
352.381198	2492.313694
352.771288	2495.272851
353.161314	2494.511637
353.551276	2493.790752
353.941175	2492.298571
354.331010	2492.989209
354.720782	2493.362254
355.110490	2493.841164
355.500135	2493.231184
355.889717	2492.540546
356.279235	2494.531802
356.668689	2494.922491
357.058080	2494.940135
357.447408	2489.959475
357.836672	2489.409989
358.225873	2492.618684
358.615010	2494.584734
359.004084	2495.734117
359.393095	2493.332007
359.782043	2501.478512
360.170927	2497.264107
360.559748	2499.847698
360.948505	2497.183449
361.337199	2500.588748
361.725830	2499.567914
362.114398	2502.267452
362.502903	2501.123110
362.891344	2501.027328
363.279722	2501.244098
363.668037	2503.618482
364.056289	2500.135044
364.444478	2503.875580
364.832603	2503.280724
365.220665	2503.363903
365.608665	2502.267452
365.996601	2505.730725
366.384474	2506.121414
366.772284	2506.247443
367.160031	2506.973369
367.547715	2507.628719
367.935336	2505.798781
368.322893	2507.658966
368.710388	2507.149810
369.097820	2508.576456
369.485189	2506.673421
369.872495	2506.938081
370.259738	2507.815242
370.646918	2508.485716
371.034035	2509.088133
371.421090	2508.072341
371.808081	2508.558812
372.195010	2508.609224
372.581875	2507.636281
372.968678	2508.004285
373.355418	2509.365397
373.742096	2509.932527
374.128710	2507.691734
374.515262	2509.738442
374.901751	2510.242558
375.288177	2507.537979
375.674540	2510.799605
376.060841	2511.991838
376.447079	2510.353463
376.833254	2512.052332
377.219367	2507.646363
377.605417	2509.602331
377.991404	2509.831704
378.377329	2505.004799
378.763191	2506.975890
379.148991	2512.543844
379.534727	2510.355984
379.920402	2512.682476
380.306013	2512.866478
380.691563	2513.484020
381.077049	2513.400841
381.462474	2513.116015
381.847835	2512.707682
382.233134	2516.264216
382.618371	2513.705830
383.003545	2515.792868
383.388657	2515.024092
383.773706	2517.569875
384.158693	2516.203722
384.543618	2516.312107
384.928480	2516.077693
385.313280	2516.536438
385.698017	2515.066942
386.082692	2516.483506
386.467305	2518.880575
386.851856	2517.007786
387.236344	2518.293280
387.620770	2520.334948
388.005133	2517.892509
388.389435	2520.163548
388.773674	2519.135153
389.157851	2518.704134
389.541965	2517.267406
389.926018	2519.117509
390.310008	2520.092972
390.693936	2517.143897
391.077802	2519.906450
391.461606	2518.318486
391.845348	2518.787313
392.229027	2519.656912
392.612645	2520.040040
392.996200	2518.235307
393.379694	2519.629186
393.763125	2517.017868
394.146494	2519.009124
394.529801	2522.379136
394.913047	2521.812006
395.296230	2522.497603
395.679351	2518.510050
396.062410	2523.059691
396.445408	2519.616583
396.828343	2521.570030
397.211217	2516.841428
397.594028	2518.646161
397.976778	2518.966274
398.359466	2520.161028
398.742092	2517.751356
399.124656	2524.430885
399.507158	2523.004239
399.889598	2522.789990
400.271977	2524.393077
400.654294	2526.321318
401.036549	2523.755371
401.418742	2527.279137
401.800874	2523.094979
402.182944	2526.477594
402.564952	2522.127078
402.946898	2524.274609
403.328783	2524.660258
403.710606	2524.075484
404.092367	2522.948786
404.474067	2525.328211
404.855705	2523.029444
405.237282	2525.718900
405.618797	2525.439116
406.000250	2524.622449
406.381642	2525.605474
406.762972	2527.082532
407.144240	2526.099507
407.525447	2526.752337
407.906593	2523.848632
408.287677	2527.233767
408.668700	2524.894671
409.049661	2527.004394
409.430560	2529.225023
409.811399	2528.952800
410.192176	2530.003881
410.572891	2526.782583
410.953545	2528.380629
411.334138	2526.434744
411.714669	2529.547656
412.095139	2529.466998
412.475547	2529.605630
412.855894	2528.574714
413.236180	2527.057326
413.616405	2530.127389
413.996568	2527.503468
414.376670	2532.121165
414.756711	2531.296937
415.136691	2532.030425
415.516609	2530.926412
415.896466	2529.230064
416.276262	2531.332225
416.655997	2526.560773
417.035670	2525.938190
417.415283	2528.012625
417.794834	2527.982378
418.174324	2528.345341
418.553753	2530.064375
418.933121	2530.424817
419.312428	2530.807945
419.691674	2530.003881
420.070859	2530.349200
420.449983	2530.777698
420.829045	2529.469518
421.208047	2532.887421
421.586988	2531.445651
421.965867	2529.250228
422.344686	2530.510517
422.723444	2533.343645
423.102141	2534.913965
423.480777	2533.194931
423.859352	2535.670138
424.237866	2533.477236
424.616319	2532.562266
424.994712	2533.260466
425.373044	2530.981865
425.751314	2533.757020
426.129524	2533.699047
426.507673	2533.293234
426.885762	2533.890610
427.263789	2534.130065
427.641756	2531.180990
428.019662	2535.135775
428.397508	2533.124355
428.775292	2536.506969
429.153016	2535.110570
429.530679	2536.484284
429.908282	2534.366999
430.285824	2534.855991
430.663305	2532.627801
431.040726	2535.188707
431.418086	2533.172246
431.795385	2535.198790
432.172624	2532.073274
432.549802	2534.656866
432.926920	2536.791794
433.303977	2534.298944
433.680974	2536.123842
434.057910	2536.718698
434.434786	2534.510672
434.811601	2536.509490
435.188355	2537.537885
435.565050	2534.094777
435.941683	2536.506969
436.318257	2533.946063
436.694770	2528.872142
437.071222	2534.125024
437.447614	2531.763243
437.823946	2533.933460
438.200218	2534.235929
438.576429	2537.094264
438.952580	2536.824562
439.328670	2537.842875
439.704700	2535.352545
440.080670	2537.706764
440.456580	2536.421270
440.832429	2537.658873
441.208218	2537.106867
441.583947	2539.715664
441.959616	2537.187525
442.335224	2537.875643
442.710773	2537.857998
443.086261	2538.692309
443.461689	2539.398071
443.837057	2539.135931
444.212365	2536.736342
444.587612	2538.551157
444.962800	2538.145344
445.337927	2540.028215
445.712995	2535.443286
446.088002	2537.656352
446.462949	2537.273225
446.837837	2537.462268
447.212664	2538.440252
447.587431	2538.778009
447.962139	2541.822866
448.336786	2539.793802
448.711374	2538.725077
449.085901	2539.851775
449.460369	2537.439583
449.834776	2539.836651
450.209124	2538.137783
450.583412	2540.950746
450.957640	2540.265149
451.331808	2539.887063
451.705917	2540.938143
452.079965	2538.909079
452.453954	2541.366642
452.827883	2539.849254
453.201752	2542.185829
453.575562	2540.076106
453.949311	2541.953936
454.323001	2541.366642
454.696632	2543.244471
455.070202	2542.458051
455.443713	2538.157947
455.817164	2538.283976
456.190556	2538.130221
456.563888	2539.004861
456.937160	2535.828934
457.310373	2541.210366
457.683526	2540.983514
458.056619	2540.789429
458.429653	2542.263967
458.802628	2543.607434
459.175542	2541.941333
459.548398	2543.141128
459.921194	2541.767413
460.293930	2543.504091
460.666607	2537.754655
461.039224	2540.257588
461.411782	2544.668597
461.784280	2543.423432
462.156719	2541.656508
462.529099	2544.146838
462.901419	2545.351674
463.273680	2543.569626
463.645882	2539.579552
464.018024	2542.400078
464.390106	2544.419060
464.762130	2543.025181
465.134094	2542.752959
465.505999	2544.542568
465.877845	2543.375541
466.249631	2541.820345
466.621358	2543.690613
466.993026	2547.413506
467.364634	2547.615152
467.736184	2542.339584
468.107674	2542.168185
468.479105	2543.700696
468.850477	2544.207332
469.221790	2546.425439
469.593043	2546.317055
469.964238	2540.068544
470.335373	2543.733463
470.706449	2542.861344
471.077467	2543.370500
471.448425	2546.133052
471.819324	2542.319420
472.190164	2546.677497
472.560945	2544.731612
472.931667	2541.969059
473.302330	2544.194729
473.672934	2543.244471
474.043479	2544.192208
474.413965	2545.081972
474.784393	2539.007382
475.154761	2543.811601
475.525070	2538.289017
475.895321	2540.807073
476.265513	2538.193235
476.635645	2546.566592
477.005719	2544.408978
477.375734	2545.487785
477.745691	2544.275387
478.115588	2545.938968
478.485427	2545.066848
478.855207	2545.754966
479.224928	2545.641540
479.594591	2546.206149
479.964194	2545.018957
480.333739	2548.847714
480.703226	2546.533824
481.072653	2544.923176
481.442022	2546.501057
481.811333	2545.213042
482.180584	2543.483926
482.549777	2546.871582
482.918912	2542.750438
483.287988	2545.805378
483.657005	2546.652291
484.025964	2546.256561
484.394864	2545.775131
484.763706	2547.335368
485.132489	2546.506098
485.501213	2543.998124
485.869879	2545.583567
486.238487	2544.978628
486.607036	2544.343443
486.975527	2546.218752
487.343959	2546.201108
487.712333	2547.763866
488.080648	2542.389996
488.448905	2549.785368
488.817104	2547.295038
489.185244	2547.269833
489.553326	2546.889226
489.921350	2548.192364
490.289315	2548.825029
490.657222	2549.989535
491.025070	2548.865358
491.392861	2546.173382
491.760593	2546.460728
492.128267	2546.869061
492.495883	2546.680018
492.863440	2548.885522
493.230939	2548.507436
493.598380	2547.267312
493.965763	2544.913093
494.333088	2541.044008
494.700354	2543.471323
495.067563	2544.754297
495.434713	2544.287990
495.801805	2548.225131
496.168839	2545.709596
496.535815	2548.131870
496.902733	2548.928372
497.269593	2546.644730
497.636395	2547.917621
498.003139	2547.229503
498.369825	2547.257230
498.736453	2546.236396
499.103023	2548.194884
499.469535	2548.948537
499.835989	2546.700182
500.202385	2546.720347
500.568723	2550.171017
500.935003	2547.905018
501.301226	2547.244627
501.667390	2548.542724
502.033497	2545.888557
502.399546	2548.164638
502.765537	2547.461397
503.131470	2549.324103
503.497345	2548.139432
503.863163	2550.405430
504.228923	2549.177909
504.594625	2549.878630
504.960269	2547.791592
505.325856	2549.878630
505.691385	2545.850748
506.056856	2548.968702
506.422270	2548.608259
506.787625	2549.455173
507.152924	2547.882333
507.518164	2545.951571
507.883347	2549.593805
508.248472	2548.920811
508.613540	2548.043650
508.978550	2547.542055
509.343503	2547.365615
509.708398	2551.751418
510.073236	2549.019113
510.438016	2549.298897
510.802738	2548.351160
511.167403	2548.512477
511.532010	2548.681356
511.896561	2550.319731
512.261053	2547.426108
512.625488	2545.631458
512.989866	2544.751776
513.354186	2544.482075
513.718449	2546.569112
514.082655	2546.652291
514.446803	2548.454504
514.810894	2547.985677
515.174927	2549.480379
515.538904	2549.674463
515.902822	2549.505584
516.266684	2548.449463
516.630488	2551.186809
516.994235	2548.439380
517.357925	2549.293856
517.721558	2550.745708
518.085133	2547.068187
518.448651	2552.389124
518.812112	2549.979453
519.175516	2549.591284
519.538863	2548.890564
519.902152	2546.349822
520.265385	2550.967519
520.628560	2547.461397
520.991678	2548.729247
521.354739	2552.870555
521.717743	2549.003990
522.080690	2549.452652
522.443580	2547.562220
522.806413	2549.316541
523.169189	2549.019113
523.531908	2549.361912
523.894569	2549.500543
524.257174	2551.149001
524.619722	2549.145142
524.982213	2551.990873
525.344647	2549.803012
525.707025	2551.537169
526.069345	2552.830225
526.431608	2551.761501
526.793815	2551.242262
527.155964	2551.189330
527.518057	2549.180430
527.880093	2549.664381
528.242072	2551.075904
528.603995	2550.695297
528.965860	2548.641027
529.327669	2551.340564
529.689421	2548.575492
530.051117	2551.340564
530.412755	2545.722198
530.774337	2549.780327
531.135862	2551.050698
531.497331	2549.634134
531.858743	2545.008875
532.220098	2548.537683
532.581396	2544.910573
532.942638	2546.967363
533.303824	2549.760163
533.664953	2548.699000
534.026025	2551.663198
534.387040	2551.310317
534.747999	2551.224618
535.108902	2548.840152
535.469748	2549.326623
535.830537	2548.373845
536.191270	2551.668239
536.551947	2550.357539
536.912567	2550.077755
537.273131	2549.782848
537.633638	2551.753939
537.994089	2553.084804
538.354483	2551.572457
538.714821	2551.791748
539.075103	2550.347457
539.435328	2549.689587
539.795497	2550.720502
540.155609	2552.182437
540.515665	2552.492468
540.875665	2553.140256
541.235609	2551.406099
541.595496	2552.983981
541.955328	2550.891902
542.315102	2552.162272
542.674821	2554.009855
543.034483	2553.420040
543.394090	2554.375339
543.753640	2550.912066
544.113134	2553.793086
544.472571	2554.430792
544.831953	2551.564896
545.191278	2552.608415
545.550548	2551.716130
545.909761	2552.177396
546.268918	2553.324258
546.628019	2550.821326
546.987064	2552.830225
547.346053	2552.893240
547.704986	2555.030689
548.063863	2551.459032
548.422684	2550.541542
548.781449	2554.130843
549.140158	2555.315514
549.498811	2551.320400
549.857408	2550.576830
550.215949	2553.450287
550.574434	2550.448280
550.932864	2552.232849
551.291237	2547.733619
551.649555	2552.187478
552.007817	2552.850390
552.366022	2552.910884
552.724173	2554.234187
553.082267	2554.579506
553.440305	2554.224104
553.798288	2555.973385
554.156215	2553.823333
554.514086	2555.091183
554.871902	2555.953220
555.229661	2554.697973
555.587365	2553.077242
555.945014	2551.635472
556.302606	2555.625545
556.660143	2554.627397
557.017625	2554.327448
557.375050	2555.696121
557.732421	2554.463559
558.089735	2555.673436
558.446994	2554.181255
558.804197	2553.407437
559.161345	2554.055226
559.518437	2552.900802
559.875474	2556.361554
560.232455	2556.807696
560.589381	2553.989691
560.946251	2557.165618
561.303065	2554.365257
561.659825	2553.525905
562.016528	2554.881975
562.373177	2554.483724
562.729770	2553.435164
563.086307	2554.269475
563.442789	2552.696635
563.799216	2555.055895
564.155587	2555.723848
564.511904	2554.410627
564.868164	2553.571275
565.224370	2558.294836
565.580520	2555.015566
565.936615	2556.086811
566.292654	2554.723179
566.648638	2551.401058
567.004567	2551.085986
567.360441	2554.332489
567.716260	2555.179403
568.072023	2552.295863
568.427732	2547.723537
568.783385	2552.515153
569.138982	2549.293856
569.494525	2550.355019
569.850013	2550.118085
570.205445	2554.355174
570.560823	2551.842159
570.916145	2554.713096
571.271412	2553.775442
571.626625	2554.667726
571.981782	2554.128322
572.336884	2553.142777
572.691931	2555.005483
573.046923	2556.414486
573.401860	2553.551110
573.756743	2551.887530
574.111570	2553.961964
574.466342	2552.184958
574.821059	2552.089176
575.175722	2555.121430
575.530330	2555.615463
575.884882	2555.865000
576.239380	2552.532797
576.593823	2556.270813
576.948211	2556.966492
577.302544	2552.169834
577.656823	2554.224104
578.011047	2554.645041
578.365216	2553.072201
578.719330	2554.324927
579.073389	2554.292160
579.427394	2552.414330
579.781344	2553.929197
580.135239	2551.174206
580.489080	2553.031872
580.842866	2553.215874
581.196597	2558.441030
581.550273	2554.491286
581.903895	2553.210833
582.257463	2553.999773
582.610975	2551.761501
582.964434	2551.882488
583.317837	2553.326779
583.671186	2549.629093
584.024481	2554.904660
584.377721	2553.299053
584.730906	2554.839125
585.084037	2555.103786
585.437113	2554.287119
585.790135	2549.964329
586.143103	2553.783003
586.496016	2553.944320
586.848874	2546.433001
587.201679	2550.634803
587.554428	2550.775955
587.907124	2549.203115
588.259765	2548.688918
588.612352	2552.983981
588.964884	2553.321738
589.317362	2555.398693
589.669786	2552.618497
590.022155	2554.549259
590.374470	2552.394166
590.726731	2551.063301
591.078937	2551.426264
591.431090	2553.576316
591.783188	2550.680173
592.135232	2555.665874
592.487222	2550.171017
592.839157	2554.319886
593.191038	2552.321069
593.542866	2551.821995
593.894639	2552.013558
594.246358	2554.282078
594.598022	2552.505071
594.949633	2553.785524
595.301190	2552.096738
595.652692	2553.059598
596.004141	2550.395348
596.355535	2554.145967
596.706876	2550.980122
597.058162	2552.018600
597.409395	2551.673281
597.760573	2556.553117
598.111698	2552.003476
598.462768	2551.965667
598.813785	2553.130174
599.164748	2552.253013
599.515657	2551.363250
599.866511	2552.487427
600.217312	2553.094886
600.568060	2550.798640
600.918753	2554.526574
601.269392	2552.948692
601.619978	2553.563713
601.970510	2553.339382
602.320988	2551.819474
602.671412	2552.409289
603.021783	2553.886347
603.372100	2551.690925
603.722363	2551.501881
604.072572	2551.688404
604.422728	2554.420709
604.772830	2552.018600
605.122878	2549.319062
605.472872	2552.817622
605.822813	2545.969215
606.172701	2550.420554
606.522534	2552.452139
606.872314	2554.178734
607.222041	2552.444577
607.571714	2551.269988
607.921333	2552.210163
608.270899	2553.268806
608.620411	2552.878116
608.969870	2555.179403
609.319276	2556.532953
609.668627	2559.008159
610.017926	2558.748540
610.367171	2559.212326
610.716362	2560.575958
611.065500	2558.504044
611.414585	2557.710062
611.763616	2558.067984
612.112594	2554.607232
612.461518	2557.147974
612.810389	2556.515309
613.159207	2552.789896
613.507971	2552.220246
613.856682	2556.603529
614.205340	2553.331820
614.553945	2555.494475
614.902496	2555.010524
615.250994	2552.399207
615.599439	2553.175544
615.947830	2553.230997
616.296169	2551.479196
616.644454	2553.399876
616.992686	2552.126984
617.340864	2554.589588
617.688990	2553.283929
618.037063	2553.593960
618.385082	2551.015410
618.733048	2554.622356
619.080961	2552.603373
619.428821	2555.418858
619.776628	2555.204609
620.124382	2552.918446
620.472083	2553.767880
620.819731	2554.138405
621.167326	2552.444577
621.514868	2554.990360
621.862357	2552.973898
622.209793	2554.763508
622.557176	2554.524053
622.904506	2552.759649
623.251783	2550.667570
623.599007	2551.040616
623.946179	2549.540872
624.293297	2550.120605
624.640363	2552.139587
624.987376	2552.774773
625.334336	2553.551110
625.681243	2552.502550
626.028097	2551.776624
626.374899	2554.718137
626.721647	2552.621018
627.068343	2554.859290
627.414987	2553.190668
627.761577	2554.708055
628.108115	2553.266285
628.454600	2554.057746
628.801032	2554.307283
629.147412	2552.731923
629.493739	2554.256872
629.840014	2554.156049
630.186236	2553.316697
630.532405	2556.976574
630.878521	2554.743343
631.224585	2553.646892
631.570597	2552.237890
631.916556	2556.447253
632.262462	2551.181768
632.608316	2553.382232
632.954117	2553.719989
633.299866	2552.835267
633.645562	2552.931048
633.991206	2552.797458
634.336797	2553.911553
634.682336	2554.834084
635.027823	2553.490617
635.373257	2552.069011
635.718639	2551.333003
636.063968	2551.378373
636.409245	2551.627910
636.754470	2555.411296
637.099642	2552.807540
637.444762	2555.108827
637.789829	2553.455328
638.134845	2551.844680
638.479808	2553.170503
638.824719	2555.786862
639.169577	2552.109340
639.514383	2554.478683
639.859137	2551.942982
640.203839	2553.414999
640.548489	2553.838456
640.893086	2550.733105
641.237632	2547.736139
641.582125	2551.640513
641.926566	2548.537683
642.270955	2553.150339
642.615292	2551.078424
642.959576	2553.740154
643.303809	2554.980277
643.647990	2554.135884
643.992118	2555.071018
644.336195	2556.132181
644.680219	2552.137067
645.024192	2554.082952
645.368112	2555.708724
645.711981	2552.931048
646.055797	2551.466593
646.399562	2554.486244
646.743274	2553.644372
647.086935	2555.590257
647.430544	2554.793755
647.774101	2554.292160
648.117606	2552.734443
648.461059	2554.750905
648.804460	2558.241904
649.147810	2552.563044
649.491108	2552.111861
649.834354	2553.777962
650.177548	2552.232849
650.520690	2554.771070
650.863781	2550.465924
651.206820	2556.648899
651.549807	2552.986501
651.892742	2553.261244
652.235626	2553.387273
652.578458	2551.963147
652.921238	2554.418189
653.263967	2554.632438
653.606644	2553.213353
653.949269	2552.086655
654.291843	2553.961964
654.634365	2552.764690
654.976836	2554.221584
655.319255	2556.427089
655.661622	2554.093034
656.003938	2554.370298
656.346203	2556.270813
656.688416	2557.911708
657.030577	2554.133364
657.372687	2555.852397
657.714746	2551.753939
658.056753	2553.493137
658.398708	2550.526418
658.740612	2553.903991
659.082465	2553.278888
659.424266	2553.099927
659.766016	2548.933413
660.107715	2555.507078
660.449362	2554.516491
660.790958	2554.695452
661.132503	2556.308622
661.473996	2555.776780
661.815438	2554.972716
662.156829	2556.903478
662.498168	2554.118240
662.839456	2556.646379
663.180693	2555.428940
663.521879	2559.295505
663.863013	2557.246276
664.204097	2557.531101
664.545129	2556.691749
664.886110	2558.118396
665.227040	2555.323076
665.567918	2559.106462
665.908746	2555.963303
666.249522	2558.670402
666.590248	2557.561348
666.930922	2557.228632
667.271545	2557.699980
667.612118	2558.501523
667.952639	2558.199054
668.293109	2562.065619
668.633528	2559.252655
668.973896	2555.612942
669.314213	2560.487738
669.654480	2562.473953
669.994695	2559.807182
670.334859	2559.792059
670.674973	2558.917419
671.015035	2563.149467
671.355047	2561.380022
671.695008	2559.973540
672.034918	2561.871535
672.374777	2561.228788
672.714585	2562.942780
673.054342	2564.066957
673.394049	2561.412790
673.733705	2565.231464
674.073310	2564.341700
674.412864	2560.896072
674.752368	2562.058058
675.091820	2566.262380
675.431223	2561.251473
675.770574	2563.613253
676.109875	2558.294836
676.449125	2564.707184
676.788324	2562.478994
677.127473	2563.305743
677.466571	2560.361709
677.805619	2564.263562
678.144616	2566.741289
678.483562	2567.999057
678.822458	2566.486711
679.161303	2566.615261
679.500098	2566.075857
679.838842	2567.177349
680.177535	2566.708522
680.516179	2568.314129
680.854771	2570.703636
681.193314	2570.459140
681.531805	2570.391085
681.870247	2573.516600
682.208638	2574.151786
682.546978	2574.905438
682.885268	2573.985427
683.223508	2576.400140
683.561697	2576.949626
683.899836	2575.835531
684.237925	2574.890315
684.575963	2575.651529
684.913951	2576.085068
685.251889	2580.370049
685.589776	2577.151272
685.927614	2581.615214
686.265401	2582.744432
686.603137	2584.619742
686.940824	2584.687797
687.278460	2587.236100
687.616046	2588.992942
687.953582	2590.628797
688.291068	2591.200968
688.628504	2597.373861
688.965889	2593.386308
689.303224	2592.831781
689.640510	2593.419076
689.977745	2592.153746
690.314930	2592.378077
690.652065	2593.114086
690.989150	2589.144177
691.326185	2586.893302
691.663170	2589.189547
692.000105	2588.393045
692.336990	2586.416913
692.673825	2587.422623
693.010610	2586.507654
693.347345	2582.023547
693.684030	2582.255440
694.020665	2586.472366
694.357251	2581.088413
694.693786	2583.500605
695.030272	2586.220308
695.366707	2588.115782
695.703093	2585.791810
696.039429	2588.035123
696.375716	2589.731472
696.711952	2588.866914
697.048139	2586.633682
697.384276	2588.085535
697.720363	2591.586616
698.056400	2590.167531
698.392388	2590.381780
698.728326	2591.420258
699.064214	2589.481934
699.400053	2589.751636
699.735842	2593.020824
700.071581	2588.251893
700.407270	2592.257090
700.742910	2592.239446
701.078501	2590.598550
701.414042	2592.176431
701.749533	2593.852615
702.084974	2590.175093
702.420366	2591.626945
702.755709	2590.396904
703.091002	2588.403127
703.426246	2594.026535
703.761440	2590.928746
704.096584	2588.350195
704.431679	2594.863366
704.766725	2593.807244
705.101721	2595.380084
705.436668	2594.717173
705.771565	2590.878334
706.106413	2592.615012
706.441212	2596.814293
706.775961	2599.546598
707.110661	2596.403439
707.445311	2597.474684
707.779913	2603.392998
708.114465	2603.917278
708.448967	2604.081116
708.783421	2609.397013
709.117825	2609.155037
709.452180	2610.672425
709.786485	2612.008330
710.120742	2619.441512
710.454949	2615.877416
710.789107	2618.672736
711.123216	2622.733385
711.457275	2623.534929
711.791286	2627.963582
712.125247	2633.776033
712.459159	2626.710856
712.793023	2631.507513
713.126837	2636.205869
713.460602	2636.626805
713.794318	2628.155146
714.127985	2633.047586
714.461602	2630.441309
714.795171	2622.730865
715.128691	2623.723972
715.462162	2624.205402
715.795584	2624.966616
716.128957	2625.296812
716.462281	2620.986625
716.795556	2621.508385
717.128782	2623.376132
717.461960	2618.685339
717.795088	2620.752212
718.128167	2617.760287
718.461198	2612.719133
718.794180	2615.547220
719.127113	2616.540328
719.459997	2617.359515
719.792833	2612.043618
720.125619	2610.400202
720.458357	2612.477158
720.791046	2617.120060
721.123686	2612.956067
721.456278	2614.415481
721.788821	2613.082096
722.121315	2612.648557
722.453761	2611.799122
722.786158	2613.848352
723.118506	2616.129474
723.450805	2611.176540
723.783056	2613.518156
724.115259	2618.385390
724.447412	2618.143415
724.779518	2615.932869
725.111574	2620.391769
725.443582	2622.866976
725.775542	2624.235649
726.107453	2629.009622
726.439315	2627.136833
726.771129	2633.506331
727.102895	2630.983233
727.434612	2639.855664
727.766281	2638.169398
728.097901	2634.517082
728.429473	2635.379120
728.760996	2638.577732
729.092471	2636.357103
729.423897	2639.719553
729.755276	2643.918834
730.086606	2639.885911
730.417887	2640.810963
730.749120	2647.016623
731.080305	2657.885351
731.411442	2659.362409
731.742530	2652.387973
732.073570	2654.611122
732.404562	2664.154026
732.735506	2662.621515
733.066401	2658.326452
733.397249	2656.771256
733.728048	2652.887047
734.058798	2652.025010
734.389501	2647.238434
734.720156	2639.301137
735.050762	2638.035808
735.381320	2641.468833
735.711831	2635.056486
736.042293	2635.217803
736.372707	2640.677372
736.703073	2640.395068
737.033391	2635.129582
737.363661	2635.389202
737.693883	2641.057979
738.024056	2644.304482
738.354182	2638.411374
738.684260	2647.936634
739.014290	2650.283291
739.344272	2645.791623
739.674207	2656.861997
740.004093	2655.584064
740.333931	2653.769249
740.663722	2658.888541
740.993464	2658.956596
741.323159	2656.546925
741.652806	2657.187151
741.982405	2658.875938
742.311956	2652.645072
742.641460	2652.859321
742.970915	2652.413178
743.300323	2647.639206
743.629683	2644.760707
743.958996	2644.100316
744.288260	2643.190387
744.617477	2641.927578
744.946647	2637.035139
745.275768	2637.889614
745.604842	2641.799029
745.933869	2630.673202
746.262847	2632.535909
746.591778	2645.103505
746.920662	2639.152423
747.249498	2632.382154
747.578286	2644.168371
747.907027	2646.666263
748.235720	2638.459265
748.564365	2647.175420
748.892963	2649.728764
749.221514	2649.645585
749.550017	2643.999493
749.878473	2644.944709
750.206881	2642.149389
750.535242	2647.810605
750.863555	2645.378248
751.191821	2643.369348
751.520039	2638.542444
751.848210	2635.540437
752.176334	2644.964874
752.504411	2649.960657
752.832440	2641.995634
753.160421	2639.301137
753.488356	2640.989924
753.816243	2648.791109
754.144082	2639.648977
754.471875	2637.846764
754.799620	2641.370531
755.127318	2641.269708
755.454969	2640.816004
755.782572	2646.013434
756.110129	2643.417239
756.437638	2641.050418
756.765100	2641.857002
757.092515	2648.324803
757.419882	2649.227169
757.747203	2644.922024
758.074477	2643.424801
758.401703	2647.961840
758.728882	2651.271357
759.056014	2652.773621
759.383099	2650.641213
759.710138	2647.306490
760.037129	2648.564257
760.364073	2658.500372
760.690970	2655.490803
761.017820	2649.695997
761.344623	2653.325627
761.671379	2661.328459
761.998088	2661.996412
762.324751	2679.703465
762.651366	2699.941177
762.977935	2745.699730
763.304456	2800.446661
763.630931	2827.731906
763.957359	2781.338167
764.283740	2746.765934
764.610074	2735.718246
764.936362	2717.943137
765.262602	2695.167204
765.588796	2684.197653
765.914943	2672.660973
766.241044	2661.565393
766.567097	2659.881648
766.893104	2653.686070
767.219064	2647.961840
767.544978	2646.671304
767.870845	2637.846764
768.196665	2634.499438
768.522438	2639.096971
768.848165	2638.212248
769.173846	2634.043214
769.499479	2635.300982
769.825066	2630.713532
770.150607	2628.629015
770.476101	2631.999026
770.801548	2637.730818
771.126949	2622.995525
771.452303	2623.111472
771.777611	2625.742954
772.102872	2630.678244
772.428087	2628.258490
772.753256	2628.593727
773.078378	2624.512912
773.403453	2617.515791
773.728482	2616.326079
774.053465	2619.333127
774.378401	2619.985956
774.703291	2610.317023
775.028135	2615.204422
775.352932	2613.603856
775.677683	2612.782147
776.002388	2614.733074
776.327046	2614.919597
776.651658	2609.538165
776.976224	2607.625047
777.300743	2612.356170
777.625216	2611.030347
777.949643	2608.449276
778.274024	2609.021447
778.598359	2607.879625
778.922647	2606.175715
779.246889	2609.507918
779.571086	2602.999788
779.895236	2604.035746
780.219339	2609.044132
780.543397	2616.464710
780.867409	2612.787189
781.191374	2610.710233
781.515294	2611.479009
781.839167	2612.467075
782.162995	2608.676128
782.486776	2613.374483
782.810511	2609.926334
783.134201	2607.851899
783.457844	2613.631582
783.781441	2611.915069
784.104993	2605.999275
784.428498	2605.311157
784.751958	2609.139914
785.075372	2609.752414
785.398739	2603.506424
785.722061	2606.211003
786.045337	2616.041253
786.368568	2607.378031
786.691752	2609.835593
787.014891	2615.403547
787.337983	2622.665330
787.661030	2622.211626
787.984031	2632.309057
788.306987	2640.589152
788.629897	2638.106384
788.952760	2639.822897
789.275579	2642.293062
789.598351	2630.932822
789.921078	2622.060391
790.243759	2623.156842
790.566395	2621.505864
790.888984	2615.685852
791.211529	2615.343054
791.534027	2614.304576
791.856480	2612.333485
792.178888	2605.482557
792.501249	2603.110694
792.823566	2606.891559
793.145836	2605.467433
793.468062	2607.768720
793.790241	2606.669748
794.112375	2606.067331
794.434464	2606.853751
794.756507	2612.073865
795.078505	2608.174533
795.400457	2608.426591
795.722364	2612.673763
796.044226	2620.303549
796.366042	2620.905967
796.687812	2617.397324
797.009538	2626.725979
797.331218	2625.493417
797.652852	2622.004938
797.974442	2619.612911
798.295986	2616.464710
798.617484	2622.511574
798.938938	2616.449587
799.260346	2615.542179
799.581709	2613.689555
799.903026	2615.459000
800.224299	2610.919441
800.545526	2610.405243
800.866708	2605.767382
801.187845	2604.381065
801.508936	2604.413832
801.829983	2607.486415
802.150984	2605.389295
802.471940	2601.558018
802.792851	2601.517689
803.113717	2602.062134
803.434538	2605.180087
803.755314	2604.986003
804.076045	2600.706063
804.396731	2602.803183
804.717372	2599.894438
805.037967	2599.309664
805.358518	2599.622215
805.679024	2604.791919
805.999485	2602.120107
806.319901	2605.419542
806.640272	2603.135900
806.960598	2602.357041
807.280879	2605.399378
807.601115	2607.095726
807.921306	2605.573297
808.241453	2600.141454
808.561554	2605.694285
808.881611	2608.010695
809.201623	2607.960284
809.521590	2606.722681
809.841513	2606.246292
810.161390	2606.160592
810.481223	2603.975252
810.801011	2602.893924
811.120755	2600.257401
811.440453	2603.788729
811.760107	2603.942484
812.079716	2602.808225
812.399281	2599.481063
812.718801	2598.863522
813.038276	2595.682554
813.357707	2601.719335
813.677093	2603.617330
813.996434	2603.609768
814.315731	2603.024994
814.634983	2599.947370
814.954191	2599.561722
815.273354	2606.342073
815.592473	2608.413988
815.911547	2610.024636
816.230577	2609.558330
816.549562	2612.164606
816.868502	2611.352980
817.187399	2614.513784
817.506250	2619.519650
817.825058	2620.724485
818.143821	2621.284053
818.462539	2624.318828
818.781213	2630.388377
819.099843	2638.877680
819.418429	2648.559216
819.736970	2659.866524
820.055466	2674.324554
820.373919	2702.386137
820.692327	2736.418966
821.010691	2763.719335
821.329011	2833.113338
821.647286	2955.250413
821.965517	3150.700989
822.283704	3249.245465
822.601847	3268.243053
822.919945	3229.073287
823.237999	3206.163764
823.556010	3114.782768
823.873976	3020.243489
824.191897	2949.690021
824.509775	2891.797410
824.827609	2827.159735
825.145398	2800.975982
825.463144	2803.063020
825.780845	2820.878458
826.098502	2833.410766
826.416116	2885.185937
826.733685	2937.911365
827.051210	2955.580609
827.368692	2938.596962
827.686129	2908.460944
828.003522	2836.798422
828.320872	2783.699948
828.638177	2738.122876
828.955439	2701.566949
829.272656	2683.406192
829.589830	2663.299550
829.906960	2658.455001
830.224046	2644.806077
830.541088	2636.939357
830.858086	2634.653193
831.175041	2631.194962
831.491952	2632.344345
831.808819	2633.632360
832.125642	2640.516055
832.442421	2652.256903
832.759157	2668.479336
833.075849	2707.230685
833.392497	2761.723038
833.709101	2811.665749
834.025662	2810.949905
834.342179	2781.396141
834.658653	2741.253433
834.975083	2710.237734
835.291469	2689.064887
835.607811	2664.716114
835.924110	2648.806233
836.240366	2636.130252
836.556578	2622.985443
836.872746	2617.896398
837.188871	2610.904318
837.504952	2602.994747
837.820990	2603.627412
838.136984	2598.296392
838.452935	2598.253542
838.768842	2597.144488
839.084706	2598.997112
839.400526	2620.427057
839.716303	2644.793474
840.032037	2664.012873
840.347727	2669.298523
840.663373	2659.241421
840.978977	2643.069400
841.294537	2623.207254
841.610054	2607.917434
841.925527	2604.562546
842.240957	2598.041814
842.556344	2591.195927
842.871687	2587.992273
843.186987	2585.948086
843.502244	2584.695359
843.817458	2581.562282
844.132629	2577.748649
844.447756	2575.321333
844.762840	2569.433266
845.077881	2572.354614
845.392879	2571.268246
845.707833	2572.147927
846.022745	2567.928481
846.337613	2569.266907
846.652438	2569.551733
846.967221	2571.174984
847.281960	2567.920919
847.596656	2570.791857
847.911309	2569.176167
848.225919	2570.091136
848.540485	2567.923440
848.855009	2565.707853
849.169490	2569.092988
849.483928	2568.649366
849.798323	2566.940415
850.112675	2564.228274
850.426984	2568.238512
850.741251	2565.818758
851.055474	2566.332956
851.369654	2569.947463
851.683792	2569.133317
851.997887	2566.043090
852.311938	2566.900086
852.625947	2566.519479
852.939914	2568.578790
853.253837	2568.367062
853.567718	2566.325394
853.881555	2566.864798
854.195350	2569.012329
854.509103	2569.329922
854.822812	2567.139541
855.136479	2568.908986
855.450103	2568.735066
855.763685	2568.165415
856.077224	2570.464182
856.390720	2570.176836
856.704173	2570.078533
857.017584	2571.840417
857.330953	2570.723801
857.644278	2571.399316
857.957561	2572.669686
858.270802	2570.479305
858.584000	2568.172977
858.897155	2575.049111
859.210268	2571.807649
859.523339	2569.428224
859.836367	2567.494942
860.149352	2565.765826
860.462295	2568.813204
860.775195	2564.939077
861.088054	2563.215002
861.400869	2564.303892
861.713642	2563.242729
862.026373	2566.902606
862.339062	2569.965107
862.651708	2571.570715
862.964312	2569.967628
863.276873	2568.694737
863.589392	2568.672051
863.901869	2570.796898
864.214303	2571.974007
864.526696	2573.549368
864.839045	2574.378637
865.151353	2574.837382
865.463619	2577.158834
865.775842	2577.950295
866.088023	2575.684296
866.400162	2577.415933
866.712258	2576.032136
867.024313	2575.825449
867.336325	2574.784450
867.648296	2575.575912
867.960224	2577.804102
868.272110	2580.705286
868.583954	2575.734708
868.895755	2573.924934
869.207515	2576.206056
869.519233	2581.544638
869.830909	2581.055646
870.142542	2577.602455
870.454134	2578.035995
870.765684	2578.915676
871.077191	2579.692014
871.388657	2583.447673
871.700081	2579.324009
872.011463	2580.874164
872.322803	2579.245872
872.634101	2580.972467
872.945357	2586.409351
873.256571	2587.089907
873.567744	2582.157138
873.878874	2585.864907
874.189963	2587.825915
874.501010	2591.856318
874.812015	2592.284816
875.122979	2588.347675
875.433900	2587.944382
875.744780	2586.749629
876.055618	2591.679877
876.366415	2592.632656
876.677169	2593.787080
876.987882	2588.849270
877.298554	2588.022520
877.609183	2594.220619
877.919771	2596.736155
878.230317	2603.128338
878.540822	2603.927361
878.851285	2613.795419
879.161707	2622.511574
879.472087	2638.333236
879.782425	2653.204640
880.092722	2693.301977
880.402977	2744.605800
880.713191	2799.176290
881.023363	2843.785461
881.333494	2869.102135
881.643583	2918.921338
881.953631	2940.310954
882.263637	2920.310176
882.573602	2871.789070
882.883526	2851.311903
883.193408	2822.128664
883.503248	2800.754172
883.813048	2767.656476
884.122806	2730.730024
884.432522	2705.279759
884.742197	2685.329392
885.051831	2673.089471
885.361424	2662.891217
885.670975	2651.712458
885.980485	2637.083030
886.289954	2629.576752
886.599382	2623.645834
886.908768	2620.429578
887.218113	2615.375821
887.527417	2607.239399
887.836680	2601.769747
888.145901	2601.951228
888.455082	2601.479881
888.764221	2595.889241
889.073319	2591.949579
889.382376	2593.040989
889.691392	2593.020824
890.000366	2596.098449
890.309300	2589.121492
890.618193	2592.753643
890.927044	2590.641400
891.235855	2590.356575
891.544625	2589.650813
891.853353	2592.342789
892.162041	2595.531319
892.470687	2605.477516
892.779293	2605.986672
893.087858	2609.228134
893.396381	2615.237189
893.704864	2628.087091
894.013306	2649.519556
894.321707	2683.716223
894.630068	2698.567462
894.938387	2705.814121
895.246665	2711.699668
895.554903	2700.740200
895.863100	2692.167718
896.171256	2669.648883
896.479371	2645.037970
896.787446	2632.072123
897.095480	2623.192130
897.403473	2620.628703
897.711425	2617.208281
898.019336	2609.447424
898.327207	2600.547267
898.635038	2604.242433
898.942827	2601.031218
899.250576	2596.035434
899.558284	2590.429671
899.865952	2590.316245
900.173579	2589.842377
900.481165	2591.959662
900.788711	2585.398600
901.096216	2586.001018
901.403681	2583.752663
901.711105	2583.223342
902.018489	2581.353074
902.325832	2585.486820
902.633135	2582.527663
902.940397	2591.271544
903.247619	2606.188318
903.554800	2628.941566
903.861941	2669.600992
904.169041	2703.706919
904.476101	2724.978067
904.783121	2726.560990
905.090100	2717.108826
905.397039	2693.080167
905.703938	2671.834224
906.010796	2650.104330
906.317614	2625.866462
906.624391	2615.015379
906.931129	2603.017432
907.237826	2595.213726
907.544483	2584.773497
907.851099	2582.058835
908.157675	2576.901735
908.464211	2576.173288
908.770707	2567.555436
909.077163	2564.606361
909.383578	2565.327246
909.689954	2562.047975
909.996289	2565.037379
910.302584	2562.821792
910.608839	2562.610064
910.915054	2563.882955
911.221229	2564.064437
911.527363	2563.719118
911.833458	2565.728017
912.139513	2563.479663
912.445527	2565.423028
912.751502	2568.329253
913.057436	2569.450910
913.363331	2568.755230
913.669186	2577.186560
913.975000	2582.837694
914.280775	2589.519743
914.586510	2597.129365
914.892205	2608.441714
915.197859	2634.028090
915.503475	2664.396001
915.809050	2685.034485
916.114585	2685.702438
916.420081	2692.790300
916.725536	2703.003678
917.030952	2699.346321
917.336328	2681.941737
917.641665	2664.169149
917.946961	2648.186171
918.252218	2631.447020
918.557435	2621.389918
918.862612	2612.013372
919.167750	2605.772423
919.472848	2599.229005
919.777906	2593.640886
920.082925	2586.147211
920.387904	2580.380131
920.692843	2581.219483
920.997743	2580.173444
921.302603	2576.271591
921.607423	2573.191446
921.912204	2570.862433
922.216946	2570.814542
922.521647	2570.653225
922.826310	2565.375137
923.130932	2567.552915
923.435516	2559.784497
923.740059	2564.724828
924.044564	2560.507903
924.349028	2561.392625
924.653454	2553.992211
924.957840	2556.144784
925.262186	2555.522202
925.566493	2556.129661
925.870761	2550.707900
926.174989	2557.084959
926.479178	2553.296532
926.783328	2554.750905
927.087438	2552.981460
927.391509	2553.364588
927.695541	2551.000287
927.999533	2551.453990
928.303486	2547.978115
928.607400	2550.460883
928.911275	2553.115051
929.215110	2551.017931
929.518906	2548.814946
929.822663	2549.608928
930.126381	2548.696479
930.430060	2552.275698
930.733699	2548.678835
931.037299	2551.267468
931.340861	2551.968188
931.644383	2550.533980
931.947866	2551.295194
932.251309	2551.635472
932.554714	2551.839639
932.858080	2552.437015
933.161407	2548.651109
933.464694	2549.866027
933.767943	2550.702858
934.071153	2549.243444
934.374323	2551.534649
934.677455	2548.308310
934.980548	2547.983156
935.283602	2549.472817
935.586617	2547.937786
935.889593	2548.414175
936.192530	2546.874102
936.495428	2552.096738
936.798287	2549.334185
937.101108	2551.043136
937.403890	2550.841490
937.706632	2554.599670
938.009336	2554.115720
938.312002	2554.725699
938.614628	2556.437171
938.917216	2561.314487
939.219765	2558.688046
939.522275	2561.180897
939.824747	2559.565207
940.127179	2556.109496
940.429573	2554.216543
940.731929	2556.926163
941.034246	2554.660164
941.336524	2554.513971
941.638763	2553.152859
941.940964	2554.332489
942.243126	2555.444064
942.545250	2553.135215
942.847335	2551.789227
943.149381	2550.279402
943.451389	2554.259393
943.753359	2552.426933
944.055290	2547.511808
944.357182	2551.184289
944.659036	2552.615976
944.960851	2549.470296
945.262628	2550.624721
945.564367	2551.786707
945.866067	2549.316541
946.167729	2552.220246
946.469352	2548.494833
946.770937	2549.510626
947.072484	2550.337375
947.373992	2552.374001
947.675462	2549.465255
947.976893	2551.353167
948.278286	2549.480379
948.579641	2549.361912
948.880958	2550.191181
949.182236	2547.721016
949.483476	2548.940975
949.784678	2549.470296
950.085841	2549.805533
950.386967	2549.061963
950.688054	2548.449463
950.989103	2550.531459
951.290114	2552.822664
951.591087	2552.540359
951.892021	2551.484237
952.192917	2549.853424
952.493776	2554.919784
952.794596	2551.501881
953.095378	2554.619835
953.396122	2549.505584
953.696828	2551.713610
953.997496	2552.343754
954.298126	2551.035575
954.598718	2553.321738
954.899272	2547.854607
955.199788	2549.167827
955.500266	2549.833259
955.800706	2544.149358
956.101108	2543.713299
956.401472	2544.572815
956.701798	2541.374203
957.002087	2541.381765
957.302337	2542.750438
957.602550	2543.998124
957.902724	2545.298742
958.202861	2544.252702
958.502960	2543.710778
958.803022	2546.059956
959.103045	2542.697506
959.403031	2544.983669
959.702979	2543.894780
960.002889	2542.894111
960.302762	2542.808412
960.602596	2541.812784
960.902393	2541.354039
961.202153	2542.722712
961.501875	2543.698175
961.801559	2542.876467
962.101205	2542.339584
962.400814	2548.525080
962.700385	2545.076931
962.999918	2543.279759
963.299414	2541.026364
963.598873	2542.594162
963.898293	2543.557023
964.197677	2541.283462
964.497022	2542.011909
964.796331	2542.193391
965.095601	2540.741538
965.394835	2545.243289
965.694030	2542.261446
965.993189	2543.456200
966.292309	2541.026364
966.591393	2540.928061
966.890439	2542.725233
967.189447	2541.769934
967.488419	2541.732125
967.787353	2542.889070
968.086249	2543.246992
968.385108	2541.749769
968.683930	2542.873947
968.982714	2540.144162
969.281462	2544.787064
969.580172	2543.335212
969.878844	2545.311344
970.177480	2542.074924
970.476078	2546.241437
970.774639	2542.853782
971.073162	2543.234389
971.371649	2540.018133
971.670098	2539.337577
971.968510	2541.800181
972.266885	2537.981507
972.565223	2542.437887
972.863524	2543.355377
973.161788	2545.366797
973.460014	2541.502753
973.758204	2544.262784
974.056356	2541.787578
974.354471	2542.216076
974.652550	2544.507280
974.950591	2547.418547
975.248595	2544.048535
975.546563	2542.720191
975.844493	2542.568957
976.142386	2544.081303
976.440243	2541.578370
976.738062	2543.766231
977.035845	2543.683052
977.333590	2543.683052
977.631299	2542.899152
977.928971	2544.434184
978.226606	2543.698175
978.524204	2542.856303
978.821765	2541.366642
979.119290	2543.609955
979.416777	2540.461754
979.714228	2544.285470
980.011642	2546.405275
980.309020	2545.868392
980.606360	2542.495860
980.903664	2543.627599
981.200931	2543.158772
981.498162	2543.347815
981.795356	2543.678011
982.092513	2545.331509
982.389633	2544.144317
982.686717	2551.451470
982.983764	2547.085831
983.280775	2551.406099
983.577749	2548.474668
983.874686	2549.127498
984.171587	2546.937117
984.468451	2546.659853
984.765279	2544.829914
985.062070	2546.732950
985.358824	2542.493339
985.655543	2544.025850
985.952224	2543.005017
986.248869	2543.060469
986.545478	2536.080992
986.842050	2538.667104
987.138586	2537.812628
987.435086	2538.180632
987.731549	2533.711649
988.027975	2543.191539
988.324366	2540.655839
988.620719	2542.672300
988.917037	2540.560057
989.213318	2542.405119
989.509563	2540.560057
989.805772	2540.028215
990.101944	2540.557536
990.398080	2542.984852
990.694180	2540.048380
990.990244	2542.687424
991.286271	2540.345808
991.582262	2538.848585
991.878217	2541.459903
992.174136	2542.342105
992.470019	2540.870088
992.765865	2542.226158
993.061676	2541.215407
993.357450	2540.340767
993.653188	2541.618699
993.948890	2540.386137
994.244556	2536.849768
994.540186	2543.529297
994.835780	2544.845038
995.131337	2541.722043
995.426859	2542.964687
995.722345	2539.451003
996.017795	2542.384955
996.313208	2543.824204
996.608586	2544.514842
996.903928	2541.195242
997.199234	2541.538041
997.494504	2540.678524
997.789738	2541.888401
998.084936	2543.262115
998.380099	2543.365459
998.675225	2544.159441
998.970316	2540.726415
999.265371	2539.188863
999.560390	2538.556198
999.855373	2541.638864
1000.150320	2542.891591
1000.445232	2541.384286
1000.740108	2539.811446
1001.034948	2539.667773
1001.329752	2539.816487
1001.624521	2538.813297
1001.919254	2538.558719
1002.213951	2538.301620
1002.508613	2536.433872
1002.803239	2537.295910
1003.097829	2534.467823
1003.392384	2540.968390
1003.686903	2538.556198
1003.981386	2542.868905
1004.275834	2539.030067
1004.570246	2542.062321
1004.864623	2540.504604
1005.158964	2540.451672
1005.453270	2539.834131
1005.747540	2541.091899
1006.041775	2540.118956
1006.335974	2539.249357
1006.630138	2542.004348
1006.924266	2541.144831
1007.218359	2539.665252
1007.512416	2542.468134
1007.806438	2540.282793
1008.100425	2539.279604
1008.394376	2539.824048
1008.688292	2540.078627
1008.982172	2540.837320
1009.276017	2541.631302
1009.569827	2540.013092
1009.863602	2540.854964
1010.157341	2539.551826
1010.451045	2539.771116
1010.744714	2539.690458
1011.038347	2538.016795
1011.331945	2538.830941
1011.625508	2541.780016
1011.919036	2538.951929
1012.212528	2537.754655
1012.505986	2537.545447
1012.799408	2536.965714
1013.092795	2539.471168
1013.386147	2540.930582
1013.679464	2538.561239
1013.972745	2540.383617
1014.265992	2539.133410
1014.559204	2543.592311
1014.852380	2539.267001
1015.145521	2541.162475
1015.438628	2537.661393
1015.731699	2538.410005
1016.024736	2539.758513
1016.317737	2539.771116
1016.610703	2544.000644
1016.903635	2538.609130
1017.196531	2539.153575
1017.489393	2537.109387
1017.782219	2534.790456
1018.075011	2538.042001
1018.367768	2540.582742
1018.660490	2538.223482
1018.953177	2538.223482
1019.245829	2538.223482
