Dividing Wavelength (nm)	Counts (n)	Blue Motor Position (mm): 10.800000	Red Motor Position (mm): 0.000000	
326.493990	2138.197842
326.888308	2138.197842
327.282561	2138.197842
327.676750	2108.187853
328.070874	2105.725250
328.464933	2107.925713
328.858929	2115.179934
329.252859	2121.751078
329.646726	2135.074847
330.040528	2146.147742
330.434265	2167.544919
330.827938	2183.497651
331.221547	2201.991123
331.615091	2219.856973
332.008571	2238.554612
332.401986	2257.242170
332.795338	2277.321085
333.188625	2297.931843
333.581847	2317.612508
333.975006	2333.776967
334.368100	2354.904443
334.761129	2372.661907
335.154095	2387.349309
335.546996	2403.937226
335.939833	2424.144691
336.332606	2439.374017
336.725315	2449.640327
337.117960	2461.978551
337.510540	2468.305199
337.903056	2476.098823
338.295508	2488.583240
338.687896	2492.648931
339.080220	2503.235354
339.472480	2510.184584
339.864676	2512.760614
340.256807	2518.116840
340.648875	2519.757736
341.040879	2522.401821
341.432818	2524.922398
341.824694	2528.191586
342.216506	2528.100845
342.608253	2529.978675
342.999937	2527.379960
343.391557	2528.496576
343.783113	2527.377440
344.174605	2523.946934
344.566033	2522.061543
344.957397	2522.779907
345.348697	2521.519619
345.739934	2519.689680
346.131106	2518.016017
346.522215	2517.166583
346.913260	2511.127280
347.304241	2512.032167
347.695159	2507.888339
348.086012	2508.765500
348.476802	2504.306599
348.867528	2505.846672
349.258191	2502.252329
349.648789	2504.523369
350.039324	2501.390292
350.429796	2500.180415
350.820203	2498.000116
351.210548	2497.009529
351.600828	2500.200579
351.991045	2494.501555
352.381198	2494.171359
352.771288	2495.658500
353.161314	2494.768736
353.551276	2494.690598
353.941175	2490.599702
354.331010	2493.866369
354.720782	2492.553149
355.110490	2493.130361
355.500135	2494.683036
355.889717	2493.778149
356.279235	2491.895278
356.668689	2493.447954
357.058080	2494.420896
357.447408	2493.047182
357.836672	2490.551811
358.225873	2492.588437
358.615010	2490.587099
359.004084	2499.091525
359.393095	2496.233191
359.782043	2498.416011
360.170927	2499.802328
360.559748	2499.862822
360.948505	2496.278562
361.337199	2500.588748
361.725830	2500.225785
362.114398	2501.264263
362.502903	2499.668738
362.891344	2502.469098
363.279722	2501.511279
363.668037	2503.447082
364.056289	2504.299037
364.444478	2504.087309
364.832603	2504.742659
365.220665	2501.707884
365.608665	2503.817607
365.996601	2503.207628
366.384474	2506.449089
366.772284	2505.682834
367.160031	2507.600993
367.547715	2508.155520
367.935336	2506.471775
368.322893	2508.780623
368.710388	2509.375479
369.097820	2509.193998
369.485189	2510.479492
369.872495	2505.967659
370.259738	2506.950684
370.646918	2506.431445
371.034035	2508.420181
371.421090	2508.699965
371.808081	2508.059738
372.195010	2510.507218
372.581875	2509.551920
372.968678	2509.688031
373.355418	2508.543689
373.742096	2510.499657
374.128710	2509.448576
374.515262	2512.543844
374.901751	2511.500326
375.288177	2510.030829
375.674540	2510.769358
376.060841	2510.693741
376.447079	2514.126767
376.833254	2510.716426
377.219367	2508.357166
377.605417	2511.069307
377.991404	2508.473113
378.377329	2510.081241
378.763191	2509.390603
379.148991	2512.546365
379.534727	2512.382527
379.920402	2513.751201
380.306013	2514.078876
380.691563	2514.552744
381.077049	2513.705830
381.462474	2516.286901
381.847835	2513.708351
382.233134	2513.085768
382.618371	2513.763804
383.003545	2515.346726
383.388657	2514.434277
383.773706	2518.179854
384.158693	2518.646161
384.543618	2517.093486
384.928480	2516.949813
385.313280	2515.941582
385.698017	2516.359998
386.082692	2518.855369
386.467305	2516.599453
386.851856	2517.310255
387.236344	2518.852848
387.620770	2517.915194
388.005133	2517.983249
388.389435	2520.718075
388.773674	2517.542148
389.157851	2514.459483
389.541965	2517.910153
389.926018	2520.002232
390.310008	2518.593229
390.693936	2518.202540
391.077802	2518.709176
391.461606	2521.751512
391.845348	2519.011645
392.229027	2521.348220
392.612645	2521.184382
392.996200	2520.256810
393.379694	2521.459125
393.763125	2521.779238
394.146494	2520.619773
394.529801	2524.070443
394.913047	2524.743437
395.296230	2520.529032
395.679351	2520.413086
396.062410	2523.435257
396.445408	2523.029444
396.828343	2522.018693
397.211217	2519.518281
397.594028	2520.360153
397.976778	2521.126409
398.359466	2522.285874
398.742092	2520.425688
399.124656	2525.270237
399.507158	2524.279651
399.889598	2524.708149
400.271977	2526.215454
400.654294	2525.146729
401.036549	2524.234280
401.418742	2525.633200
401.800874	2524.791328
402.182944	2522.699249
402.564952	2524.393077
402.946898	2526.510361
403.328783	2526.772501
403.710606	2523.858714
404.092367	2526.638911
404.474067	2525.106400
404.855705	2526.838036
405.237282	2526.220495
405.618797	2527.352234
406.000250	2526.079342
406.381642	2526.994312
406.762972	2526.646472
407.144240	2525.416431
407.525447	2527.664785
407.906593	2527.339631
408.287677	2528.857018
408.668700	2528.362985
409.049661	2527.916843
409.430560	2530.124868
409.811399	2531.286854
410.192176	2528.478932
410.572891	2526.089425
410.953545	2529.126720
411.334138	2528.395753
411.714669	2529.167049
412.095139	2531.314581
412.475547	2531.065044
412.855894	2530.167718
413.236180	2532.620240
413.616405	2531.864067
413.996568	2529.794673
414.376670	2531.574200
414.756711	2529.315763
415.136691	2529.419107
415.516609	2527.904240
415.896466	2530.533202
416.276262	2534.790456
416.655997	2527.445495
417.035670	2527.001874
417.415283	2531.846423
417.794834	2530.228212
418.174324	2529.862728
418.553753	2530.787780
418.933121	2531.392719
419.312428	2529.169570
419.691674	2532.048069
420.070859	2532.204344
420.449983	2530.129910
420.829045	2534.916485
421.208047	2534.729963
421.586988	2533.205013
421.965867	2533.787267
422.344686	2530.785260
422.723444	2533.484798
423.102141	2532.935312
423.480777	2534.946732
423.859352	2531.576721
424.237866	2531.816176
424.616319	2535.748276
424.994712	2532.816845
425.373044	2534.629139
425.751314	2533.951104
426.129524	2532.519417
426.507673	2534.936650
426.885762	2534.137627
427.263789	2533.643594
427.641756	2536.237267
428.019662	2532.257277
428.397508	2535.801208
428.775292	2533.762061
429.153016	2536.108718
429.530679	2536.738862
429.908282	2533.855322
430.285824	2533.981351
430.663305	2533.605785
431.040726	2535.365148
431.418086	2534.908923
431.795385	2537.613503
432.172624	2534.397246
432.549802	2538.568801
432.926920	2533.235260
433.303977	2537.248019
433.680974	2534.798018
434.057910	2534.452699
434.434786	2535.584438
434.811601	2536.945550
435.188355	2535.831455
435.565050	2535.090405
435.941683	2535.337422
436.318257	2532.842050
436.694770	2535.544109
437.071222	2533.164684
437.447614	2534.430014
437.823946	2532.655528
438.200218	2538.964532
438.576429	2538.644418
438.952580	2536.191897
439.328670	2537.270704
439.704700	2538.094933
440.080670	2537.187525
440.456580	2535.201310
440.832429	2538.326826
441.208218	2537.447144
441.583947	2539.030067
441.959616	2540.071065
442.335224	2540.270191
442.710773	2537.212731
443.086261	2539.274563
443.461689	2536.020498
443.837057	2538.951929
444.212365	2539.864378
444.587612	2541.386806
444.962800	2540.302958
445.337927	2537.696682
445.712995	2540.040818
446.088002	2540.877650
446.462949	2537.300951
446.837837	2536.406146
447.212664	2538.415046
447.587431	2539.955118
447.962139	2538.523431
448.336786	2542.473175
448.711374	2539.624923
449.085901	2542.011909
449.460369	2538.404964
449.834776	2539.433359
450.209124	2536.970755
450.583412	2539.783719
450.957640	2538.677186
451.331808	2541.936292
451.705917	2539.410674
452.079965	2539.173740
452.453954	2539.350180
452.827883	2542.190870
453.201752	2540.328164
453.575562	2541.845551
453.949311	2542.072403
454.323001	2539.904707
454.696632	2541.202804
455.070202	2541.235572
455.443713	2541.701878
455.817164	2536.413708
456.190556	2538.977135
456.563888	2540.534851
456.937160	2538.384799
457.310373	2541.769934
457.683526	2541.205325
458.056619	2542.727753
458.429653	2543.050387
458.802628	2541.238092
459.175542	2541.326312
459.548398	2542.979811
459.921194	2540.156765
460.293930	2541.575849
460.666607	2544.421581
461.039224	2539.962680
461.411782	2544.280428
461.784280	2540.292876
462.156719	2543.486447
462.529099	2543.478885
462.901419	2543.012578
463.273680	2542.904193
463.645882	2543.925027
464.018024	2542.339584
464.390106	2542.647095
464.762130	2544.993752
465.134094	2546.972405
465.505999	2543.433515
465.877845	2541.623740
466.249631	2543.819163
466.621358	2542.601724
466.993026	2546.420398
467.364634	2547.123639
467.736184	2544.960984
468.107674	2544.066179
468.479105	2547.262271
468.850477	2541.870757
469.221790	2546.173382
469.593043	2544.066179
469.964238	2545.056766
470.335373	2544.603062
470.706449	2546.155738
471.077467	2544.222455
471.448425	2545.306303
471.819324	2543.884698
472.190164	2546.420398
472.560945	2545.893598
472.931667	2546.185985
473.302330	2545.288659
473.672934	2546.861499
474.043479	2544.444266
474.413965	2545.815460
474.784393	2542.369831
475.154761	2543.017619
475.525070	2541.893442
475.895321	2543.872095
476.265513	2540.524769
476.635645	2547.715975
477.005719	2545.485264
477.375734	2542.949564
477.745691	2546.196067
478.115588	2547.476520
478.485427	2544.862682
478.855207	2547.121119
479.224928	2544.343443
479.594591	2547.514329
479.964194	2545.351674
480.333739	2545.495347
480.703226	2548.053732
481.072653	2546.959802
481.442022	2549.918959
481.811333	2546.911911
482.180584	2546.092723
482.549777	2544.943340
482.918912	2546.690100
483.287988	2545.192877
483.657005	2548.313352
484.025964	2546.236396
484.394864	2545.674308
484.763706	2547.390820
485.132489	2547.335368
485.501213	2547.335368
485.869879	2548.920811
486.238487	2546.453166
486.607036	2548.966181
486.975527	2548.396531
487.343959	2544.585418
487.712333	2545.339071
488.080648	2546.589277
488.448905	2548.189843
488.817104	2548.152035
489.185244	2549.009031
489.553326	2548.008362
489.921350	2550.765873
490.289315	2547.612631
490.657222	2549.871068
491.025070	2545.576005
491.392861	2548.890564
491.760593	2547.529452
492.128267	2547.884853
492.495883	2545.770089
492.863440	2549.422405
493.230939	2550.138249
493.598380	2549.591284
493.965763	2543.511652
494.333088	2546.770758
494.700354	2547.105995
495.067563	2548.026006
495.434713	2544.635830
495.801805	2550.221428
496.168839	2548.976263
496.535815	2548.666232
496.902733	2549.558517
497.269593	2549.800492
497.636395	2549.049360
498.003139	2550.695297
498.369825	2548.419216
498.736453	2546.112888
499.103023	2551.118754
499.469535	2547.272353
499.835989	2548.583053
500.202385	2549.467776
500.568723	2549.699669
500.935003	2550.387786
501.301226	2550.274360
501.667390	2550.481048
502.033497	2549.319062
502.399546	2553.036913
502.765537	2547.915100
503.131470	2549.666901
503.497345	2551.597663
503.863163	2551.837118
504.228923	2547.453835
504.594625	2549.853424
504.960269	2547.842004
505.325856	2548.124308
505.691385	2548.010882
506.056856	2551.426264
506.422270	2548.126829
506.787625	2550.725544
507.152924	2549.361912
507.518164	2550.982642
507.883347	2550.289484
508.248472	2549.893753
508.613540	2550.080276
508.978550	2549.482899
509.343503	2550.647406
509.708398	2551.539690
510.073236	2548.656150
510.438016	2553.384752
510.802738	2552.467262
511.167403	2552.784855
511.532010	2551.784186
511.896561	2551.464073
512.261053	2552.684032
512.625488	2549.734957
512.989866	2549.223280
513.354186	2549.992056
513.718449	2546.697662
514.082655	2549.165307
514.446803	2548.487271
514.810894	2550.705379
515.174927	2551.905174
515.538904	2549.803012
515.902822	2549.238403
516.266684	2550.564227
516.630488	2552.678991
516.994235	2552.411810
517.357925	2551.194371
517.721558	2548.830070
518.085133	2553.662016
518.448651	2552.668908
518.812112	2552.290822
519.175516	2552.794937
519.538863	2549.913918
519.902152	2552.487427
520.265385	2553.228477
520.628560	2553.790565
520.991678	2550.055070
521.354739	2553.591440
521.717743	2550.997766
522.080690	2553.467931
522.443580	2553.704866
522.806413	2553.082283
523.169189	2553.735112
523.531908	2554.403065
523.894569	2556.742161
524.257174	2554.599670
524.619722	2556.658982
524.982213	2555.076059
525.344647	2554.085473
525.707025	2555.302911
526.069345	2554.221584
526.431608	2555.015566
526.793815	2555.943138
527.155964	2555.496996
527.518057	2553.609084
527.880093	2555.265103
528.242072	2557.891544
528.603995	2560.028993
528.965860	2556.235525
529.327669	2556.767367
529.689421	2557.276523
530.051117	2558.501523
530.412755	2556.996739
530.774337	2557.803324
531.135862	2558.315001
531.497331	2555.615463
531.858743	2553.283929
532.220098	2557.359702
532.581396	2551.915256
532.942638	2555.751574
533.303824	2560.245763
533.664953	2559.580330
534.026025	2559.779456
534.387040	2561.775753
534.747999	2559.146791
535.108902	2559.328273
535.469748	2559.933211
535.830537	2561.190979
536.191270	2561.269117
536.551947	2558.509085
536.912567	2561.861452
537.273131	2563.880435
537.633638	2563.658624
537.994089	2562.597461
538.354483	2562.461350
538.714821	2563.691391
539.075103	2564.122410
539.435328	2562.811710
539.795497	2560.460012
540.155609	2564.124931
540.515665	2562.705846
540.875665	2564.336659
541.235609	2564.296330
541.595496	2565.551577
541.955328	2565.044941
542.315102	2565.798594
542.674821	2563.487225
543.034483	2565.087791
543.394090	2565.662482
543.753640	2565.097873
544.113134	2566.516958
544.472571	2563.136864
544.831953	2565.392781
545.191278	2565.271793
545.550548	2568.374623
545.909761	2569.284552
546.268918	2567.880590
546.628019	2567.336146
546.987064	2566.907647
547.346053	2567.341187
547.704986	2565.881773
548.063863	2567.220199
548.422684	2569.395457
548.781449	2568.750189
549.140158	2568.150292
549.498811	2569.065261
549.857408	2568.414953
550.215949	2566.748851
550.574434	2562.138716
550.932864	2564.099725
551.291237	2562.811710
551.649555	2566.872359
552.007817	2566.534602
552.366022	2567.741958
552.724173	2566.035528
553.082267	2568.871177
553.440305	2568.256156
553.798288	2567.600806
554.156215	2568.687175
554.514086	2569.355128
554.871902	2567.406722
555.229661	2568.316650
555.587365	2568.611557
555.945014	2566.285065
556.302606	2568.843451
556.660143	2567.701629
557.017625	2568.304047
557.375050	2571.117011
557.732421	2568.455282
558.089735	2566.743810
558.446994	2566.779098
558.804197	2567.147102
559.161345	2570.489387
559.518437	2568.664490
559.875474	2568.120045
560.232455	2569.607185
560.589381	2567.142061
560.946251	2568.878739
561.303065	2566.592575
561.659825	2568.440158
562.016528	2569.075344
562.373177	2565.352452
562.729770	2566.877401
563.086307	2567.447051
563.442789	2568.591393
563.799216	2567.961249
564.155587	2566.504355
564.511904	2566.458985
564.868164	2565.309602
565.224370	2566.995868
565.580520	2569.110632
565.936615	2567.694068
566.292654	2567.326063
566.648638	2566.796742
567.004567	2567.222720
567.360441	2566.027966
567.716260	2567.419325
568.072023	2564.853377
568.427732	2563.114179
568.783385	2563.091494
569.138982	2565.261711
569.494525	2563.570404
569.850013	2561.001936
570.205445	2565.241546
570.560823	2565.130641
570.916145	2563.673747
571.271412	2564.114848
571.626625	2566.219530
571.981782	2566.118707
572.336884	2565.181052
572.691931	2565.796073
573.046923	2569.463512
573.401860	2566.320353
573.756743	2564.928995
574.111570	2565.652400
574.466342	2565.922102
574.821059	2566.060734
575.175722	2565.465878
575.530330	2566.302709
575.884882	2566.063254
576.239380	2567.913358
576.593823	2567.754561
576.948211	2563.951011
577.302544	2563.630898
577.656823	2563.111659
578.011047	2565.554098
578.365216	2563.978737
578.719330	2565.665003
579.073389	2564.084601
579.427394	2563.940928
579.781344	2565.433110
580.135239	2565.188614
580.489080	2565.675085
580.842866	2563.777091
581.196597	2568.785477
581.550273	2566.088460
581.903895	2565.125600
582.257463	2566.743810
582.610975	2566.201886
582.964434	2565.503686
583.317837	2565.249108
583.671186	2563.550239
584.024481	2564.588717
584.377721	2565.821279
584.730906	2565.826320
585.084037	2566.726166
585.437113	2563.235167
585.790135	2567.404201
586.143103	2566.471588
586.496016	2567.129458
586.848874	2564.094684
587.201679	2565.107956
587.554428	2564.465208
587.907124	2563.013356
588.259765	2560.477656
588.612352	2565.899417
588.964884	2568.490570
589.317362	2567.762123
589.669786	2568.535940
590.022155	2566.098542
590.374470	2568.707339
590.726731	2568.513255
591.078937	2570.683472
591.431090	2569.360169
591.783188	2567.537792
592.135232	2569.599624
592.487222	2571.177505
592.839157	2570.580128
593.191038	2569.718091
593.542866	2569.516445
593.894639	2571.293451
594.246358	2568.888821
594.598022	2567.981413
594.949633	2573.199007
595.301190	2572.926785
595.652692	2571.464851
596.004141	2571.318657
596.355535	2570.118862
596.706876	2572.195818
597.058162	2573.186405
597.409395	2570.943091
597.760573	2570.658266
598.111698	2570.869994
598.462768	2573.360324
598.813785	2571.061558
599.164748	2572.281517
599.515657	2574.267732
599.866511	2572.082392
600.217312	2573.138514
600.568060	2575.296127
600.918753	2573.456106
601.269392	2577.554564
601.619978	2575.442321
601.970510	2575.049111
602.320988	2577.342836
602.671412	2576.417784
603.021783	2577.894842
603.372100	2580.813670
603.722363	2577.894842
604.072572	2579.876016
604.422728	2581.393403
604.772830	2577.514235
605.122878	2577.907445
605.472872	2581.942889
605.822813	2577.630182
606.172701	2579.702096
606.522534	2586.127047
606.872314	2586.137129
607.222041	2585.512026
607.571714	2588.695514
607.921333	2587.941862
608.270899	2587.830957
608.620411	2590.822881
608.969870	2591.692480
609.319276	2595.851432
609.668627	2595.160794
610.017926	2600.695981
610.367171	2601.792432
610.716362	2602.518358
611.065500	2599.624736
611.414585	2604.023143
611.763616	2602.409973
612.112594	2603.554315
612.461518	2608.799636
612.810389	2608.305603
613.159207	2609.573453
613.507971	2610.591766
613.856682	2612.935903
614.205340	2612.386417
614.553945	2614.687704
614.902496	2614.511263
615.250994	2618.796244
615.599439	2618.128291
615.947830	2623.940742
616.296169	2625.347223
616.644454	2627.494755
616.992686	2628.543315
617.340864	2631.600775
617.688990	2633.438275
618.037063	2640.684934
618.385082	2639.086888
618.733048	2646.084010
619.080961	2647.808084
619.428821	2651.881337
619.776628	2654.835453
620.124382	2657.945845
620.472083	2657.522388
620.819731	2660.705877
621.167326	2662.089673
621.514868	2661.504899
621.862357	2661.260403
622.209793	2661.862821
622.557176	2665.200065
622.904506	2664.282575
623.251783	2664.877431
623.599007	2670.059737
623.946179	2668.643173
624.293297	2673.974193
624.640363	2675.889832
624.987376	2680.525173
625.334336	2679.201870
625.681243	2683.499454
626.028097	2684.162365
626.374899	2689.654702
626.721647	2688.875844
627.068343	2693.049920
627.414987	2695.404138
627.761577	2701.332535
628.108115	2704.256405
628.454600	2709.395861
628.801032	2715.175544
629.147412	2714.303424
629.493739	2720.065463
629.840014	2723.770711
630.186236	2729.860425
630.532405	2729.782287
630.878521	2737.472567
631.224585	2738.299317
631.570597	2741.505490
631.916556	2750.400606
632.262462	2753.994949
632.608316	2758.650455
632.954117	2761.478542
633.299866	2764.435179
633.645562	2770.353493
633.991206	2772.853906
634.336797	2773.645367
634.682336	2773.163937
635.027823	2775.777775
635.373257	2780.105605
635.718639	2784.052829
636.063968	2786.742284
636.409245	2783.866306
636.754470	2787.032151
637.099642	2789.661112
637.444762	2792.647996
637.789829	2798.667134
638.134845	2800.484470
638.479808	2806.022177
638.824719	2809.107363
639.169577	2808.948567
639.514383	2813.062149
639.859137	2816.142294
640.203839	2823.499858
640.548489	2829.365240
640.893086	2828.283913
641.237632	2833.277176
641.582125	2838.651046
641.926566	2843.356963
642.270955	2852.725947
642.615292	2857.734333
642.959576	2867.269676
643.303809	2871.027856
643.647990	2879.512118
643.992118	2882.395658
644.336195	2884.074362
644.680219	2898.572721
645.024192	2899.243194
645.368112	2915.894125
645.711981	2927.458532
646.055797	2941.019236
646.399562	2949.458128
646.743274	2971.004019
647.086935	2986.371977
647.430544	2991.529077
647.774101	3008.447189
648.117606	3009.709998
648.461059	3014.143693
648.804460	3020.374559
649.147810	3011.902900
649.491108	3013.813498
649.834354	3017.009589
650.177548	3011.411388
650.520690	3010.554392
650.863781	3013.407685
651.206820	3025.992925
651.549807	3017.712830
651.892742	3021.934797
652.235626	3027.066691
652.578458	3031.482742
652.921238	3024.999818
653.263967	3039.472971
653.606644	3032.561549
653.949269	3043.868857
654.291843	3038.701674
654.634365	3052.930331
654.976836	3059.302349
655.319255	3058.636917
655.661622	3065.765109
656.003938	3077.624423
656.346203	3072.275759
656.688416	3088.241093
657.030577	3080.404619
657.372687	3086.398551
657.714746	3089.801330
658.056753	3100.473453
658.398708	3102.343721
658.740612	3099.485387
659.082465	3120.791823
659.424266	3123.551855
659.766016	3130.959831
660.107715	3140.898466
660.449362	3148.951709
660.790958	3156.573933
661.132503	3163.087104
661.473996	3182.243489
661.815438	3182.233407
662.156829	3188.739016
662.498168	3195.232022
662.839456	3193.810416
663.180693	3212.596276
663.521879	3216.001576
663.863013	3219.001062
664.204097	3240.768764
664.545129	3251.556834
664.886110	3263.101076
665.227040	3279.580608
665.567918	3275.338477
665.908746	3295.215747
666.249522	3301.391160
666.590248	3300.405614
666.930922	3317.976556
667.271545	3332.926098
667.612118	3340.008919
667.952639	3339.449351
668.293109	3356.032227
668.633528	3351.079293
668.973896	3354.973584
669.314213	3361.945500
669.654480	3377.157182
669.994695	3372.020246
670.334859	3375.579301
670.674973	3397.105027
671.015035	3395.161663
671.355047	3410.138931
671.695008	3413.650094
672.034918	3405.279258
672.374777	3421.209305
672.714585	3425.277516
673.054342	3436.138682
673.394049	3440.010288
673.733705	3462.508957
674.073310	3469.712766
674.412864	3456.361270
674.752368	3469.087663
675.091820	3477.362717
675.431223	3459.252372
675.770574	3473.851554
676.109875	3459.970737
676.449125	3475.600834
676.788324	3467.895430
677.127473	3460.610963
677.466571	3461.883854
677.805619	3470.055565
678.144616	3479.711895
678.483562	3478.605362
678.822458	3474.275011
679.161303	3482.408912
679.500098	3484.642143
679.838842	3482.393789
680.177535	3492.070284
680.516179	3499.420286
680.854771	3514.866381
681.193314	3546.454251
681.531805	3590.859255
681.870247	3656.452228
682.208638	3695.044782
682.546978	3704.786811
682.885268	3706.354610
683.223508	3686.343750
683.561697	3676.679858
683.899836	3676.866381
684.237925	3670.804393
684.575963	3655.996004
684.913951	3652.704130
685.251889	3695.032179
685.589776	3673.352697
685.927614	3669.833971
686.265401	3714.604458
686.603137	3712.330898
686.940824	3754.563164
687.278460	3766.177983
687.616046	3784.265643
687.953582	3810.489725
688.291068	3811.961742
688.628504	3854.743494
688.965889	3836.325639
689.303224	3816.334943
689.640510	3811.770178
689.977745	3792.790234
690.314930	3761.164555
690.652065	3743.495311
690.989150	3709.565825
691.326185	3694.744833
691.663170	3684.299562
692.000105	3658.652692
692.336990	3628.057929
692.673825	3637.167294
693.010610	3608.518417
693.347345	3575.382913
693.684030	3591.290274
694.020665	3574.868715
694.357251	3539.003426
694.693786	3550.522462
695.030272	3541.725649
695.366707	3535.310781
695.703093	3520.706558
696.039429	3542.653221
696.375716	3547.096998
696.711952	3533.564021
697.048139	3528.185110
697.384276	3528.706869
697.720363	3539.298333
698.056400	3557.322979
698.392388	3531.524874
698.728326	3520.517515
699.064214	3519.736136
699.400053	3521.203112
699.735842	3515.415867
700.071581	3506.568642
700.407270	3500.138650
700.742910	3501.056140
701.078501	3474.884990
701.414042	3483.891012
701.749533	3477.077892
702.084974	3438.061882
702.420366	3480.238696
702.755709	3450.178295
703.091002	3424.559151
703.426246	3465.485759
703.761440	3433.902930
704.096584	3418.600508
704.431679	3445.250567
704.766725	3438.374433
705.101721	3432.952673
705.436668	3460.137095
705.771565	3430.056530
706.106413	3447.657718
706.441212	3472.689568
706.775961	3484.826146
707.110661	3467.804690
707.445311	3485.357987
707.779913	3509.104342
708.114465	3519.605066
708.448967	3524.058925
708.783421	3565.149370
709.117825	3586.496136
709.452180	3590.428236
709.786485	3615.255919
710.120742	3667.399094
710.454949	3655.353257
710.789107	3694.810368
711.123216	3736.949373
711.457275	3726.335223
711.791286	3774.090074
712.125247	3792.066828
712.459159	3724.893453
712.793023	3769.961369
713.126837	3774.866412
713.460602	3769.084208
713.794318	3718.854151
714.127985	3737.801328
714.461602	3703.188766
714.795171	3686.368956
715.128691	3658.476252
715.462162	3636.721152
715.795584	3614.512349
716.128957	3610.239971
716.462281	3585.631578
716.795556	3575.506421
717.128782	3562.560738
717.461960	3527.257538
717.795088	3539.182387
718.128167	3518.216228
718.461198	3480.531083
718.794180	3486.146928
719.127113	3481.398161
719.459997	3474.703509
719.792833	3448.779375
720.125619	3442.840896
720.458357	3426.996549
720.791046	3433.857560
721.123686	3419.868358
721.456278	3394.634862
721.788821	3413.569436
722.121315	3401.160636
722.453761	3378.881256
722.786158	3399.794483
723.118506	3417.670415
723.450805	3378.840927
723.783056	3396.389184
724.115259	3420.521187
724.447412	3422.020930
724.779518	3417.652771
725.111574	3422.583019
725.443582	3444.880042
725.775542	3436.110955
726.107453	3471.275524
726.439315	3473.554126
726.771129	3481.874550
727.102895	3498.316273
727.434612	3535.782129
727.766281	3545.113304
728.097901	3540.654404
728.429473	3547.071793
728.760996	3559.707445
729.092471	3554.560427
729.423897	3552.813667
729.755276	3565.502251
730.086606	3568.771439
730.417887	3590.072835
730.749120	3633.663692
731.080305	3686.371476
731.411442	3703.057696
731.742530	3681.350487
732.073570	3691.208463
732.404562	3732.293867
732.735506	3731.338569
733.066401	3699.014690
733.397249	3669.818848
733.728048	3625.048360
734.058798	3579.990527
734.389501	3538.925288
734.720156	3495.999863
735.050762	3466.365440
735.381320	3473.065134
735.711831	3430.835388
736.042293	3415.739653
736.372707	3437.020884
736.703073	3415.190167
737.033391	3408.734969
737.363661	3427.944286
737.693883	3446.480609
738.024056	3449.873305
738.354182	3441.973817
738.684260	3488.949809
739.014290	3500.635204
739.344272	3496.481293
739.674207	3528.936242
740.004093	3531.711397
740.333931	3529.248793
740.663722	3529.538660
740.993464	3537.002088
741.323159	3518.848893
741.652806	3500.567148
741.982405	3487.349243
742.311956	3471.764516
742.641460	3467.318218
742.970915	3453.323975
743.300323	3428.995367
743.629683	3402.814134
743.958996	3403.068713
744.288260	3389.659243
744.617477	3370.976727
744.946647	3357.726054
745.275768	3342.645443
745.604842	3345.889425
745.933869	3308.138744
746.262847	3303.969710
746.591778	3340.775174
746.920662	3316.605362
747.249498	3290.595529
747.578286	3331.512054
747.907027	3343.068899
748.235720	3336.374247
748.564365	3359.424923
748.892963	3363.004142
749.221514	3347.994107
749.550017	3333.437775
749.878473	3333.853670
750.206881	3313.351298
750.535242	3313.379024
750.863555	3315.211483
751.191821	3313.636123
751.520039	3302.399391
751.848210	3281.672687
752.176334	3313.845331
752.504411	3321.056701
752.832440	3287.772483
753.160421	3271.403856
753.488356	3283.651340
753.816243	3295.258596
754.144082	3261.311466
754.471875	3251.478696
754.799620	3264.709204
755.127318	3259.668050
755.454969	3260.028493
755.782572	3265.609050
756.110129	3250.367121
756.437638	3240.645256
756.765100	3252.360898
757.092515	3262.037392
757.419882	3269.510903
757.747203	3245.671287
758.074477	3246.956781
758.401703	3261.563524
758.728882	3277.208745
759.056014	3287.361629
759.383099	3288.715179
759.710138	3285.894653
760.037129	3298.472332
760.364073	3326.763287
760.690970	3314.614107
761.017820	3296.274389
761.344623	3315.445897
761.671379	3352.241279
761.998088	3398.231725
762.324751	3497.628156
762.651366	3689.731405
762.977935	4047.776837
763.304456	4401.501999
763.630931	4482.578877
763.957359	4207.367165
764.283740	3941.158953
764.610074	3802.381029
764.936362	3646.977380
765.262602	3515.904859
765.588796	3430.079215
765.914943	3358.018441
766.241044	3285.314920
766.567097	3265.583844
766.893104	3228.566652
767.219064	3204.696788
767.544978	3188.134077
767.870845	3137.714977
768.196665	3126.377422
768.522438	3136.757158
768.848165	3134.019811
769.173846	3102.794904
769.499479	3090.620518
769.825066	3077.387489
770.150607	3062.972309
770.476101	3077.095102
770.801548	3075.471850
771.126949	3038.033721
771.452303	3021.077800
771.777611	3031.109697
772.102872	3038.560522
772.428087	3015.787109
772.753256	3008.079185
773.078378	2999.305057
773.403453	2972.725573
773.728482	2965.562094
774.053465	2983.687562
774.378401	2973.554843
774.703291	2944.898404
775.028135	2945.616768
775.352932	2942.198866
775.677683	2935.562187
776.002388	2933.981785
776.327046	2933.623863
776.651658	2925.361412
776.976224	2917.603077
777.300743	2916.093251
777.625216	2907.359452
777.949643	2903.346693
778.274024	2906.875501
778.598359	2895.628687
778.922647	2899.606157
779.246889	2900.763102
779.571086	2886.148797
779.895236	2884.369270
780.219339	2891.918398
780.543397	2903.860891
780.867409	2904.390212
781.191374	2899.212947
781.515294	2897.244377
781.839167	2900.745458
782.162995	2891.318500
782.486776	2901.299985
782.810511	2897.282185
783.134201	2886.771380
783.457844	2894.449057
783.781441	2885.432953
784.104993	2865.119624
784.428498	2870.309492
784.751958	2884.084445
785.075372	2877.228475
785.398739	2863.186341
785.722061	2878.791233
786.045337	2891.131978
786.368568	2874.861654
786.691752	2867.879656
787.014891	2912.952612
787.337983	2935.305088
787.661030	2955.227728
787.984031	3014.526821
788.306987	3057.863100
788.629897	3050.198026
788.952760	3040.415667
789.275579	3028.155580
789.598351	2976.203969
789.921078	2934.995057
790.243759	2929.873245
790.566395	2917.628282
790.888984	2892.722462
791.211529	2880.767365
791.534027	2869.422249
791.856480	2864.481918
792.178888	2848.917355
792.501249	2844.319823
792.823566	2842.928465
793.145836	2837.478977
793.468062	2834.091322
793.790241	2834.355982
794.112375	2839.029132
794.434464	2853.645958
794.756507	2852.592357
795.078505	2859.634848
795.400457	2869.371837
795.722364	2902.524985
796.044226	2924.143974
796.366042	2925.401742
796.687812	2912.773651
797.009538	2935.020263
797.331218	2924.585075
797.652852	2910.583270
797.974442	2894.491907
798.295986	2892.805641
798.617484	2888.084600
798.938938	2874.944833
799.260346	2862.352030
799.581709	2860.232225
799.903026	2849.524814
800.224299	2847.420133
800.545526	2837.907475
800.866708	2821.964826
801.187845	2816.177582
801.508936	2818.196564
801.829983	2823.462049
802.150984	2812.149700
802.471940	2799.481280
802.792851	2800.865077
803.113717	2798.180662
803.434538	2804.240129
803.755314	2798.359623
804.076045	2793.562966
804.396731	2793.792338
804.717372	2795.473563
805.037967	2787.473252
805.358518	2793.474745
805.679024	2806.990079
805.999485	2802.924388
806.319901	2805.805408
806.640272	2794.856022
806.960598	2803.967907
807.280879	2812.263126
807.601115	2817.518529
807.921306	2806.380099
808.241453	2800.176959
808.561554	2807.756334
808.881611	2811.794298
809.201623	2803.506642
809.521590	2804.204841
809.841513	2801.558236
810.161390	2806.526293
810.481223	2799.846764
810.801011	2792.209416
811.120755	2786.502830
811.440453	2792.015331
811.760107	2789.857717
812.079716	2787.627007
812.399281	2778.356325
812.718801	2772.672424
813.038276	2767.558173
813.357707	2776.178547
813.677093	2784.244393
813.996434	2777.499329
814.315731	2775.341715
814.634983	2769.355345
814.954191	2770.408946
815.273354	2781.645678
815.592473	2791.037347
815.911547	2795.501289
816.230577	2799.445992
816.549562	2808.499904
816.868502	2806.881694
817.187399	2815.262612
817.506250	2831.366578
817.825058	2825.574292
818.143821	2834.242557
818.462539	2851.873992
818.781213	2877.155379
819.099843	2911.412540
819.418429	2961.065384
819.736970	3015.517408
820.055466	3082.398396
820.373919	3184.572502
820.692327	3314.324240
821.010691	3464.200265
821.329011	3858.615100
821.647286	4643.177435
821.965517	5825.862374
822.283704	6453.410411
822.601847	6444.273320
822.919945	5916.527526
823.237999	5502.399258
823.556010	4994.336650
823.873976	4503.925642
824.191897	4139.914006
824.509775	3879.586300
824.827609	3634.187972
825.145398	3523.988349
825.463144	3515.892256
825.780845	3604.651852
826.098502	3696.380687
826.416116	3949.945685
826.733685	4234.652410
827.051210	4285.898259
827.368692	4185.249102
827.686129	3946.590797
828.003522	3654.680263
828.320872	3417.625044
828.638177	3242.999475
828.955439	3118.520784
829.272656	3041.945657
829.589830	2980.730926
829.906960	2938.720470
830.224046	2894.053326
830.541088	2864.817155
830.858086	2851.780731
831.175041	2833.352793
831.491952	2835.764985
831.808819	2846.616069
832.125642	2868.847557
832.442421	2912.209042
832.759157	2988.582523
833.075849	3151.068993
833.392497	3408.404774
833.709101	3594.682970
834.025662	3545.201525
834.342179	3398.904719
834.658653	3239.027046
834.975083	3099.457660
835.291469	3011.391223
835.607811	2933.908689
835.924110	2880.855586
836.240366	2836.664831
836.556578	2794.223357
836.872746	2774.320881
837.188871	2753.034609
837.504952	2737.626322
837.820990	2731.902092
838.136984	2718.774928
838.452935	2712.745708
838.768842	2711.790409
839.084706	2726.860938
839.400526	2802.054789
839.716303	2924.975764
840.032037	2992.980929
840.347727	2980.052890
840.663373	2924.552307
840.978977	2854.523118
841.294537	2787.357305
841.610054	2743.428691
841.925527	2724.602502
842.240957	2702.814635
842.556344	2684.306038
842.871687	2671.798936
843.186987	2665.116886
843.502244	2661.446926
843.817458	2655.528612
844.132629	2644.319606
844.447756	2634.471712
844.762840	2627.270424
845.077881	2631.658748
845.392879	2629.690177
845.707833	2627.104066
846.022745	2620.527880
846.337613	2619.867489
846.652438	2623.290433
846.967221	2623.459311
847.281960	2618.546707
847.596656	2616.303393
847.911309	2619.315483
848.225919	2614.823815
848.540485	2608.761827
848.855009	2612.824997
849.169490	2611.380707
849.483928	2611.000100
849.798323	2611.289966
850.112675	2609.996910
850.426984	2610.342229
850.741251	2606.768051
851.055474	2608.749224
851.369654	2612.830038
851.683792	2612.025974
851.997887	2608.098916
852.311938	2607.277207
852.625947	2611.736108
852.939914	2612.779627
853.253837	2614.042436
853.567718	2607.534306
853.881555	2609.530603
854.195350	2611.680655
854.509103	2611.191663
854.822812	2609.407095
855.136479	2607.725870
855.450103	2609.840634
855.763685	2612.121756
856.077224	2608.419029
856.390720	2605.338884
856.704173	2611.668052
857.017584	2613.785337
857.330953	2617.551079
857.644278	2617.104937
857.957561	2617.077211
858.270802	2610.664863
858.584000	2612.865327
858.897155	2616.011007
859.210268	2616.210132
859.523339	2609.898607
859.836367	2606.435335
860.149352	2609.689400
860.462295	2609.268463
860.775195	2608.865171
861.088054	2604.963318
861.400869	2604.504573
861.713642	2600.189345
862.026373	2601.479881
862.339062	2605.762341
862.651708	2614.647374
862.964312	2609.631426
863.276873	2609.155037
863.589392	2609.301231
863.901869	2615.867334
864.214303	2623.403859
864.526696	2626.877214
864.839045	2629.899385
865.151353	2627.656072
865.463619	2629.294447
865.775842	2627.895527
866.088023	2628.830661
866.400162	2628.187914
866.712258	2628.571041
867.024313	2625.027110
867.336325	2623.648355
867.648296	2627.101545
867.960224	2630.048099
868.272110	2625.679940
868.583954	2619.297839
868.895755	2624.535598
869.207515	2629.604478
869.519233	2636.916672
869.830909	2631.961217
870.142542	2625.306894
870.454134	2625.722789
870.765684	2632.137658
871.077191	2635.245529
871.388657	2640.019502
871.700081	2634.998512
872.011463	2636.853657
872.322803	2638.189563
872.634101	2639.278452
872.945357	2650.114412
873.256571	2656.272182
873.567744	2650.608445
873.878874	2651.437715
874.189963	2651.316727
874.501010	2653.333189
874.812015	2656.844353
875.122979	2659.203613
875.433900	2651.445277
875.744780	2647.752632
876.055618	2653.534835
876.366415	2657.484579
876.677169	2661.537667
876.987882	2653.353354
877.298554	2651.311686
877.609183	2661.825013
877.919771	2669.515293
878.230317	2674.473268
878.540822	2683.600277
878.851285	2693.488500
879.161707	2717.978425
879.472087	2754.284815
879.782425	2797.540436
880.092722	2901.431055
880.402977	3076.845565
880.713191	3312.358190
881.023363	3571.536512
881.333494	3737.695464
881.643583	3898.830905
881.953631	3900.398704
882.263637	3738.602871
882.573602	3537.017211
882.883526	3415.696803
883.193408	3315.783654
883.503248	3227.208061
883.813048	3121.159828
884.122806	3016.649147
884.432522	2937.152671
884.742197	2880.495143
885.051831	2848.017509
885.361424	2817.332006
885.670975	2779.866151
885.980485	2754.405803
886.289954	2738.886611
886.599382	2725.976216
886.908768	2715.740153
887.218113	2699.978986
887.527417	2683.819567
887.836680	2679.267405
888.145901	2670.510921
888.455082	2664.516989
888.764221	2654.840494
889.073319	2649.474186
889.382376	2649.065852
889.691392	2652.125833
890.000366	2649.794299
890.309300	2647.119967
890.618193	2649.648106
890.927044	2653.106337
891.235855	2652.728251
891.544625	2649.781696
891.853353	2651.052067
892.162041	2656.751091
892.470687	2677.298834
892.779293	2687.003056
893.087858	2696.487987
893.396381	2717.433981
893.704864	2754.052922
894.013306	2818.720844
894.321707	2906.313413
894.630068	2948.530555
894.938387	2966.035962
895.246665	2960.105045
895.554903	2921.189858
895.863100	2879.169320
896.171256	2826.741320
896.479371	2772.717794
896.787446	2733.714387
897.095480	2718.069166
897.403473	2713.801829
897.711425	2699.341280
898.019336	2685.863755
898.327207	2669.338852
898.635038	2668.411280
898.942827	2667.133348
899.250576	2658.631442
899.558284	2649.028044
899.865952	2643.240799
900.173579	2642.545120
900.481165	2640.821045
900.788711	2633.851650
901.096216	2627.527522
901.403681	2623.487038
901.711105	2624.059209
902.018489	2621.836060
902.325832	2626.731020
902.633135	2627.860239
902.940397	2641.065541
903.247619	2674.024605
903.554800	2738.024574
903.861941	2852.783920
904.169041	2967.631487
904.476101	3020.818181
904.783121	3015.373735
905.090100	2962.746609
905.397039	2897.254459
905.703938	2829.597133
906.010796	2772.639657
906.317614	2728.353120
906.624391	2695.673840
906.931129	2668.222237
907.237826	2647.382107
907.544483	2632.553553
907.851099	2622.105762
908.157675	2611.426077
908.464211	2604.771754
908.770707	2593.320773
909.077163	2596.393356
909.383578	2587.568817
909.689954	2589.219794
909.996289	2583.180492
910.302584	2585.774166
910.608839	2581.826942
910.915054	2583.394741
911.221229	2583.394741
911.527363	2588.579568
911.833458	2584.024885
912.139513	2586.636203
912.445527	2588.027562
912.751502	2592.312542
913.057436	2595.889241
913.363331	2604.370982
913.669186	2613.349277
913.975000	2624.994343
914.280775	2640.828607
914.586510	2656.491472
914.892205	2687.189578
915.197859	2750.433374
915.503475	2826.242245
915.809050	2885.410268
916.114585	2893.392935
916.420081	2904.221334
916.725536	2916.312541
917.030952	2892.286402
917.336328	2852.206708
917.641665	2809.235913
917.946961	2761.876793
918.252218	2730.553584
918.557435	2707.392002
918.862612	2690.010104
919.167750	2675.055521
919.472848	2662.213182
919.777906	2643.553351
920.082925	2632.742596
920.387904	2625.392594
920.692843	2619.517129
920.997743	2615.406068
921.302603	2611.564709
921.607423	2603.098091
921.912204	2598.442585
922.216946	2598.432503
922.521647	2595.808582
922.826310	2589.214753
923.130932	2588.599733
923.435516	2581.428691
923.740059	2577.438618
924.044564	2581.605132
924.349028	2577.625141
924.653454	2569.929819
924.957840	2568.724983
925.262186	2566.307750
925.566493	2570.176836
925.870761	2562.715928
926.174989	2569.375292
926.479178	2561.044786
926.783328	2562.844477
927.087438	2562.272307
927.391509	2561.511092
927.695541	2559.247614
927.999533	2554.786193
928.303486	2553.641851
928.607400	2557.256358
928.911275	2556.212840
929.215110	2557.195865
929.518906	2554.869372
929.822663	2555.086142
930.126381	2555.388611
930.430060	2555.875082
930.733699	2554.032541
931.037299	2556.820299
931.340861	2558.035217
931.644383	2558.148643
931.947866	2554.498847
932.251309	2555.174362
932.554714	2554.650082
932.858080	2558.110834
933.161407	2556.008673
933.464694	2556.774928
933.767943	2555.572613
934.071153	2555.015566
934.374323	2553.851059
934.677455	2551.065822
934.980548	2553.364588
935.283602	2554.488765
935.586617	2551.796789
935.889593	2553.510781
936.192530	2553.331820
936.495428	2554.007335
936.798287	2555.756615
937.101108	2553.331820
937.403890	2558.562017
937.706632	2559.292985
938.009336	2562.526885
938.312002	2566.156516
938.614628	2568.324212
938.917216	2572.725139
939.219765	2573.040211
939.522275	2575.396951
939.824747	2574.131621
940.127179	2570.018039
940.429573	2565.934705
940.731929	2566.022925
941.034246	2561.390105
941.336524	2565.100394
941.638763	2566.600137
941.940964	2561.775753
942.243126	2563.275496
942.545250	2561.395146
942.847335	2561.992523
943.149381	2559.729044
943.451389	2561.604354
943.753359	2560.074363
944.055290	2555.504557
944.357182	2556.472459
944.659036	2556.958930
944.960851	2557.798282
945.262628	2555.756615
945.564367	2561.516133
945.866067	2555.373487
946.167729	2555.728889
946.469352	2558.148643
946.770937	2557.480690
947.072484	2554.856769
947.373992	2556.890875
947.675462	2552.273178
947.976893	2556.427089
948.278286	2554.340051
948.579641	2552.701676
948.880958	2552.275698
949.182236	2553.644372
949.483476	2554.645041
949.784678	2556.023796
950.085841	2553.956923
950.386967	2552.288301
950.688054	2553.561193
950.989103	2557.084959
951.290114	2556.091852
951.591087	2557.765515
951.892021	2560.457491
952.192917	2559.177038
952.493776	2561.909343
952.794596	2559.441699
953.095378	2559.681153
953.396122	2561.067471
953.696828	2559.308108
953.997496	2557.737789
954.298126	2556.656461
954.598718	2557.556307
954.899272	2554.982798
955.199788	2555.572613
955.500266	2551.895091
955.800706	2548.948537
956.101108	2542.079965
956.401472	2546.838814
956.701798	2543.519214
957.002087	2545.210521
957.302337	2547.796633
957.602550	2548.159596
957.902724	2545.074410
958.202861	2545.344112
958.502960	2543.252033
958.803022	2545.076931
959.103045	2544.804708
959.403031	2545.331509
959.702979	2544.174564
960.002889	2545.979297
960.302762	2543.441076
960.602596	2545.386962
960.902393	2544.824873
961.202153	2544.827394
961.501875	2541.278421
961.801559	2541.991745
962.101205	2541.568288
962.400814	2541.951415
962.700385	2541.278421
962.999918	2543.423432
963.299414	2542.274049
963.598873	2544.058618
963.898293	2537.681558
964.197677	2540.602907
964.497022	2540.892773
964.796331	2541.767413
965.095601	2540.663401
965.394835	2542.437887
965.694030	2541.356559
965.993189	2541.202804
966.292309	2540.776827
966.591393	2542.848741
966.890439	2539.531662
967.189447	2541.202804
967.488419	2541.462423
967.787353	2540.529810
968.086249	2537.358924
968.385108	2542.485778
968.683930	2540.723894
968.982714	2540.063503
969.281462	2541.792619
969.580172	2541.200283
969.878844	2541.386806
970.177480	2542.468134
970.476078	2542.642053
970.774639	2542.942002
971.073162	2543.342774
971.371649	2538.329346
971.670098	2538.150385
971.968510	2540.517207
972.266885	2535.768440
972.565223	2539.002340
972.863524	2541.601055
973.161788	2542.984852
973.460014	2542.412681
973.758204	2541.737166
974.056356	2541.437218
974.354471	2540.802032
974.652550	2540.633154
974.950591	2542.536189
975.248595	2541.127187
975.546563	2543.597352
975.844493	2544.020809
976.142386	2542.634492
976.440243	2541.843031
976.738062	2539.113246
977.035845	2542.556354
977.333590	2542.100129
977.631299	2543.667928
977.928971	2539.594676
978.226606	2539.680376
978.524204	2538.435211
978.821765	2540.368493
979.119290	2540.192053
979.416777	2539.773637
979.714228	2540.411343
980.011642	2538.596527
980.309020	2543.055428
980.606360	2540.625592
980.903664	2541.777496
981.200931	2543.463762
981.498162	2540.978473
981.795356	2545.805377
982.092513	2548.051212
982.389633	2549.067004
982.686717	2550.919628
982.983764	2554.962633
983.280775	2554.314845
983.577749	2555.333158
983.874686	2554.887016
984.171587	2551.320400
984.468451	2548.467107
984.765279	2547.778989
985.062070	2548.560368
985.358824	2544.111550
985.655543	2543.441076
985.952224	2543.471323
986.248869	2541.636343
986.545478	2539.992927
986.842050	2541.018802
987.138586	2538.278935
987.435086	2535.166022
987.731549	2536.325488
988.027975	2542.561395
988.324366	2536.517052
988.620719	2538.810777
988.917037	2539.871939
989.213318	2540.199614
989.509563	2540.655839
989.805772	2537.621064
990.101944	2539.882022
990.398080	2539.198945
990.694180	2536.718698
990.990244	2538.674665
991.286271	2537.071578
991.582262	2538.213400
991.878217	2538.609130
992.174136	2539.030067
992.470019	2537.079140
992.765865	2538.997299
993.061676	2538.286497
993.357450	2541.782537
993.653188	2537.399253
993.948890	2539.292207
994.244556	2539.440921
994.540186	2539.987886
994.835780	2540.156765
995.131337	2541.437218
995.426859	2542.866385
995.722345	2538.702392
996.017795	2540.005530
996.313208	2544.353525
996.608586	2542.894111
996.903928	2543.478885
997.199234	2544.431663
997.494504	2541.182639
997.789738	2541.018802
998.084936	2541.812784
998.380099	2541.855633
998.675225	2540.623071
998.970316	2538.341949
999.265371	2542.188350
999.560390	2541.444779
999.855373	2539.551826
1000.150320	2541.275901
1000.445232	2541.167516
1000.740108	2536.645601
1001.034948	2540.381096
1001.329752	2537.553009
1001.624521	2537.389171
1001.919254	2535.977648
1002.213951	2538.062165
1002.508613	2534.687113
1002.803239	2536.849768
1003.097829	2533.973789
1003.392384	2539.909748
1003.686903	2537.860519
1003.981386	2537.003523
1004.275834	2538.835982
1004.570246	2541.318751
1004.864623	2538.011754
1005.158964	2538.359593
1005.453270	2538.964532
1005.747540	2538.392361
1006.041775	2538.604089
1006.335974	2536.688451
1006.630138	2540.202135
1006.924266	2538.699871
1007.218359	2538.651980
1007.512416	2537.618544
1007.806438	2537.232895
1008.100425	2537.815149
1008.394376	2536.665766
1008.688292	2537.162319
1008.982172	2539.476209
1009.276017	2539.733308
1009.569827	2537.071578
1009.863602	2541.901004
1010.157341	2537.185004
1010.451045	2538.704912
1010.744714	2538.069727
1011.038347	2538.341949
1011.331945	2538.730118
1011.625508	2536.932947
1011.919036	2539.158616
1012.212528	2536.857329
1012.505986	2537.603420
1012.799408	2537.941178
1013.092795	2536.456558
1013.386147	2539.440921
1013.679464	2535.460930
1013.972745	2538.359593
1014.265992	2537.091743
1014.559204	2537.747093
1014.852380	2538.594007
1015.145521	2539.733308
1015.438628	2538.067206
1015.731699	2539.635005
1016.024736	2539.456044
1016.317737	2537.318595
1016.610703	2538.057124
1016.903635	2534.752648
1017.196531	2533.875487
1017.489393	2533.404139
1017.782219	2530.573531
1018.075011	2536.328008
1018.367768	2537.469830
1018.660490	2539.085519
1018.953177	2539.085519
1019.245829	2539.085519
