Dividing Wavelength (nm)	Counts (n)	Blue Motor Position (mm): 25.700000	Red Motor Position (mm): 0.000000	
326.493990	2132.208951
326.888308	2132.208951
327.282561	2132.208951
327.676750	2101.765423
328.070874	2098.312233
328.464933	2102.214086
328.858929	2108.828080
329.252859	2115.812598
329.646726	2130.331122
330.040528	2142.883595
330.434265	2159.620225
330.827938	2175.981290
331.221547	2191.881089
331.615091	2214.629296
332.008571	2231.083622
332.401986	2254.358630
332.795338	2271.682555
333.188625	2291.637962
333.581847	2311.384162
333.975006	2329.053406
334.368100	2345.540500
334.761129	2361.813344
335.154095	2383.926366
335.546996	2403.594427
335.939833	2423.380956
336.332606	2439.111877
336.725315	2452.400358
337.117960	2460.738427
337.510540	2469.958697
337.903056	2480.174596
338.295508	2487.055771
338.687896	2497.601864
339.080220	2503.507576
339.472480	2511.470079
339.864676	2515.094668
340.256807	2521.333096
340.648875	2523.468025
341.040879	2526.114631
341.432818	2527.682429
341.824694	2527.750485
342.216506	2527.251411
342.608253	2531.357431
342.999937	2529.335928
343.391557	2529.900537
343.783113	2529.978675
344.174605	2526.636390
344.566033	2524.801410
344.957397	2523.163035
345.348697	2520.342509
345.739934	2521.164218
346.131106	2517.340502
346.522215	2519.818229
346.913260	2513.758762
347.304241	2512.977384
347.695159	2514.338495
348.086012	2511.361694
348.476802	2506.355828
348.867528	2505.801301
349.258191	2504.984634
349.648789	2503.068996
350.039324	2503.389109
350.429796	2500.792915
350.820203	2502.627895
351.210548	2497.856443
351.600828	2499.189828
351.991045	2498.116062
352.381198	2498.126144
352.771288	2495.615650
353.161314	2496.986844
353.551276	2497.160763
353.941175	2495.066164
354.331010	2496.185300
354.720782	2496.974241
355.110490	2497.236381
355.500135	2495.885352
355.889717	2495.973572
356.279235	2492.916112
356.668689	2497.551453
357.058080	2495.398880
357.447408	2493.921822
357.836672	2493.208499
358.225873	2494.277223
358.615010	2493.417707
359.004084	2499.492297
359.393095	2496.946514
359.782043	2499.744355
360.170927	2501.289468
360.559748	2502.721156
360.948505	2503.273163
361.337199	2503.714263
361.725830	2503.230313
362.114398	2503.399191
362.502903	2501.198728
362.891344	2504.243585
363.279722	2505.085457
363.668037	2504.649397
364.056289	2506.232320
364.444478	2507.013699
364.832603	2504.974552
365.220665	2509.201559
365.608665	2506.058400
365.996601	2505.733246
366.384474	2506.025633
366.772284	2506.464213
367.160031	2509.864471
367.547715	2510.144255
367.935336	2509.796416
368.322893	2507.792557
368.710388	2507.396826
369.097820	2510.240037
369.485189	2509.486385
369.872495	2510.545027
370.259738	2509.990500
370.646918	2509.446055
371.034035	2511.407064
371.421090	2510.570233
371.808081	2513.053001
372.195010	2511.354132
372.581875	2509.544358
372.968678	2514.278001
373.355418	2512.190964
373.742096	2513.801612
374.128710	2512.715244
374.515262	2514.545182
374.901751	2511.563340
375.288177	2514.298166
375.674540	2514.963598
376.060841	2511.160048
376.447079	2512.253978
376.833254	2514.905625
377.219367	2511.487723
377.605417	2514.739267
377.991404	2511.699451
378.377329	2510.224914
378.763191	2512.069976
379.148991	2518.802437
379.534727	2513.922600
379.920402	2519.765297
380.306013	2516.072652
380.691563	2516.395286
381.077049	2517.781603
381.462474	2515.828156
381.847835	2517.496778
382.233134	2518.124402
382.618371	2516.014679
383.003545	2518.706655
383.388657	2517.879906
383.773706	2518.152128
384.158693	2520.012314
384.543618	2519.982067
384.928480	2516.758249
385.313280	2517.610204
385.698017	2520.314783
386.082692	2520.511388
386.467305	2521.479290
386.851856	2519.213291
387.236344	2522.782428
387.620770	2520.229083
388.005133	2518.779752
388.389435	2521.280164
388.773674	2518.537776
389.157851	2519.722447
389.541965	2523.256296
389.926018	2522.026255
390.310008	2520.518950
390.693936	2523.324352
391.077802	2521.469207
391.461606	2524.468694
391.845348	2524.481297
392.229027	2523.742768
392.612645	2522.663961
392.996200	2525.113962
393.379694	2524.259486
393.763125	2523.326873
394.146494	2522.467356
394.529801	2525.272758
394.913047	2524.521626
395.296230	2529.078829
395.679351	2522.958868
396.062410	2526.187727
396.445408	2525.053468
396.828343	2525.401307
397.211217	2523.190761
397.594028	2524.771163
397.976778	2525.416431
398.359466	2523.616739
398.742092	2521.978364
399.124656	2527.934487
399.507158	2525.771832
399.889598	2525.287881
400.271977	2524.214116
400.654294	2525.885258
401.036549	2529.504807
401.418742	2527.858870
401.800874	2529.164529
402.182944	2525.539939
402.564952	2530.376926
402.946898	2527.649662
403.328783	2529.600588
403.710606	2529.522451
404.092367	2531.052441
404.474067	2530.571011
404.855705	2529.219981
405.237282	2531.392719
405.618797	2527.390042
406.000250	2529.202337
406.381642	2531.410363
406.762972	2533.232740
407.144240	2531.128058
407.525447	2532.779036
407.906593	2532.098480
408.287677	2530.838192
408.668700	2532.761392
409.049661	2528.483973
409.430560	2532.466484
409.811399	2533.174767
410.192176	2529.955990
410.572891	2531.680064
410.953545	2532.844571
411.334138	2534.472864
411.714669	2531.498583
412.095139	2534.971938
412.475547	2532.564787
412.855894	2534.946732
413.236180	2534.591331
413.616405	2533.525127
413.996568	2533.124355
414.376670	2536.181815
414.756711	2532.572349
415.136691	2534.974458
415.516609	2534.586290
415.896466	2538.888914
416.276262	2537.832793
416.655997	2533.394057
417.035670	2531.216278
417.415283	2535.377751
417.794834	2531.415404
418.174324	2533.658717
418.553753	2535.251722
418.933121	2536.194418
419.312428	2535.743234
419.691674	2536.880015
420.070859	2537.560570
420.449983	2540.323123
420.829045	2538.581404
421.208047	2538.528472
421.586988	2537.300951
421.965867	2542.649615
422.344686	2540.154244
422.723444	2539.463606
423.102141	2535.634850
423.480777	2537.041332
423.859352	2538.888914
424.237866	2540.882691
424.616319	2538.992258
424.994712	2538.042001
425.373044	2540.101312
425.751314	2541.028884
426.129524	2539.085519
426.507673	2538.692309
426.885762	2538.306661
427.263789	2542.596683
427.641756	2538.168029
428.019662	2543.539379
428.397508	2539.007382
428.775292	2541.495191
429.153016	2544.005686
429.530679	2543.685572
429.908282	2541.953936
430.285824	2541.840510
430.663305	2544.847558
431.040726	2543.514173
431.418086	2542.997455
431.795385	2543.950233
432.172624	2545.661705
432.549802	2544.905532
432.926920	2540.474357
433.303977	2547.758825
433.680974	2543.186498
434.057910	2544.214893
434.434786	2544.260264
434.811601	2546.233876
435.188355	2545.581046
435.565050	2546.405275
435.941683	2546.851417
436.318257	2542.420243
436.694770	2542.631971
437.071222	2545.278577
437.447614	2542.105171
437.823946	2545.384441
438.200218	2546.937117
438.576429	2550.055070
438.952580	2548.618341
439.328670	2548.094061
439.704700	2549.137580
440.080670	2550.707900
440.456580	2547.960471
440.832429	2552.520194
441.208218	2550.821326
441.583947	2551.338044
441.959616	2553.914073
442.335224	2551.065822
442.710773	2555.265103
443.086261	2551.970709
443.461689	2553.868703
443.837057	2554.239228
444.212365	2554.950031
444.587612	2558.451112
444.962800	2558.130999
445.337927	2559.363561
445.712995	2560.757440
446.088002	2564.641649
446.462949	2563.709035
446.837837	2570.675910
447.212664	2572.931826
447.587431	2577.962898
447.962139	2585.128898
448.336786	2596.065681
448.711374	2600.093563
449.085901	2595.004518
449.460369	2601.505086
449.834776	2604.149172
450.209124	2615.741305
450.583412	2625.778242
450.957640	2633.650004
451.331808	2638.759213
451.705917	2638.020684
452.079965	2642.983700
452.453954	2655.664723
452.827883	2662.611433
453.201752	2672.083761
453.575562	2675.791529
453.949311	2693.778366
454.323001	2701.188863
454.696632	2712.286963
455.070202	2729.711711
455.443713	2750.672829
455.817164	2765.841661
456.190556	2785.282870
456.563888	2804.540078
456.937160	2818.302428
457.310373	2821.291832
457.683526	2838.784636
458.056619	2847.004237
458.429653	2867.562063
458.802628	2880.399361
459.175542	2909.839700
459.548398	2959.822740
459.921194	3000.643483
460.293930	3028.763039
460.666607	3119.115640
461.039224	3185.011082
461.411782	3229.849625
461.784280	3257.374325
462.156719	3275.411574
462.529099	3288.619397
462.901419	3268.974020
463.273680	3282.310393
463.645882	3312.527069
464.018024	3341.344825
464.390106	3400.679206
464.762130	3500.504134
465.134094	3643.728356
465.505999	3910.775919
465.877845	4219.168506
466.249631	4394.305752
466.621358	4364.870455
466.993026	4297.750012
467.364634	4288.093682
467.736184	4269.658182
468.107674	4257.135956
468.479105	4341.585365
468.850477	4329.577337
469.221790	4334.971371
469.593043	4306.990447
469.964238	4339.243749
470.335373	4399.190630
470.706449	4480.451510
471.077467	4538.066857
471.448425	5036.301736
471.819324	5477.034693
472.190164	5550.017998
472.560945	5195.037588
472.931667	4995.775900
473.302330	5003.002394
473.672934	4937.848001
474.043479	5149.037059
474.413965	5194.188153
474.784393	5216.699426
475.154761	5350.136248
475.525070	5459.090706
475.895321	5447.117965
476.265513	5595.527014
476.635645	5742.832050
477.005719	5829.993600
477.375734	5956.284586
477.745691	6141.917515
478.115588	6294.709847
478.485427	6506.198853
478.855207	6868.123453
479.224928	7399.461068
479.594591	7835.893921
479.964194	7828.455699
480.333739	7893.090853
480.703226	7966.076678
481.072653	8103.397709
481.442022	8343.623813
481.811333	8540.143113
482.180584	8517.105040
482.549777	8441.311292
482.918912	8403.366527
483.287988	8510.488526
483.657005	8588.447450
484.025964	8469.685427
484.394864	8647.184454
484.763706	8719.517450
485.132489	8613.784289
485.501213	8675.787961
485.869879	8799.165160
486.238487	8772.467209
486.607036	8908.011233
486.975527	8829.633894
487.343959	9039.053507
487.712333	9139.591758
488.080648	9147.826483
488.448905	9255.266075
488.817104	9266.956510
489.185244	9541.959014
489.553326	9737.593592
489.921350	10226.257840
490.289315	11123.870571
490.657222	11463.755245
491.025070	11458.421705
491.392861	11419.350242
491.760593	11195.026457
492.128267	10977.160391
492.495883	10758.432287
492.863440	10523.055773
493.230939	10284.208424
493.598380	10266.254355
493.965763	10198.110558
494.333088	10137.309201
494.700354	10118.051994
495.067563	10207.963493
495.434713	10091.719527
495.801805	10243.296940
496.168839	10214.637981
496.535815	10185.507673
496.902733	10213.357528
497.269593	10184.249905
497.636395	10304.108379
498.003139	10332.001083
498.369825	10224.637109
498.736453	10402.239480
499.103023	10353.315082
499.469535	10408.266179
499.835989	10413.380430
500.202385	10405.231405
500.568723	10281.783629
500.935003	10514.032108
501.301226	10345.108083
501.667390	10606.693557
502.033497	10716.734383
502.399546	10600.397155
502.765537	10516.469506
503.131470	10609.992992
503.497345	10789.034612
503.863163	10423.399723
504.228923	10740.924360
504.594625	10809.143774
504.960269	10576.638197
505.325856	10801.801334
505.691385	10606.675912
506.056856	10771.191448
506.422270	10797.912084
506.787625	10698.684532
507.152924	10818.437142
507.518164	10802.189503
507.883347	10733.544111
508.248472	10660.858234
508.613540	10896.534697
508.978550	10782.589497
509.343503	10765.058884
509.708398	10886.485157
510.073236	10999.381797
510.438016	11007.606440
510.802738	10958.755138
511.167403	11018.707060
511.532010	10914.342573
511.896561	11149.484673
512.261053	11220.789274
512.625488	11091.576939
512.989866	11077.292830
513.354186	11067.152549
513.718449	10974.581841
514.082655	11167.395893
514.446803	11061.236755
514.810894	11190.068482
515.174927	11050.678058
515.538904	11081.391288
515.902822	11233.450132
516.266684	11118.579880
516.630488	11063.976622
516.994235	11123.048863
517.357925	11190.439007
517.721558	11273.832295
518.085133	11293.790223
518.448651	11300.419340
518.812112	11183.925837
519.175516	11207.233611
519.538863	11319.243009
519.902152	11242.078067
520.265385	11398.646223
520.628560	11312.291257
520.991678	11285.920982
521.354739	11355.705674
521.717743	11292.361056
522.080690	11267.540935
522.443580	11407.241390
522.806413	11354.047135
523.169189	11389.660366
523.531908	11449.720673
523.894569	11267.818198
524.257174	11284.242277
524.619722	11395.913918
524.982213	11344.642862
525.344647	11390.948381
525.707025	11346.036741
526.069345	11438.541914
526.431608	11354.500839
526.793815	11475.428037
527.155964	11263.384503
527.518057	11313.115486
527.880093	11259.701941
528.242072	11327.155100
528.603995	11235.451470
528.965860	11158.392392
529.327669	11208.652696
529.689421	11160.134111
530.051117	11134.633434
530.412755	11232.547765
530.774337	11119.245312
531.135862	11101.097158
531.497331	11118.131217
531.858743	10974.667540
532.220098	11142.580813
532.581396	11019.848882
532.942638	10998.938176
533.303824	10958.445107
533.664953	10983.227420
534.026025	10892.685776
534.387040	10986.589869
534.747999	10992.669501
535.108902	11047.923067
535.469748	10809.058075
535.830537	10907.005173
536.191270	10885.257636
536.551947	10917.818448
536.912567	10909.719835
537.273131	10835.052785
537.633638	10814.714249
537.994089	10807.104628
538.354483	10751.788047
538.714821	10904.408979
539.075103	10911.186811
539.435328	10878.656245
539.795497	10708.048475
540.155609	10860.762669
540.515665	10944.294588
540.875665	10684.602069
541.235609	10750.333674
541.595496	10750.782336
541.955328	10898.470500
542.315102	10788.059148
542.674821	10739.487631
543.034483	10736.241128
543.394090	10737.937476
543.753640	10670.711169
544.113134	10895.019830
544.472571	10750.631102
544.831953	10890.029088
545.191278	10700.610253
545.550548	10723.459282
545.909761	10862.761487
546.268918	10833.953813
546.628019	10915.764178
546.987064	10786.972780
547.346053	10702.407424
547.704986	10807.515482
548.063863	10788.354056
548.422684	10788.616196
548.781449	10703.287105
549.140158	10798.537187
549.498811	10678.517396
549.857408	10538.010356
550.215949	10764.887485
550.574434	10614.590524
550.932864	10713.036697
551.291237	10771.163721
551.649555	10720.003572
552.007817	10735.411858
552.366022	10692.418378
552.724173	10686.507625
553.082267	10675.467498
553.440305	10808.506068
553.798288	10611.840575
554.156215	10761.663667
554.514086	10740.939483
554.871902	10593.026988
555.229661	10630.132401
555.587365	10603.295819
555.945014	10500.476445
556.302606	10628.380600
556.660143	10522.649960
557.017625	10671.144708
557.375050	10569.958668
557.732421	10704.262569
558.089735	10613.201686
558.446994	10618.852820
558.804197	10654.113170
559.161345	10654.246761
559.518437	10500.650365
559.875474	10597.400189
560.232455	10626.427153
560.589381	10577.749772
560.946251	10565.920704
561.303065	10675.560759
561.659825	10612.518610
562.016528	10542.880111
562.373177	10417.367983
562.729770	10538.930367
563.086307	10449.936357
563.442789	10539.439523
563.799216	10421.819322
564.155587	10474.290171
564.511904	10429.504561
564.868164	10419.949053
565.224370	10431.523543
565.580520	10358.789775
565.936615	10365.343275
566.292654	10231.379653
566.648638	10367.268996
567.004567	10319.483898
567.360441	10304.917484
567.716260	10211.411642
568.072023	10306.036621
568.427732	10263.199416
568.783385	10171.463019
569.138982	10245.633515
569.494525	10263.481720
569.850013	10138.443461
570.205445	10209.712773
570.560823	10106.593451
570.916145	10025.246872
571.271412	10103.208316
571.626625	10053.704185
571.981782	10018.320327
572.336884	9992.653292
572.691931	9994.878961
573.046923	9944.943812
573.401860	9901.282378
573.756743	9845.454120
574.111570	9881.952074
574.466342	9867.857008
574.821059	9893.098065
575.175722	9786.974215
575.530330	9799.141040
575.884882	9783.490778
576.239380	9713.615344
576.593823	9693.712869
576.948211	9708.571670
577.302544	9593.396428
577.656823	9602.742727
578.011047	9602.987223
578.365216	9575.316329
578.719330	9502.335545
579.073389	9513.337863
579.427394	9466.371954
579.781344	9440.341956
580.135239	9389.075942
580.489080	9399.095235
580.842866	9302.937746
581.196597	9304.719794
581.550273	9353.548410
581.903895	9316.987442
582.257463	9375.827789
582.610975	9259.818237
582.964434	9285.651629
583.317837	9209.724291
583.671186	9190.212505
584.024481	9179.104322
584.377721	9102.602292
584.730906	9083.037574
585.084037	9115.800033
585.437113	9045.975011
585.790135	9073.792098
586.143103	8965.301426
586.496016	8942.626316
586.848874	8994.605653
587.201679	8982.408582
587.554428	8874.948826
587.907124	8923.091845
588.259765	8890.525991
588.612352	8891.599757
588.964884	8771.010316
589.317362	8791.026217
589.669786	8782.799054
590.022155	8832.986261
590.374470	8851.646092
590.726731	8784.281153
591.078937	8639.516859
591.431090	8748.214218
591.783188	8624.595043
592.135232	8621.676215
592.487222	8616.229248
592.839157	8670.847630
593.191038	8605.173998
593.542866	8549.262561
593.894639	8454.060370
594.246358	8500.686002
594.598022	8514.977673
594.949633	8420.912263
595.301190	8387.789362
595.652692	8418.071573
596.004141	8522.693159
596.355535	8305.033780
596.706876	8292.042727
597.058162	8220.239052
597.409395	8295.286709
597.760573	8355.384825
598.111698	8268.203110
598.462768	8256.502592
598.813785	8217.025317
599.164748	8189.175462
599.515657	8179.294801
599.866511	8091.687108
600.217312	8216.548928
600.568060	8072.404695
600.918753	8175.760952
601.269392	8144.336919
601.619978	8061.770381
601.970510	8118.163248
602.320988	8125.533415
602.671412	8176.199532
603.021783	8114.977239
603.372100	8085.844411
603.722363	8089.620235
604.072572	8069.500990
604.422728	8076.891322
604.772830	8001.783171
605.122878	8011.847834
605.472872	8005.558995
605.822813	8033.373561
606.172701	7981.994121
606.522534	8056.787200
606.872314	8054.359885
607.222041	8024.339814
607.571714	8076.558606
607.921333	8033.688633
608.270899	8045.643730
608.620411	8129.987275
608.969870	8042.366980
609.319276	8034.422121
609.668627	8053.644041
610.017926	8086.025893
610.367171	8132.006257
610.716362	8106.613965
611.065500	8099.843695
611.414585	8126.387891
611.763616	8111.786189
612.112594	8099.032070
612.461518	8110.747711
612.810389	8170.886156
613.159207	8112.325592
613.507971	8055.428609
613.856682	8182.881582
614.205340	8132.258315
614.553945	8209.519038
614.902496	8111.332485
615.250994	8165.318202
615.599439	8147.918659
615.947830	8157.524578
616.296169	8131.882749
616.644454	8140.417422
616.992686	8140.062021
617.340864	8199.955970
617.688990	8101.847554
618.037063	8200.225671
618.385082	8143.089234
618.733048	8231.705157
619.080961	8174.046959
619.428821	8193.039507
619.776628	8190.055143
620.124382	8139.968759
620.472083	8123.453939
620.819731	8155.165318
621.167326	8049.636324
621.514868	8050.755460
621.862357	7942.952905
622.209793	7958.799772
622.557176	7895.697129
622.904506	7863.544650
623.251783	7798.738097
623.599007	7751.716734
623.946179	7754.628001
624.293297	7718.515695
624.640363	7626.444061
624.987376	7616.858307
625.334336	7566.746717
625.681243	7521.419182
626.028097	7504.506111
626.374899	7479.421330
626.721647	7467.738456
627.068343	7404.988693
627.414987	7378.837708
627.761577	7330.825758
628.108115	7375.034157
628.454600	7262.548371
628.801032	7310.993859
629.147412	7274.122860
629.493739	7264.443845
629.840014	7195.390119
630.186236	7254.510251
630.532405	7140.920452
630.878521	7192.158740
631.224585	7149.656772
631.570597	7069.031077
631.916556	7104.369566
632.262462	7100.692044
632.608316	7058.603451
632.954117	7043.318672
633.299866	7033.672424
633.645562	7019.262286
633.991206	6937.759431
634.336797	6885.386884
634.682336	6840.997004
635.027823	6808.443753
635.373257	6798.973945
635.718639	6733.312917
636.063968	6747.145843
636.409245	6639.612990
636.754470	6638.128370
637.099642	6600.211332
637.444762	6540.675305
637.789829	6550.981944
638.134845	6492.512121
638.479808	6474.439584
638.824719	6479.604246
639.169577	6413.660913
639.514383	6430.493326
639.859137	6358.120000
640.203839	6370.296907
640.548489	6356.665627
640.893086	6332.589077
641.237632	6301.764942
641.582125	6328.087326
641.926566	6296.643129
642.270955	6306.644778
642.615292	6303.494057
642.959576	6311.713659
643.303809	6310.561755
643.647990	6312.152239
643.992118	6306.332227
644.336195	6254.310040
644.680219	6275.923987
645.024192	6266.149190
645.368112	6362.092430
645.711981	6383.285440
646.055797	6458.832172
646.399562	6414.197796
646.743274	6545.502209
647.086935	6598.993893
647.430544	6592.798315
647.774101	6613.560307
648.117606	6617.653724
648.461059	6610.210460
648.804460	6576.142343
649.147810	6483.871583
649.491108	6449.906809
649.834354	6425.394198
650.177548	6337.060580
650.520690	6258.020329
650.863781	6238.780765
651.206820	6259.734321
651.549807	6178.339851
651.892742	6121.929340
652.235626	6127.575432
652.578458	6112.363750
652.921238	6017.264904
653.263967	6065.173509
653.606644	5997.052397
653.949269	6000.228324
654.291843	5944.349654
654.634365	5995.290514
654.976836	5946.421569
655.319255	5945.645231
655.661622	5925.833496
656.003938	5917.906282
656.346203	5879.384305
656.688416	5916.283030
657.030577	5866.688159
657.372687	5840.491803
657.714746	5825.963198
658.056753	5867.661102
658.398708	5805.176000
658.740612	5801.571575
659.082465	5844.285271
659.424266	5839.654971
659.766016	5836.683211
660.107715	5815.296116
660.449362	5827.775492
660.790958	5825.176778
661.132503	5807.746988
661.473996	5843.239232
661.815438	5835.334703
662.156829	5833.161965
662.498168	5822.888094
662.839456	5795.854906
663.180693	5832.171378
663.521879	5835.294373
663.863013	5824.564277
664.204097	5841.474828
664.545129	5880.122834
664.886110	5880.788266
665.227040	5912.948307
665.567918	5877.355240
665.908746	5905.598305
666.249522	5906.460342
666.590248	5893.108846
666.930922	5924.986583
667.271545	5938.907729
667.612118	5939.792451
667.952639	5913.906126
668.293109	5932.200474
668.633528	5894.805194
668.973896	5894.805194
669.314213	5887.861005
669.654480	5865.823601
669.994695	5863.255133
670.334859	5852.726683
670.674973	5845.774932
671.015035	5847.955231
671.355047	5848.711404
671.695008	5835.097768
672.034918	5804.659281
672.374777	5819.003885
672.714585	5805.680115
673.054342	5803.623324
673.394049	5798.806502
673.733705	5834.455021
674.073310	5819.145037
674.412864	5780.187000
674.752368	5762.968939
675.091820	5771.705259
675.431223	5705.754363
675.770574	5711.135795
676.109875	5664.880688
676.449125	5667.189537
676.788324	5633.829701
677.127473	5579.791052
677.466571	5570.401903
677.805619	5563.303959
678.144616	5546.519437
678.483562	5527.458834
678.822458	5494.587991
679.161303	5489.357793
679.500098	5478.017718
679.838842	5465.780317
680.177535	5465.858455
680.516179	5482.448892
680.854771	5494.507332
681.193314	5576.368109
681.531805	5680.684705
681.870247	5836.705896
682.208638	5933.526297
682.546978	5945.816630
682.885268	5929.460607
683.223508	5841.260579
683.561697	5784.761847
683.899836	5754.759420
684.237925	5712.428851
684.575963	5680.044479
684.913951	5634.293487
685.251889	5690.671231
685.589776	5662.395399
685.927614	5637.842459
686.265401	5705.930804
686.603137	5691.664338
686.940824	5769.456904
687.278460	5790.811232
687.616046	5805.697759
687.953582	5864.833014
688.291068	5850.170818
688.628504	5908.683491
688.965889	5871.988932
689.303224	5820.329708
689.640510	5772.884889
689.977745	5693.905131
690.314930	5598.133291
690.652065	5539.171955
690.989150	5454.256239
691.326185	5379.531216
691.663170	5323.161033
692.000105	5247.647069
692.336990	5165.965254
692.673825	5147.567563
693.010610	5075.242128
693.347345	5010.372561
693.684030	4993.489737
694.020665	4952.782419
694.357251	4864.935272
694.693786	4878.780801
695.030272	4842.126572
695.366707	4805.870593
695.703093	4768.714769
696.039429	4794.177637
696.375716	4775.311119
696.711952	4753.215741
697.048139	4743.352724
697.384276	4718.212490
697.720363	4735.027258
698.056400	4739.481118
698.392388	4692.641237
698.728326	4673.298329
699.064214	4646.983506
699.400053	4640.001508
699.735842	4614.674751
700.071581	4587.046708
700.407270	4556.756935
700.742910	4543.811252
701.078501	4485.381758
701.414042	4484.398733
701.749533	4456.793375
702.084974	4390.272829
702.420366	4445.216365
702.755709	4389.254516
703.091002	4337.996064
703.426246	4385.564391
703.761440	4340.872042
704.096584	4300.560455
704.431679	4323.096933
704.766725	4306.771157
705.101721	4299.000218
705.436668	4326.086338
705.771565	4273.600364
706.106413	4298.450732
706.441212	4333.660671
706.775961	4340.378009
707.110661	4321.327488
707.445311	4350.533413
707.779913	4373.795818
708.114465	4386.812077
708.448967	4406.543153
708.783421	4469.660920
709.117825	4510.736241
709.452180	4517.748486
709.786485	4561.379673
710.120742	4648.586593
710.454949	4629.720075
710.789107	4695.592832
711.123216	4772.009163
711.457275	4759.867544
711.791286	4833.632227
712.125247	4848.291903
712.459159	4751.557202
712.793023	4827.892874
713.126837	4789.428870
713.460602	4782.870329
713.794318	4701.130540
714.127985	4711.066654
714.461602	4624.573057
714.795171	4595.677163
715.128691	4529.759035
715.462162	4477.683916
715.795584	4424.300618
716.128957	4408.214296
716.462281	4358.019527
716.795556	4327.928879
717.128782	4291.710710
717.461960	4224.048343
717.795088	4232.630907
718.128167	4195.074311
718.461198	4131.533087
718.794180	4129.466214
719.127113	4112.822845
719.459997	4088.174123
719.792833	4047.600396
720.125619	4038.974982
720.458357	4004.604395
720.791046	4006.908202
721.123686	3979.070951
721.456278	3937.047892
721.788821	3956.655460
722.121315	3929.647479
722.453761	3901.099424
722.786158	3911.834562
723.118506	3939.059313
723.450805	3888.229359
723.783056	3911.166609
724.115259	3929.009773
724.447412	3935.313736
724.779518	3925.473403
725.111574	3931.878189
725.443582	3961.396666
725.775542	3945.756486
726.107453	3994.522087
726.439315	3996.969568
726.771129	4009.945498
727.102895	4047.136610
727.434612	4095.453549
727.766281	4107.917802
728.097901	4110.294706
728.429473	4112.144810
728.760996	4117.498515
729.092471	4114.199080
729.423897	4098.725258
729.755276	4106.957462
730.086606	4106.508800
730.417887	4142.800066
730.749120	4208.728276
731.080305	4269.658182
731.411442	4293.654074
731.742530	4265.673150
732.073570	4269.665744
732.404562	4325.909897
732.735506	4315.560408
733.066401	4280.965490
733.397249	4214.502918
733.728048	4137.428717
734.058798	4054.973084
734.389501	3983.116477
734.720156	3921.468207
735.050762	3879.044376
735.381320	3872.042214
735.711831	3820.100685
736.042293	3794.514309
736.372707	3816.352587
736.703073	3786.571971
737.033391	3778.143162
737.363661	3793.637148
737.693883	3818.285870
738.024056	3828.811799
738.354182	3823.531190
738.684260	3889.272877
739.014290	3906.622008
739.344272	3904.653438
739.674207	3945.421249
740.004093	3948.821507
740.333931	3945.209521
740.663722	3946.182463
740.993464	3943.707257
741.323159	3919.343360
741.652806	3891.848907
741.982405	3863.315976
742.311956	3833.936132
742.641460	3822.386848
742.970915	3799.310967
743.300323	3758.119698
743.629683	3724.515367
743.958996	3713.167730
744.288260	3689.617979
744.617477	3656.419461
744.946647	3639.783653
745.275768	3617.269860
745.604842	3612.732822
745.933869	3567.768250
746.262847	3560.995460
746.591778	3594.630038
746.920662	3566.490317
747.249498	3538.123745
747.578286	3583.050508
747.907027	3598.799072
748.235720	3595.358485
748.564365	3622.971405
748.892963	3621.847228
749.221514	3605.196297
749.550017	3583.917586
749.878473	3580.832400
750.206881	3551.369376
750.535242	3547.785116
750.863555	3548.737894
751.191821	3544.899055
751.520039	3522.811240
751.848210	3501.368692
752.176334	3536.777757
752.504411	3542.249929
752.832440	3502.114783
753.160421	3486.721619
753.488356	3492.995335
753.816243	3505.845237
754.144082	3462.806386
754.471875	3451.501598
754.799620	3467.482056
755.127318	3461.881334
755.454969	3459.494348
755.782572	3466.418372
756.110129	3442.583797
756.437638	3431.803289
756.765100	3448.678552
757.092515	3457.147690
757.419882	3461.107517
757.747203	3434.858229
758.074477	3438.548353
758.401703	3453.485292
758.728882	3471.550267
759.056014	3481.352791
759.383099	3488.523832
759.710138	3479.943788
760.037129	3496.221674
760.364073	3529.001777
760.690970	3513.414529
761.017820	3493.126405
761.344623	3509.671472
761.671379	3554.976322
761.998088	3606.512038
762.324751	3731.323445
762.651366	3978.849140
762.977935	4452.795740
763.304456	4890.998038
763.630931	4983.961956
763.957359	4624.270588
764.283740	4282.097229
764.610074	4093.230400
764.936362	3900.605391
765.262602	3736.394846
765.588796	3624.982825
765.914943	3543.268242
766.241044	3451.340281
766.567097	3422.951023
766.893104	3375.213817
767.219064	3346.063345
767.544978	3318.195846
767.870845	3266.161056
768.196665	3246.185484
768.522438	3255.347781
768.848165	3252.181937
769.173846	3213.912017
769.499479	3198.044986
769.825066	3177.673683
770.150607	3163.959224
770.476101	3181.615865
770.801548	3174.180163
771.126949	3125.797689
771.452303	3113.184722
771.777611	3122.077318
772.102872	3123.854324
772.428087	3100.065119
772.753256	3090.277719
773.078378	3079.338415
773.403453	3051.065104
773.728482	3035.619009
774.053465	3058.924263
774.378401	3046.366749
774.703291	3013.127901
775.028135	3012.384331
775.352932	3007.907786
775.677683	2996.920591
776.002388	2994.198368
776.327046	2997.177690
776.651658	2987.876761
776.976224	2971.487970
777.300743	2971.881180
777.625216	2967.399594
777.949643	2961.687967
778.274024	2962.217288
778.598359	2953.342337
778.922647	2954.748819
779.246889	2955.389045
779.571086	2938.934719
779.895236	2934.919440
780.219339	2945.095009
780.543397	2958.970785
780.867409	2959.638738
781.191374	2953.780917
781.515294	2947.401337
781.839167	2952.273612
782.162995	2941.533434
782.486776	2952.402162
782.810511	2948.344033
783.134201	2936.293154
783.457844	2941.934206
783.781441	2933.139913
784.104993	2912.037643
784.428498	2914.815318
784.751958	2927.100610
785.075372	2917.199784
785.398739	2906.688978
785.722061	2922.540887
786.045337	2930.495828
786.368568	2917.479568
786.691752	2912.264495
787.014891	2957.410548
787.337983	2987.513798
787.661030	3010.443486
787.984031	3084.830752
788.306987	3127.758698
788.629897	3120.242338
788.952760	3102.628546
789.275579	3087.946186
789.598351	3029.456198
789.921078	2983.644713
790.243759	2978.885863
790.566395	2962.018163
790.888984	2937.122424
791.211529	2918.331523
791.534027	2911.566295
791.856480	2901.163874
792.178888	2884.598642
792.501249	2876.321068
792.823566	2873.117414
793.145836	2870.793443
793.468062	2867.199100
793.790241	2867.496528
794.112375	2871.073227
794.434464	2881.238713
794.756507	2888.003942
795.078505	2889.357492
795.400457	2907.878691
795.722364	2944.600976
796.044226	2966.348514
796.366042	2972.100470
796.687812	2960.276444
797.009538	2980.448621
797.331218	2965.937660
797.652852	2951.890484
797.974442	2934.674944
798.295986	2930.568924
798.617484	2927.801331
798.938938	2910.812642
799.260346	2896.674726
799.581709	2889.879251
799.903026	2884.137377
800.224299	2877.281408
800.545526	2868.227495
800.866708	2853.676205
801.187845	2842.502487
801.508936	2844.062724
801.829983	2854.376925
802.150984	2838.260356
802.471940	2828.190651
802.792851	2826.338027
803.113717	2826.728717
803.434538	2829.491269
803.755314	2823.719148
804.076045	2816.104485
804.396731	2816.843014
804.717372	2819.282932
805.037967	2811.718681
805.358518	2817.747901
805.679024	2830.630570
805.999485	2828.054540
806.319901	2832.783142
806.640272	2820.810402
806.960598	2829.299705
807.280879	2838.280521
807.601115	2847.682273
807.921306	2832.934377
808.241453	2828.591423
808.561554	2833.166270
808.881611	2836.173318
809.201623	2828.992195
809.521590	2830.282730
809.841513	2825.133192
810.161390	2829.042606
810.481223	2823.827533
810.801011	2815.431491
811.120755	2809.442600
811.440453	2813.780513
811.760107	2813.992242
812.079716	2812.666418
812.399281	2802.889100
812.718801	2794.724952
813.038276	2790.734878
813.357707	2796.658234
813.677093	2802.629481
813.996434	2796.237298
814.315731	2791.385187
814.634983	2787.740433
814.954191	2788.821760
815.273354	2804.025880
815.592473	2813.949392
815.911547	2811.292704
816.230577	2823.083962
816.549562	2829.125785
816.868502	2829.791218
817.187399	2839.198011
817.506250	2854.787779
817.825058	2848.002386
818.143821	2862.548635
818.462539	2874.884339
818.781213	2905.758886
819.099843	2938.924637
819.418429	2995.945128
819.736970	3056.254972
820.055466	3128.663585
820.373919	3236.113259
820.692327	3375.349928
821.010691	3539.850340
821.329011	3984.124708
821.647286	4877.863311
821.965517	6255.950935
822.283704	6984.163252
822.601847	6962.025025
822.919945	6333.688048
823.237999	5830.621224
823.556010	5254.790384
823.873976	4703.837639
824.191897	4298.049961
824.509775	4007.029190
824.827609	3736.606574
825.145398	3614.466978
825.463144	3603.353755
825.780845	3696.809185
826.098502	3800.140236
826.416116	4083.695058
826.733685	4393.766349
827.051210	4457.615083
827.368692	4340.390612
827.686129	4077.305395
828.003522	3753.562495
828.320872	3495.374760
828.638177	3300.667754
828.955439	3168.004750
829.272656	3081.826225
829.589830	3018.332892
829.906960	2967.981848
830.224046	2923.425609
830.541088	2887.630896
830.858086	2873.739997
831.175041	2857.426823
831.491952	2859.760877
831.808819	2871.809235
832.125642	2890.605177
832.442421	2940.913372
832.759157	3018.600073
833.075849	3197.329142
833.392497	3475.638643
833.709101	3681.960467
834.025662	3626.764873
834.342179	3469.594299
834.658653	3295.460243
834.975083	3143.527427
835.291469	3047.591749
835.607811	2965.476394
835.924110	2905.678227
836.240366	2857.928418
836.556578	2814.395534
836.872746	2791.211267
837.188871	2769.551950
837.504952	2753.740371
837.820990	2745.172930
838.136984	2730.767833
838.452935	2724.786504
838.768842	2722.444888
839.084706	2742.712847
839.400526	2817.949547
839.716303	2952.455094
840.032037	3028.775642
840.347727	3014.181502
840.663373	2954.726133
840.978977	2882.113353
841.294537	2807.554688
841.610054	2761.397883
841.925527	2738.498442
842.240957	2716.614793
842.556344	2697.380271
842.871687	2680.641119
843.186987	2670.934378
843.502244	2666.304078
843.817458	2661.948521
844.132629	2649.116264
844.447756	2639.961528
844.762840	2636.974645
845.077881	2636.606641
845.392879	2635.815179
845.707833	2634.297792
846.022745	2626.312604
846.337613	2627.260341
846.652438	2626.887296
846.967221	2624.603653
847.281960	2627.414097
847.596656	2624.487707
847.911309	2623.451750
848.225919	2620.916049
848.540485	2619.121398
848.855009	2616.870523
849.169490	2616.401696
849.483928	2617.432612
849.798323	2614.468413
850.112675	2615.055708
850.426984	2613.780296
850.741251	2611.841972
851.055474	2612.734257
851.369654	2617.863631
851.683792	2618.672736
851.997887	2613.371962
852.311938	2613.245934
852.625947	2612.951026
852.939914	2614.780965
853.253837	2616.626027
853.567718	2612.668722
853.881555	2615.259875
854.195350	2617.273816
854.509103	2619.438991
854.822812	2614.067642
855.136479	2613.818105
855.450103	2612.978752
855.763685	2615.645523
856.077224	2610.740480
856.390720	2609.084461
856.704173	2612.308279
857.017584	2618.183744
857.330953	2619.365894
857.644278	2621.883951
857.957561	2620.767335
858.270802	2617.180554
858.584000	2617.866151
858.897155	2622.486369
859.210268	2621.405041
859.523339	2615.799278
859.836367	2612.303238
860.149352	2613.326592
860.462295	2614.569237
860.775195	2610.516149
861.088054	2610.599328
861.400869	2608.247630
861.713642	2608.119080
862.026373	2607.297372
862.339062	2609.717126
862.651708	2618.506378
862.964312	2616.603342
863.276873	2616.104268
863.589392	2616.953702
863.901869	2624.054167
864.214303	2627.643469
864.526696	2629.876700
864.839045	2631.646145
865.151353	2634.590179
865.463619	2630.771505
865.775842	2633.634880
866.088023	2632.414921
866.400162	2633.710498
866.712258	2633.372740
867.024313	2631.726804
867.336325	2627.666154
867.648296	2630.819396
867.960224	2636.483132
868.272110	2635.343832
868.583954	2627.159518
868.895755	2629.914509
869.207515	2634.469191
869.519233	2642.620737
869.830909	2637.854326
870.142542	2634.164202
870.454134	2635.721918
870.765684	2640.410191
871.077191	2639.124697
871.388657	2644.546458
871.700081	2641.221817
872.011463	2640.143010
872.322803	2643.018988
872.634101	2647.530821
872.945357	2654.235556
873.256571	2658.346617
873.567744	2657.887872
873.878874	2655.984836
874.189963	2657.328303
874.501010	2664.191834
874.812015	2668.360869
875.122979	2667.108142
875.433900	2659.052378
875.744780	2655.342089
876.055618	2663.042451
876.366415	2668.161743
876.677169	2669.537978
876.987882	2662.291319
877.298554	2660.824344
877.609183	2670.747855
877.919771	2675.224400
878.230317	2684.946265
878.540822	2697.471012
878.851285	2707.018957
879.161707	2733.212792
879.472087	2771.598658
879.782425	2817.246306
880.092722	2932.819799
880.402977	3121.046402
880.713191	3375.435628
881.023363	3664.379443
881.333494	3853.263916
881.643583	4024.973177
881.953631	4029.923590
882.263637	3847.648070
882.573602	3629.053557
882.883526	3500.544463
883.193408	3386.173285
883.503248	3287.553193
883.813048	3173.804597
884.122806	3061.333934
884.432522	2976.100626
884.742197	2911.475554
885.051831	2870.644728
885.361424	2838.991323
885.670975	2804.807259
885.980485	2772.687547
886.289954	2754.514188
886.599382	2740.464492
886.908768	2729.661299
887.218113	2712.670090
887.527417	2697.776001
887.836680	2690.809127
888.145901	2685.523477
888.455082	2675.158865
888.764221	2664.098573
889.073319	2656.904847
889.382376	2657.008190
889.691392	2656.836791
890.000366	2658.802841
890.309300	2657.083807
890.618193	2658.339055
890.927044	2663.304591
891.235855	2659.233860
891.544625	2661.353665
891.853353	2659.110351
892.162041	2668.539830
892.470687	2688.994311
892.779293	2697.231557
893.087858	2708.231354
893.396381	2730.669530
893.704864	2771.908689
894.013306	2843.178002
894.321707	2936.094029
894.630068	2981.998776
894.938387	3004.245388
895.246665	2998.465705
895.554903	2952.197995
895.863100	2910.207704
896.171256	2855.286853
896.479371	2792.968109
896.787446	2754.887233
897.095480	2733.278327
897.403473	2728.080898
897.711425	2715.230997
898.019336	2694.862214
898.327207	2683.602797
898.635038	2680.633558
898.942827	2677.089627
899.250576	2669.870694
899.558284	2656.935093
899.865952	2653.464259
900.173579	2650.830256
900.481165	2649.632982
900.788711	2640.974800
901.096216	2635.003554
901.403681	2631.986423
901.711105	2632.447689
902.018489	2628.752523
902.325832	2633.395426
902.633135	2633.770992
902.940397	2649.635503
903.247619	2686.869465
903.554800	2756.928901
903.861941	2880.669063
904.169041	3005.921571
904.476101	3063.763771
904.783121	3062.896692
905.090100	3002.203720
905.397039	2929.348965
905.703938	2858.477904
906.010796	2797.633697
906.317614	2742.261663
906.624391	2707.772609
906.931129	2683.320493
907.237826	2655.894095
907.544483	2639.812814
907.851099	2629.619601
908.157675	2618.115688
908.464211	2611.526900
908.770707	2600.595158
909.077163	2597.512492
909.383578	2593.383787
909.689954	2594.351689
909.996289	2589.421441
910.302584	2588.272057
910.608839	2583.563620
910.915054	2589.310535
911.221229	2589.751636
911.527363	2594.041658
911.833458	2590.742223
912.139513	2591.165680
912.445527	2592.388160
912.751502	2600.096084
913.057436	2602.314192
913.363331	2610.949688
913.669186	2620.699280
913.975000	2634.035652
914.280775	2649.993425
914.586510	2670.069820
914.892205	2706.479553
915.197859	2769.463730
915.503475	2852.337778
915.809050	2920.290012
916.114585	2932.802155
916.420081	2943.360852
916.725536	2956.964406
917.030952	2929.606064
917.336328	2883.292983
917.641665	2838.547702
917.946961	2786.071811
918.252218	2754.539394
918.557435	2725.278016
918.862612	2704.853781
919.167750	2687.912984
919.472848	2674.112825
919.777906	2655.510967
920.082925	2643.344143
920.387904	2633.927267
920.692843	2629.639766
920.997743	2623.628190
921.302603	2616.936058
921.607423	2610.246447
921.912204	2606.205962
922.216946	2604.431476
922.521647	2604.370982
922.826310	2596.567276
923.130932	2592.262131
923.435516	2585.597725
923.740059	2586.545462
924.044564	2586.028744
924.349028	2584.332396
924.653454	2575.558268
924.957840	2573.355283
925.262186	2569.435786
925.566493	2572.329408
925.870761	2566.514437
926.174989	2566.292627
926.479178	2566.274983
926.783328	2563.996381
927.087438	2564.906309
927.391509	2562.050496
927.695541	2561.208623
927.999533	2558.851884
928.303486	2559.776935
928.607400	2556.530432
928.911275	2555.746533
929.215110	2556.916081
929.518906	2554.332489
929.822663	2561.213664
930.126381	2558.965310
930.430060	2557.488252
930.733699	2555.292829
931.037299	2559.545042
931.340861	2560.591082
931.644383	2558.194013
931.947866	2558.178890
932.251309	2558.130999
932.554714	2556.696790
932.858080	2560.293654
933.161407	2557.286605
933.464694	2556.043961
933.767943	2558.511606
934.071153	2554.740823
934.374323	2553.747715
934.677455	2556.923642
934.980548	2554.271995
935.283602	2557.125288
935.586617	2555.522202
935.889593	2554.365257
936.192530	2555.728889
936.495428	2556.114537
936.798287	2555.363405
937.101108	2555.779300
937.403890	2560.112172
937.706632	2562.020249
938.009336	2566.363203
938.312002	2567.633574
938.614628	2571.346383
938.917216	2576.695048
939.219765	2579.573547
939.522275	2575.497774
939.824747	2577.544482
940.127179	2570.849830
940.429573	2569.403019
940.731929	2569.193811
941.034246	2566.413614
941.336524	2568.876218
941.638763	2566.985785
941.940964	2567.590724
942.243126	2565.251628
942.545250	2562.960424
942.847335	2563.058727
943.149381	2561.105279
943.451389	2561.536298
943.753359	2561.848850
944.055290	2557.367264
944.357182	2557.929353
944.659036	2557.954558
944.960851	2558.592264
945.262628	2555.350802
945.564367	2557.742830
945.866067	2557.092521
946.167729	2560.051678
946.469352	2556.704352
946.770937	2558.499003
947.072484	2558.652758
947.373992	2558.700649
947.675462	2558.824157
947.976893	2554.622356
948.278286	2555.628066
948.579641	2554.874413
948.880958	2555.340720
949.182236	2555.570093
949.483476	2554.650082
949.784678	2552.691594
950.085841	2555.302911
950.386967	2558.425906
950.688054	2554.546738
950.989103	2556.699311
951.290114	2557.016904
951.591087	2563.436813
951.892021	2560.298695
952.192917	2561.264076
952.493776	2560.011349
952.794596	2561.700136
953.095378	2562.645352
953.396122	2562.962945
953.696828	2562.335321
953.997496	2558.551935
954.298126	2556.351471
954.598718	2558.559497
954.899272	2555.141594
955.199788	2554.637479
955.500266	2553.336861
955.800706	2549.702189
956.101108	2549.258568
956.401472	2549.223280
956.701798	2542.939482
957.002087	2546.564071
957.302337	2546.130532
957.602550	2546.569112
957.902724	2541.742208
958.202861	2543.229348
958.502960	2543.070552
958.803022	2545.512991
959.103045	2542.447969
959.403031	2542.747918
959.702979	2543.010058
960.002889	2543.224307
960.302762	2541.134748
960.602596	2541.437218
960.902393	2540.623071
961.202153	2541.185160
961.501875	2541.142310
961.801559	2541.704399
962.101205	2538.689789
962.400814	2541.023843
962.700385	2541.306148
962.999918	2540.343287
963.299414	2538.747762
963.598873	2541.217928
963.898293	2541.338915
964.197677	2539.713143
964.497022	2538.616692
964.796331	2538.727597
965.095601	2541.296065
965.394835	2541.210366
965.694030	2541.059131
965.993189	2541.210366
966.292309	2540.854964
966.591393	2540.166847
966.890439	2540.882691
967.189447	2537.419418
967.488419	2540.413863
967.787353	2540.328164
968.086249	2538.334388
968.385108	2539.367824
968.683930	2540.786909
968.982714	2540.113915
969.281462	2537.958822
969.580172	2540.696168
969.878844	2538.596527
970.177480	2540.829759
970.476078	2539.589635
970.774639	2539.902186
971.073162	2537.505118
971.371649	2537.696682
971.670098	2536.824562
971.968510	2536.665766
972.266885	2534.780374
972.565223	2537.792463
972.863524	2539.927392
973.161788	2538.533513
973.460014	2540.197094
973.758204	2542.064841
974.056356	2542.062321
974.354471	2543.448638
974.652550	2541.747249
974.950591	2540.199614
975.248595	2539.793802
975.546563	2542.551313
975.844493	2540.073586
976.142386	2539.067875
976.440243	2540.791950
976.738062	2538.505787
977.035845	2538.707433
977.333590	2538.896476
977.631299	2539.065355
977.928971	2538.984696
978.226606	2538.470499
978.524204	2538.717515
978.821765	2542.316899
979.119290	2539.309851
979.416777	2538.709953
979.714228	2539.650129
980.011642	2538.745242
980.309020	2541.845551
980.606360	2539.108205
980.903664	2538.931764
981.200931	2539.113246
981.498162	2540.315561
981.795356	2542.480737
982.092513	2544.988711
982.389633	2547.078269
982.686717	2552.104299
982.983764	2553.964485
983.280775	2554.831563
983.577749	2552.978939
983.874686	2553.208312
984.171587	2549.044319
984.468451	2548.530121
984.765279	2547.368135
985.062070	2544.688762
985.358824	2542.596683
985.655543	2540.416384
985.952224	2541.107022
986.248869	2539.980324
986.545478	2537.051414
986.842050	2536.063348
987.138586	2534.251053
987.435086	2535.120652
987.731549	2535.140817
988.027975	2534.755168
988.324366	2534.984541
988.620719	2536.822041
988.917037	2538.379758
989.213318	2537.142155
989.509563	2535.924716
989.805772	2538.069727
990.101944	2536.166691
990.398080	2536.764068
990.694180	2536.683410
990.990244	2535.914634
991.286271	2535.496218
991.582262	2535.831455
991.878217	2534.656866
992.174136	2534.112421
992.470019	2535.435724
992.765865	2537.646270
993.061676	2535.516383
993.357450	2535.385313
993.653188	2537.472350
993.948890	2537.374048
994.244556	2537.505118
994.540186	2534.228368
994.835780	2538.543595
995.131337	2535.481094
995.426859	2538.341949
995.722345	2538.175591
996.017795	2539.647608
996.313208	2541.948895
996.608586	2540.350849
996.903928	2539.650129
997.199234	2539.017464
997.494504	2539.733308
997.789738	2539.755993
998.084936	2537.142155
998.380099	2538.858668
998.675225	2536.988399
998.970316	2537.210210
999.265371	2538.750283
999.560390	2536.262473
999.855373	2536.506969
1000.150320	2536.433873
1000.445232	2538.243647
1000.740108	2534.356917
1001.034948	2535.395395
1001.329752	2534.792977
1001.624521	2533.036135
1001.919254	2533.830117
1002.213951	2535.367668
1002.508613	2532.854653
1002.803239	2531.735517
1003.097829	2527.662265
1003.392384	2536.247350
1003.686903	2532.663089
1003.981386	2534.230888
1004.275834	2533.527647
1004.570246	2534.863553
1004.864623	2534.487987
1005.158964	2534.843388
1005.453270	2533.832637
1005.747540	2533.625950
1006.041775	2533.789787
1006.335974	2534.029242
1006.630138	2530.823068
1006.924266	2532.494211
1007.218359	2534.256094
1007.512416	2538.155427
1007.806438	2532.128727
1008.100425	2533.855322
1008.394376	2531.266690
1008.688292	2535.312216
1008.982172	2533.900693
1009.276017	2531.770805
1009.569827	2532.602596
1009.863602	2534.298944
1010.157341	2534.041845
1010.451045	2531.324663
1010.744714	2535.793646
1011.038347	2532.436238
1011.331945	2534.551002
1011.625508	2535.211393
1011.919036	2533.499921
1012.212528	2535.463450
1012.505986	2533.094108
1012.799408	2534.591331
1013.092795	2533.598223
1013.386147	2533.724252
1013.679464	2533.003367
1013.972745	2536.368338
1014.265992	2533.983872
1014.559204	2533.469674
1014.852380	2533.953625
1015.145521	2531.060002
1015.438628	2531.032276
1015.731699	2536.854809
1016.024736	2534.447658
1016.317737	2533.376413
1016.610703	2535.203831
1016.903635	2530.767616
1017.196531	2527.944569
1017.489393	2531.720394
1017.782219	2528.587317
1018.075011	2530.757533
1018.367768	2531.511186
1018.660490	2532.156453
1018.953177	2532.156453
1019.245829	2532.156453
