Dividing Wavelength (nm)	Counts (n)	Blue Motor Position (mm): 24.400000	Red Motor Position (mm): 0.000000	
326.493990	2134.497635
326.888308	2134.497635
327.282561	2134.497635
327.676750	2101.979672
328.070874	2100.333736
328.464933	2103.413881
328.858929	2108.664242
329.252859	2119.651437
329.646726	2129.995885
330.040528	2144.327885
330.434265	2159.247180
330.827938	2179.066476
331.221547	2198.510207
331.615091	2216.502085
332.008571	2233.722666
332.401986	2252.432909
332.795338	2273.083996
333.188625	2293.210802
333.581847	2311.182516
333.975006	2326.842860
334.368100	2347.405727
334.761129	2366.466329
335.154095	2383.754967
335.546996	2404.340518
335.939833	2426.559404
336.332606	2441.624892
336.725315	2453.794237
337.117960	2462.996864
337.510540	2470.241002
337.903056	2483.700883
338.295508	2487.774135
338.687896	2498.761330
339.080220	2504.634274
339.472480	2511.729698
339.864676	2516.821263
340.256807	2520.201357
340.648875	2523.062212
341.040879	2529.119158
341.432818	2528.431041
341.824694	2531.024714
342.216506	2529.494724
342.608253	2529.998840
342.999937	2531.861546
343.391557	2529.098994
343.783113	2530.571011
344.174605	2531.153264
344.566033	2523.780576
344.957397	2524.975330
345.348697	2521.504495
345.739934	2519.795544
346.131106	2520.972654
346.522215	2517.877385
346.913260	2514.270440
347.304241	2514.162055
347.695159	2512.584174
348.086012	2508.417660
348.476802	2508.450427
348.867528	2508.503360
349.258191	2508.442866
349.648789	2506.055879
350.039324	2502.774088
350.429796	2501.418018
350.820203	2500.687051
351.210548	2499.998933
351.600828	2502.453975
351.991045	2498.988182
352.381198	2503.429438
352.771288	2499.089005
353.161314	2499.172184
353.551276	2497.180928
353.941175	2494.090701
354.331010	2497.576659
354.720782	2496.127327
355.110490	2499.063799
355.500135	2496.071874
355.889717	2496.722183
356.279235	2498.325270
356.668689	2497.866525
357.058080	2499.404077
357.447408	2497.027173
357.836672	2493.778149
358.225873	2497.584220
358.615010	2494.390649
359.004084	2499.693943
359.393095	2500.598830
359.782043	2502.128821
360.170927	2499.341063
360.559748	2502.675786
360.948505	2500.016577
361.337199	2502.869870
361.725830	2503.807525
362.114398	2503.051352
362.502903	2503.983965
362.891344	2505.304747
363.279722	2505.387927
363.668037	2506.832217
364.056289	2506.065962
364.444478	2507.333812
364.832603	2506.660818
365.220665	2505.438338
365.608665	2507.379182
365.996601	2509.272136
366.384474	2506.456651
366.772284	2509.123422
367.160031	2506.426404
367.547715	2507.664008
367.935336	2510.610562
368.322893	2511.885974
368.710388	2511.180212
369.097820	2510.862620
369.485189	2510.892867
369.872495	2510.035870
370.259738	2510.134173
370.646918	2507.500170
371.034035	2514.698938
371.421090	2511.175171
371.808081	2511.444873
372.195010	2512.611900
372.581875	2511.613752
372.968678	2512.077538
373.355418	2516.468383
373.742096	2515.145080
374.128710	2514.935872
374.515262	2514.038547
374.901751	2515.616428
375.288177	2510.121570
375.674540	2515.997035
376.060841	2514.091479
376.447079	2512.511077
376.833254	2516.538959
377.219367	2510.653412
377.605417	2517.511902
377.991404	2511.946468
378.377329	2514.325892
378.763191	2510.068638
379.148991	2516.488547
379.534727	2514.053670
379.920402	2515.906294
380.306013	2516.601973
380.691563	2519.956861
381.077049	2515.102230
381.462474	2516.576767
381.847835	2518.802437
382.233134	2518.401665
382.618371	2519.644310
383.003545	2522.144722
383.388657	2519.223373
383.773706	2520.229083
384.158693	2517.998373
384.543618	2520.997859
384.928480	2520.138343
385.313280	2519.974505
385.698017	2521.262520
386.082692	2519.528363
386.467305	2520.763446
386.851856	2520.100534
387.236344	2519.722448
387.620770	2524.161183
388.005133	2522.820237
388.389435	2522.941224
388.773674	2523.710000
389.157851	2524.196472
389.541965	2521.270082
389.926018	2523.657068
390.310008	2523.808303
390.693936	2522.943745
391.077802	2522.580782
391.461606	2524.282171
391.845348	2521.519619
392.229027	2524.866945
392.612645	2522.842922
392.996200	2523.405010
393.379694	2522.689167
393.763125	2525.189579
394.146494	2523.992305
394.529801	2525.239990
394.913047	2525.403828
395.296230	2529.386339
395.679351	2525.126564
396.062410	2525.144208
396.445408	2525.318128
396.828343	2527.047244
397.211217	2522.439629
397.594028	2523.818385
397.976778	2523.679753
398.359466	2525.277799
398.742092	2521.857376
399.124656	2526.858201
399.507158	2527.697553
399.889598	2528.410876
400.271977	2526.064219
400.654294	2528.791483
401.036549	2529.552697
401.418742	2528.592358
401.800874	2532.161495
402.182944	2528.176462
402.564952	2529.860208
402.946898	2528.486493
403.328783	2528.287368
403.710606	2529.373737
404.092367	2530.656710
404.474067	2529.764426
404.855705	2531.990095
405.237282	2529.323325
405.618797	2530.868439
406.000250	2530.132430
406.381642	2532.806762
406.762972	2530.906247
407.144240	2532.579910
407.525447	2532.300126
407.906593	2532.252235
408.287677	2534.147709
408.668700	2531.231402
409.049661	2533.199972
409.430560	2533.827596
409.811399	2531.412883
410.192176	2534.588810
410.572891	2533.809952
410.953545	2530.439941
411.334138	2533.759540
411.714669	2533.971269
412.095139	2533.898172
412.475547	2531.125537
412.855894	2536.643080
413.236180	2533.094108
413.616405	2533.802390
413.996568	2532.897503
414.376670	2539.025026
414.756711	2533.184849
415.136691	2534.487987
415.516609	2532.234591
415.896466	2536.171733
416.276262	2536.517052
416.655997	2534.984541
417.035670	2533.028573
417.415283	2534.278779
417.794834	2531.906916
418.174324	2538.538554
418.553753	2537.064017
418.933121	2535.425642
419.312428	2536.703574
419.691674	2538.420087
420.070859	2538.432690
420.449983	2536.602751
420.829045	2538.505787
421.208047	2537.429500
421.586988	2538.168029
421.965867	2540.237423
422.344686	2539.834131
422.723444	2537.915972
423.102141	2539.443441
423.480777	2539.690458
423.859352	2537.842875
424.237866	2538.299099
424.616319	2537.003523
424.994712	2541.848072
425.373044	2540.950746
425.751314	2540.237423
426.129524	2537.855478
426.507673	2540.706250
426.885762	2540.865047
427.263789	2542.430325
427.641756	2542.304296
428.019662	2542.122815
428.397508	2542.689944
428.775292	2542.289173
429.153016	2541.099460
429.530679	2543.398227
429.908282	2538.324305
430.285824	2541.207845
430.663305	2540.544933
431.040726	2541.023843
431.418086	2541.343956
431.795385	2543.567105
432.172624	2541.369162
432.549802	2542.914276
432.926920	2540.071065
433.303977	2545.598690
433.680974	2543.504091
434.057910	2544.005686
434.434786	2545.863351
434.811601	2545.805377
435.188355	2545.533155
435.565050	2544.187167
435.941683	2545.999462
436.318257	2541.999306
436.694770	2542.079965
437.071222	2545.712116
437.447614	2539.985365
437.823946	2542.095088
438.200218	2542.785726
438.576429	2543.990562
438.952580	2546.548948
439.328670	2546.092723
439.704700	2544.885367
440.080670	2545.840666
440.456580	2547.282436
440.832429	2547.927703
441.208218	2546.586756
441.583947	2547.194215
441.959616	2546.180943
442.335224	2547.393341
442.710773	2547.559699
443.086261	2545.684390
443.461689	2547.557178
443.837057	2548.562889
444.212365	2546.546427
444.587612	2548.081458
444.962800	2551.973229
445.337927	2553.450287
445.712995	2548.336037
446.088002	2552.492468
446.462949	2550.317210
446.837837	2551.476676
447.212664	2549.490461
447.587431	2551.741336
447.962139	2553.336861
448.336786	2555.892726
448.711374	2554.312325
449.085901	2553.997252
449.460369	2553.354505
449.834776	2551.693445
450.209124	2556.744681
450.583412	2555.910370
450.957640	2557.425237
451.331808	2559.355999
451.705917	2559.048489
452.079965	2561.188458
452.453954	2562.710887
452.827883	2562.484035
453.201752	2565.728018
453.575562	2564.094684
453.949311	2567.608368
454.323001	2568.825807
454.696632	2571.706826
455.070202	2573.962742
455.443713	2578.063721
455.817164	2580.891808
456.190556	2582.472210
456.563888	2589.403797
456.937160	2587.654516
457.310373	2595.710280
457.683526	2598.913933
458.056619	2602.331836
458.429653	2609.432301
458.802628	2612.840121
459.175542	2618.375308
459.548398	2632.031793
459.921194	2642.000675
460.293930	2652.042654
460.666607	2675.176509
461.039224	2695.028572
461.411782	2703.921168
461.784280	2713.040615
462.156719	2718.772407
462.529099	2722.523026
462.901419	2722.828015
463.273680	2729.056361
463.645882	2739.703278
464.018024	2752.318765
464.390106	2767.124634
464.762130	2800.514717
465.134094	2846.605986
465.505999	2939.738783
465.877845	3036.319729
466.249631	3087.689087
466.621358	3077.952098
466.993026	3062.206054
467.364634	3061.691856
467.736184	3063.463822
468.107674	3069.561098
468.479105	3108.851851
468.850477	3107.117694
469.221790	3117.862913
469.593043	3117.131946
469.964238	3135.879997
470.335373	3163.984430
470.706449	3200.865511
471.077467	3230.978844
471.448425	3426.971343
471.819324	3602.771502
472.190164	3634.011532
472.560945	3517.699510
472.931667	3461.568782
473.302330	3477.944971
473.672934	3469.921974
474.043479	3562.482600
474.413965	3594.624997
474.784393	3626.963999
475.154761	3694.056715
475.525070	3754.762290
475.895321	3772.557563
476.265513	3852.732074
476.635645	3934.706277
477.005719	4000.924353
477.375734	4072.654931
477.745691	4181.140562
478.115588	4275.112711
478.485427	4398.653747
478.855207	4601.388790
479.224928	4908.982354
479.594591	5151.096370
479.964194	5176.337428
480.333739	5220.238316
480.703226	5288.374551
481.072653	5400.250358
481.442022	5578.533284
481.811333	5718.364810
482.180584	5739.716617
482.549777	5734.370473
482.918912	5754.441827
483.287988	5853.586200
483.657005	5938.232214
484.025964	5910.863790
484.394864	6045.003853
484.763706	6123.202231
485.132489	6101.915959
485.501213	6179.096024
485.869879	6287.500997
486.238487	6322.650442
486.607036	6435.398368
486.975527	6438.690242
487.343959	6598.426763
487.712333	6717.534105
488.080648	6759.804180
488.448905	6875.130657
488.817104	6928.040087
489.185244	7152.177348
489.553326	7323.621950
489.921350	7705.953140
490.289315	8370.291517
490.657222	8647.726378
491.025070	8705.949184
491.392861	8725.244200
491.760593	8625.426834
492.128267	8528.069550
492.495883	8421.691122
492.863440	8307.140983
493.230939	8188.958693
493.598380	8229.923109
493.965763	8225.713745
494.333088	8221.650575
494.700354	8261.034590
495.067563	8356.690484
495.434713	8326.327614
495.801805	8484.602201
496.168839	8501.832865
496.535815	8535.051548
496.902733	8592.256041
497.269593	8621.063715
497.636395	8755.556658
498.003139	8816.673087
498.369825	8779.406357
498.736453	8964.431827
499.103023	8963.174059
499.469535	9047.928458
499.835989	9098.443340
500.202385	9132.884503
500.568723	9066.152229
500.935003	9289.215725
501.301226	9206.782778
501.667390	9450.235220
502.033497	9587.682280
502.399546	9521.207105
502.765537	9501.700360
503.131470	9611.894942
503.497345	9812.013626
503.863163	9518.371456
504.228923	9834.971041
504.594625	9932.550135
504.960269	9761.045040
505.325856	9991.372839
505.691385	9850.948978
506.056856	10027.646461
506.422270	10089.768600
506.787625	10026.769300
507.152924	10165.103603
507.518164	10184.244864
507.883347	10148.969390
508.248472	10105.723852
508.613540	10350.900369
508.978550	10271.345920
509.343503	10276.503021
509.708398	10414.411346
510.073236	10546.184587
510.438016	10582.140617
510.802738	10555.077182
511.167403	10627.130394
511.532010	10560.443491
511.896561	10794.098451
512.261053	10884.415763
512.625488	10781.951791
512.989866	10784.376586
513.354186	10792.404623
513.718449	10711.710873
514.082655	10920.076885
514.446803	10840.741727
514.810894	10966.949534
515.174927	10850.287152
515.538904	10891.009592
515.902822	11048.341483
516.266684	10955.475868
516.630488	10905.119782
516.994235	10969.981788
517.357925	11046.171267
517.721558	11128.989862
518.085133	11162.455562
518.448651	11178.131030
518.812112	11072.660009
519.175516	11096.774369
519.538863	11224.774306
519.902152	11149.363686
520.265385	11317.445837
520.628560	11227.793957
520.991678	11217.210055
521.354739	11282.218254
521.717743	11216.746269
522.080690	11210.636390
522.443580	11350.477998
522.806413	11305.246245
523.169189	11341.930722
523.531908	11399.014227
523.894569	11221.348842
524.257174	11232.572971
524.619722	11354.019408
524.982213	11301.616614
525.344647	11365.518280
525.707025	11312.986937
526.069345	11403.379866
526.431608	11322.907928
526.793815	11436.911101
527.155964	11225.727084
527.518057	11283.355034
527.880093	11230.160779
528.242072	11305.004270
528.603995	11206.389218
528.965860	11130.048505
529.327669	11196.372445
529.689421	11137.635441
530.051117	11117.443100
530.412755	11209.366019
530.774337	11110.559404
531.135862	11087.864129
531.497331	11118.189190
531.858743	10972.547735
532.220098	11134.099072
532.581396	10997.476241
532.942638	10992.989614
533.303824	10955.057452
533.664953	10967.572116
534.026025	10895.160983
534.387040	10983.476957
534.747999	10986.748666
535.108902	11047.429034
535.469748	10804.609257
535.830537	10909.417366
536.191270	10885.066072
536.551947	10905.646583
536.912567	10910.886862
537.273131	10842.906902
537.633638	10817.769189
537.994089	10804.364761
538.354483	10754.724519
538.714821	10900.461756
539.075103	10910.949876
539.435328	10873.030317
539.795497	10702.702332
540.155609	10864.909018
540.515665	10943.510689
540.875665	10685.350680
541.235609	10756.188974
541.595496	10754.187636
541.955328	10908.441902
542.315102	10787.512183
542.674821	10739.215409
543.034483	10740.732796
543.394090	10739.616181
543.753640	10674.290388
544.113134	10890.447504
544.472571	10754.059086
544.831953	10888.965404
545.191278	10700.242248
545.550548	10727.086393
545.909761	10868.705007
546.268918	10837.147384
546.628019	10923.053687
546.987064	10789.999993
547.346053	10700.403565
547.704986	10814.131996
548.063863	10790.176433
548.422684	10786.738366
548.781449	10708.671058
549.140158	10806.482045
549.498811	10680.372541
549.857408	10544.994875
550.215949	10765.709193
550.574434	10618.610844
550.932864	10715.743797
551.291237	10775.516758
551.649555	10725.548841
552.007817	10741.567107
552.366022	10701.487413
552.724173	10685.171719
553.082267	10680.942191
553.440305	10815.243571
553.798288	10616.382654
554.156215	10767.297156
554.514086	10751.563715
554.871902	10593.715106
555.229661	10629.532504
555.587365	10616.390216
555.945014	10502.613894
556.302606	10631.455704
556.660143	10522.985197
557.017625	10673.173773
557.375050	10575.289689
557.732421	10718.939888
558.089735	10629.101485
558.446994	10621.320464
558.804197	10661.279170
559.161345	10657.707513
559.518437	10514.868939
559.875474	10602.012845
560.232455	10628.259613
560.589381	10586.617161
560.946251	10574.006715
561.303065	10684.894456
561.659825	10627.127874
562.016528	10552.783457
562.373177	10423.850907
562.729770	10546.086284
563.086307	10456.240320
563.442789	10553.272449
563.799216	10430.885837
564.155587	10479.265790
564.511904	10436.587382
564.868164	10424.775958
565.224370	10432.236866
565.580520	10362.212718
565.936615	10371.344769
566.292654	10240.418442
566.648638	10374.553463
567.004567	10328.162245
567.360441	10310.190531
567.716260	10224.289270
568.072023	10317.671604
568.427732	10271.671075
568.783385	10175.551394
569.138982	10249.716850
569.494525	10262.342420
569.850013	10143.593000
570.205445	10222.993693
570.560823	10117.792374
570.916145	10035.419920
571.271412	10107.967165
571.626625	10046.530623
571.981782	10029.337768
572.336884	10000.588068
572.691931	10004.512606
573.046923	9957.650040
573.401860	9913.855016
573.756743	9847.601652
574.111570	9888.024144
574.466342	9869.918840
574.821059	9899.853211
575.175722	9797.968971
575.530330	9798.447881
575.884882	9797.265730
576.239380	9723.715296
576.593823	9701.756030
576.948211	9714.943688
577.302544	9601.918498
577.656823	9607.922513
578.011047	9612.038615
578.365216	9585.441487
578.719330	9514.653605
579.073389	9523.800778
579.427394	9477.676741
579.781344	9451.571126
580.135239	9395.881499
580.489080	9403.778467
580.842866	9308.447727
581.196597	9312.150455
581.550273	9357.445222
581.903895	9320.133122
582.257463	9387.518225
582.610975	9264.244370
582.964434	9291.007855
583.317837	9212.459117
583.671186	9195.538484
584.024481	9191.563534
584.377721	9114.237275
584.730906	9092.517464
585.084037	9119.167524
585.437113	9053.446001
585.790135	9078.185463
586.143103	8968.522723
586.496016	8951.166031
586.848874	9005.121500
587.201679	8999.089760
587.554428	8881.426708
587.907124	8928.140560
588.259765	8900.091580
588.612352	8900.494873
588.964884	8774.841592
589.317362	8794.156773
589.669786	8796.994943
590.022155	8841.455399
590.374470	8858.038275
590.726731	8790.358264
591.078937	8647.963312
591.431090	8762.120241
591.783188	8637.460068
592.135232	8629.094273
592.487222	8628.000343
592.839157	8674.752003
593.191038	8612.675235
593.542866	8554.611225
593.894639	8459.207388
594.246358	8507.002568
594.598022	8523.509826
594.949633	8428.438706
595.301190	8396.374447
595.652692	8427.107841
596.004141	8539.311323
596.355535	8318.133219
596.706876	8291.546173
597.058162	8229.255156
597.409395	8310.246333
597.760573	8373.069193
598.111698	8273.587063
598.462768	8262.806555
598.813785	8231.989982
599.164748	8205.445786
599.515657	8187.388373
599.866511	8097.489477
600.217312	8222.812561
600.568060	8086.512364
600.918753	8184.000718
601.269392	8154.535173
601.619978	8067.771875
601.970510	8131.824775
602.320988	8122.354968
602.671412	8185.283691
603.021783	8121.298846
603.372100	8092.962520
603.722363	8098.752286
604.072572	8071.071310
604.422728	8083.409534
604.772830	8013.846652
605.122878	8019.071808
605.472872	8013.486209
605.822813	8044.330509
606.172701	7985.911098
606.522534	8066.251967
606.872314	8065.432779
607.222041	8031.200824
607.571714	8085.791479
607.921333	8049.427116
608.270899	8054.420379
608.620411	8137.556567
608.969870	8050.410141
609.319276	8039.226341
609.668627	8059.897592
610.017926	8089.642921
610.367171	8136.132441
610.716362	8112.723843
611.065500	8110.004141
611.414585	8140.016650
611.763616	8120.928321
612.112594	8101.945857
612.461518	8121.250955
612.810389	8180.517280
613.159207	8119.662992
613.507971	8069.198521
613.856682	8186.798558
614.205340	8141.584449
614.553945	8221.673260
614.902496	8120.421685
615.250994	8169.451948
615.599439	8155.291347
615.947830	8175.692896
616.296169	8142.544789
616.644454	8150.275398
616.992686	8147.780027
617.340864	8214.756797
617.688990	8116.320707
618.037063	8204.245992
618.385082	8148.894122
618.733048	8237.477278
619.080961	8174.414964
619.428821	8198.844395
619.776628	8200.084519
620.124382	8149.098289
620.472083	8135.219992
620.819731	8159.886358
621.167326	8051.143629
621.514868	8058.375164
621.862357	7954.040923
622.209793	7962.683982
622.557176	7907.967298
622.904506	7870.834158
623.251783	7806.191443
623.599007	7766.704085
623.946179	7767.432531
624.293297	7724.035758
624.640363	7638.663818
624.987376	7622.166642
625.334336	7570.131852
625.681243	7523.004625
626.028097	7508.304621
626.374899	7486.161353
626.721647	7483.232442
627.068343	7409.787872
627.414987	7382.868110
627.761577	7333.628640
628.108115	7382.285857
628.454600	7266.556088
628.801032	7326.606313
629.147412	7280.104189
629.493739	7269.893332
629.840014	7208.398817
630.186236	7268.718743
630.532405	7143.307438
630.878521	7202.185595
631.224585	7158.100704
631.570597	7075.942499
631.916556	7112.206040
632.262462	7106.343178
632.608316	7069.769607
632.954117	7052.218829
633.299866	7035.368773
633.645562	7022.133223
633.991206	6951.357944
634.336797	6891.884931
634.682336	6853.486463
635.027823	6818.120248
635.373257	6810.369474
635.718639	6740.902374
636.063968	6752.577686
636.409245	6651.101780
636.754470	6646.577344
637.099642	6612.365553
637.444762	6552.297685
637.789829	6559.940074
638.134845	6501.981928
638.479808	6486.787891
638.824719	6490.979610
639.169577	6416.839360
639.514383	6439.690911
639.859137	6369.961671
640.203839	6373.644234
640.548489	6359.589497
640.893086	6339.109809
641.237632	6309.712321
641.582125	6330.048335
641.926566	6302.871475
642.270955	6312.749616
642.615292	6312.850439
642.959576	6326.688406
643.303809	6316.268341
643.647990	6326.257387
643.992118	6309.465304
644.336195	6257.513693
644.680219	6283.851201
645.024192	6275.336692
645.368112	6371.201795
645.711981	6387.719135
646.055797	6467.628985
646.399562	6425.482419
646.743274	6549.167128
647.086935	6602.648729
647.430544	6597.589932
647.774101	6622.384847
648.117606	6623.685464
648.461059	6616.116172
648.804460	6578.609987
649.147810	6488.998437
649.491108	6455.048786
649.834354	6434.707730
650.177548	6350.696901
650.520690	6266.045846
650.863781	6242.778400
651.206820	6260.984527
651.549807	6183.249935
651.892742	6127.961080
652.235626	6130.713550
652.578458	6116.825172
652.921238	6027.979876
653.263967	6065.365073
653.606644	6002.499364
653.949269	6008.357185
654.291843	5948.818637
654.634365	6000.003993
654.976836	5954.815090
655.319255	5952.050017
655.661622	5933.095278
656.003938	5926.209062
656.346203	5888.337394
656.688416	5921.241005
657.030577	5870.723603
657.372687	5841.873079
657.714746	5828.871943
658.056753	5869.919538
658.398708	5813.713194
658.740612	5804.243386
659.082465	5851.967990
659.424266	5840.756463
659.766016	5840.789231
660.107715	5821.204348
660.449362	5831.717675
660.790958	5829.242468
661.132503	5816.269059
661.473996	5850.190983
661.815438	5837.096586
662.156829	5833.512325
662.498168	5830.628785
662.839456	5803.532583
663.180693	5837.094065
663.521879	5839.070198
663.863013	5828.186346
664.204097	5848.144274
664.545129	5889.007868
664.886110	5881.695674
665.227040	5914.659779
665.567918	5882.892948
665.908746	5907.944962
666.249522	5913.281023
666.590248	5901.643520
666.930922	5928.913641
667.271545	5938.537204
667.612118	5946.386281
667.952639	5914.019552
668.293109	5932.775165
668.633528	5895.710082
668.973896	5902.497995
669.314213	5889.413680
669.654480	5873.188727
669.994695	5864.165061
670.334859	5856.404205
670.674973	5849.228123
671.015035	5849.586044
671.355047	5849.878431
671.695008	5838.538356
672.034918	5815.661600
672.374777	5821.476571
672.714585	5806.922759
673.054342	5806.527029
673.394049	5809.345034
673.733705	5838.243448
674.073310	5820.851468
674.412864	5781.394356
674.752368	5774.167862
675.091820	5777.694149
675.431223	5714.392381
675.770574	5712.580086
676.109875	5665.644423
676.449125	5671.653478
676.788324	5637.308097
677.127473	5585.575776
677.466571	5573.071194
677.805619	5570.127160
678.144616	5550.133944
678.483562	5532.348753
678.822458	5499.921531
679.161303	5494.048587
679.500098	5484.515765
679.838842	5468.820133
680.177535	5475.330783
680.516179	5486.600282
680.854771	5499.588815
681.193314	5578.641669
681.531805	5686.045973
681.870247	5838.056926
682.208638	5936.329179
682.546978	5945.143636
682.885268	5931.401451
683.223508	5844.310477
683.561697	5788.086488
683.899836	5757.506849
684.237925	5719.720880
684.575963	5680.251166
684.913951	5635.362212
685.251889	5701.325710
685.589776	5667.867572
685.927614	5642.649200
686.265401	5712.759047
686.603137	5696.128280
686.940824	5774.402276
687.278460	5795.670904
687.616046	5804.550897
687.953582	5870.017841
688.291068	5851.859605
688.628504	5918.675058
688.965889	5875.739551
689.303224	5820.843906
689.640510	5774.901350
689.977745	5702.177665
690.314930	5598.430719
690.652065	5548.346855
690.989150	5456.585252
691.326185	5378.638932
691.663170	5329.354091
692.000105	5249.051031
692.336990	5171.777704
692.673825	5142.743178
693.010610	5080.225309
693.347345	5009.119834
693.684030	4997.295808
694.020665	4952.555567
694.357251	4865.663719
694.693786	4871.272003
695.030272	4838.824616
695.366707	4807.899658
695.703093	4775.243063
696.039429	4796.005055
696.375716	4781.670534
696.711952	4751.728601
697.048139	4742.193258
697.384276	4720.344898
697.720363	4736.282506
698.056400	4740.433896
698.392388	4692.641237
698.728326	4672.164070
699.064214	4648.836130
699.400053	4644.364627
699.735842	4609.426910
700.071581	4585.446141
700.407270	4558.622162
700.742910	4545.179925
701.078501	4490.090196
701.414042	4486.165658
701.749533	4456.591728
702.084974	4392.518663
702.420366	4450.323054
702.755709	4387.011202
703.091002	4335.478007
703.426246	4385.551788
703.761440	4340.902289
704.096584	4303.897699
704.431679	4324.465607
704.766725	4305.427689
705.101721	4298.647337
705.436668	4325.632634
705.771565	4274.759830
706.106413	4304.590858
706.441212	4334.842822
706.775961	4343.001929
707.110661	4321.246830
707.445311	4350.528372
707.779913	4372.981671
708.114465	4387.419536
708.448967	4409.792177
708.783421	4470.207885
709.117825	4511.318495
709.452180	4516.783105
709.786485	4565.193306
710.120742	4645.022497
710.454949	4631.983553
710.789107	4692.858006
711.123216	4766.796610
711.457275	4757.500722
711.791286	4835.941076
712.125247	4853.229713
712.459159	4752.207511
712.793023	4827.179551
713.126837	4786.295793
713.460602	4783.021563
713.794318	4702.423596
714.127985	4710.600347
714.461602	4625.309065
714.795171	4598.049026
715.128691	4531.226011
715.462162	4475.271724
715.795584	4424.908077
716.128957	4407.286723
716.462281	4355.579608
716.795556	4332.823840
717.128782	4291.569557
717.461960	4226.379876
717.795088	4234.100403
718.128167	4190.305379
718.461198	4133.700783
718.794180	4132.740444
719.127113	4111.701188
719.459997	4087.909462
719.792833	4046.130900
720.125619	4036.270403
720.458357	4000.631966
720.791046	4004.397708
721.123686	3976.328563
721.456278	3937.304991
721.788821	3954.160089
722.121315	3927.414247
722.453761	3904.106473
722.786158	3914.594593
723.118506	3941.907565
723.450805	3890.936458
723.783056	3912.358842
724.115259	3928.079680
724.447412	3932.914146
724.779518	3925.924587
725.111574	3930.212088
725.443582	3962.057057
725.775542	3944.947381
726.107453	3994.592664
726.439315	3994.527129
726.771129	4010.724356
727.102895	4046.168709
727.434612	4094.924228
727.766281	4104.194910
728.097901	4104.036114
728.429473	4110.957618
728.760996	4119.242754
729.092471	4116.311323
729.423897	4096.875155
729.755276	4101.752471
730.086606	4103.955455
730.417887	4142.195128
730.749120	4203.125034
731.080305	4271.972072
731.411442	4294.342192
731.742530	4264.155763
732.073570	4271.021814
732.404562	4322.759176
732.735506	4316.069565
733.066401	4277.361065
733.397249	4216.017785
733.728048	4136.181031
734.058798	4052.336560
734.389501	3981.830983
734.720156	3918.506529
735.050762	3877.037997
735.381320	3870.542470
735.711831	3818.863082
736.042293	3789.405099
736.372707	3812.266732
736.703073	3783.922844
737.033391	3776.290538
737.363661	3794.325265
737.693883	3820.307372
738.024056	3828.035461
738.354182	3819.652022
738.684260	3882.878174
739.014290	3901.502717
739.344272	3902.223602
739.674207	3942.167184
740.004093	3950.530458
740.333931	3942.315898
740.663722	3942.323460
740.993464	3940.664920
741.323159	3915.864964
741.652806	3885.187022
741.982405	3860.906305
742.311956	3830.805575
742.641460	3822.006241
742.970915	3794.809216
743.300323	3753.958226
743.629683	3725.478227
743.958996	3708.519786
744.288260	3691.039585
744.617477	3652.245385
744.946647	3637.961276
745.275768	3613.698202
745.604842	3615.611320
745.933869	3562.986715
746.262847	3559.727609
746.591778	3595.928135
746.920662	3566.591140
747.249498	3537.173487
747.578286	3583.539500
747.907027	3597.684977
748.235720	3595.703804
748.564365	3619.059470
748.892963	3621.287660
749.221514	3598.519288
749.550017	3584.124273
749.878473	3577.681679
750.206881	3551.369376
750.535242	3546.996175
750.863555	3549.693193
751.191821	3542.444013
751.520039	3522.516332
751.848210	3502.185359
752.176334	3533.589227
752.504411	3541.450906
752.832440	3500.486490
753.160421	3482.960919
753.488356	3495.294102
753.816243	3505.696523
754.144082	3457.591312
754.471875	3447.937502
754.799620	3466.425934
755.127318	3457.445118
755.454969	3457.094758
755.782572	3465.601705
756.110129	3440.169084
756.437638	3431.072322
756.765100	3443.234106
757.092515	3453.356743
757.419882	3462.698001
757.747203	3432.844288
758.074477	3436.806635
758.401703	3453.913790
758.728882	3472.795432
759.056014	3480.578973
759.383099	3483.091989
759.710138	3479.318685
760.037129	3498.671675
760.364073	3526.755943
760.690970	3514.939478
761.017820	3488.869151
761.344623	3508.312881
761.671379	3552.526321
761.998088	3602.353086
762.324751	3731.033579
762.651366	3976.424345
762.977935	4449.697951
763.304456	4889.546185
763.630931	4975.487776
763.957359	4617.127273
764.283740	4275.820993
764.610074	4085.393927
764.936362	3891.846387
765.262602	3737.163622
765.588796	3624.163638
765.914943	3538.395967
766.241044	3449.933799
766.567097	3423.407248
766.893104	3377.104250
767.219064	3343.832634
767.544978	3317.359015
767.870845	3261.157711
768.196665	3244.342942
768.522438	3253.457349
768.848165	3246.306472
769.173846	3211.419167
769.499479	3194.223791
769.825066	3182.876154
770.150607	3163.225736
770.476101	3177.429187
770.801548	3175.455575
771.126949	3125.412041
771.452303	3109.973507
771.777611	3119.226545
772.102872	3122.147894
772.428087	3100.556632
772.753256	3087.389138
773.078378	3081.092737
773.403453	3043.480688
773.728482	3034.817465
774.053465	3056.501988
774.378401	3043.566388
774.703291	3011.844927
775.028135	3011.580267
775.352932	3006.062724
775.677683	2998.589213
776.002388	2994.062257
776.327046	2991.566886
776.651658	2983.743015
776.976224	2972.458392
777.300743	2973.262456
777.625216	2963.066723
777.949643	2957.161011
778.274024	2964.702577
778.598359	2949.861420
778.922647	2956.137657
779.246889	2953.654888
779.571086	2940.469750
779.895236	2936.207455
780.219339	2946.962757
780.543397	2956.006587
780.867409	2961.090590
781.191374	2951.303190
781.515294	2949.185905
781.839167	2950.390741
782.162995	2940.011005
782.486776	2950.267233
782.810511	2946.713219
783.134201	2934.006991
783.457844	2942.483691
783.781441	2933.548246
784.104993	2908.864236
784.428498	2911.911614
784.751958	2927.022473
785.075372	2921.089034
785.398739	2905.796694
785.722061	2920.912594
786.045337	2932.166970
786.368568	2918.538211
786.691752	2907.384658
787.014891	2956.750157
787.337983	2985.797285
787.661030	3015.572860
787.984031	3081.637182
788.306987	3123.791310
788.629897	3119.859210
788.952760	3103.074688
789.275579	3090.156732
789.598351	3026.247504
789.921078	2985.015906
790.243759	2977.048363
790.566395	2960.528502
790.888984	2933.949018
791.211529	2919.339754
791.534027	2907.482960
791.856480	2900.233781
792.178888	2886.993190
792.501249	2875.645553
792.823566	2874.228989
793.145836	2872.870398
793.468062	2867.894779
793.790241	2863.236753
794.112375	2872.457023
794.434464	2882.819115
794.756507	2888.712224
795.078505	2894.391084
795.400457	2904.997671
795.722364	2942.481171
796.044226	2967.568473
796.366042	2970.358752
796.687812	2959.361474
797.009538	2979.231182
797.331218	2964.102680
797.652852	2951.638427
797.974442	2935.726025
798.295986	2931.932556
798.617484	2925.535332
798.938938	2911.291552
799.260346	2891.734396
799.581709	2889.425547
799.903026	2883.885319
800.224299	2875.315358
800.545526	2868.585417
800.866708	2854.954137
801.187845	2842.318485
801.508936	2842.618434
801.829983	2850.694362
802.150984	2837.559636
802.471940	2824.359374
802.792851	2823.404076
803.113717	2826.055723
803.434538	2831.104438
803.755314	2821.586740
804.076045	2817.079948
804.396731	2817.551296
804.717372	2819.925680
805.037967	2810.039977
805.358518	2817.624393
805.679024	2830.370950
805.999485	2827.875579
806.319901	2832.518482
806.640272	2822.037923
806.960598	2827.989005
807.280879	2838.885459
807.601115	2844.264370
807.921306	2828.062102
808.241453	2826.784169
808.561554	2833.093173
808.881611	2835.245746
809.201623	2829.831547
809.521590	2830.527226
809.841513	2825.418017
810.161390	2829.670230
810.481223	2823.227635
810.801011	2814.332519
811.120755	2807.773978
811.440453	2814.493836
811.760107	2812.810091
812.079716	2813.712457
812.399281	2799.693009
812.718801	2790.192954
813.038276	2788.932666
813.357707	2794.445167
813.677093	2803.370530
813.996434	2797.474901
814.315731	2791.901905
814.634983	2788.105917
814.954191	2791.107924
815.273354	2803.569656
815.592473	2810.443269
815.911547	2814.153558
816.230577	2820.946513
816.549562	2829.660148
816.868502	2826.269972
817.187399	2838.809842
817.506250	2855.203674
817.825058	2846.719412
818.143821	2860.912781
818.462539	2877.064638
818.781213	2900.684964
819.099843	2937.344235
819.418429	2995.085611
819.736970	3054.296484
820.055466	3127.746095
820.373919	3233.890110
820.692327	3371.634598
821.010691	3536.245915
821.329011	3978.062720
821.647286	4868.393504
821.965517	6231.461010
822.283704	6959.501928
822.601847	6933.799605
822.919945	6309.026724
823.237999	5810.585158
823.556010	5239.800513
823.873976	4688.129404
824.191897	4286.183084
824.509775	3994.610308
824.827609	3728.515523
825.145398	3608.747789
825.463144	3598.302519
825.780845	3689.020603
826.098502	3791.686221
826.416116	4071.944128
826.733685	4381.612127
827.051210	4442.685706
827.368692	4329.574816
827.686129	4070.850198
828.003522	3746.025970
828.320872	3492.055160
828.638177	3296.566776
828.955439	3164.102897
829.272656	3083.285639
829.589830	3014.897346
829.906960	2969.045531
830.224046	2921.981319
830.541088	2889.312121
830.858086	2874.758310
831.175041	2856.491689
831.491952	2857.023531
831.808819	2870.317053
832.125642	2893.718090
832.442421	2937.603854
832.759157	3016.492871
833.075849	3195.133719
833.392497	3472.568580
833.709101	3671.217768
834.025662	3620.334882
834.342179	3464.283444
834.658653	3289.307514
834.975083	3141.221099
835.291469	3044.562016
835.607811	2962.396249
835.924110	2906.257960
836.240366	2853.219980
836.556578	2816.159938
836.872746	2793.928449
837.188871	2771.069337
837.504952	2750.478744
837.820990	2742.853999
838.136984	2731.745817
838.452935	2722.943962
838.768842	2721.255175
839.084706	2739.360479
839.400526	2820.714620
839.716303	2948.780093
840.032037	3026.401259
840.347727	3013.674866
840.663373	2954.605146
840.978977	2878.035060
841.294537	2807.032929
841.610054	2761.476021
841.925527	2737.732187
842.240957	2716.143445
842.556344	2696.157791
842.871687	2681.626665
843.186987	2670.480674
843.502244	2668.754079
843.817458	2660.335352
844.132629	2649.766573
844.447756	2641.262146
844.762840	2637.236785
845.077881	2637.156126
845.392879	2637.077988
845.707833	2634.842237
846.022745	2625.092645
846.337613	2628.525671
846.652438	2628.197996
846.967221	2625.692543
847.281960	2624.167593
847.596656	2621.528549
847.911309	2621.541152
848.225919	2619.328086
848.540485	2617.006634
848.855009	2618.342540
849.169490	2616.855400
849.483928	2617.861110
849.798323	2616.366408
850.112675	2610.909359
850.426984	2613.576129
850.741251	2613.563526
851.055474	2614.191150
851.369654	2616.497478
851.683792	2616.288270
851.997887	2614.677621
852.311938	2611.287445
852.625947	2614.201232
852.939914	2618.541666
853.253837	2617.198198
853.567718	2612.714092
853.881555	2611.156375
854.195350	2616.517642
854.509103	2615.295163
854.822812	2611.073196
855.136479	2613.737446
855.450103	2616.232817
855.763685	2616.431943
856.077224	2614.722992
856.390720	2608.240068
856.704173	2612.613269
857.017584	2616.205091
857.330953	2621.364712
857.644278	2623.507202
857.957561	2618.808847
858.270802	2615.942951
858.584000	2615.388424
858.897155	2618.645009
859.210268	2617.636779
859.523339	2614.468413
859.836367	2612.605707
860.149352	2612.913217
860.462295	2613.631582
860.775195	2610.082610
861.088054	2611.171499
861.400869	2608.726539
861.713642	2608.502208
862.026373	2608.497167
862.339062	2612.416664
862.651708	2617.442694
862.964312	2621.231121
863.276873	2615.801799
863.589392	2616.699124
863.901869	2623.562655
864.214303	2628.939046
864.526696	2631.573048
864.839045	2630.763943
865.151353	2635.890797
865.463619	2635.366517
865.775842	2634.055817
866.088023	2633.282000
866.400162	2632.886269
866.712258	2635.046403
867.024313	2630.539612
867.336325	2628.916360
867.648296	2631.414252
867.960224	2633.763430
868.272110	2633.700415
868.583954	2629.266721
868.895755	2630.022894
869.207515	2633.392905
869.519233	2641.602424
869.830909	2637.178812
870.142542	2633.728142
870.454134	2633.087915
870.765684	2639.137300
871.077191	2640.687455
871.388657	2644.606952
871.700081	2643.523104
872.011463	2644.009575
872.322803	2648.024854
872.634101	2648.798671
872.945357	2653.514671
873.256571	2661.073881
873.567744	2655.299239
873.878874	2655.039620
874.189963	2658.490289
874.501010	2659.770742
874.812015	2668.325581
875.122979	2666.281393
875.433900	2656.567089
875.744780	2655.720175
876.055618	2662.056906
876.366415	2667.758451
876.677169	2668.295334
876.987882	2663.007163
877.298554	2658.427275
877.609183	2672.625685
877.919771	2676.129287
878.230317	2684.994156
878.540822	2692.601257
878.851285	2707.956612
879.161707	2728.423696
879.472087	2769.708226
879.782425	2817.231183
880.092722	2927.945004
880.402977	3114.185391
880.713191	3371.561501
881.023363	3654.128256
881.333494	3844.015919
881.643583	4014.666538
881.953631	4011.500694
882.263637	3836.925536
882.573602	3619.359418
882.883526	3489.673215
883.193408	3377.598283
883.503248	3279.968777
883.813048	3168.302178
884.122806	3054.636762
884.432522	2971.780357
884.742197	2907.848444
885.051831	2868.482073
885.361424	2836.821107
885.670975	2803.257104
885.980485	2770.386261
886.289954	2754.141143
886.599382	2742.148237
886.908768	2729.938563
887.218113	2710.058773
887.527417	2696.104859
887.836680	2688.926256
888.145901	2684.164886
888.455082	2678.390244
888.764221	2665.444561
889.073319	2657.930721
889.382376	2655.024496
889.691392	2659.871566
890.000366	2658.591112
890.309300	2657.010711
890.618193	2658.575989
890.927044	2661.628408
891.235855	2660.289981
891.544625	2659.685043
891.853353	2660.292502
892.162041	2670.074861
892.470687	2688.202850
892.779293	2695.242822
893.087858	2707.800336
893.396381	2728.191803
893.704864	2771.104625
894.013306	2838.963597
894.321707	2932.280396
894.630068	2977.423929
894.938387	2997.391939
895.246665	2992.791886
895.554903	2949.674897
895.863100	2908.317271
896.171256	2850.656553
896.479371	2786.555762
896.787446	2750.413209
897.095480	2736.792012
897.403473	2729.840260
897.711425	2714.684031
898.019336	2693.526309
898.327207	2680.452076
898.635038	2681.848476
898.942827	2681.213290
899.250576	2669.003616
899.558284	2657.338386
899.865952	2651.286481
900.173579	2651.311686
900.481165	2650.263126
900.788711	2640.821045
901.096216	2632.593882
901.403681	2632.399798
901.711105	2633.503810
902.018489	2628.616412
902.325832	2631.363841
902.633135	2635.709315
902.940397	2650.351347
903.247619	2686.302335
903.554800	2753.977305
903.861941	2880.051522
904.169041	3001.757578
904.476101	3063.153791
904.783121	3056.791855
905.090100	2999.960407
905.397039	2926.992226
905.703938	2853.930783
906.010796	2792.053140
906.317614	2741.329050
906.624391	2706.330839
906.931129	2680.631037
907.237826	2658.359219
907.544483	2641.766262
907.851099	2626.627677
908.157675	2617.450256
908.464211	2608.522372
908.770707	2601.452154
909.077163	2600.698502
909.383578	2594.099631
909.689954	2594.533171
909.996289	2591.450505
910.302584	2591.987388
910.608839	2587.347006
910.915054	2588.516553
911.221229	2589.038313
911.527363	2592.375557
911.833458	2590.086873
912.139513	2589.892788
912.445527	2595.710280
912.751502	2598.397215
913.057436	2603.667741
913.363331	2611.126128
913.669186	2622.521657
913.975000	2633.178656
914.280775	2649.174237
914.586510	2669.848009
914.892205	2702.098791
915.197859	2768.372320
915.503475	2849.476923
915.809050	2917.542583
916.114585	2928.411310
916.420081	2939.746345
916.725536	2951.426698
917.030952	2927.881989
917.336328	2877.745194
917.641665	2833.541836
917.946961	2783.563837
918.252218	2748.071593
918.557435	2725.436812
918.862612	2703.517876
919.167750	2688.873324
919.472848	2672.504697
919.777906	2656.927532
920.082925	2640.405150
920.387904	2634.756537
920.692843	2629.118007
920.997743	2623.948303
921.302603	2616.731892
921.607423	2611.910028
921.912204	2605.953905
922.216946	2603.188832
922.521647	2601.482401
922.826310	2597.552822
923.130932	2594.296236
923.435516	2585.943044
923.740059	2586.933631
924.044564	2585.048240
924.349028	2583.069587
924.653454	2576.266550
924.957840	2572.788153
925.262186	2572.896538
925.566493	2573.985427
925.870761	2569.763461
926.174989	2568.145251
926.479178	2564.883624
926.783328	2563.136864
927.087438	2562.973027
927.391509	2562.748696
927.695541	2561.064950
927.999533	2559.965979
928.303486	2559.149312
928.607400	2558.544373
928.911275	2558.796431
929.215110	2557.364743
929.518906	2557.747871
929.822663	2558.042778
930.126381	2557.047151
930.430060	2561.241391
930.733699	2557.480690
931.037299	2560.205433
931.340861	2559.040927
931.644383	2563.482183
931.947866	2558.037737
932.251309	2560.001267
932.554714	2558.899775
932.858080	2558.665361
933.161407	2558.277192
933.464694	2559.592933
933.767943	2556.742161
934.071153	2556.603529
934.374323	2555.834753
934.677455	2557.334496
934.980548	2555.431461
935.283602	2554.665205
935.586617	2554.423230
935.889593	2555.633107
936.192530	2557.074877
936.495428	2556.613611
936.798287	2557.689898
937.101108	2556.212840
937.403890	2562.597461
937.706632	2564.240877
938.009336	2566.569890
938.312002	2570.128945
938.614628	2572.097515
938.917216	2576.626992
939.219765	2573.902248
939.522275	2579.041705
939.824747	2578.439287
940.127179	2573.299831
940.429573	2569.589541
940.731929	2570.101218
941.034246	2566.700960
941.336524	2569.438307
941.638763	2569.171126
941.940964	2567.439489
942.243126	2563.449416
942.545250	2565.105435
942.847335	2562.796587
943.149381	2563.640980
943.451389	2563.215002
943.753359	2562.121072
944.055290	2561.501010
944.357182	2556.810216
944.659036	2559.532439
944.960851	2560.850701
945.262628	2557.838612
945.564367	2560.633932
945.866067	2557.687377
946.167729	2557.949517
946.469352	2559.300546
946.770937	2559.850032
947.072484	2559.781977
947.373992	2558.496482
947.675462	2556.364074
947.976893	2555.522202
948.278286	2556.724517
948.579641	2555.504557
948.880958	2559.323232
949.182236	2557.001780
949.483476	2554.861810
949.784678	2555.512119
950.085841	2557.185782
950.386967	2553.954403
950.688054	2557.445402
950.989103	2559.436657
951.290114	2556.190154
951.591087	2558.950186
951.892021	2559.519837
952.192917	2562.405897
952.493776	2561.700136
952.794596	2564.470250
953.095378	2562.355486
953.396122	2564.530743
953.696828	2562.617626
953.997496	2560.747357
954.298126	2556.769887
954.598718	2559.212326
954.899272	2558.443550
955.199788	2557.410114
955.500266	2554.907181
955.800706	2550.586912
956.101108	2548.527601
956.401472	2548.525080
956.701798	2546.969884
957.002087	2545.364277
957.302337	2545.467620
957.602550	2547.806716
957.902724	2545.497867
958.202861	2546.763197
958.502960	2545.739842
958.803022	2547.511808
959.103045	2545.039122
959.403031	2542.233720
959.702979	2545.308824
960.002889	2544.318237
960.302762	2544.524924
960.602596	2543.983000
960.902393	2540.728936
961.202153	2544.434184
961.501875	2543.614996
961.801559	2542.546272
962.101205	2541.729605
962.400814	2541.404450
962.700385	2542.253885
962.999918	2541.684234
963.299414	2541.958977
963.598873	2541.061652
963.898293	2544.167003
964.197677	2541.467465
964.497022	2541.137269
964.796331	2542.793288
965.095601	2542.546272
965.394835	2540.769265
965.694030	2542.838658
965.993189	2541.333874
966.292309	2539.264480
966.591393	2542.309337
966.890439	2539.957639
967.189447	2541.306148
967.488419	2540.494522
967.787353	2543.771272
968.086249	2539.955118
968.385108	2542.513504
968.683930	2541.011240
968.982714	2540.804553
969.281462	2541.724563
969.580172	2541.432177
969.878844	2540.736497
970.177480	2540.063503
970.476078	2541.596014
970.774639	2544.792106
971.073162	2540.600386
971.371649	2539.584594
971.670098	2536.295241
971.968510	2540.292876
972.266885	2538.331867
972.565223	2544.726571
972.863524	2539.060314
973.161788	2541.381765
973.460014	2540.297917
973.758204	2542.274049
974.056356	2542.032074
974.354471	2542.831097
974.652550	2541.754810
974.950591	2544.847558
975.248595	2541.041487
975.546563	2538.369676
975.844493	2541.374203
976.142386	2543.279759
976.440243	2537.547968
976.738062	2541.485109
977.035845	2540.547454
977.333590	2539.488812
977.631299	2539.372865
977.928971	2539.577032
978.226606	2539.156096
978.524204	2541.346477
978.821765	2541.812784
979.119290	2538.702392
979.416777	2538.722556
979.714228	2541.538041
980.011642	2541.268339
980.309020	2541.711961
980.606360	2540.116435
980.903664	2540.431507
981.200931	2538.362114
981.498162	2542.236241
981.795356	2543.937630
982.092513	2546.743032
982.389633	2549.729916
982.686717	2550.551624
982.983764	2552.522715
983.280775	2555.310473
983.577749	2553.314176
983.874686	2554.503888
984.171587	2551.544731
984.468451	2549.747560
984.765279	2547.753783
985.062070	2545.311344
985.358824	2541.540561
985.655543	2541.795140
985.952224	2540.844882
986.248869	2539.418236
986.545478	2536.033101
986.842050	2537.525282
987.138586	2535.166022
987.435086	2537.399253
987.731549	2533.510003
988.027975	2538.783050
988.324366	2536.181815
988.620719	2537.820190
988.917037	2538.273894
989.213318	2535.665097
989.509563	2536.761547
989.805772	2536.542257
990.101944	2533.089067
990.398080	2538.679707
990.694180	2538.205838
990.990244	2538.026877
991.286271	2536.234747
991.582262	2538.994779
991.878217	2538.200797
992.174136	2535.428162
992.470019	2538.306661
992.765865	2536.738862
993.061676	2536.048224
993.357450	2536.932947
993.653188	2540.320602
993.948890	2539.703061
994.244556	2539.629964
994.540186	2540.703730
994.835780	2537.437062
995.131337	2537.918492
995.426859	2541.638864
995.722345	2537.356404
996.017795	2541.049049
996.313208	2538.878832
996.608586	2540.807073
996.903928	2539.529141
997.199234	2540.988555
997.494504	2541.727084
997.789738	2537.076620
998.084936	2540.139121
998.380099	2538.515869
998.675225	2539.148534
998.970316	2538.591486
999.265371	2538.024357
999.560390	2540.136600
999.855373	2540.149203
1000.150320	2536.660724
1000.445232	2536.753986
1000.740108	2534.238450
1001.034948	2539.914789
1001.329752	2536.171733
1001.624521	2537.583256
1001.919254	2534.064530
1002.213951	2535.891948
1002.508613	2530.054292
1002.803239	2536.181815
1003.097829	2532.279962
1003.392384	2536.529654
1003.686903	2536.711136
1003.981386	2537.658873
1004.275834	2537.265663
1004.570246	2536.227185
1004.864623	2536.638039
1005.158964	2537.263142
1005.453270	2535.942360
1005.747540	2537.875642
1006.041775	2533.265507
1006.335974	2538.145344
1006.630138	2535.561753
1006.924266	2536.174253
1007.218359	2535.728111
1007.512416	2538.228523
1007.806438	2535.793646
1008.100425	2535.309695
1008.394376	2536.040663
1008.688292	2537.109387
1008.982172	2534.563604
1009.276017	2533.996475
1009.569827	2534.503111
1009.863602	2536.822041
1010.157341	2536.960673
1010.451045	2535.483615
1010.744714	2533.013450
1011.038347	2534.732483
1011.331945	2532.637884
1011.625508	2537.084181
1011.919036	2535.052596
1012.212528	2533.878008
1012.505986	2536.612833
1012.799408	2536.098636
1013.092795	2536.184335
1013.386147	2534.717360
1013.679464	2534.084695
1013.972745	2538.089892
1014.265992	2533.323481
1014.559204	2533.623429
1014.852380	2534.092257
1015.145521	2534.278779
1015.438628	2534.712318
1015.731699	2535.823893
1016.024736	2535.080323
1016.317737	2538.604089
1016.610703	2536.391023
1016.903635	2531.382636
1017.196531	2530.162677
1017.489393	2533.840199
1017.782219	2530.878521
1018.075011	2531.886752
1018.367768	2536.696012
1018.660490	2537.893287
1018.953177	2537.893287
1019.245829	2537.893287
