Dividing Wavelength (nm)	Counts (n)	Blue Motor Position (mm): 49.000000	Red Motor Position (mm): 0.000000	
326.493990	2130.918416
326.888308	2130.918416
327.282561	2130.918416
327.676750	2098.967583
328.070874	2094.037334
328.464933	2099.285176
328.858929	2105.879005
329.252859	2112.639192
329.646726	2128.102932
330.040528	2139.077523
330.434265	2156.277940
330.827938	2173.909376
331.221547	2191.213137
331.615091	2208.915148
332.008571	2231.310474
332.401986	2249.652713
332.795338	2268.224323
333.188625	2285.772580
333.581847	2308.518266
333.975006	2323.319094
334.368100	2344.502022
334.761129	2359.718745
335.154095	2376.011754
335.546996	2396.602347
335.939833	2424.086718
336.332606	2439.913420
336.725315	2453.186778
337.117960	2461.119034
337.510540	2468.884932
337.903056	2481.634010
338.295508	2488.865545
338.687896	2497.813593
339.080220	2502.643018
339.472480	2513.864627
339.864676	2516.619617
340.256807	2522.217819
340.648875	2522.111954
341.040879	2525.418951
341.432818	2525.451719
341.824694	2530.495393
342.216506	2529.651000
342.608253	2531.274252
342.999937	2530.886083
343.391557	2528.393232
343.783113	2527.692512
344.174605	2532.126207
344.566033	2523.271420
344.957397	2521.655730
345.348697	2521.809485
345.739934	2519.170441
346.131106	2520.995339
346.522215	2519.170441
346.913260	2518.474762
347.304241	2517.322858
347.695159	2513.179030
348.086012	2512.319513
348.476802	2510.441683
348.867528	2509.239368
349.258191	2508.170643
349.648789	2504.120076
350.039324	2502.068327
350.429796	2504.334325
350.820203	2500.903820
351.210548	2502.484222
351.600828	2498.700836
351.991045	2499.522544
352.381198	2500.016577
352.771288	2496.732265
353.161314	2499.212513
353.551276	2499.235198
353.941175	2496.321411
354.331010	2499.134375
354.720782	2497.463233
355.110490	2497.909375
355.500135	2499.278048
355.889717	2499.457009
356.279235	2497.375013
356.668689	2501.042452
357.058080	2502.237205
357.447408	2494.642707
357.836672	2496.409632
358.225873	2498.300064
358.615010	2498.267297
359.004084	2502.322905
359.393095	2502.438852
359.782043	2505.319871
360.170927	2502.834582
360.559748	2503.124448
360.948505	2504.306599
361.337199	2507.487567
361.725830	2507.795078
362.114398	2509.496467
362.502903	2506.907834
362.891344	2508.400016
363.279722	2507.956394
363.668037	2511.402023
364.056289	2509.635099
364.444478	2510.915552
364.832603	2511.709533
365.220665	2513.594925
365.608665	2511.510408
365.996601	2511.099554
366.384474	2512.284225
366.772284	2515.298835
367.160031	2513.398320
367.547715	2516.725482
367.935336	2515.560975
368.322893	2517.930317
368.710388	2521.204547
369.097820	2527.427851
369.485189	2527.130423
369.872495	2531.748120
370.259738	2535.965045
370.646918	2538.248688
371.034035	2544.603062
371.421090	2551.948023
371.808081	2563.298181
372.195010	2571.782443
372.581875	2583.626634
372.968678	2592.418407
373.355418	2600.736310
373.742096	2617.178034
374.128710	2631.936012
374.515262	2643.999493
374.901751	2659.269148
375.288177	2673.941426
375.674540	2694.174097
376.060841	2710.991386
376.447079	2730.304047
376.833254	2749.289032
377.219367	2764.692277
377.605417	2802.442958
377.991404	2808.754483
378.377329	2829.975220
378.763191	2848.899711
379.148991	2889.178531
379.534727	2912.491347
379.920402	2942.992848
380.306013	2957.952472
380.691563	3005.447703
381.077049	3029.652803
381.462474	3051.745660
381.847835	3086.640527
382.233134	3111.322016
382.618371	3117.126905
383.003545	3184.960671
383.388657	3191.879654
383.773706	3226.335941
384.158693	3245.091554
384.543618	3275.187242
384.928480	3309.822490
385.313280	3359.142618
385.698017	3357.295036
386.082692	3414.812080
386.467305	3418.350970
386.851856	3451.173923
387.236344	3477.778612
387.620770	3507.471009
388.005133	3535.106614
388.389435	3559.886406
388.773674	3575.032552
389.157851	3618.260447
389.541965	3635.163436
389.926018	3599.698918
390.310008	3668.089732
390.693936	3688.645037
391.077802	3730.935276
391.461606	3720.984039
391.845348	3782.438225
392.229027	3785.364614
392.612645	3794.491623
392.996200	3872.248901
393.379694	3913.815735
393.763125	3976.376454
394.146494	3943.596351
394.529801	4006.257894
394.913047	4054.211870
395.296230	4022.883619
395.679351	4073.925302
396.062410	4096.055967
396.445408	4082.273453
396.828343	4114.864512
397.211217	4139.513234
397.594028	4057.286973
397.976778	4126.696100
398.359466	4151.556550
398.742092	4177.894059
399.124656	4102.380095
399.507158	4183.330943
399.889598	4207.319274
400.271977	4267.208181
400.654294	4240.895879
401.036549	4247.739245
401.418742	4220.577508
401.800874	4321.481244
402.182944	4340.746013
402.564952	4405.817227
402.946898	4394.920773
403.328783	4388.652098
403.710606	4301.425013
404.092367	4496.507585
404.474067	4460.808654
404.855705	4467.102534
405.237282	4395.195516
405.618797	4507.812372
406.000250	4537.701373
406.381642	4618.538796
406.762972	4578.885080
407.144240	4594.953757
407.525447	4594.958799
407.906593	4647.525430
408.287677	4694.100651
408.668700	4622.715392
409.049661	4673.835212
409.430560	4716.720308
409.811399	4641.521416
410.192176	4805.144667
410.572891	4739.891972
410.953545	4845.741079
411.334138	4724.740784
411.714669	4794.096978
412.095139	4692.734498
412.475547	4829.090148
412.855894	4809.923681
413.236180	4821.157892
413.616405	4777.889669
413.996568	4861.073748
414.376670	4806.213392
414.756711	4756.908387
415.136691	4788.987769
415.516609	4868.756467
415.896466	4904.374739
416.276262	4936.554945
416.655997	4922.291000
417.035670	5103.815388
417.415283	5190.205642
417.794834	5136.194720
418.174324	5087.434159
418.553753	4999.828988
418.933121	5178.497562
419.312428	5252.531947
419.691674	5193.479871
420.070859	5313.610567
420.449983	5222.048090
420.829045	5341.528478
421.208047	5251.216206
421.586988	5318.175332
421.965867	5330.518598
422.344686	5467.839628
422.723444	5324.005427
423.102141	5139.935256
423.480777	5437.507006
423.859352	5210.413107
424.237866	5465.208146
424.616319	5454.162978
424.994712	5563.399741
425.373044	5439.730154
425.751314	5584.852371
426.129524	5388.698554
426.507673	5586.145427
426.885762	5669.027037
427.263789	5597.467858
427.641756	5478.801617
428.019662	5599.915338
428.397508	5605.445484
428.775292	5553.733328
429.153016	5652.156816
429.530679	5577.431792
429.908282	5664.051418
430.285824	5536.008631
430.663305	5807.131967
431.040726	5543.068767
431.418086	5547.862904
431.795385	5654.127907
432.172624	5662.914638
432.549802	5658.087733
432.926920	5667.260113
433.303977	5677.680178
433.680974	5716.406322
434.057910	5736.583540
434.434786	5742.338017
434.811601	5707.110434
435.188355	5942.101300
435.565050	5815.873328
435.941683	5799.895391
436.318257	6011.311301
436.694770	5995.310679
437.071222	6032.214445
437.447614	5962.984280
437.823946	5879.679212
438.200218	6027.266553
438.576429	5893.144134
438.952580	5990.897148
439.328670	6033.681421
439.704700	5947.202948
440.080670	5931.376245
440.456580	6204.105189
440.832429	6088.312405
441.208218	5930.902377
441.583947	6087.893990
441.959616	6091.470688
442.335224	6017.068299
442.710773	6155.521068
443.086261	6184.623650
443.461689	5974.215970
443.837057	6126.090812
444.212365	6283.926819
444.587612	6172.817267
444.962800	6329.332491
445.337927	6305.563451
445.712995	5918.160860
446.088002	6497.954046
446.462949	6325.491132
446.837837	6259.152068
447.212664	6428.005516
447.587431	6571.282670
447.962139	7116.125537
448.336786	8049.119605
448.711374	7780.751260
449.085901	6853.178952
449.460369	6774.685666
449.834776	6705.947013
450.209124	7107.116995
450.583412	7250.779797
450.957640	7402.848723
451.331808	7164.535737
451.705917	6712.001439
452.079965	6639.028216
452.453954	6849.125864
452.827883	6726.386371
453.201752	6817.880793
453.575562	6621.227902
453.949311	6823.622667
454.323001	6713.123095
454.696632	6783.603467
455.070202	6927.208296
455.443713	7078.579023
455.817164	7183.190527
456.190556	7267.536592
456.563888	7339.425967
456.937160	7382.401803
457.310373	7038.085955
457.683526	7063.543782
458.056619	6952.587985
458.429653	6941.638599
458.802628	6874.109823
459.175542	6987.722307
459.548398	7341.462593
459.921194	7500.657190
460.293930	7501.655339
460.666607	8031.213427
461.039224	8338.438986
461.411782	8468.455385
461.784280	8482.651274
462.156719	8378.647229
462.529099	8256.046368
462.901419	7844.136208
463.273680	7737.762820
463.645882	7748.089624
464.018024	7614.940148
464.390106	7786.041951
464.762130	8175.216507
465.134094	8641.072055
465.505999	9662.276233
465.877845	10893.515046
466.249631	11540.174097
466.621358	11154.404840
466.993026	10523.930413
467.364634	10268.510271
467.736184	9898.693746
468.107674	9575.265918
468.479105	9599.483621
468.850477	9367.109114
469.221790	9135.263928
469.593043	8804.680182
469.964238	8668.377464
470.335373	8681.260133
470.706449	8737.559739
471.077467	8725.720589
471.448425	10029.962871
471.819324	11105.651841
472.190164	11129.622527
472.560945	9874.102997
472.931667	9091.569727
473.302330	8954.480589
473.672934	8601.546888
474.043479	8961.863359
474.413965	8895.690653
474.784393	8778.894680
475.154761	8937.635574
475.525070	9023.501547
475.895321	8857.856793
476.265513	9025.848204
476.635645	9201.401346
477.005719	9202.041572
477.375734	9313.395620
477.745691	9553.379748
478.115588	9682.496301
478.485427	9924.214587
478.855207	10466.088214
479.224928	11287.269490
479.594591	11917.224678
479.964194	11723.384751
480.333739	11660.418219
480.703226	11586.565315
481.072653	11670.724858
481.442022	11904.266392
481.811333	12093.352511
482.180584	11897.191132
482.549777	11608.980805
482.918912	11425.412229
483.287988	11460.165944
483.657005	11464.685338
484.025964	11150.954170
484.394864	11281.000816
484.763706	11248.505538
485.132489	10998.653350
485.501213	10971.380708
485.869879	11045.510875
486.238487	10885.043387
486.607036	10996.185706
486.975527	10775.020204
487.343959	10964.108844
487.712333	11015.763027
488.080648	10942.331059
488.448905	10992.046918
488.817104	10933.597260
489.185244	11197.768845
489.553326	11353.411949
489.921350	11894.612582
490.289315	12951.175414
490.657222	13300.605513
491.025070	13201.428373
491.392861	13079.024117
491.760593	12695.861136
492.128267	12345.868948
492.495883	12018.637570
492.863440	11682.112824
493.230939	11342.492810
493.598380	11273.741554
493.965763	11143.125258
494.333088	11043.320494
494.700354	10964.043309
495.067563	11029.517815
495.434713	10859.356187
495.801805	10985.523665
496.168839	10910.337376
496.535815	10846.833961
496.902733	10848.321102
497.269593	10775.363002
497.636395	10878.769671
498.003139	10865.047650
498.369825	10727.986239
498.736453	10894.626620
499.103023	10815.021760
499.469535	10845.573673
499.835989	10836.507158
500.202385	10799.346292
500.568723	10650.133179
500.935003	10870.726510
501.301226	10684.009733
501.667390	10939.460122
502.033497	11037.744978
502.399546	10890.565971
502.765537	10797.672629
503.131470	10868.662157
503.497345	11048.709487
503.863163	10660.462503
504.228923	10972.567900
504.594625	11029.848010
504.960269	10779.542119
505.325856	11001.952786
505.691385	10789.868923
506.056856	10951.125352
506.422270	10975.030503
506.787625	10863.527742
507.152924	10980.295989
507.518164	10958.911414
507.883347	10871.918743
508.248472	10799.666405
508.613540	11040.016018
508.978550	10916.578325
509.343503	10892.214428
509.708398	11015.692450
510.073236	11122.660694
510.438016	11126.799481
510.802738	11077.365927
511.167403	11133.703341
511.532010	11027.062773
511.896561	11259.180181
512.261053	11333.126346
512.625488	11199.157683
512.989866	11181.392657
513.354186	11171.554845
513.718449	11070.041130
514.082655	11265.090934
514.446803	11162.871457
514.810894	11281.822524
515.174927	11153.142031
515.538904	11176.064157
515.902822	11323.775006
516.266684	11201.847138
516.630488	11153.499953
516.994235	11210.885927
517.357925	11267.167889
517.721558	11357.860768
518.085133	11374.224353
518.448651	11389.443597
518.812112	11264.029771
519.175516	11277.013263
519.538863	11399.972046
519.902152	11316.866105
520.265385	11479.186217
520.628560	11391.989379
520.991678	11364.694052
521.354739	11429.205697
521.717743	11367.421316
522.080690	11347.924653
522.443580	11488.464461
522.806413	11440.946545
523.169189	11467.394958
523.531908	11521.940243
523.894569	11341.371153
524.257174	11349.893224
524.619722	11466.220370
524.982213	11414.384705
525.344647	11466.253137
525.707025	11420.277814
526.069345	11520.266580
526.431608	11426.296952
526.793815	11539.654858
527.155964	11328.115439
527.518057	11381.042514
527.880093	11323.086888
528.242072	11397.653116
528.603995	11301.987139
528.965860	11225.870757
529.327669	11272.773652
529.689421	11218.732483
530.051117	11193.914883
530.412755	11298.027313
530.774337	11185.055055
531.135862	11166.019658
531.497331	11186.040601
531.858743	11047.111442
532.220098	11209.587830
532.581396	11078.873232
532.942638	11061.579553
533.303824	11020.587411
533.664953	11044.928622
534.026025	10958.215735
534.387040	11055.154603
534.747999	11058.161651
535.108902	11113.568973
535.469748	10871.097035
535.830537	10974.183590
536.191270	10946.159815
536.551947	10976.517644
536.912567	10981.349590
537.273131	10899.055274
537.633638	10881.602799
537.994089	10869.070491
538.354483	10822.593573
538.714821	10964.033226
539.075103	10979.297840
539.435328	10936.135481
539.795497	10771.677919
540.155609	10921.017061
540.515665	11008.375216
540.875665	10747.563560
541.235609	10811.956738
541.595496	10812.642335
541.955328	10964.060953
542.315102	10849.369662
542.674821	10802.996087
543.034483	10799.628597
543.394090	10803.822837
543.753640	10730.532021
544.113134	10952.806577
544.472571	10804.301746
544.831953	10945.819537
545.191278	10759.627041
545.550548	10789.354725
545.909761	10921.006978
546.268918	10894.823225
546.628019	10981.082409
546.987064	10838.483290
547.346053	10766.800603
547.704986	10869.483865
548.063863	10852.938798
548.422684	10841.928918
548.781449	10760.244582
549.140158	10865.718123
549.498811	10743.132385
549.857408	10597.448080
550.215949	10815.263735
550.574434	10678.270379
550.932864	10782.367686
551.291237	10838.495893
551.649555	10781.881214
552.007817	10792.528131
552.366022	10759.410271
552.724173	10757.217369
553.082267	10741.693136
553.440305	10874.041068
553.798288	10671.900882
554.156215	10830.886271
554.514086	10804.485748
554.871902	10657.034519
555.229661	10687.752790
555.587365	10670.597743
555.945014	10563.201002
556.302606	10686.716833
556.660143	10581.399567
557.017625	10734.648123
557.375050	10632.937803
557.732421	10764.262382
558.089735	10678.149392
558.446994	10672.120172
558.804197	10718.955012
559.161345	10715.524506
559.518437	10563.808461
559.875474	10659.829839
560.232455	10680.364979
560.589381	10632.905036
560.946251	10631.385128
561.303065	10738.751623
561.659825	10674.744092
562.016528	10605.866807
562.373177	10486.126801
562.729770	10604.707342
563.086307	10520.389003
563.442789	10618.101688
563.799216	10488.838941
564.155587	10533.347289
564.511904	10492.435805
564.868164	10484.644701
565.224370	10493.045784
565.580520	10424.254199
565.936615	10424.513818
566.292654	10295.409868
566.648638	10431.642010
567.004567	10377.608402
567.360441	10370.114727
567.716260	10273.909347
568.072023	10369.600529
568.427732	10324.250309
568.783385	10235.223533
569.138982	10308.005191
569.494525	10320.771913
569.850013	10191.846924
570.205445	10277.417990
570.560823	10171.611733
570.916145	10091.669115
571.271412	10154.630606
571.626625	10101.723696
571.981782	10083.257950
572.336884	10052.590090
572.691931	10059.793899
573.046923	10006.919757
573.401860	9957.836563
573.756743	9895.774918
574.111570	9939.580024
574.466342	9921.769628
574.821059	9960.218508
575.175722	9841.990847
575.530330	9857.184885
575.884882	9852.090799
576.239380	9769.317573
576.593823	9749.828473
576.948211	9770.887893
577.302544	9651.979677
577.656823	9662.709772
578.011047	9661.751953
578.365216	9637.756061
578.719330	9560.946520
579.073389	9572.435310
579.427394	9521.476806
579.781344	9498.922684
580.135239	9446.373696
580.489080	9452.629768
580.842866	9353.281229
581.196597	9362.728351
581.550273	9400.693281
581.903895	9373.032470
582.257463	9437.894476
582.610975	9316.170775
582.964434	9340.852264
583.317837	9264.191438
583.671186	9248.752904
584.024481	9237.773271
584.377721	9161.339296
584.730906	9135.644535
585.084037	9169.692488
585.437113	9100.419473
585.790135	9122.134243
586.143103	9022.266464
586.496016	8996.788473
586.848874	9053.304849
587.201679	9040.497797
587.554428	8925.541846
587.907124	8978.332809
588.259765	8945.119167
588.612352	8942.641439
588.964884	8818.513108
589.317362	8840.648815
589.669786	8838.644956
590.022155	8886.407368
590.374470	8905.866222
590.726731	8844.505297
591.078937	8690.490486
591.431090	8806.767220
591.783188	8674.235285
592.135232	8663.537957
592.487222	8663.333790
592.839157	8721.791010
593.191038	8653.672419
593.542866	8591.598171
593.894639	8496.766505
594.246358	8549.287767
594.598022	8570.185870
594.949633	8463.615878
595.301190	8438.750386
595.652692	8469.133420
596.004141	8584.475020
596.355535	8358.263324
596.706876	8337.150972
597.058162	8272.122607
597.409395	8349.121191
597.760573	8407.429697
598.111698	8320.827715
598.462768	8300.983213
598.813785	8266.854602
599.164748	8240.421312
599.515657	8227.364723
599.866511	8140.911455
600.217312	8265.271679
600.568060	8124.144577
600.918753	8226.517809
601.269392	8196.573355
601.619978	8108.738811
601.970510	8166.535640
602.320988	8169.111670
602.671412	8223.523364
603.021783	8159.087335
603.372100	8130.319991
603.722363	8136.011454
604.072572	8115.335161
604.422728	8125.644321
604.772830	8058.755771
605.122878	8061.684681
605.472872	8062.534116
605.822813	8084.082528
606.172701	8024.760750
606.522534	8099.987368
606.872314	8103.886701
607.222041	8075.008451
607.571714	8126.460988
607.921333	8080.251251
608.270899	8092.793642
608.620411	8183.761263
608.969870	8087.389525
609.319276	8082.507167
609.668627	8093.731296
610.017926	8136.807956
610.367171	8180.353443
610.716362	8155.389649
611.065500	8147.477558
611.414585	8175.730705
611.763616	8162.429620
612.112594	8140.835838
612.461518	8153.794124
612.810389	8223.510761
613.159207	8158.426944
613.507971	8099.435362
613.856682	8224.917243
614.205340	8182.637086
614.553945	8261.395032
614.902496	8159.528436
615.250994	8209.577012
615.599439	8196.167542
615.947830	8209.700520
616.296169	8178.407558
616.644454	8196.694343
616.992686	8190.471039
617.340864	8250.463290
617.688990	8149.998135
618.037063	8248.797189
618.385082	8193.689815
618.733048	8281.347919
619.080961	8216.737971
619.428821	8230.941422
619.776628	8234.036690
620.124382	8196.878345
620.472083	8175.392947
620.819731	8203.507462
621.167326	8092.080318
621.514868	8103.911907
621.862357	7988.381263
622.209793	8003.096391
622.557176	7945.584388
622.904506	7916.517095
623.251783	7845.532607
623.599007	7801.132645
623.946179	7805.329405
624.293297	7761.599916
624.640363	7679.146804
624.987376	7658.231057
625.334336	7609.515867
625.681243	7558.070892
626.028097	7545.024385
626.374899	7517.401383
626.721647	7514.648913
627.068343	7442.409178
627.414987	7417.538646
627.761577	7375.896194
628.108115	7407.536997
628.454600	7303.401882
628.801032	7360.641663
629.147412	7314.797410
629.493739	7306.275339
629.840014	7238.388641
630.186236	7298.038094
630.532405	7178.640886
630.878521	7234.128866
631.224585	7191.395005
631.570597	7112.543797
631.916556	7146.337172
632.262462	7148.860269
632.608316	7102.453927
632.954117	7082.717810
633.299866	7070.271201
633.645562	7059.301651
633.991206	6982.328272
634.336797	6921.375681
634.682336	6880.249948
635.027823	6848.510844
635.373257	6841.687642
635.718639	6768.815243
636.063968	6790.812317
636.409245	6676.756212
636.754470	6674.575913
637.099642	6637.339430
637.444762	6578.171407
637.789829	6589.748417
638.134845	6528.382451
638.479808	6513.256469
638.824719	6515.819896
639.169577	6448.868331
639.514383	6465.763758
639.859137	6391.373972
640.203839	6403.462659
640.548489	6390.519496
640.893086	6362.049580
641.237632	6333.554458
641.582125	6356.370720
641.926566	6326.169167
642.270955	6342.482341
642.615292	6332.939437
642.959576	6347.712538
643.303809	6344.650037
643.647990	6343.790521
643.992118	6340.743143
644.336195	6284.614936
644.680219	6312.154760
645.024192	6299.012472
645.368112	6396.664663
645.711981	6418.263486
646.055797	6493.485063
646.399562	6453.100380
646.743274	6577.495892
647.086935	6635.660725
647.430544	6629.313913
647.774101	6645.102807
648.117606	6655.326267
648.461059	6647.270503
648.804460	6612.166428
649.147810	6519.840216
649.491108	6480.788917
649.834354	6463.404498
650.177548	6375.683380
650.520690	6291.932171
650.863781	6275.389625
651.206820	6290.167767
651.549807	6210.598195
651.892742	6154.643908
652.235626	6157.439228
652.578458	6142.993801
652.921238	6051.264966
653.263967	6092.065544
653.606644	6031.967429
653.949269	6035.586977
654.291843	5974.818388
654.634365	6025.408888
654.976836	5976.716383
655.319255	5978.742927
655.661622	5955.578825
656.003938	5950.376354
656.346203	5911.430920
656.688416	5941.629952
657.030577	5897.965998
657.372687	5866.332758
657.714746	5850.712742
658.056753	5899.526235
658.398708	5838.261092
658.740612	5824.929761
659.082465	5870.463983
659.424266	5869.516246
659.766016	5866.481472
660.107715	5845.522874
660.449362	5855.511921
660.790958	5851.322722
661.132503	5841.164797
661.473996	5878.408842
661.815438	5862.791347
662.156829	5857.563670
662.498168	5847.919943
662.839456	5826.547971
663.180693	5859.020564
663.521879	5861.974680
663.863013	5851.995716
664.204097	5870.942893
664.545129	5910.573924
664.886110	5907.168624
665.227040	5942.184479
665.567918	5907.826495
665.908746	5939.464776
666.249522	5938.769097
666.590248	5923.476757
666.930922	5956.314833
667.271545	5971.526515
667.612118	5973.104396
667.952639	5947.397032
668.293109	5967.032326
668.633528	5923.635553
668.973896	5927.227375
669.314213	5916.222537
669.654480	5897.413992
669.994695	5892.912241
670.334859	5881.078132
670.674973	5873.423140
671.015035	5877.385487
671.355047	5880.314398
671.695008	5863.693713
672.034918	5842.775446
672.374777	5850.120407
672.714585	5832.887222
673.054342	5835.201112
673.394049	5828.186346
673.733705	5865.183374
674.073310	5849.792732
674.412864	5811.984078
674.752368	5799.550072
675.091820	5802.229445
675.431223	5741.269292
675.770574	5741.065126
676.109875	5696.508887
676.449125	5698.308579
676.788324	5667.789434
677.127473	5607.187203
677.466571	5601.135298
677.805619	5590.022074
678.144616	5573.338375
678.483562	5556.919337
678.822458	5518.725035
679.161303	5519.236712
679.500098	5505.824722
679.838842	5491.457434
680.177535	5498.164689
680.516179	5507.483262
680.854771	5524.051014
681.193314	5599.675884
681.531805	5711.705446
681.870247	5864.550710
682.208638	5966.071986
682.546978	5973.545497
682.885268	5954.542868
683.223508	5870.511874
683.561697	5814.928112
683.899836	5784.794615
684.237925	5741.957410
684.575963	5702.807809
684.913951	5663.701058
685.251889	5725.477878
685.589776	5692.417991
685.927614	5668.948899
686.265401	5738.259723
686.603137	5720.237598
686.940824	5798.599814
687.278460	5824.090409
687.616046	5833.164486
687.953582	5902.681997
688.291068	5883.200458
688.628504	5944.581548
688.965889	5906.709879
689.303224	5853.112332
689.640510	5800.825484
689.977745	5727.186829
690.314930	5631.692252
690.652065	5572.612449
690.989150	5479.212471
691.326185	5403.932921
691.663170	5350.731104
692.000105	5272.658754
692.336990	5197.969019
692.673825	5170.172097
693.010610	5102.323207
693.347345	5033.385428
693.684030	5016.737018
694.020665	4974.209844
694.357251	4885.535947
694.693786	4895.197319
695.030272	4861.829922
695.366707	4828.157534
695.703093	4793.655877
696.039429	4817.893745
696.375716	4798.427330
696.711952	4772.755254
697.048139	4757.793109
697.384276	4739.045058
697.720363	4751.552161
698.056400	4762.630096
698.392388	4707.767219
698.728326	4686.972459
699.064214	4667.962268
699.400053	4663.105116
699.735842	4628.159838
700.071581	4604.050520
700.407270	4575.623453
700.742910	4558.932193
701.078501	4502.302391
701.414042	4501.158049
701.749533	4475.826251
702.084974	4406.132299
702.420366	4465.522133
702.755709	4404.199017
703.091002	4353.966439
703.426246	4399.936721
703.761440	4354.828476
704.096584	4314.078309
704.431679	4342.359182
704.766725	4324.853776
705.101721	4314.194256
705.436668	4342.512938
705.771565	4291.340185
706.106413	4313.082681
706.441212	4353.550544
706.775961	4359.516749
707.110661	4336.725693
707.445311	4371.335735
707.779913	4387.535482
708.114465	4400.581989
708.448967	4425.444959
708.783421	4489.523066
709.117825	4528.491185
709.452180	4534.109551
709.786485	4578.431376
710.120742	4666.326414
710.454949	4649.597345
710.789107	4713.403229
711.123216	4789.512049
711.457275	4785.171616
711.791286	4862.165158
712.125247	4871.579513
712.459159	4776.518475
712.793023	4850.454558
713.126837	4810.460564
713.460602	4805.210202
713.794318	4726.260692
714.127985	4729.595415
714.461602	4645.871932
714.795171	4617.681800
715.128691	4550.740318
715.462162	4491.214373
715.795584	4441.112866
716.128957	4428.744395
716.462281	4375.504769
716.795556	4350.588866
717.128782	4306.367864
717.461960	4240.573245
717.795088	4248.906272
718.128167	4210.573338
718.461198	4152.186695
718.794180	4147.077485
719.127113	4126.393631
719.459997	4104.479735
719.792833	4059.835277
720.125619	4047.638205
720.458357	4016.856920
720.791046	4020.478989
721.123686	3990.819360
721.456278	3953.061118
721.788821	3965.716934
722.121315	3942.809931
722.453761	3914.183739
722.786158	3924.694545
723.118506	3951.153041
723.450805	3904.983633
723.783056	3927.583126
724.115259	3942.086526
724.447412	3947.135241
724.779518	3940.266669
725.111574	3945.088533
725.443582	3974.080209
725.775542	3958.848362
726.107453	4012.201414
726.439315	4011.157895
726.771129	4027.279505
727.102895	4060.951892
727.434612	4110.231692
727.766281	4124.498157
728.097901	4122.585039
728.429473	4126.189464
728.760996	4133.383191
729.092471	4130.484527
729.423897	4116.270994
729.755276	4118.652939
730.086606	4119.940954
730.417887	4154.389679
730.749120	4223.524063
731.080305	4283.912045
731.411442	4316.994617
731.742530	4283.269298
732.073570	4288.373466
732.404562	4341.660983
732.735506	4333.068336
733.066401	4297.805465
733.397249	4231.811720
733.728048	4152.690810
734.058798	4069.100917
734.389501	3998.282788
734.720156	3936.410187
735.050762	3892.355543
735.381320	3883.926734
735.711831	3833.406811
736.042293	3806.930671
736.372707	3827.430523
736.703073	3798.779125
737.033391	3789.339564
737.363661	3809.345383
737.693883	3832.408662
738.024056	3842.866536
738.354182	3839.642718
738.684260	3900.585227
739.014290	3922.993156
739.344272	3919.048453
739.674207	3960.955565
740.004093	3966.321873
740.333931	3959.801140
740.663722	3961.386583
740.993464	3957.184782
741.323159	3935.938839
741.652806	3905.248294
741.982405	3875.114797
742.311956	3844.880477
742.641460	3838.276565
742.970915	3813.327895
743.300323	3774.339611
743.629683	3733.755802
743.958996	3725.856314
744.288260	3700.204402
744.617477	3667.653672
744.946647	3653.082217
745.275768	3628.350316
745.604842	3626.843011
745.933869	3578.024477
746.262847	3571.811255
746.591778	3608.757872
746.920662	3575.551791
747.249498	3547.137328
747.578286	3593.037033
747.907027	3610.169395
748.235720	3608.863736
748.564365	3634.140081
748.892963	3635.569248
749.221514	3615.954119
749.550017	3595.633228
749.878473	3590.607197
750.206881	3560.277095
750.535242	3556.327351
750.863555	3558.764749
751.191821	3553.078327
751.520039	3533.989998
751.848210	3513.454858
752.176334	3546.008109
752.504411	3552.009603
752.832440	3513.570805
753.160421	3496.650172
753.488356	3505.036131
753.816243	3514.145496
754.144082	3473.024804
754.471875	3461.173052
754.799620	3478.091164
755.127318	3468.152529
755.454969	3469.138075
755.782572	3477.541678
756.110129	3452.683749
756.437638	3440.413580
756.765100	3456.852783
757.092515	3466.312508
757.419882	3472.555977
757.747203	3447.292235
758.074477	3449.643933
758.401703	3464.502734
758.728882	3484.062411
759.056014	3492.904595
759.383099	3496.148577
759.710138	3491.793020
760.037129	3507.251718
760.364073	3541.133313
760.690970	3526.997918
761.017820	3503.233919
761.344623	3521.051877
761.671379	3567.765729
761.998088	3617.209366
762.324751	3746.860281
762.651366	3992.850945
762.977935	4469.986074
763.304456	4921.207152
763.630931	5018.675341
763.957359	4654.078930
764.283740	4305.697391
764.610074	4112.129686
764.936362	3913.233482
765.262602	3753.595263
765.588796	3641.011174
765.914943	3553.610169
766.241044	3464.817806
766.567097	3433.517282
766.893104	3388.192268
767.219064	3355.245807
767.544978	3329.598936
767.870845	3274.428549
768.196665	3255.274685
768.522438	3262.097886
768.848165	3255.723347
769.173846	3221.433419
769.499479	3205.064792
769.825066	3187.435877
770.150607	3168.304698
770.476101	3186.140301
770.801548	3179.601924
771.126949	3133.208185
771.452303	3117.857872
771.777611	3126.074953
772.102872	3128.497227
772.428087	3104.483691
772.753256	3095.049171
773.078378	3088.440219
773.403453	3054.621638
773.728482	3039.669576
774.053465	3061.641445
774.378401	3052.169117
774.703291	3017.564116
775.028135	3020.145187
775.352932	3012.684279
775.677683	3000.817403
776.002388	3000.613236
776.327046	3001.069461
776.651658	2989.512616
776.976224	2978.348980
777.300743	2978.359063
777.625216	2970.504945
777.949643	2963.396918
778.274024	2964.107721
778.598359	2956.767801
778.922647	2960.543625
779.246889	2957.889458
779.571086	2944.174998
779.895236	2937.921447
780.219339	2948.515432
780.543397	2963.447330
780.867409	2964.049748
781.191374	2956.445167
781.515294	2954.632872
781.839167	2955.583130
782.162995	2947.116512
782.486776	2954.159004
782.810511	2955.830146
783.134201	2937.770213
783.457844	2946.060390
783.781441	2937.321550
784.104993	2917.812284
784.428498	2914.225503
784.751958	2928.802000
785.075372	2926.072215
785.398739	2912.198960
785.722061	2926.843512
786.045337	2937.041766
786.368568	2923.292019
786.691752	2912.940009
787.014891	2963.959007
787.337983	2991.720641
787.661030	3019.555372
787.984031	3090.474324
788.306987	3134.675161
788.629897	3127.604943
788.952760	3109.245061
789.275579	3095.956579
789.598351	3034.557846
789.921078	2992.691063
790.243759	2981.913076
790.566395	2963.782566
790.888984	2939.247271
791.211529	2922.513160
791.534027	2913.560071
791.856480	2905.181673
792.178888	2890.458984
792.501249	2878.019937
792.823566	2876.247971
793.145836	2873.739997
793.468062	2873.142620
793.790241	2870.478370
794.112375	2876.242930
794.434464	2886.821791
794.756507	2891.696587
795.078505	2899.618760
795.400457	2911.102509
795.722364	2949.768159
796.044226	2973.874956
796.366042	2977.166830
796.687812	2965.849439
797.009538	2985.686380
797.331218	2973.098619
797.652852	2958.822071
797.974442	2939.080913
798.295986	2934.743000
798.617484	2929.381733
798.938938	2915.926893
799.260346	2899.160015
799.581709	2896.082391
799.903026	2889.753222
800.224299	2880.729557
800.545526	2874.337374
800.866708	2857.056298
801.187845	2846.243023
801.508936	2848.002386
801.829983	2856.211905
802.150984	2841.421160
802.471940	2829.713080
802.792851	2831.109479
803.113717	2828.677123
803.434538	2833.607371
803.755314	2826.302739
804.076045	2822.088335
804.396731	2817.334527
804.717372	2821.669919
805.037967	2817.989877
805.358518	2823.391473
805.679024	2834.383709
805.999485	2831.353975
806.319901	2834.411435
806.640272	2824.379539
806.960598	2830.265086
807.280879	2839.913855
807.601115	2852.625124
807.921306	2833.214161
808.241453	2832.049655
808.561554	2838.966118
808.881611	2835.646518
809.201623	2831.109479
809.521590	2832.699963
809.841513	2828.019252
810.161390	2831.273317
810.481223	2825.649910
810.801011	2815.875112
811.120755	2811.058290
811.440453	2817.773107
811.760107	2817.233703
812.079716	2814.178764
812.399281	2805.631488
812.718801	2799.791311
813.038276	2792.975671
813.357707	2798.672175
813.677093	2804.915644
813.996434	2801.696867
814.315731	2796.305353
814.634983	2790.853345
814.954191	2792.905095
815.273354	2807.695840
815.592473	2814.544248
815.911547	2814.776141
816.230577	2824.046823
816.549562	2834.237515
816.868502	2833.990499
817.187399	2843.460306
817.506250	2860.958151
817.825058	2851.982377
818.143821	2867.277238
818.462539	2882.171327
818.781213	2908.380286
819.099843	2948.243210
819.418429	3002.594410
819.736970	3065.858370
820.055466	3140.084319
820.373919	3247.372676
820.692327	3390.213770
821.010691	3565.204823
821.329011	4010.149664
821.647286	4925.401392
821.965517	6322.947870
822.283704	7088.353820
822.601847	7068.627785
822.919945	6422.493014
823.237999	5911.783801
823.556010	5312.274662
823.873976	4753.059466
824.191897	4334.530270
824.509775	4033.470042
824.827609	3763.165893
825.145398	3636.171666
825.463144	3624.443422
825.780845	3715.776527
826.098502	3822.263340
826.416116	4108.721866
826.733685	4433.651958
827.051210	4499.809540
827.368692	4380.586252
827.686129	4107.816979
828.003522	3775.617543
828.320872	3515.715816
828.638177	3317.296000
828.955439	3181.875485
829.272656	3095.691918
829.589830	3025.393028
829.906960	2973.345635
830.224046	2929.933739
830.541088	2894.272617
830.858086	2879.779299
831.175041	2863.267000
831.491952	2862.977133
831.808819	2875.461551
832.125642	2901.040366
832.442421	2945.805812
832.759157	3031.636497
833.075849	3210.884804
833.392497	3496.040192
833.709101	3703.836554
834.025662	3650.783451
834.342179	3489.234635
834.658653	3310.389620
834.975083	3160.299346
835.291469	3059.597257
835.607811	2973.214565
835.924110	2914.704413
836.240366	2864.620550
836.556578	2819.270330
836.872746	2795.473563
837.188871	2772.659821
837.504952	2756.079466
837.820990	2747.562437
838.136984	2736.885273
838.452935	2727.112996
838.768842	2724.085783
839.084706	2741.757548
839.400526	2822.151349
839.716303	2957.080352
840.032037	3041.343239
840.347727	3026.560055
840.663373	2962.960858
840.978977	2886.168962
841.294537	2813.810760
841.610054	2765.108173
841.925527	2740.456930
842.240957	2720.075545
842.556344	2697.660055
842.871687	2680.058866
843.186987	2670.389933
843.502244	2667.473626
843.817458	2662.447595
844.132629	2649.630462
844.447756	2641.746097
844.762840	2634.890128
845.077881	2637.614871
845.392879	2636.306692
845.707833	2631.930970
846.022745	2625.425361
846.337613	2627.472070
846.652438	2627.275465
846.967221	2624.253293
847.281960	2623.214815
847.596656	2624.452419
847.911309	2622.002418
848.225919	2617.767849
848.540485	2613.654267
848.855009	2614.672580
849.169490	2617.251130
849.483928	2614.294494
849.798323	2613.495471
850.112675	2613.944133
850.426984	2615.411109
850.741251	2611.037908
851.055474	2611.554627
851.369654	2617.399844
851.683792	2617.389762
851.997887	2615.791716
852.311938	2613.566047
852.625947	2611.968001
852.939914	2618.062756
853.253837	2617.203239
853.567718	2612.333485
853.881555	2613.674432
854.195350	2616.734412
854.509103	2614.463372
854.822812	2611.809205
855.136479	2611.042949
855.450103	2615.622838
855.763685	2612.739298
856.077224	2612.857765
856.390720	2610.001951
856.704173	2612.005810
857.017584	2616.091665
857.330953	2620.873199
857.644278	2619.819598
857.957561	2621.470576
858.270802	2616.300873
858.584000	2618.234155
858.897155	2617.969495
859.210268	2620.394290
859.523339	2616.719289
859.836367	2611.340377
860.149352	2612.983794
860.462295	2611.723505
860.775195	2610.841303
861.088054	2609.538165
861.400869	2606.833586
861.713642	2607.325098
862.026373	2607.577156
862.339062	2609.699482
862.651708	2615.096037
862.964312	2617.014196
863.276873	2614.312138
863.589392	2617.949330
863.901869	2621.800772
864.214303	2625.576596
864.526696	2630.000208
864.839045	2631.865435
865.151353	2635.374078
865.463619	2629.690177
865.775842	2636.173101
866.088023	2634.950622
866.400162	2635.200159
866.712258	2632.777884
867.024313	2631.265538
867.336325	2628.306381
867.648296	2632.838378
867.960224	2637.826600
868.272110	2634.098667
868.583954	2625.692542
868.895755	2629.773357
869.207515	2633.355096
869.519233	2640.019502
869.830909	2639.321302
870.142542	2633.982720
870.454134	2637.945067
870.765684	2638.965901
871.077191	2642.504791
871.388657	2644.793474
871.700081	2644.208701
872.011463	2645.831952
872.322803	2644.869092
872.634101	2648.014772
872.945357	2659.208654
873.256571	2663.947338
873.567744	2659.458191
873.878874	2657.308139
874.189963	2660.390804
874.501010	2667.445899
874.812015	2668.955725
875.122979	2666.684685
875.433900	2660.269817
875.744780	2656.504075
876.055618	2664.690909
876.366415	2672.683658
876.677169	2671.161230
876.987882	2666.067144
877.298554	2661.222595
877.609183	2673.326405
877.919771	2680.757066
878.230317	2685.813343
878.540822	2698.086032
878.851285	2712.901983
879.161707	2736.872670
879.472087	2777.176695
879.782425	2828.094869
880.092722	2942.024946
880.402977	3139.827220
880.713191	3406.983168
881.023363	3706.631874
881.333494	3906.594282
881.643583	4081.683637
881.953631	4079.450406
882.263637	3895.539032
882.573602	3674.139117
882.883526	3539.290772
883.193408	3418.938265
883.503248	3314.510763
883.813048	3196.691436
884.122806	3076.371696
884.432522	2990.782986
884.742197	2926.152873
885.051831	2886.090824
885.361424	2847.876357
885.670975	2812.084165
885.980485	2779.614093
886.289954	2761.801176
886.599382	2746.413054
886.908768	2734.011815
887.218113	2715.967005
887.527417	2701.587114
887.836680	2695.232739
888.145901	2688.908612
888.455082	2681.029288
888.764221	2669.790036
889.073319	2661.477173
889.382376	2661.474652
889.691392	2660.741165
890.000366	2662.258552
890.309300	2657.966009
890.618193	2661.888027
890.927044	2663.070178
891.235855	2664.572442
891.544625	2662.364416
891.853353	2663.329797
892.162041	2673.449913
892.470687	2693.370033
892.779293	2705.337732
893.087858	2715.667056
893.396381	2735.456106
893.704864	2780.468568
894.013306	2853.353571
894.321707	2948.656584
894.630068	3002.417969
894.938387	3023.253058
895.246665	3017.816174
895.554903	2971.760192
895.863100	2922.102306
896.171256	2866.591641
896.479371	2801.152423
896.787446	2762.663213
897.095480	2746.385327
897.403473	2734.475601
897.711425	2718.094372
898.019336	2701.687937
898.327207	2684.190092
898.635038	2683.564989
898.942827	2682.740760
899.250576	2673.684327
899.558284	2660.710918
899.865952	2657.517347
900.173579	2653.807057
900.481165	2649.350677
900.788711	2643.351704
901.096216	2636.967083
901.403681	2635.850467
901.711105	2634.514562
902.018489	2631.290744
902.325832	2637.176291
902.633135	2637.254429
902.940397	2654.520381
903.247619	2689.480783
903.554800	2763.749582
903.861941	2896.737741
904.169041	3027.018800
904.476101	3098.459512
904.783121	3087.033737
905.090100	3027.056609
905.397039	2946.965277
905.703938	2871.221941
906.010796	2806.445634
906.317614	2753.571492
906.624391	2716.191336
906.931129	2685.437777
907.237826	2664.847184
907.544483	2643.727270
907.851099	2629.291926
908.157675	2621.888992
908.464211	2612.719133
908.770707	2602.813266
909.077163	2598.795466
909.383578	2595.198603
909.689954	2591.672316
909.996289	2589.008066
910.302584	2590.429671
910.608839	2586.101841
910.915054	2588.519074
911.221229	2589.234918
911.527363	2592.441092
911.833458	2592.173911
912.139513	2593.756833
912.445527	2597.363778
912.751502	2600.070878
913.057436	2605.419542
913.363331	2612.835080
913.669186	2624.172635
913.975000	2638.202166
914.280775	2656.206647
914.586510	2676.567867
914.892205	2711.876109
915.197859	2781.043260
915.503475	2869.830582
915.809050	2939.481684
916.114585	2957.138326
916.420081	2971.084678
916.725536	2981.532469
917.030952	2950.350412
917.336328	2902.605644
917.641665	2851.236286
917.946961	2803.199131
918.252218	2765.841661
918.557435	2736.061044
918.862612	2714.363918
919.167750	2695.875486
919.472848	2676.477126
919.777906	2658.863335
920.082925	2648.264309
920.387904	2636.226033
920.692843	2632.757720
920.997743	2626.368057
921.302603	2621.750360
921.607423	2611.688217
921.912204	2606.480705
922.216946	2604.865015
922.521647	2602.170519
922.826310	2597.784715
923.130932	2594.689446
923.435516	2588.040164
923.740059	2586.981522
924.044564	2583.692169
924.349028	2582.076479
924.653454	2574.678586
924.957840	2572.130283
925.262186	2573.241857
925.566493	2569.541650
925.870761	2564.182904
926.174989	2565.622153
926.479178	2563.918243
926.783328	2563.358675
927.087438	2563.988819
927.391509	2561.725341
927.695541	2559.421534
927.999533	2558.383056
928.303486	2560.066802
928.607400	2556.933725
928.911275	2554.965154
929.215110	2553.828374
929.518906	2554.362736
929.822663	2556.880792
930.126381	2555.683518
930.430060	2553.888868
930.733699	2555.554969
931.037299	2556.394321
931.340861	2555.544887
931.644383	2559.235011
931.947866	2555.600339
932.251309	2556.278375
932.554714	2555.272664
932.858080	2555.585216
933.161407	2555.832232
933.464694	2554.934907
933.767943	2554.992880
934.071153	2553.425082
934.374323	2554.030020
934.677455	2553.359547
934.980548	2553.808209
935.283602	2551.108671
935.586617	2551.811912
935.889593	2551.007848
936.192530	2552.235369
936.495428	2555.587737
936.798287	2554.942469
937.101108	2555.774259
937.403890	2558.940104
937.706632	2562.358006
938.009336	2563.938408
938.312002	2565.488563
938.614628	2573.360324
938.917216	2576.228741
939.219765	2579.119843
939.522275	2579.724781
939.824747	2577.221848
940.127179	2571.114490
940.429573	2569.665159
940.731929	2568.041907
941.034246	2564.780281
941.336524	2567.131979
941.638763	2566.164077
941.940964	2565.158367
942.243126	2565.508727
942.545250	2563.746844
942.847335	2562.506720
943.149381	2562.020249
943.451389	2561.790876
943.753359	2556.933725
944.055290	2559.650907
944.357182	2558.168807
944.659036	2557.510937
944.960851	2555.527243
945.262628	2557.460525
945.564367	2556.288457
945.866067	2559.514795
946.167729	2558.630073
946.469352	2557.362223
946.770937	2556.343910
947.072484	2555.494475
947.373992	2555.970864
947.675462	2557.324414
947.976893	2555.459187
948.278286	2553.281409
948.579641	2552.255534
948.880958	2552.421892
949.182236	2554.062787
949.483476	2553.440205
949.784678	2554.574465
950.085841	2551.272509
950.386967	2551.396017
950.688054	2553.374670
950.989103	2555.938097
951.290114	2554.808878
951.591087	2556.091852
951.892021	2555.716286
952.192917	2558.529250
952.493776	2559.081256
952.794596	2559.918088
953.095378	2561.591751
953.396122	2563.618295
953.696828	2561.858932
953.997496	2558.002449
954.298126	2555.065977
954.598718	2557.372305
954.899272	2554.289639
955.199788	2554.410627
955.500266	2552.318548
955.800706	2548.192364
956.101108	2543.665408
956.401472	2544.376210
956.701798	2543.108360
957.002087	2543.007537
957.302337	2543.690613
957.602550	2546.122970
957.902724	2539.461085
958.202861	2541.689275
958.502960	2544.653474
958.803022	2545.263453
959.103045	2539.183822
959.403031	2541.812784
959.702979	2541.011240
960.002889	2541.684234
960.302762	2537.994110
960.602596	2539.733308
960.902393	2538.208359
961.202153	2538.125180
961.501875	2536.333049
961.801559	2541.548123
962.101205	2538.919161
962.400814	2536.600231
962.700385	2536.237268
962.999918	2539.130890
963.299414	2535.899510
963.598873	2536.070909
963.898293	2536.355735
964.197677	2536.764068
964.497022	2533.036135
964.796331	2539.622402
965.095601	2538.107536
965.394835	2538.488143
965.694030	2536.990920
965.993189	2534.493028
966.292309	2538.848585
966.591393	2536.295241
966.890439	2534.896321
967.189447	2536.237268
967.488419	2537.729449
967.787353	2536.436393
968.086249	2535.365148
968.385108	2538.102494
968.683930	2535.486136
968.982714	2538.911600
969.281462	2536.993441
969.580172	2535.110570
969.878844	2537.696682
970.177480	2539.571991
970.476078	2538.450334
970.774639	2537.467309
971.073162	2537.742052
971.371649	2534.893800
971.670098	2534.049407
971.968510	2538.062165
972.266885	2533.804911
972.565223	2537.061496
972.863524	2535.975128
973.161788	2538.341949
973.460014	2537.328677
973.758204	2537.530323
974.056356	2538.334388
974.354471	2538.304141
974.652550	2537.575694
974.950591	2537.268183
975.248595	2537.855478
975.546563	2538.112577
975.844493	2538.437731
976.142386	2538.082330
976.440243	2535.307175
976.738062	2539.408153
977.035845	2534.558563
977.333590	2535.667617
977.631299	2534.863553
977.928971	2536.559901
978.226606	2537.464788
978.524204	2536.857329
978.821765	2536.426311
979.119290	2537.099305
979.416777	2534.893800
979.714228	2534.898841
980.011642	2536.396064
980.309020	2538.369676
980.606360	2534.361958
980.903664	2539.070396
981.200931	2535.528985
981.498162	2537.366486
981.795356	2539.556867
982.092513	2539.861857
982.389633	2546.569112
982.686717	2547.668084
982.983764	2554.183775
983.280775	2554.158569
983.577749	2552.467262
983.874686	2551.088507
984.171587	2545.195398
984.468451	2546.811088
984.765279	2543.688093
985.062070	2543.859492
985.358824	2540.673483
985.655543	2537.986548
985.952224	2535.576876
986.248869	2539.128369
986.545478	2532.345497
986.842050	2535.657535
987.138586	2530.903727
987.435086	2531.886752
987.731549	2530.601257
988.027975	2535.811290
988.324366	2534.235929
988.620719	2535.833975
988.917037	2533.046217
989.213318	2535.342463
989.509563	2531.435568
989.805772	2531.796011
990.101944	2532.181659
990.398080	2533.058820
990.694180	2532.161495
990.990244	2533.961187
991.286271	2533.870446
991.582262	2535.342463
991.878217	2533.217616
992.174136	2533.759540
992.470019	2531.425486
992.765865	2533.283151
993.061676	2532.232071
993.357450	2531.954807
993.653188	2532.320291
993.948890	2532.368182
994.244556	2532.539581
994.540186	2533.817514
994.835780	2534.268697
995.131337	2533.860363
995.426859	2534.185518
995.722345	2533.575538
996.017795	2538.445293
996.313208	2537.636188
996.608586	2535.402957
996.903928	2537.031249
997.199234	2537.074099
997.494504	2536.804397
997.789738	2537.938657
998.084936	2537.847916
998.380099	2534.624098
998.675225	2536.990920
998.970316	2534.177956
999.265371	2534.450178
999.560390	2533.386495
999.855373	2534.717360
1000.150320	2537.399253
1000.445232	2532.499252
1000.740108	2531.561597
1001.034948	2532.796680
1001.329752	2532.544622
1001.624521	2534.939170
1001.919254	2527.599250
1002.213951	2529.880373
1002.508613	2530.626463
1002.803239	2529.300640
1003.097829	2526.538088
1003.392384	2528.443644
1003.686903	2529.618232
1003.981386	2531.889272
1004.275834	2529.913140
1004.570246	2531.488501
1004.864623	2530.278624
1005.158964	2530.845753
1005.453270	2530.855836
1005.747540	2530.177801
1006.041775	2532.055630
1006.335974	2531.117976
1006.630138	2529.393901
1006.924266	2531.516227
1007.218359	2528.577234
1007.512416	2531.289375
1007.806438	2532.005219
1008.100425	2532.826927
1008.394376	2533.144520
1008.688292	2531.634694
1008.982172	2530.182842
1009.276017	2530.177801
1009.569827	2528.930115
1009.863602	2531.642256
1010.157341	2531.218799
1010.451045	2531.110414
1010.744714	2532.143851
1011.038347	2532.559746
1011.331945	2527.747964
1011.625508	2530.563449
1011.919036	2531.942204
1012.212528	2532.700898
1012.505986	2532.917668
1012.799408	2529.847605
1013.092795	2529.527492
1013.386147	2531.420445
1013.679464	2530.744930
1013.972745	2531.299457
1014.265992	2530.336597
1014.559204	2529.509848
1014.852380	2529.726617
1015.145521	2529.668644
1015.438628	2531.251566
1015.731699	2532.143851
1016.024736	2529.774508
1016.317737	2532.587472
1016.610703	2532.779036
1016.903635	2526.497758
1017.196531	2526.412059
1017.489393	2527.271575
1017.782219	2527.135464
1018.075011	2528.277286
1018.367768	2530.127389
1018.660490	2531.206196
1018.953177	2531.206196
1019.245829	2531.206196
