Dividing Wavelength (nm)	Counts (n)	Blue Motor Position (mm): 43.000000	Red Motor Position (mm): 0.000000	
326.493990	2130.210134
326.888308	2130.210134
327.282561	2130.210134
327.676750	2096.631008
328.070874	2095.138827
328.464933	2098.498756
328.858929	2105.198449
329.252859	2116.467948
329.646726	2126.512448
330.040528	2139.881588
330.434265	2155.854483
330.827938	2173.450631
331.221547	2191.840760
331.615091	2209.063862
332.008571	2229.906513
332.401986	2247.986611
332.795338	2266.112080
333.188625	2289.177879
333.581847	2305.599438
333.975006	2327.089877
334.368100	2343.498833
334.761129	2359.680936
335.154095	2379.505274
335.546996	2397.519837
335.939833	2424.033786
336.332606	2437.811259
336.725315	2450.656119
337.117960	2461.096349
337.510540	2471.070272
337.903056	2481.371870
338.295508	2485.787920
338.687896	2496.449961
339.080220	2506.033194
339.472480	2512.374966
339.864676	2517.889988
340.256807	2520.012314
340.648875	2524.398118
341.040879	2522.177489
341.432818	2527.490866
341.824694	2527.964734
342.216506	2530.313912
342.608253	2529.061185
342.999937	2529.260311
343.391557	2526.117151
343.783113	2527.027079
344.174605	2524.987933
344.566033	2527.531195
344.957397	2522.865607
345.348697	2520.559279
345.739934	2521.015503
346.131106	2518.714217
346.522215	2519.261182
346.913260	2515.071983
347.304241	2514.237672
347.695159	2512.737929
348.086012	2508.604183
348.476802	2509.022598
348.867528	2507.984121
349.258191	2500.866012
349.648789	2506.358349
350.039324	2503.237874
350.429796	2503.353821
350.820203	2500.200579
351.210548	2500.661845
351.600828	2497.932060
351.991045	2499.527585
352.381198	2497.536329
352.771288	2498.327791
353.161314	2497.238901
353.551276	2495.146823
353.941175	2498.252173
354.331010	2494.466267
354.720782	2495.303098
355.110490	2496.059271
355.500135	2498.446258
355.889717	2495.824858
356.279235	2497.669920
356.668689	2495.174549
357.058080	2499.159581
357.447408	2497.276710
357.836672	2496.933912
358.225873	2496.865856
358.615010	2496.039107
359.004084	2499.058758
359.393095	2499.668737
359.782043	2500.069509
360.170927	2500.434993
360.559748	2501.009684
360.948505	2502.620333
361.337199	2506.958246
361.725830	2504.631753
362.114398	2506.693585
362.502903	2503.653770
362.891344	2503.789881
363.279722	2508.004285
363.668037	2506.406240
364.056289	2507.376662
364.444478	2507.981600
364.832603	2508.273987
365.220665	2508.533607
365.608665	2507.129645
365.996601	2510.509739
366.384474	2513.030316
366.772284	2513.700789
367.160031	2513.274812
367.547715	2511.747342
367.935336	2512.868999
368.322893	2510.189626
368.710388	2510.126611
369.097820	2516.518794
369.485189	2512.198525
369.872495	2513.877230
370.259738	2515.775224
370.646918	2514.255316
371.034035	2514.882940
371.421090	2515.727333
371.808081	2516.251613
372.195010	2518.994001
372.581875	2516.541479
372.968678	2519.319155
373.355418	2518.134484
373.742096	2516.032323
374.128710	2518.575585
374.515262	2520.040040
374.901751	2520.405524
375.288177	2519.566172
375.674540	2521.633045
376.060841	2520.806296
376.447079	2519.598939
376.833254	2522.830319
377.219367	2518.678929
377.605417	2520.380318
377.991404	2520.624814
378.377329	2521.756553
378.763191	2522.883251
379.148991	2529.610671
379.534727	2529.971113
379.920402	2536.736342
380.306013	2537.978986
380.691563	2547.413506
381.077049	2550.972560
381.462474	2559.355999
381.847835	2568.707339
382.233134	2578.081365
382.618371	2588.594691
383.003545	2607.259563
383.388657	2618.282046
383.773706	2631.247894
384.158693	2644.468320
384.543618	2664.181752
384.928480	2682.460976
385.313280	2705.095757
385.698017	2719.107644
386.082692	2747.958167
386.467305	2768.967176
386.851856	2794.092287
387.236344	2818.254537
387.620770	2848.924917
388.005133	2878.798795
388.389435	2913.287849
388.773674	2938.901952
389.157851	2981.000627
389.541965	3011.232427
389.926018	3019.477234
390.310008	3077.120308
390.693936	3107.873867
391.077802	3161.589882
391.461606	3179.528827
391.845348	3240.088209
392.229027	3270.872015
392.612645	3303.921819
392.996200	3374.719784
393.379694	3429.401180
393.763125	3498.522961
394.146494	3508.111235
394.529801	3581.545723
394.913047	3643.952687
395.296230	3644.408912
395.679351	3709.984241
396.062410	3757.202208
396.445408	3772.744086
396.828343	3820.264522
397.211217	3866.123899
397.594028	3821.812157
397.976778	3899.584558
398.359466	3940.632153
398.742092	3987.955985
399.124656	3934.285340
399.507158	4025.424361
399.889598	4058.645564
400.271977	4135.097183
400.654294	4120.891212
401.036549	4143.125221
401.418742	4126.675936
401.800874	4236.908326
402.182944	4266.078963
402.564952	4334.058923
402.946898	4329.421061
403.328783	4335.530939
403.710606	4257.108230
404.092367	4455.074341
404.474067	4421.858178
404.855705	4432.447122
405.237282	4367.358264
405.618797	4479.778516
406.000250	4519.200339
406.381642	4600.206640
406.762972	4565.324376
407.144240	4578.610337
407.525447	4579.684102
407.906593	4638.063185
408.287677	4680.955842
408.668700	4614.357159
409.049661	4666.719624
409.430560	4701.818657
409.811399	4632.404489
410.192176	4797.076300
410.572891	4737.212598
410.953545	4839.991643
411.334138	4719.414805
411.714669	4785.784116
412.095139	4682.100184
412.475547	4824.936237
412.855894	4803.551662
413.236180	4810.453002
413.616405	4768.810551
413.996568	4858.429663
414.376670	4800.322803
414.756711	4752.121811
415.136691	4785.605155
415.516609	4859.445456
415.896466	4901.362650
416.276262	4935.551755
416.655997	4917.075927
417.035670	5101.592240
417.415283	5185.550136
417.794834	5133.686746
418.174324	5087.678655
418.553753	4997.106764
418.933121	5180.214075
419.312428	5246.830403
419.691674	5185.701371
420.070859	5309.701153
420.449983	5222.350559
420.829045	5345.836143
421.208047	5246.054065
421.586988	5318.588707
421.965867	5331.511705
422.344686	5461.157579
422.723444	5311.760464
423.102141	5134.548783
423.480777	5431.520635
423.859352	5202.349782
424.237866	5458.558864
424.616319	5454.505776
424.994712	5560.085182
425.373044	5433.189257
425.751314	5581.104273
426.129524	5385.184870
426.507673	5582.840950
426.885762	5661.987066
427.263789	5594.740594
427.641756	5480.266072
428.019662	5595.015337
428.397508	5606.015135
428.775292	5548.924067
429.153016	5650.662114
429.530679	5575.911884
429.908282	5661.656870
430.285824	5529.568557
430.663305	5806.060722
431.040726	5543.310742
431.418086	5542.859559
431.795385	5649.525333
432.172624	5659.463968
432.549802	5652.136651
432.926920	5665.689793
433.303977	5677.584396
433.680974	5713.520261
434.057910	5732.391820
434.434786	5738.105968
434.811601	5708.123706
435.188355	5941.284633
435.565050	5809.944931
435.941683	5797.329444
436.318257	6003.953737
436.694770	5994.836810
437.071222	6027.916862
437.447614	5958.837931
437.823946	5873.944900
438.200218	6026.328898
438.576429	5889.953084
438.952580	5991.991079
439.328670	6034.417430
439.704700	5943.089366
440.080670	5930.360453
440.456580	6199.429518
440.832429	6081.179173
441.208218	5932.563437
441.583947	6081.479121
441.959616	6088.914823
442.335224	6013.141240
442.710773	6153.189535
443.086261	6180.643659
443.461689	5970.835877
443.837057	6124.238188
444.212365	6279.228463
444.587612	6172.300549
444.962800	6321.427962
445.337927	6300.459283
445.712995	5914.102731
446.088002	6495.163768
446.462949	6327.681513
446.837837	6251.799545
447.212664	6424.690957
447.587431	6571.534728
447.962139	7117.219467
448.336786	8036.393212
448.711374	7775.016947
449.085901	6852.397573
449.460369	6774.544514
449.834776	6708.981788
450.209124	7102.141376
450.583412	7247.782831
450.957640	7395.886890
451.331808	7158.377968
451.705917	6714.958075
452.079965	6632.867926
452.453954	6847.424475
452.827883	6719.424538
453.201752	6811.702859
453.575562	6617.192458
453.949311	6819.385577
454.323001	6705.291663
454.696632	6778.648013
455.070202	6918.545073
455.443713	7072.892601
455.817164	7178.681215
456.190556	7257.330777
456.563888	7334.636871
456.937160	7381.577575
457.310373	7037.617127
457.683526	7056.463481
458.056619	6948.774352
458.429653	6938.835718
458.802628	6872.594956
459.175542	6983.396997
459.548398	7335.350194
459.921194	7490.524471
460.293930	7497.824062
460.666607	8025.869804
461.039224	8338.043256
461.411782	8455.224877
461.784280	8473.405798
462.156719	8371.703040
462.529099	8249.810461
462.901419	7834.857964
463.273680	7728.245122
463.645882	7747.537618
464.018024	7616.823019
464.390106	7775.858820
464.762130	8165.885331
465.134094	8629.900858
465.505999	9653.754163
465.877845	10874.411593
466.249631	11529.915348
466.621358	11139.896399
466.993026	10509.411890
467.364634	10251.816490
467.736184	9892.500688
468.107674	9557.372342
468.479105	9597.436912
468.850477	9361.667188
469.221790	9130.200089
469.593043	8800.856467
469.964238	8662.786825
470.335373	8674.555398
470.706449	8738.333556
471.077467	8717.405206
471.448425	10020.770327
471.819324	11091.892011
472.190164	11117.317071
472.560945	9875.635508
472.931667	9083.934899
473.302330	8950.072100
473.672934	8599.376671
474.043479	8951.944889
474.413965	8893.890961
474.784393	8779.769320
475.154761	8931.059388
475.525070	9023.352833
475.895321	8841.793157
476.265513	9020.925518
476.635645	9191.205612
477.005719	9188.319552
477.375734	9305.914547
477.745691	9543.995641
478.115588	9678.970014
478.485427	9921.222662
478.855207	10458.425660
479.224928	11271.846080
479.594591	11904.936865
479.964194	11713.131044
480.333739	11643.169911
480.703226	11570.325238
481.072653	11657.764051
481.442022	11898.345557
481.811333	12080.177455
482.180584	11884.719318
482.549777	11594.570667
482.918912	11417.129613
483.287988	11440.969230
483.657005	11452.442896
484.025964	11146.396967
484.394864	11264.309555
484.763706	11238.791234
485.132489	10999.880871
485.501213	10957.303286
485.869879	11033.593588
486.238487	10878.250432
486.607036	10989.281845
486.975527	10772.784452
487.343959	10964.360901
487.712333	11008.821358
488.080648	10933.534246
488.448905	10983.013171
488.817104	10919.008161
489.185244	11182.232009
489.553326	11341.560197
489.921350	11877.593647
490.289315	12943.311214
490.657222	13281.625569
491.025070	13195.633567
491.392861	13058.516703
491.760593	12687.623891
492.128267	12333.820591
492.495883	12012.633556
492.863440	11667.470793
493.230939	11329.806747
493.598380	11265.224525
493.965763	11137.650565
494.333088	11032.305573
494.700354	10956.612648
495.067563	11018.031546
495.434713	10847.577531
495.801805	10972.348610
496.168839	10898.624255
496.535815	10833.192599
496.902733	10833.767290
497.269593	10770.967116
497.636395	10871.379339
498.003139	10851.265135
498.369825	10718.347553
498.736453	10876.730524
499.103023	10805.017590
499.469535	10839.085708
499.835989	10825.729171
500.202385	10785.304158
500.568723	10637.389142
500.935003	10869.347754
501.301226	10665.450725
501.667390	10925.372618
502.033497	11028.859944
502.399546	10884.090609
502.765537	10792.734819
503.131470	10861.712927
503.497345	11034.380008
503.863163	10649.520679
504.228923	10964.809564
504.594625	11022.072031
504.960269	10776.651017
505.325856	10990.925262
505.691385	10781.006574
506.056856	10937.110944
506.422270	10963.113216
506.787625	10848.948725
507.152924	10965.941303
507.518164	10951.319436
507.883347	10873.274813
508.248472	10790.431011
508.613540	11027.942454
508.978550	10905.691953
509.343503	10885.333253
509.708398	11003.132416
510.073236	11120.815632
510.438016	11123.421908
510.802738	11070.071377
511.167403	11124.846034
511.532010	11026.523369
511.896561	11254.612896
512.261053	11323.147382
512.625488	11193.355315
512.989866	11177.137923
513.354186	11165.260964
513.718449	11061.146014
514.082655	11260.500963
514.446803	11151.823769
514.810894	11279.639704
515.174927	11137.133847
515.538904	11160.355922
515.902822	11318.401136
516.266684	11198.351098
516.630488	11147.904272
516.994235	11205.267561
517.357925	11263.134966
517.721558	11364.507529
518.085133	11362.218845
518.448651	11376.719724
518.812112	11257.972825
519.175516	11275.193406
519.538863	11399.402396
519.902152	11315.021042
520.265385	11471.974847
520.628560	11379.512523
520.991678	11360.151972
521.354739	11427.768969
521.717743	11358.984945
522.080690	11338.308653
522.443580	11476.038017
522.806413	11424.565315
523.169189	11458.547733
523.531908	11514.436486
523.894569	11332.231542
524.257174	11344.322749
524.619722	11461.471603
524.982213	11402.772407
525.344647	11456.995058
525.707025	11409.038562
526.069345	11503.787048
526.431608	11423.705799
526.793815	11534.694362
527.155964	11319.447175
527.518057	11371.681091
527.880093	11318.159161
528.242072	11385.350180
528.603995	11288.552464
528.965860	11215.102852
529.327669	11272.347675
529.689421	11219.869263
530.051117	11184.303923
530.412755	11291.488936
530.774337	11175.512151
531.135862	11158.571353
531.497331	11185.201248
531.858743	11031.970336
532.220098	11198.426716
532.581396	11068.309494
532.942638	11053.546475
533.303824	11017.534992
533.664953	11030.977229
534.026025	10944.702922
534.387040	11044.616071
534.747999	11051.842565
535.108902	11106.453384
535.469748	10864.508247
535.830537	10966.175717
536.191270	10945.111255
536.551947	10970.982457
536.912567	10968.224946
537.273131	10899.579554
537.633638	10873.811696
537.994089	10864.097393
538.354483	10811.470267
538.714821	10951.538727
539.075103	10961.694131
539.435328	10928.833370
539.795497	10757.464386
540.155609	10916.719477
540.515665	10999.366674
540.875665	10735.212733
541.235609	10808.243928
541.595496	10795.971239
541.955328	10953.414036
542.315102	10838.838691
542.674821	10785.220979
543.034483	10788.976638
543.394090	10796.873606
543.753640	10716.633560
544.113134	10941.758888
544.472571	10796.417382
544.831953	10942.326018
545.191278	10748.425597
545.550548	10778.367530
545.909761	10914.166133
546.268918	10891.261650
546.628019	10971.559669
546.987064	10835.975316
547.346053	10752.085475
547.704986	10856.795281
548.063863	10846.619712
548.422684	10829.631024
548.781449	10752.861812
549.140158	10852.641370
549.498811	10731.245345
549.857408	10587.542213
550.215949	10813.027983
550.574434	10677.085708
550.932864	10764.658112
551.291237	10828.547176
551.649555	10773.477611
552.007817	10782.967583
552.366022	10753.010526
552.724173	10742.955945
553.082267	10729.158307
553.440305	10862.307783
553.798288	10662.549541
554.156215	10825.217493
554.514086	10795.005858
554.871902	10643.975410
555.229661	10677.491521
555.587365	10657.052163
555.945014	10550.819928
556.302606	10677.146202
556.660143	10567.261651
557.017625	10728.475231
557.375050	10625.630651
557.732421	10759.737946
558.089735	10667.973823
558.446994	10672.094966
558.804197	10708.161901
559.161345	10704.202075
559.518437	10550.635926
559.875474	10645.308795
560.232455	10679.855822
560.589381	10627.112750
560.946251	10620.022367
561.303065	10727.010775
561.659825	10666.310242
562.016528	10593.001783
562.373177	10470.771446
562.729770	10589.581360
563.086307	10509.560604
563.442789	10599.013359
563.799216	10474.494338
564.155587	10524.127018
564.511904	10480.389967
564.868164	10473.143309
565.224370	10486.482202
565.580520	10407.910778
565.936615	10414.139124
566.292654	10288.309403
566.648638	10418.189691
567.004567	10374.803000
567.360441	10355.545792
567.716260	10265.478017
568.072023	10365.557524
568.427732	10319.118415
568.783385	10225.612573
569.138982	10291.359301
569.494525	10306.248349
569.850013	10188.736532
570.205445	10265.828377
570.560823	10171.452936
570.916145	10076.364172
571.271412	10153.236727
571.626625	10092.342109
571.981782	10070.357637
572.336884	10045.114059
572.691931	10049.701509
573.046923	9991.478703
573.401860	9945.493298
573.756743	9884.681859
574.111570	9932.988715
574.466342	9915.218648
574.821059	9940.580693
575.175722	9840.052524
575.530330	9851.483340
575.884882	9836.778294
576.239380	9762.431357
576.593823	9745.306558
576.948211	9757.654864
577.302544	9634.678437
577.656823	9651.762907
578.011047	9658.495368
578.365216	9623.905491
578.719330	9552.336230
579.073389	9566.010359
579.427394	9511.124797
579.781344	9485.150252
580.135239	9434.514382
580.489080	9445.657852
580.842866	9340.648097
581.196597	9356.298359
581.550273	9396.027693
581.903895	9362.700625
582.257463	9426.461139
582.610975	9314.003079
582.964434	9332.196603
583.317837	9250.829859
583.671186	9240.051872
584.024481	9232.371674
584.377721	9148.368407
584.730906	9129.849729
585.084037	9155.688163
585.437113	9094.745654
585.790135	9111.497408
586.143103	9013.799847
586.496016	8984.712389
586.848874	9047.434425
587.201679	9031.867342
587.554428	8912.742356
587.907124	8961.616342
588.259765	8935.427548
588.612352	8936.783619
588.964884	8809.580184
589.317362	8828.124068
589.669786	8828.741609
590.022155	8870.469760
590.374470	8889.348882
590.726731	8824.524684
591.078937	8684.917490
591.431090	8793.493862
591.783188	8665.259511
592.135232	8663.575765
592.487222	8661.471084
592.839157	8712.588384
593.191038	8642.014750
593.542866	8590.980629
593.894639	8486.595977
594.246358	8543.258547
594.598022	8562.177997
594.949633	8459.434240
595.301190	8435.022453
595.652692	8461.090259
596.004141	8572.716529
596.355535	8347.117333
596.706876	8327.456833
597.058162	8263.315712
597.409395	8344.964760
597.760573	8401.080364
598.111698	8309.782547
598.462768	8292.776215
598.813785	8260.749764
599.164748	8229.736586
599.515657	8218.199905
599.866511	8127.814537
600.217312	8253.850945
600.568060	8116.078731
600.918753	8217.080769
601.269392	8192.797531
601.619978	8103.647246
601.970510	8162.928695
602.320988	8159.669589
602.671412	8223.709887
603.021783	8149.748598
603.372100	8127.275134
603.722363	8127.471739
604.072572	8103.102801
604.422728	8107.554140
604.772830	8044.995942
605.122878	8052.421561
605.472872	8045.573154
605.822813	8078.799399
606.172701	8014.691045
606.522534	8089.489165
606.872314	8091.372036
607.222041	8067.789519
607.571714	8121.525698
607.921333	8078.431394
608.270899	8082.973474
608.620411	8170.462699
608.969870	8071.890497
609.319276	8070.514262
609.668627	8087.523115
610.017926	8120.146942
610.367171	8168.390785
610.716362	8146.925552
611.065500	8136.684448
611.414585	8159.422572
611.763616	8148.999987
612.112594	8130.186400
612.461518	8144.536045
612.810389	8210.862506
613.159207	8148.979822
613.507971	8100.390661
613.856682	8217.471459
614.205340	8168.773913
614.553945	8257.939321
614.902496	8151.550810
615.250994	8206.469140
615.599439	8183.778907
615.947830	8196.946401
616.296169	8169.943460
616.644454	8185.051798
616.992686	8182.264040
617.340864	8238.755210
617.688990	8144.949419
618.037063	8241.053976
618.385082	8182.803444
618.733048	8262.262111
619.080961	8208.520890
619.428821	8223.767860
619.776628	8229.537460
620.124382	8180.229935
620.472083	8161.549939
620.819731	8197.571504
621.167326	8087.306346
621.514868	8097.187007
621.862357	7984.736509
622.209793	7998.881987
622.557176	7928.593179
622.904506	7903.044611
623.251783	7832.501225
623.599007	7789.353989
623.946179	7792.522354
624.293297	7757.163701
624.640363	7668.061307
624.987376	7647.632031
625.334336	7599.035308
625.681243	7552.228194
626.028097	7535.254629
626.374899	7506.323447
626.721647	7509.350660
627.068343	7437.521780
627.414987	7408.527583
627.761577	7359.056220
628.108115	7403.433497
628.454600	7298.219575
628.801032	7343.645413
629.147412	7301.151006
629.493739	7293.987527
629.840014	7237.128352
630.186236	7286.803882
630.532405	7171.127046
630.878521	7219.534726
631.224585	7179.200454
631.570597	7103.232786
631.916556	7133.729246
632.262462	7129.005685
632.608316	7092.154850
632.954117	7068.577374
633.299866	7060.138482
633.645562	7056.818882
633.991206	6967.262784
634.336797	6912.513333
634.682336	6870.316355
635.027823	6830.791188
635.373257	6831.038204
635.718639	6763.156547
636.063968	6777.365039
636.409245	6670.434605
636.754470	6667.931672
637.099642	6625.490198
637.444762	6572.971457
637.789829	6583.479742
638.134845	6519.696543
638.479808	6503.990828
638.824719	6508.648854
639.169577	6433.797802
639.514383	6462.033305
639.859137	6385.574124
640.203839	6395.699282
640.548489	6382.004987
640.893086	6358.336770
641.237632	6330.859961
641.582125	6351.720256
641.926566	6322.247150
642.270955	6329.516493
642.615292	6329.287121
642.959576	6342.578123
643.303809	6334.023285
643.647990	6336.437998
643.992118	6323.580535
644.336195	6276.833915
644.680219	6303.761238
645.024192	6293.711698
645.368112	6390.043107
645.711981	6410.981540
646.055797	6488.446430
646.399562	6446.178876
646.743274	6567.295118
647.086935	6622.135310
647.430544	6615.153312
647.774101	6640.699359
648.117606	6648.424927
648.461059	6636.447145
648.804460	6599.248471
649.147810	6503.726167
649.491108	6475.795655
649.834354	6455.522654
650.177548	6364.381113
650.520690	6283.833557
650.863781	6262.343118
651.206820	6284.123424
651.549807	6201.700558
651.892742	6146.842722
652.235626	6155.132900
652.578458	6139.706969
652.921238	6046.022166
653.263967	6083.412404
653.606644	6022.938722
653.949269	6032.222007
654.291843	5967.483509
654.634365	6016.730541
654.976836	5969.079035
655.319255	5973.767308
655.661622	5952.775943
656.003938	5948.072547
656.346203	5909.762298
656.688416	5935.739364
657.030577	5888.591972
657.372687	5856.134503
657.714746	5846.389953
658.056753	5889.302775
658.398708	5827.122663
658.740612	5819.505479
659.082465	5871.303335
659.424266	5862.360328
659.766016	5860.762283
660.107715	5835.375032
660.449362	5846.737793
660.790958	5844.330642
661.132503	5830.981666
661.473996	5867.335947
661.815438	5853.195511
662.156829	5849.969172
662.498168	5844.181928
662.839456	5817.806611
663.180693	5850.634604
663.521879	5855.249781
663.863013	5849.540674
664.204097	5864.139856
664.545129	5904.053191
664.886110	5895.745370
665.227040	5930.746101
665.567918	5900.751235
665.908746	5926.708137
666.249522	5932.828097
666.590248	5915.751189
666.930922	5948.380057
667.271545	5962.137366
667.612118	5963.387572
667.952639	5934.431184
668.293109	5957.103774
668.633528	5913.825468
668.973896	5915.289923
669.314213	5909.525364
669.654480	5887.490480
669.994695	5882.124172
670.334859	5874.325507
670.674973	5862.357808
671.015035	5870.153952
671.355047	5868.613880
671.695008	5852.351117
672.034918	5826.449669
672.374777	5842.472976
672.714585	5828.660215
673.054342	5832.035267
673.394049	5819.659235
673.733705	5851.025294
674.073310	5837.961144
674.412864	5798.703158
674.752368	5790.405419
675.091820	5794.425739
675.431223	5728.399227
675.770574	5732.323765
676.109875	5682.421383
676.449125	5688.705181
676.788324	5656.245192
677.127473	5598.912149
677.466571	5589.102063
677.805619	5580.338017
678.144616	5569.338220
678.483562	5545.453233
678.822458	5510.717162
679.161303	5506.664075
679.500098	5498.031099
679.838842	5481.143233
680.177535	5487.963914
680.516179	5500.584443
680.854771	5511.964848
681.193314	5593.439976
681.531805	5698.195153
681.870247	5846.815930
682.208638	5955.704853
682.546978	5967.380166
682.885268	5940.541063
683.223508	5854.995203
683.561697	5804.394621
683.899836	5774.939159
684.237925	5730.740842
684.575963	5694.716757
684.913951	5653.341487
685.251889	5719.862032
685.589776	5680.198234
685.927614	5657.931457
686.265401	5725.941664
686.603137	5710.772832
686.940824	5788.212517
687.278460	5810.885106
687.616046	5817.478936
687.953582	5886.174739
688.291068	5865.836204
688.628504	5933.644764
688.965889	5897.804681
689.303224	5842.553635
689.640510	5791.426253
689.977745	5716.363472
690.314930	5617.332525
690.652065	5563.853444
690.989150	5468.805009
691.326185	5396.676180
691.663170	5341.268858
692.000105	5264.655923
692.336990	5183.884035
692.673825	5163.240510
693.010610	5094.650571
693.347345	5022.791443
693.684030	5010.175956
694.020665	4966.544769
694.357251	4879.305081
694.693786	4888.623654
695.030272	4855.730125
695.366707	4819.431297
695.703093	4788.962563
696.039429	4806.031910
696.375716	4790.618582
696.711952	4767.008338
697.048139	4752.318416
697.384276	4735.634717
697.720363	4746.132920
698.056400	4753.969394
698.392388	4706.358216
698.728326	4679.582128
699.064214	4662.933717
699.400053	4655.245957
699.735842	4620.590545
700.071581	4596.256896
700.407270	4571.033483
700.742910	4552.809711
701.078501	4500.585878
701.414042	4497.924149
701.749533	4468.987926
702.084974	4400.942431
702.420366	4461.038026
702.755709	4399.596443
703.091002	4344.065613
703.426246	4393.731061
703.761440	4349.419318
704.096584	4311.925737
704.431679	4334.696628
704.766725	4317.536541
705.101721	4307.156805
705.436668	4338.611084
705.771565	4282.049338
706.106413	4313.808608
706.441212	4345.073844
706.775961	4352.643136
707.110661	4329.514322
707.445311	4357.470041
707.779913	4384.064648
708.114465	4395.344230
708.448967	4417.588321
708.783421	4479.934791
709.117825	4524.322151
709.452180	4523.891132
709.786485	4566.912339
710.120742	4654.210000
710.454949	4640.641735
710.789107	4706.912743
711.123216	4782.978714
711.457275	4775.432106
711.791286	4844.702601
712.125247	4864.549624
712.459159	4768.598822
712.793023	4845.080688
713.126837	4801.706600
713.460602	4793.620589
713.794318	4710.635635
714.127985	4721.214497
714.461602	4634.466321
714.795171	4609.061427
715.128691	4541.036097
715.462162	4486.977283
715.795584	4438.844346
716.128957	4421.084361
716.462281	4368.900857
716.795556	4338.422041
717.128782	4302.758398
717.461960	4234.012183
717.795088	4241.634408
718.128167	4201.395918
718.461198	4141.285199
718.794180	4137.985764
719.127113	4114.574646
719.459997	4099.390690
719.792833	4053.962332
720.125619	4044.890776
720.458357	4010.086650
720.791046	4016.204090
721.123686	3987.761900
721.456278	3951.049697
721.788821	3962.422540
722.121315	3937.221812
722.453761	3908.973707
722.786158	3922.305038
723.118506	3946.227834
723.450805	3897.938621
723.783056	3921.233793
724.115259	3937.279786
724.447412	3938.598047
724.779518	3933.705607
725.111574	3938.046041
725.443582	3966.218529
725.775542	3952.274698
726.107453	4004.513654
726.439315	4002.850074
726.771129	4020.352960
727.102895	4055.877971
727.434612	4103.040486
727.766281	4111.922999
728.097901	4115.482053
728.429473	4121.639823
728.760996	4130.232470
729.092471	4124.513281
729.423897	4107.786732
729.755276	4115.570274
730.086606	4112.250674
730.417887	4149.179646
730.749120	4214.797825
731.080305	4279.498514
731.411442	4307.116476
731.742530	4275.072381
732.073570	4276.592289
732.404562	4334.172348
732.735506	4321.559382
733.066401	4290.810864
733.397249	4225.333837
733.728048	4146.054131
734.058798	4068.228798
734.389501	3993.839011
734.720156	3929.092952
735.050762	3885.870099
735.381320	3878.142010
735.711831	3829.353723
736.042293	3801.463539
736.372707	3820.743432
736.703073	3791.940800
737.033391	3785.934265
737.363661	3801.435813
737.693883	3824.617559
738.024056	3835.508972
738.354182	3831.607119
738.684260	3892.136253
739.014290	3913.389757
739.344272	3913.278852
739.674207	3951.160603
740.004093	3959.849031
740.333931	3953.053556
740.663722	3956.151345
740.993464	3952.967856
741.323159	3928.460287
741.652806	3897.331162
741.982405	3870.386195
742.311956	3842.438038
742.641460	3831.435719
742.970915	3806.933191
743.300323	3768.673354
743.629683	3732.818147
743.958996	3719.275088
744.288260	3694.366746
744.617477	3663.885410
744.946647	3649.508039
745.275768	3623.551138
745.604842	3621.428812
745.933869	3572.466605
746.262847	3566.218095
746.591778	3602.040534
746.920662	3575.103129
747.249498	3542.131462
747.578286	3587.804316
747.907027	3607.328705
748.235720	3603.492387
748.564365	3630.510451
748.892963	3627.861324
749.221514	3610.129066
749.550017	3589.306580
749.878473	3587.564861
750.206881	3560.496385
750.535242	3549.912483
750.863555	3555.306517
751.191821	3549.483985
751.520039	3533.006973
751.848210	3508.885052
752.176334	3545.254457
752.504411	3547.689334
752.832440	3504.761388
753.160421	3493.285202
753.488356	3498.399452
753.816243	3516.285466
754.144082	3469.488435
754.471875	3456.179789
754.799620	3473.032366
755.127318	3466.244453
755.454969	3468.313846
755.782572	3467.298054
756.110129	3448.476906
756.437638	3439.591872
756.765100	3449.901032
757.092515	3457.482927
757.419882	3467.837457
757.747203	3441.794856
758.074477	3442.180505
758.401703	3460.048874
758.728882	3482.013182
759.056014	3487.266064
759.383099	3491.820747
759.710138	3487.220694
760.037129	3508.103673
760.364073	3535.078888
760.690970	3518.717823
761.017820	3497.592868
761.344623	3516.666073
761.671379	3561.696180
761.998088	3611.265846
762.324751	3741.330136
762.651366	3985.853823
762.977935	4461.514415
763.304456	4904.702414
763.630931	5003.695553
763.957359	4639.081498
764.283740	4300.026093
764.610074	4102.732975
764.936362	3909.021598
765.262602	3749.254829
765.588796	3633.502375
765.914943	3547.777554
766.241044	3460.230356
766.567097	3430.522836
766.893104	3382.462996
767.219064	3352.269005
767.544978	3323.078204
767.870845	3269.707508
768.196665	3252.668408
768.522438	3258.861466
768.848165	3256.552617
769.173846	3218.232286
769.499479	3201.672096
769.825066	3183.781041
770.150607	3169.895182
770.476101	3183.932275
770.801548	3177.093950
771.126949	3131.158956
771.452303	3116.058180
771.777611	3122.629324
772.102872	3126.841208
772.428087	3100.546550
772.753256	3092.137905
773.078378	3084.298911
773.403453	3052.090979
773.728482	3038.003474
774.053465	3057.913512
774.378401	3049.777089
774.703291	3014.597397
775.028135	3017.639733
775.352932	3013.473220
775.677683	3000.068792
776.002388	2995.012514
776.327046	2999.587362
776.651658	2985.913232
776.976224	2974.550471
777.300743	2977.469299
777.625216	2966.144347
777.949643	2965.173925
778.274024	2965.090746
778.598359	2951.751853
778.922647	2958.088583
779.246889	2956.936679
779.571086	2943.519648
779.895236	2936.746858
780.219339	2946.352777
780.543397	2958.350723
780.867409	2961.498924
781.191374	2954.751339
781.515294	2954.625310
781.839167	2953.692697
782.162995	2941.724998
782.486776	2951.088941
782.810511	2950.531893
783.134201	2936.131838
783.457844	2942.730708
783.781441	2935.534461
784.104993	2914.689290
784.428498	2915.009403
784.751958	2927.138419
785.075372	2921.439395
785.398739	2908.783578
785.722061	2923.788572
786.045337	2935.053031
786.368568	2919.798499
786.691752	2910.782395
787.014891	2959.018676
787.337983	2989.734426
787.661030	3016.994466
787.984031	3086.103644
788.306987	3130.380098
788.629897	3125.555714
788.952760	3108.317488
789.275579	3090.217225
789.598351	3031.555839
789.921078	2987.861638
790.243759	2982.490288
790.566395	2958.915332
790.888984	2938.735593
791.211529	2922.011566
791.534027	2912.975297
791.856480	2902.698905
792.178888	2886.761297
792.501249	2876.739483
792.823566	2877.362066
793.145836	2872.351159
793.468062	2868.850078
793.790241	2867.226826
794.112375	2874.919627
794.434464	2885.934548
794.756507	2891.434447
795.078505	2896.170611
795.400457	2909.454051
795.722364	2944.951336
796.044226	2973.668269
796.366042	2974.598362
796.687812	2960.243676
797.009538	2982.172696
797.331218	2968.939667
797.652852	2954.779066
797.974442	2937.601334
798.295986	2934.662341
798.617484	2931.219233
798.938938	2911.631830
799.260346	2897.168759
799.581709	2890.910167
799.903026	2885.339692
800.224299	2877.483054
800.545526	2871.385778
800.866708	2854.666791
801.187845	2845.189422
801.508936	2845.595235
801.829983	2854.245855
802.150984	2840.768330
802.471940	2826.058243
802.792851	2824.059426
803.113717	2826.942966
803.434538	2833.186435
803.755314	2824.611432
804.076045	2817.319403
804.396731	2816.858137
804.717372	2820.404589
805.037967	2814.307314
805.358518	2819.298056
805.679024	2831.875735
805.999485	2827.575631
806.319901	2829.808862
806.640272	2823.182265
806.960598	2831.144767
807.280879	2839.213134
807.601115	2846.295955
807.921306	2830.862463
808.241453	2828.727534
808.561554	2835.220540
808.881611	2837.521827
809.201623	2830.386074
809.521590	2828.170487
809.841513	2825.561690
810.161390	2831.729541
810.481223	2825.264262
810.801011	2815.224804
811.120755	2810.523928
811.440453	2815.116419
811.760107	2813.662046
812.079716	2811.862354
812.399281	2803.335242
812.718801	2797.046403
813.038276	2789.093983
813.357707	2796.590178
813.677093	2803.388174
813.996434	2796.534726
814.315731	2795.342493
814.634983	2788.519291
814.954191	2788.468880
815.273354	2805.502938
815.592473	2812.621048
815.911547	2815.015596
816.230577	2822.647903
816.549562	2831.734582
816.868502	2828.992195
817.187399	2840.753207
817.506250	2858.009076
817.825058	2852.020186
818.143821	2867.315046
818.462539	2879.149155
818.781213	2906.507497
819.099843	2945.609207
819.418429	3001.452588
819.736970	3063.277299
820.055466	3139.169350
820.373919	3244.668097
820.692327	3385.240672
821.010691	3557.698545
821.329011	4004.165815
821.647286	4910.993774
821.965517	6307.466487
822.283704	7066.626447
822.601847	7053.098511
822.919945	6410.053967
823.237999	5892.786212
823.556010	5301.819309
823.873976	4744.928084
824.191897	4330.706555
824.509775	4025.542828
824.827609	3755.886467
825.145398	3629.524905
825.463144	3620.256744
825.780845	3710.695044
826.098502	3814.852844
826.416116	4103.297585
826.733685	4420.532355
827.051210	4491.698324
827.368692	4369.500755
827.686129	4105.838326
828.003522	3772.625619
828.320872	3509.437059
828.638177	3314.586380
828.955439	3177.066224
829.272656	3093.443564
829.589830	3024.820857
829.906960	2972.586942
830.224046	2927.738316
830.541088	2891.588202
830.858086	2879.302910
831.175041	2859.617204
831.491952	2862.924201
831.808819	2874.478526
832.125642	2896.185734
832.442421	2944.787499
832.759157	3028.193389
833.075849	3203.774257
833.392497	3489.887464
833.709101	3697.567879
834.025662	3647.778923
834.342179	3484.662308
834.658653	3303.947025
834.975083	3158.194664
835.291469	3060.507185
835.607811	2969.912609
835.924110	2914.026378
836.240366	2860.181814
836.556578	2818.095741
836.872746	2793.802420
837.188871	2772.243926
837.504952	2756.709610
837.820990	2743.710995
838.136984	2734.140365
838.452935	2724.234497
838.768842	2721.335834
839.084706	2741.051787
839.400526	2817.521049
839.716303	2955.295784
840.032037	3037.065820
840.347727	3022.499406
840.663373	2960.498255
840.978977	2885.369939
841.294537	2811.615337
841.610054	2762.685898
841.925527	2739.597414
842.240957	2721.040926
842.556344	2698.264993
842.871687	2681.379648
843.186987	2668.277690
843.502244	2668.612926
843.817458	2660.365599
844.132629	2650.825215
844.447756	2638.509676
844.762840	2635.512710
845.077881	2635.835344
845.392879	2635.409367
845.707833	2628.364354
846.022745	2623.255145
846.337613	2627.681278
846.652438	2627.172121
846.967221	2627.023407
847.281960	2623.930659
847.596656	2621.127778
847.911309	2619.728857
848.225919	2618.418157
848.540485	2613.820625
848.855009	2615.887498
849.169490	2615.758949
849.483928	2612.003289
849.798323	2611.365583
850.112675	2611.446242
850.426984	2615.441356
850.741251	2614.849021
851.055474	2612.134359
851.369654	2614.279370
851.683792	2616.721809
851.997887	2612.832559
852.311938	2612.129318
852.625947	2611.912548
852.939914	2617.248610
853.253837	2616.373970
853.567718	2609.938937
853.881555	2612.308279
854.195350	2612.971191
854.509103	2615.824484
854.822812	2612.305758
855.136479	2611.269801
855.450103	2612.494802
855.763685	2613.772734
856.077224	2611.335336
856.390720	2609.611262
856.704173	2609.659153
857.017584	2615.600152
857.330953	2616.973867
857.644278	2620.704321
857.957561	2622.904784
858.270802	2614.874226
858.584000	2615.746346
858.897155	2619.219701
859.210268	2620.853035
859.523339	2613.843310
859.836367	2610.627054
860.149352	2612.971191
860.462295	2613.114864
860.775195	2609.447424
861.088054	2609.573453
861.400869	2608.063627
861.713642	2603.889552
862.026373	2608.613113
862.339062	2608.981117
862.651708	2614.302055
862.964312	2615.002776
863.276873	2615.048146
863.589392	2617.387242
863.901869	2620.971502
864.214303	2626.781432
864.526696	2628.024076
864.839045	2629.259159
865.151353	2632.427524
865.463619	2633.087915
865.775842	2633.861732
866.088023	2631.023563
866.400162	2633.133286
866.712258	2632.064561
867.024313	2632.735034
867.336325	2629.216309
867.648296	2633.397946
867.960224	2637.027577
868.272110	2632.873666
868.583954	2627.310753
868.895755	2629.906947
869.207515	2632.102370
869.519233	2640.790798
869.830909	2638.013122
870.142542	2629.932153
870.454134	2633.710498
870.765684	2638.958339
871.077191	2642.550161
871.388657	2645.058135
871.700081	2643.490336
872.011463	2642.779533
872.322803	2644.944709
872.634101	2650.079124
872.945357	2656.080618
873.256571	2662.994560
873.567744	2658.626401
873.878874	2656.821667
874.189963	2658.452481
874.501010	2663.919612
874.812015	2667.438337
875.122979	2666.520847
875.433900	2660.516833
875.744780	2656.594816
876.055618	2664.148985
876.366415	2669.290962
876.677169	2668.040755
876.987882	2663.667554
877.298554	2662.160249
877.609183	2671.985458
877.919771	2678.002075
878.230317	2684.439629
878.540822	2697.460929
878.851285	2711.624051
879.161707	2737.812845
879.472087	2774.792229
879.782425	2824.505568
880.092722	2939.766509
880.402977	3134.188690
880.713191	3401.372364
881.023363	3704.360834
881.333494	3903.113365
881.643583	4075.354469
881.953631	4070.966144
882.263637	3891.538876
882.573602	3669.244156
882.883526	3533.579144
883.193408	3411.759662
883.503248	3311.032367
883.813048	3193.417206
884.122806	3075.479412
884.432522	2988.111175
884.742197	2921.275557
885.051831	2884.243241
885.361424	2847.745287
885.670975	2809.548464
885.980485	2778.736932
886.289954	2758.766401
886.599382	2746.284504
886.908768	2732.824623
887.218113	2715.314176
887.527417	2702.600386
887.836680	2691.938345
888.145901	2687.779393
888.455082	2678.269257
888.764221	2666.914057
889.073319	2659.848880
889.382376	2658.160094
889.691392	2658.044147
890.000366	2659.432985
890.309300	2657.708911
890.618193	2662.193017
890.927044	2661.310815
891.235855	2661.240239
891.544625	2662.223264
891.853353	2662.561021
892.162041	2668.938081
892.470687	2692.576051
892.779293	2703.384285
893.087858	2712.581870
893.396381	2733.568194
893.704864	2779.528393
894.013306	2852.035309
894.321707	2945.760441
894.630068	2997.845643
894.938387	3021.234076
895.246665	3010.882067
895.554903	2967.258442
895.863100	2923.791093
896.171256	2861.878162
896.479371	2803.947742
896.787446	2763.275713
897.095480	2739.965418
897.403473	2734.195817
897.711425	2720.229301
898.019336	2702.822196
898.327207	2685.483148
898.635038	2684.404341
898.942827	2683.023065
899.250576	2674.019564
899.558284	2656.925011
899.865952	2657.557676
900.173579	2653.141625
900.481165	2651.407468
900.788711	2641.191570
901.096216	2635.575725
901.403681	2634.743934
901.711105	2634.585138
902.018489	2631.472225
902.325832	2632.382154
902.633135	2638.103863
902.940397	2653.156749
903.247619	2691.535053
903.554800	2763.152205
903.861941	2893.922256
904.169041	3023.454704
904.476101	3088.820826
904.783121	3085.922162
905.090100	3024.798172
905.397039	2945.674742
905.703938	2868.595499
906.010796	2806.364976
906.317614	2749.672160
906.624391	2715.137735
906.931129	2685.868796
907.237826	2661.393994
907.544483	2641.425984
907.851099	2627.880403
908.157675	2617.299021
908.464211	2610.296859
908.770707	2599.904520
909.077163	2597.860332
909.383578	2595.256576
909.689954	2591.528643
909.996289	2591.934456
910.302584	2592.143664
910.608839	2587.462952
910.915054	2586.384145
911.221229	2590.623756
911.527363	2594.719693
911.833458	2591.256421
912.139513	2592.733479
912.445527	2592.083170
912.751502	2597.842688
913.057436	2601.777309
913.363331	2609.961622
913.669186	2622.723303
913.975000	2636.284007
914.280775	2656.703200
914.586510	2675.254647
914.892205	2708.243957
915.197859	2779.127622
915.503475	2867.652804
915.809050	2937.979420
916.114585	2954.295115
916.420081	2969.448823
916.725536	2975.175574
917.030952	2949.148097
917.336328	2903.621436
917.641665	2850.974146
917.946961	2796.748975
918.252218	2764.541043
918.557435	2734.631877
918.862612	2713.453990
919.167750	2695.444468
919.472848	2677.475275
919.777906	2661.270486
920.082925	2648.307159
920.387904	2637.549336
920.692843	2632.545991
920.997743	2627.333438
921.302603	2621.770525
921.607423	2610.705192
921.912204	2607.814090
922.216946	2604.136569
922.521647	2602.525920
922.826310	2599.231526
923.130932	2596.305136
923.435516	2587.596543
923.740059	2583.934145
924.044564	2584.009762
924.349028	2580.700244
924.653454	2572.767989
924.957840	2568.840930
925.262186	2570.416291
925.566493	2570.197000
925.870761	2563.106618
926.174989	2567.999057
926.479178	2565.128120
926.783328	2563.519992
927.087438	2562.791545
927.391509	2559.010680
927.695541	2558.357851
927.999533	2556.963972
928.303486	2557.163097
928.607400	2557.140412
928.911275	2556.112017
929.215110	2553.236038
929.518906	2556.316183
929.822663	2558.594785
930.126381	2551.844680
930.430060	2555.675957
930.733699	2555.865000
931.037299	2556.928683
931.340861	2554.947510
931.644383	2558.551935
931.947866	2558.078067
932.251309	2557.236194
932.554714	2555.005483
932.858080	2559.754250
933.161407	2554.526574
933.464694	2555.300391
933.767943	2554.337530
934.071153	2551.799309
934.374323	2552.991542
934.677455	2553.747715
934.980548	2554.521532
935.283602	2552.646223
935.586617	2550.859134
935.889593	2554.135884
936.192530	2550.831408
936.495428	2553.755277
936.798287	2552.245452
937.101108	2553.203271
937.403890	2558.630073
937.706632	2561.841288
938.009336	2564.417318
938.312002	2568.609037
938.614628	2574.557598
938.917216	2576.281673
939.219765	2575.139852
939.522275	2577.257136
939.824747	2577.902404
940.127179	2572.518452
940.429573	2568.551064
940.731929	2566.960580
941.034246	2567.121897
941.336524	2565.982596
941.638763	2565.327246
941.940964	2566.675754
942.243126	2564.434962
942.545250	2563.343552
942.847335	2564.097204
943.149381	2562.093346
943.451389	2559.787018
943.753359	2558.987995
944.055290	2559.076215
944.357182	2554.733261
944.659036	2557.163097
944.960851	2555.650751
945.262628	2554.067829
945.564367	2554.420709
945.866067	2557.410114
946.167729	2557.203426
946.469352	2556.452294
946.770937	2557.639486
947.072484	2557.130330
947.373992	2558.010011
947.675462	2556.714434
947.976893	2554.188816
948.278286	2556.202757
948.579641	2554.224104
948.880958	2551.101110
949.182236	2552.424413
949.483476	2555.464228
949.784678	2549.893753
950.085841	2550.539021
950.386967	2555.010524
950.688054	2553.679660
950.989103	2551.925338
951.290114	2556.389280
951.591087	2558.211657
951.892021	2556.782490
952.192917	2560.079405
952.493776	2559.348437
952.794596	2561.133006
953.095378	2562.680640
953.396122	2560.691905
953.696828	2559.023283
953.997496	2557.614280
954.298126	2553.210832
954.598718	2557.647048
954.899272	2552.807540
955.199788	2553.999773
955.500266	2552.580688
955.800706	2547.121119
956.101108	2545.202960
956.401472	2543.244471
956.701798	2543.761190
957.002087	2540.832279
957.302337	2544.945861
957.602550	2543.983000
957.902724	2542.478216
958.202861	2543.211704
958.502960	2540.486960
958.803022	2542.485778
959.103045	2538.818338
959.403031	2538.896476
959.702979	2542.067362
960.002889	2542.947043
960.302762	2538.102494
960.602596	2539.294727
960.902393	2536.955632
961.202153	2540.358411
961.501875	2537.290869
961.801559	2541.515356
962.101205	2538.271373
962.400814	2539.899666
962.700385	2537.439583
962.999918	2538.795653
963.299414	2538.107536
963.598873	2538.105015
963.898293	2534.251053
964.197677	2536.224665
964.497022	2538.031918
964.796331	2538.528472
965.095601	2538.621733
965.394835	2536.983358
965.694030	2536.872453
965.993189	2538.460416
966.292309	2535.614685
966.591393	2536.174253
966.890439	2534.876156
967.189447	2534.223327
967.488419	2537.144675
967.787353	2537.043852
968.086249	2538.415046
968.385108	2536.282638
968.683930	2535.851619
968.982714	2536.932947
969.281462	2536.564943
969.580172	2537.177443
969.878844	2537.895807
970.177480	2539.324974
970.476078	2536.786753
970.774639	2535.793646
971.073162	2536.065868
971.371649	2534.477905
971.670098	2534.104859
971.968510	2535.604603
972.266885	2533.126876
972.565223	2538.578883
972.863524	2537.114428
973.161788	2537.704243
973.460014	2538.402443
973.758204	2536.305323
974.056356	2540.562577
974.354471	2538.649460
974.652550	2537.517721
974.950591	2539.708102
975.248595	2538.520910
975.546563	2537.797505
975.844493	2537.873122
976.142386	2537.061496
976.440243	2539.466127
976.738062	2536.161650
977.035845	2536.262473
977.333590	2539.491332
977.631299	2533.278110
977.928971	2535.322298
978.226606	2536.643080
978.524204	2535.597041
978.821765	2533.199972
979.119290	2536.832124
979.416777	2535.566794
979.714228	2536.280117
980.011642	2535.075282
980.309020	2536.171732
980.606360	2534.833306
980.903664	2538.478060
981.200931	2538.843544
981.498162	2539.246836
981.795356	2538.132741
982.092513	2545.180274
982.389633	2546.528783
982.686717	2548.759494
982.983764	2552.401727
983.280775	2553.009186
983.577749	2550.967519
983.874686	2551.514484
984.171587	2547.143804
984.468451	2546.344781
984.765279	2545.460058
985.062070	2540.081147
985.358824	2541.391847
985.655543	2539.312371
985.952224	2540.398740
986.248869	2536.713657
986.545478	2529.819879
986.842050	2538.034439
987.138586	2532.191742
987.435086	2530.886083
987.731549	2530.286185
988.027975	2534.941691
988.324366	2534.896321
988.620719	2532.882380
988.917037	2533.152081
989.213318	2533.764582
989.509563	2532.995806
989.805772	2531.604447
990.101944	2534.772812
990.398080	2531.057482
990.694180	2533.303316
990.990244	2531.269210
991.286271	2535.907072
991.582262	2530.941535
991.878217	2534.684592
992.174136	2531.796011
992.470019	2533.139478
992.765865	2535.917154
993.061676	2533.613347
993.357450	2532.297606
993.653188	2532.821886
993.948890	2532.970600
994.244556	2532.095960
994.540186	2534.326670
994.835780	2535.319777
995.131337	2535.281969
995.426859	2533.880528
995.722345	2534.079654
996.017795	2535.929757
996.313208	2535.907072
996.608586	2536.113759
996.903928	2540.123997
997.199234	2536.622916
997.494504	2537.086702
997.789738	2533.270548
998.084936	2536.091074
998.380099	2535.390354
998.675225	2535.435724
998.970316	2537.227854
999.265371	2535.143337
999.560390	2528.458767
999.855373	2534.535878
1000.150320	2533.104190
1000.445232	2532.431196
1000.740108	2533.719211
1001.034948	2536.378420
1001.329752	2532.796680
1001.624521	2533.895652
1001.919254	2525.272758
1002.213951	2531.561597
1002.508613	2527.551359
1002.803239	2531.667462
1003.097829	2523.246214
1003.392384	2532.806762
1003.686903	2530.049251
1003.981386	2533.270548
1004.275834	2532.597554
1004.570246	2533.323481
1004.864623	2530.727286
1005.158964	2527.662265
1005.453270	2530.485311
1005.747540	2530.170239
1006.041775	2530.891124
1006.335974	2533.522606
1006.630138	2528.685619
1006.924266	2530.790301
1007.218359	2528.305012
1007.512416	2531.271731
1007.806438	2531.664941
1008.100425	2530.442461
1008.394376	2531.254087
1008.688292	2530.689478
1008.982172	2528.725948
1009.276017	2529.587986
1009.569827	2531.634694
1009.863602	2532.884900
1010.157341	2530.795342
1010.451045	2530.313912
1010.744714	2529.492204
1011.038347	2528.347862
1011.331945	2530.722245
1011.625508	2529.333407
1011.919036	2531.768285
1012.212528	2531.750641
1012.505986	2530.686957
1012.799408	2529.406504
1013.092795	2526.981709
1013.386147	2532.060672
1013.679464	2530.603778
1013.972745	2530.392050
1014.265992	2529.487163
1014.559204	2529.000691
1014.852380	2530.046731
1015.145521	2531.165867
1015.438628	2533.222657
1015.731699	2529.456916
1016.024736	2530.258459
1016.317737	2530.613860
1016.610703	2531.644776
1016.903635	2526.162522
1017.196531	2527.508510
1017.489393	2527.637059
1017.782219	2526.308715
1018.075011	2529.018335
1018.367768	2529.517409
1018.660490	2527.679909
1018.953177	2527.679909
1019.245829	2527.679909
