Dividing Wavelength (nm)	Counts (n)	Blue Motor Position (mm): 3.400000	Red Motor Position (mm): 0.000000	
326.493990	2145.799902
326.888308	2145.799902
327.282561	2145.799902
327.676750	2112.119953
328.070874	2111.010899
328.464933	2112.167844
328.858929	2121.327621
329.252859	2129.491769
329.646726	2140.383182
330.040528	2153.280974
330.434265	2168.986689
330.827938	2188.455625
331.221547	2205.303162
331.615091	2224.744371
332.008571	2247.606004
332.401986	2264.302306
332.795338	2283.738474
333.188625	2302.778912
333.581847	2320.163331
333.975006	2340.653101
334.368100	2358.478621
334.761129	2375.895808
335.154095	2393.330638
335.546996	2410.397465
335.939833	2423.393559
336.332606	2439.056424
336.725315	2454.532767
337.117960	2464.249591
337.510540	2467.990127
337.903056	2482.586788
338.295508	2486.775987
338.687896	2495.313181
339.080220	2506.474295
339.472480	2514.068793
339.864676	2515.689524
340.256807	2519.757736
340.648875	2523.785618
341.040879	2525.686133
341.432818	2526.951462
341.824694	2526.956503
342.216506	2529.630835
342.608253	2529.126720
342.999937	2530.578572
343.391557	2529.955990
343.783113	2529.582944
344.174605	2525.940711
344.566033	2525.476925
344.957397	2525.449198
345.348697	2525.214785
345.739934	2520.090452
346.131106	2515.790348
346.522215	2518.036182
346.913260	2513.063083
347.304241	2513.584843
347.695159	2511.097033
348.086012	2508.573936
348.476802	2508.488236
348.867528	2506.118894
349.258191	2505.455982
349.648789	2505.715602
350.039324	2499.358707
350.429796	2502.302740
350.820203	2501.710405
351.210548	2499.129334
351.600828	2500.278717
351.991045	2496.114724
352.381198	2497.475836
352.771288	2496.369302
353.161314	2496.916268
353.551276	2492.447285
353.941175	2494.448623
354.331010	2496.704539
354.720782	2498.269817
355.110490	2497.085146
355.500135	2495.804693
355.889717	2494.607419
356.279235	2496.780156
356.668689	2498.751248
357.058080	2494.897285
357.447408	2494.859477
357.836672	2493.599188
358.225873	2495.613129
358.615010	2496.233191
359.004084	2499.935919
359.393095	2499.099087
359.782043	2500.021618
360.170927	2499.426762
360.559748	2498.602533
360.948505	2503.245436
361.337199	2501.932216
361.725830	2503.507576
362.114398	2502.970693
362.502903	2503.976403
362.891344	2504.989675
363.279722	2504.747700
363.668037	2503.447082
364.056289	2506.872546
364.444478	2503.227792
364.832603	2506.902793
365.220665	2505.546723
365.608665	2507.643843
365.996601	2508.911693
366.384474	2506.315499
366.772284	2510.691220
367.160031	2507.527896
367.547715	2507.837927
367.935336	2507.916065
368.322893	2509.493946
368.710388	2508.972187
369.097820	2512.901766
369.485189	2509.932527
369.872495	2510.323216
370.259738	2509.682990
370.646918	2510.265243
371.034035	2507.406909
371.421090	2510.943278
371.808081	2511.147445
372.195010	2510.071158
372.581875	2512.800943
372.968678	2513.738598
373.355418	2512.009482
373.742096	2513.650378
374.128710	2512.616941
374.515262	2514.862775
374.901751	2515.059380
375.288177	2514.046108
375.674540	2512.206087
376.060841	2514.124246
376.447079	2512.881602
376.833254	2513.272291
377.219367	2509.864471
377.605417	2514.255316
377.991404	2511.759945
378.377329	2511.860768
378.763191	2511.681807
379.148991	2515.288753
379.534727	2513.572240
379.920402	2514.240193
380.306013	2515.354288
380.691563	2513.854544
381.077049	2514.283042
381.462474	2517.804288
381.847835	2515.951664
382.233134	2518.159690
382.618371	2516.319669
383.003545	2517.577437
383.388657	2517.131294
383.773706	2515.351767
384.158693	2519.573733
384.543618	2517.176665
384.928480	2518.802437
385.313280	2518.159690
385.698017	2519.593898
386.082692	2519.057015
386.467305	2518.575585
386.851856	2521.323014
387.236344	2520.120699
387.620770	2520.960051
388.005133	2521.295287
388.389435	2521.123888
388.773674	2520.657582
389.157851	2520.929804
389.541965	2519.863600
389.926018	2522.064063
390.310008	2520.022396
390.693936	2521.635565
391.077802	2522.893333
391.461606	2523.226049
391.845348	2518.782272
392.229027	2523.026924
392.612645	2521.398631
392.996200	2523.102541
393.379694	2521.325534
393.763125	2524.209074
394.146494	2523.231091
394.529801	2523.508354
394.913047	2524.531708
395.296230	2524.992974
395.679351	2522.623632
396.062410	2522.931142
396.445408	2527.077491
396.828343	2525.804600
397.211217	2521.227232
397.594028	2521.007942
397.976778	2522.411903
398.359466	2523.243693
398.742092	2522.053981
399.124656	2524.380474
399.507158	2526.149919
399.889598	2527.334590
400.271977	2524.725793
400.654294	2527.505989
401.036549	2524.279651
401.418742	2527.110258
401.800874	2526.124713
402.182944	2529.275434
402.564952	2526.039013
402.946898	2526.918695
403.328783	2527.221164
403.710606	2530.434899
404.092367	2528.766277
404.474067	2527.788294
404.855705	2528.020187
405.237282	2528.108407
405.618797	2528.299971
406.000250	2526.888448
406.381642	2527.911802
406.762972	2526.611184
407.144240	2531.634694
407.525447	2528.962883
407.906593	2528.045393
408.287677	2528.650331
408.668700	2529.356093
409.049661	2530.775177
409.430560	2528.794004
409.811399	2532.499252
410.192176	2532.358100
410.572891	2530.931453
410.953545	2528.095804
411.334138	2530.475229
411.714669	2533.121834
412.095139	2531.249046
412.475547	2530.737369
412.855894	2530.243336
413.236180	2530.815507
413.616405	2532.128727
413.996568	2531.801052
414.376670	2532.279962
414.756711	2535.332380
415.136691	2531.238963
415.516609	2533.429345
415.896466	2531.796011
416.276262	2536.756506
416.655997	2529.837523
417.035670	2530.099663
417.415283	2533.474715
417.794834	2526.280989
418.174324	2532.118645
418.553753	2531.919519
418.933121	2535.095446
419.312428	2530.545805
419.691674	2531.337266
420.070859	2534.840868
420.449983	2535.249201
420.829045	2534.167874
421.208047	2531.778367
421.586988	2535.468492
421.965867	2534.586290
422.344686	2532.579910
422.723444	2535.208872
423.102141	2534.946732
423.480777	2537.668955
423.859352	2534.803059
424.237866	2535.929757
424.616319	2537.200128
424.994712	2534.301464
425.373044	2537.154758
425.751314	2535.095446
426.129524	2534.361958
426.507673	2536.529654
426.885762	2537.784902
427.263789	2538.238606
427.641756	2538.609130
428.019662	2534.119983
428.397508	2536.877494
428.775292	2534.535878
429.153016	2538.102494
429.530679	2537.391692
429.908282	2535.662576
430.285824	2537.001002
430.663305	2538.115097
431.040726	2537.991589
431.418086	2535.279448
431.795385	2537.391692
432.172624	2538.379758
432.549802	2539.113246
432.926920	2539.037628
433.303977	2539.781199
433.680974	2539.481250
434.057910	2538.974614
434.434786	2538.588966
434.811601	2541.099460
435.188355	2536.968235
435.565050	2539.597197
435.941683	2539.115766
436.318257	2538.528472
436.694770	2537.676517
437.071222	2536.839685
437.447614	2537.580735
437.823946	2536.396064
438.200218	2539.629964
438.576429	2539.025026
438.952580	2539.453524
439.328670	2537.626105
439.704700	2540.849923
440.080670	2539.725746
440.456580	2539.188863
440.832429	2539.655170
441.208218	2539.710623
441.583947	2541.437218
441.959616	2542.415202
442.335224	2539.372865
442.710773	2539.907228
443.086261	2543.453679
443.461689	2539.501415
443.837057	2542.435366
444.212365	2543.239430
444.587612	2541.666590
444.962800	2541.865716
445.337927	2540.532331
445.712995	2541.018802
446.088002	2542.793288
446.462949	2538.435211
446.837837	2539.216589
447.212664	2540.799512
447.587431	2544.827394
447.962139	2545.177754
448.336786	2543.075593
448.711374	2540.978473
449.085901	2540.544933
449.460369	2541.533000
449.834776	2541.331353
450.209124	2540.980993
450.583412	2542.949564
450.957640	2542.180788
451.331808	2543.776313
451.705917	2539.569470
452.079965	2545.765048
452.453954	2540.860006
452.827883	2546.047353
453.201752	2543.897301
453.575562	2544.330840
453.949311	2541.757331
454.323001	2542.994934
454.696632	2543.746066
455.070202	2544.857641
455.443713	2543.325130
455.817164	2543.136087
456.190556	2536.307844
456.563888	2541.147351
456.937160	2538.031918
457.310373	2545.243289
457.683526	2542.702547
458.056619	2545.429812
458.429653	2543.289842
458.802628	2542.354708
459.175542	2542.669780
459.548398	2546.223793
459.921194	2545.593649
460.293930	2547.305121
460.666607	2543.269677
461.039224	2545.848227
461.411782	2545.079451
461.784280	2546.082641
462.156719	2545.223124
462.529099	2543.594832
462.901419	2546.508618
463.273680	2545.303783
463.645882	2546.869061
464.018024	2547.083310
464.390106	2544.456869
464.762130	2546.468289
465.134094	2545.276056
465.505999	2545.336550
465.877845	2544.933258
466.249631	2548.492313
466.621358	2545.659184
466.993026	2548.388969
467.364634	2550.034906
467.736184	2547.652960
468.107674	2545.754966
468.479105	2546.163299
468.850477	2544.073741
469.221790	2543.753628
469.593043	2544.998793
469.964238	2547.940306
470.335373	2546.705223
470.706449	2547.922662
471.077467	2546.521221
471.448425	2545.505429
471.819324	2546.561551
472.190164	2546.795964
472.560945	2544.719009
472.931667	2547.564740
473.302330	2546.632127
473.672934	2544.933258
474.043479	2549.722354
474.413965	2546.029709
474.784393	2543.277239
475.154761	2543.637681
475.525070	2541.336395
475.895321	2545.129863
476.265513	2539.781199
476.635645	2546.160779
477.005719	2545.308824
477.375734	2547.400903
477.745691	2547.073228
478.115588	2549.886192
478.485427	2546.490974
478.855207	2546.256561
479.224928	2549.606408
479.594591	2550.717982
479.964194	2547.224462
480.333739	2548.512477
480.703226	2545.913762
481.072653	2547.153886
481.442022	2545.850748
481.811333	2548.477189
482.180584	2549.225800
482.549777	2549.858465
482.918912	2547.408464
483.287988	2550.838970
483.657005	2549.578681
484.025964	2544.267826
484.394864	2545.107178
484.763706	2548.762014
485.132489	2548.376366
485.501213	2548.341078
485.869879	2548.177240
486.238487	2546.352343
486.607036	2547.852086
486.975527	2548.933413
487.343959	2549.409803
487.712333	2548.114226
488.080648	2547.259750
488.448905	2546.896787
488.817104	2551.267468
489.185244	2548.262940
489.553326	2549.150183
489.921350	2549.248486
490.289315	2548.893084
490.657222	2550.970040
491.025070	2550.274360
491.392861	2550.571788
491.760593	2550.206305
492.128267	2550.299566
492.495883	2549.639175
492.863440	2546.831252
493.230939	2550.183620
493.598380	2550.317210
493.965763	2545.167672
494.333088	2548.164638
494.700354	2544.466951
495.067563	2546.105326
495.434713	2543.350336
495.801805	2548.257899
496.168839	2552.144628
496.535815	2547.655481
496.902733	2549.177909
497.269593	2548.525080
497.636395	2552.986501
498.003139	2548.693959
498.369825	2547.592467
498.736453	2549.558517
499.103023	2552.096738
499.469535	2549.719833
499.835989	2551.345606
500.202385	2550.803682
500.568723	2551.494320
500.935003	2548.830070
501.301226	2549.709751
501.667390	2550.846531
502.033497	2551.877447
502.399546	2551.874927
502.765537	2550.649926
503.131470	2550.435677
503.497345	2550.506253
503.863163	2552.920966
504.228923	2550.526418
504.594625	2550.904505
504.960269	2551.219577
505.325856	2550.344937
505.691385	2551.940462
506.056856	2551.469114
506.422270	2552.603373
506.787625	2549.377035
507.152924	2547.194215
507.518164	2551.821995
507.883347	2551.098589
508.248472	2548.310831
508.613540	2547.249668
508.978550	2552.623538
509.343503	2550.980122
509.708398	2552.721841
510.073236	2550.639844
510.438016	2552.782334
510.802738	2549.906356
511.167403	2551.373332
511.532010	2552.903322
511.896561	2550.997766
512.261053	2552.159752
512.625488	2551.040616
512.989866	2548.104144
513.354186	2548.388969
513.718449	2544.908052
514.082655	2548.557847
514.446803	2554.791234
514.810894	2552.540359
515.174927	2550.702858
515.538904	2553.258723
515.902822	2548.502395
516.266684	2552.011038
516.630488	2552.558003
516.994235	2551.713610
517.357925	2549.611449
517.721558	2550.639844
518.085133	2550.720502
518.448651	2551.441388
518.812112	2554.834084
519.175516	2552.036244
519.538863	2551.806871
519.902152	2552.696635
520.265385	2553.959444
520.628560	2551.199412
520.991678	2549.815615
521.354739	2552.144628
521.717743	2550.856614
522.080690	2553.964485
522.443580	2554.483724
522.806413	2551.605225
523.169189	2551.643034
523.531908	2553.586398
523.894569	2550.355019
524.257174	2549.868548
524.619722	2550.697817
524.982213	2555.169321
525.344647	2552.744526
525.707025	2551.940462
526.069345	2551.731254
526.431608	2556.590926
526.793815	2552.109340
527.155964	2553.949362
527.518057	2552.832746
527.880093	2553.299053
528.242072	2554.511450
528.603995	2551.885009
528.965860	2551.456511
529.327669	2554.730740
529.689421	2551.701007
530.051117	2553.767880
530.412755	2552.053888
530.774337	2553.256203
531.135862	2552.111861
531.497331	2549.316541
531.858743	2548.141952
532.220098	2552.038764
532.581396	2547.748742
532.942638	2551.141439
533.303824	2553.110009
533.664953	2552.742005
534.026025	2549.377035
534.387040	2553.793086
534.747999	2551.925338
535.108902	2550.985163
535.469748	2551.441387
535.830537	2550.964998
536.191270	2552.363919
536.551947	2554.145967
536.912567	2555.186965
537.273131	2551.300235
537.633638	2550.075235
537.994089	2552.142108
538.354483	2552.290822
538.714821	2553.094886
539.075103	2553.634289
539.435328	2553.596481
539.795497	2552.268137
540.155609	2552.298384
540.515665	2552.492468
540.875665	2549.099772
541.235609	2553.387273
541.595496	2554.627397
541.955328	2553.067160
542.315102	2549.858465
542.674821	2551.227138
543.034483	2551.559855
543.394090	2554.002294
543.753640	2556.059084
544.113134	2550.609597
544.472571	2552.464742
544.831953	2554.481203
545.191278	2554.372818
545.550548	2553.659495
545.909761	2553.757798
546.268918	2553.906512
546.628019	2553.500699
546.987064	2553.667057
547.346053	2555.305432
547.704986	2552.805020
548.063863	2555.834753
548.422684	2550.783517
548.781449	2551.269988
549.140158	2552.638662
549.498811	2555.040771
549.857408	2553.394835
550.215949	2550.375183
550.574434	2548.779658
550.932864	2549.467776
551.291237	2550.349978
551.649555	2554.355174
552.007817	2552.953734
552.366022	2553.646892
552.724173	2552.966337
553.082267	2554.818961
553.440305	2552.618497
553.798288	2553.725030
554.156215	2549.656819
554.514086	2553.911553
554.871902	2551.600184
555.229661	2551.396017
555.587365	2552.215205
555.945014	2552.779814
556.302606	2554.196378
556.660143	2552.479865
557.017625	2551.706048
557.375050	2555.292829
557.732421	2553.210832
558.089735	2553.223435
558.446994	2552.139587
558.804197	2556.308622
559.161345	2553.304094
559.518437	2554.781152
559.875474	2552.207643
560.232455	2554.266954
560.589381	2553.674619
560.946251	2556.716955
561.303065	2552.900802
561.659825	2554.934907
562.016528	2553.384752
562.373177	2551.713610
562.729770	2553.372149
563.086307	2553.631769
563.442789	2551.864844
563.799216	2554.851728
564.155587	2555.060936
564.511904	2553.351985
564.868164	2555.421378
565.224370	2553.649413
565.580520	2555.895247
565.936615	2550.975081
566.292654	2554.728220
566.648638	2553.089845
567.004567	2553.011707
567.360441	2553.772921
567.716260	2554.415668
568.072023	2552.255534
568.427732	2549.152704
568.783385	2552.752087
569.138982	2548.767055
569.494525	2553.097407
569.850013	2546.685059
570.205445	2555.378529
570.560823	2551.080945
570.916145	2554.786193
571.271412	2551.958106
571.626625	2551.814433
571.981782	2552.288301
572.336884	2553.656975
572.691931	2551.232180
573.046923	2554.392983
573.401860	2554.067829
573.756743	2551.917777
574.111570	2551.559855
574.466342	2555.227294
574.821059	2553.803168
575.175722	2555.116389
575.530330	2554.271995
575.884882	2553.601522
576.239380	2554.335010
576.593823	2554.322407
576.948211	2554.720658
577.302544	2551.637993
577.656823	2552.212684
578.011047	2555.786862
578.365216	2553.344423
578.719330	2553.460370
579.073389	2551.653116
579.427394	2552.615976
579.781344	2551.401058
580.135239	2550.995245
580.489080	2552.868034
580.842866	2553.649413
581.196597	2555.081101
581.550273	2555.496996
581.903895	2555.315514
582.257463	2554.937428
582.610975	2553.581357
582.964434	2554.521533
583.317837	2556.129661
583.671186	2557.064795
584.024481	2552.386604
584.377721	2555.159238
584.730906	2551.595143
585.084037	2552.684032
585.437113	2553.649413
585.790135	2556.744681
586.143103	2557.001780
586.496016	2553.271326
586.848874	2551.348126
587.201679	2552.822664
587.554428	2548.401572
587.907124	2552.605894
588.259765	2549.170348
588.612352	2553.873744
588.964884	2554.405586
589.317362	2555.575134
589.669786	2553.392314
590.022155	2553.967006
590.374470	2550.944834
590.726731	2550.065153
591.078937	2554.208981
591.431090	2554.277037
591.783188	2552.565565
592.135232	2553.810730
592.487222	2555.073539
592.839157	2553.046995
593.191038	2554.904660
593.542866	2553.508261
593.894639	2555.857438
594.246358	2552.936090
594.598022	2552.994063
594.949633	2554.171172
595.301190	2554.070349
595.652692	2554.022458
596.004141	2555.650751
596.355535	2555.570092
596.706876	2553.863662
597.058162	2554.148487
597.409395	2552.585729
597.760573	2556.016235
598.111698	2555.902809
598.462768	2556.308622
598.813785	2555.512119
599.164748	2555.658313
599.515657	2553.273847
599.866511	2553.838456
600.217312	2554.846687
600.568060	2552.444577
600.918753	2555.068498
601.269392	2554.647561
601.619978	2553.195709
601.970510	2552.343754
602.320988	2551.146480
602.671412	2552.081614
603.021783	2554.014897
603.372100	2555.093703
603.722363	2555.307953
604.072572	2553.044474
604.422728	2553.982129
604.772830	2549.931562
605.122878	2548.353681
605.472872	2554.478683
605.822813	2548.540203
606.172701	2554.360216
606.522534	2553.752757
606.872314	2555.706204
607.222041	2555.557490
607.571714	2552.643703
607.921333	2555.854918
608.270899	2553.674619
608.620411	2554.655123
608.969870	2558.398180
609.319276	2556.152346
609.668627	2557.631924
610.017926	2558.514126
610.367171	2559.928170
610.716362	2558.156204
611.065500	2558.148643
611.414585	2558.098231
611.763616	2558.640155
612.112594	2554.758467
612.461518	2555.565051
612.810389	2556.149825
613.159207	2555.781821
613.507971	2555.512119
613.856682	2557.788200
614.205340	2554.135884
614.553945	2556.200237
614.902496	2554.944989
615.250994	2554.292160
615.599439	2555.433981
615.947830	2556.159908
616.296169	2552.794937
616.644454	2555.050854
616.992686	2553.871224
617.340864	2555.439023
617.688990	2553.465411
618.037063	2554.357695
618.385082	2552.845349
618.733048	2553.977088
619.080961	2552.079093
619.428821	2553.490617
619.776628	2554.753426
620.124382	2555.897767
620.472083	2556.233004
620.819731	2555.895247
621.167326	2555.796944
621.514868	2558.703170
621.862357	2556.638817
622.209793	2554.561862
622.557176	2553.818292
622.904506	2548.696479
623.251783	2550.990204
623.599007	2551.706048
623.946179	2550.183620
624.293297	2550.632282
624.640363	2556.212840
624.987376	2551.673281
625.334336	2555.398693
625.681243	2554.193858
626.028097	2553.478014
626.374899	2553.372149
626.721647	2554.448436
627.068343	2556.525391
627.414987	2552.668908
627.761577	2555.484393
628.108115	2554.766028
628.454600	2555.565051
628.801032	2555.083621
629.147412	2553.757798
629.493739	2557.032027
629.840014	2555.512119
630.186236	2552.527756
630.532405	2555.847356
630.878521	2554.960113
631.224585	2555.340720
631.570597	2553.596481
631.916556	2556.016235
632.262462	2554.967675
632.608316	2554.461039
632.954117	2552.605894
633.299866	2554.531615
633.645562	2553.989691
633.991206	2554.458518
634.336797	2554.128323
634.682336	2554.400545
635.027823	2553.195709
635.373257	2555.312994
635.718639	2554.266954
636.063968	2554.576985
636.409245	2550.181099
636.754470	2554.503888
637.099642	2555.416337
637.444762	2556.454815
637.789829	2555.522202
638.134845	2553.480534
638.479808	2553.367108
638.824719	2555.547407
639.169577	2552.414330
639.514383	2557.062274
639.859137	2550.879299
640.203839	2552.802499
640.548489	2554.556821
640.893086	2551.330482
641.237632	2550.060111
641.582125	2549.903836
641.926566	2549.245965
642.270955	2553.382232
642.615292	2552.807540
642.959576	2551.998435
643.303809	2555.499516
643.647990	2555.885165
643.992118	2555.083621
644.336195	2554.221584
644.680219	2554.859290
645.024192	2553.241079
645.368112	2554.685370
645.711981	2552.497509
646.055797	2552.106820
646.399562	2553.616645
646.743274	2554.884496
647.086935	2555.804506
647.430544	2552.910884
647.774101	2553.919115
648.117606	2553.984650
648.461059	2553.241079
648.804460	2558.536812
649.147810	2551.842159
649.491108	2554.818961
649.834354	2556.853066
650.177548	2554.720658
650.520690	2554.085473
650.863781	2553.324258
651.206820	2558.020093
651.549807	2552.235369
651.892742	2551.774104
652.235626	2551.481717
652.578458	2553.765359
652.921238	2553.747715
653.263967	2552.192519
653.606644	2554.458518
653.949269	2554.831563
654.291843	2552.525236
654.634365	2554.939948
654.976836	2552.048847
655.319255	2554.511450
655.661622	2551.544731
656.003938	2556.094373
656.346203	2552.769732
656.688416	2552.613456
657.030577	2554.347613
657.372687	2553.505740
657.714746	2551.464073
658.056753	2551.164124
658.398708	2549.739998
658.740612	2550.226469
659.082465	2548.832590
659.424266	2549.757642
659.766016	2550.360060
660.107715	2555.948179
660.449362	2552.948693
660.790958	2552.946172
661.132503	2553.175544
661.473996	2554.448436
661.815438	2553.198230
662.156829	2555.000442
662.498168	2553.062118
662.839456	2551.922818
663.180693	2553.931717
663.521879	2554.667726
663.863013	2554.002294
664.204097	2552.668908
664.545129	2554.642520
664.886110	2553.581357
665.227040	2554.851728
665.567918	2555.736451
665.908746	2553.788045
666.249522	2554.980277
666.590248	2550.604556
666.930922	2553.926676
667.271545	2551.537169
667.612118	2553.115051
667.952639	2551.932900
668.293109	2552.154711
668.633528	2555.038251
668.973896	2552.429454
669.314213	2552.063970
669.654480	2555.169321
669.994695	2553.026830
670.334859	2551.771583
670.674973	2552.724361
671.015035	2554.103117
671.355047	2553.558672
671.695008	2554.834084
672.034918	2554.826522
672.374777	2551.264947
672.714585	2551.821995
673.054342	2548.807385
673.394049	2555.365926
673.733705	2553.009186
674.073310	2554.569423
674.412864	2554.748384
674.752368	2553.929197
675.091820	2553.818292
675.431223	2553.059598
675.770574	2553.457849
676.109875	2548.673794
676.449125	2547.897456
676.788324	2550.702858
677.127473	2552.230328
677.466571	2548.840152
677.805619	2553.092365
678.144616	2550.072714
678.483562	2553.135215
678.822458	2551.461552
679.161303	2555.141594
679.500098	2551.527087
679.838842	2550.576830
680.177535	2552.510112
680.516179	2552.774773
680.854771	2554.445915
681.193314	2552.258054
681.531805	2553.445246
681.870247	2552.994063
682.208638	2553.553631
682.546978	2552.089176
682.885268	2552.250493
683.223508	2549.848383
683.561697	2553.604043
683.899836	2551.877447
684.237925	2550.937272
684.575963	2549.122457
684.913951	2551.080945
685.251889	2555.744012
685.589776	2553.188147
685.927614	2552.326110
686.265401	2554.657644
686.603137	2552.328631
686.940824	2555.209650
687.278460	2552.646223
687.616046	2553.490617
687.953582	2552.071532
688.291068	2551.350647
688.628504	2552.658826
688.965889	2554.574465
689.303224	2552.094217
689.640510	2549.820657
689.977745	2554.045143
690.314930	2552.802499
690.652065	2554.871893
690.989150	2552.605894
691.326185	2555.597819
691.663170	2550.798640
692.000105	2552.159752
692.336990	2550.067673
692.673825	2550.997766
693.010610	2553.588919
693.347345	2549.674463
693.684030	2548.794782
694.020665	2551.194371
694.357251	2547.466438
694.693786	2552.396686
695.030272	2553.750236
695.366707	2553.669578
695.703093	2553.208312
696.039429	2551.176727
696.375716	2556.537994
696.711952	2553.236038
697.048139	2551.408620
697.384276	2552.169834
697.720363	2553.891388
698.056400	2550.390307
698.392388	2550.896943
698.728326	2554.375339
699.064214	2551.312838
699.400053	2554.123281
699.735842	2548.323434
700.071581	2551.698486
700.407270	2551.708569
700.742910	2550.551624
701.078501	2549.921480
701.414042	2553.067160
701.749533	2553.072201
702.084974	2554.682849
702.420366	2553.188147
702.755709	2553.392314
703.091002	2551.685883
703.426246	2553.629248
703.761440	2550.682694
704.096584	2555.076059
704.431679	2550.531459
704.766725	2554.183775
705.101721	2551.141439
705.436668	2551.842159
705.771565	2551.511964
706.106413	2552.033723
706.441212	2552.689073
706.775961	2553.631769
707.110661	2551.688404
707.445311	2554.587068
707.779913	2553.223435
708.114465	2554.287119
708.448967	2554.536656
708.783421	2553.755277
709.117825	2551.771583
709.452180	2551.849721
709.786485	2551.443908
710.120742	2553.392314
710.454949	2553.125133
710.789107	2551.012889
711.123216	2549.828218
711.457275	2549.606407
711.791286	2546.591797
712.125247	2550.806202
712.459159	2553.099927
712.793023	2549.780327
713.126837	2551.146480
713.460602	2551.070863
713.794318	2550.087838
714.127985	2551.138918
714.461602	2556.049002
714.795171	2552.056408
715.128691	2549.588763
715.462162	2551.602704
715.795584	2550.430636
716.128957	2554.471121
716.462281	2551.176727
716.795556	2552.280740
717.128782	2554.229146
717.461960	2551.920297
717.795088	2552.568085
718.128167	2551.204453
718.461198	2553.127653
718.794180	2555.164280
719.127113	2550.617159
719.459997	2552.527756
719.792833	2551.292673
720.125619	2556.996739
720.458357	2551.572458
720.791046	2554.531615
721.123686	2551.131357
721.456278	2554.697973
721.788821	2551.663198
722.121315	2550.292004
722.453761	2550.130688
722.786158	2549.412323
723.118506	2551.239741
723.450805	2549.893753
723.783056	2550.730585
724.115259	2550.849052
724.447412	2548.978784
724.779518	2552.772252
725.111574	2551.746377
725.443582	2553.485575
725.775542	2552.530277
726.107453	2550.455842
726.439315	2551.718651
726.771129	2552.210163
727.102895	2549.286294
727.434612	2552.696635
727.766281	2552.918446
728.097901	2549.233362
728.429473	2546.737991
728.760996	2548.328475
729.092471	2547.325285
729.423897	2551.375852
729.755276	2551.600184
730.086606	2552.187478
730.417887	2552.442057
730.749120	2551.907694
731.080305	2553.397355
731.411442	2550.488609
731.742530	2551.325441
732.073570	2552.704197
732.404562	2549.266130
732.735506	2553.001625
733.066401	2550.753270
733.397249	2550.924669
733.728048	2551.249824
734.058798	2550.629762
734.389501	2551.257385
734.720156	2552.865513
735.050762	2549.550955
735.381320	2550.337375
735.711831	2548.686397
736.042293	2549.359391
736.372707	2552.147149
736.703073	2552.230328
737.033391	2551.131357
737.363661	2552.873075
737.693883	2550.155893
738.024056	2554.065308
738.354182	2551.398538
738.684260	2549.273691
739.014290	2551.532128
739.344272	2550.972560
739.674207	2549.077086
740.004093	2550.629762
740.333931	2553.389793
740.663722	2550.435677
740.993464	2551.078424
741.323159	2552.636141
741.652806	2551.136398
741.982405	2550.498692
742.311956	2553.319217
742.641460	2550.256716
742.970915	2550.042467
743.300323	2550.884340
743.629683	2553.198230
743.958996	2552.684032
744.288260	2550.977601
744.617477	2550.370142
744.946647	2543.869574
745.275768	2548.696479
745.604842	2548.381407
745.933869	2549.795451
746.262847	2546.934596
746.591778	2550.085317
746.920662	2550.949875
747.249498	2552.290822
747.578286	2551.658157
747.907027	2548.109185
748.235720	2551.529608
748.564365	2550.473486
748.892963	2550.470965
749.221514	2550.602035
749.550017	2549.777807
749.878473	2548.764535
750.206881	2550.412992
750.535242	2551.252344
750.863555	2548.361242
751.191821	2551.494320
751.520039	2552.147149
751.848210	2553.263765
752.176334	2550.528939
752.504411	2550.992725
752.832440	2548.336037
753.160421	2549.041798
753.488356	2550.544062
753.816243	2549.775286
754.144082	2551.267468
754.471875	2550.468445
754.799620	2549.397200
755.127318	2548.361243
755.454969	2552.563044
755.782572	2551.201933
756.110129	2550.478527
756.437638	2551.524567
756.765100	2550.430636
757.092515	2551.315359
757.419882	2549.601366
757.747203	2549.303938
758.074477	2553.813250
758.401703	2550.634803
758.728882	2551.214536
759.056014	2552.958775
759.383099	2550.231511
759.710138	2549.760163
760.037129	2549.934083
760.364073	2550.460883
760.690970	2547.395862
761.017820	2550.281922
761.344623	2548.235214
761.671379	2551.035575
761.998088	2544.305634
762.324751	2549.021634
762.651366	2547.176571
762.977935	2551.862324
763.304456	2544.623227
763.630931	2552.321069
763.957359	2554.443395
764.283740	2548.600697
764.610074	2549.863506
764.936362	2550.322251
765.262602	2551.522046
765.588796	2550.355019
765.914943	2550.602035
766.241044	2552.263096
766.567097	2548.267981
766.893104	2549.334185
767.219064	2546.306972
767.544978	2549.561037
767.870845	2551.070863
768.196665	2549.553475
768.522438	2549.495502
768.848165	2550.995245
769.173846	2549.646737
769.499479	2550.193702
769.825066	2551.053219
770.150607	2553.339382
770.476101	2550.140770
770.801548	2550.997766
771.126949	2549.054401
771.452303	2549.457693
771.777611	2547.509288
772.102872	2549.384597
772.428087	2549.198074
772.753256	2548.855276
773.078378	2550.055070
773.403453	2551.186809
773.728482	2550.072714
774.053465	2549.112374
774.378401	2551.547252
774.703291	2548.729247
775.028135	2548.341078
775.352932	2548.353681
775.677683	2550.430636
776.002388	2552.694114
776.327046	2552.338713
776.651658	2550.498692
776.976224	2549.213198
777.300743	2549.440049
777.625216	2551.204453
777.949643	2549.044319
778.274024	2549.896274
778.598359	2548.411654
778.922647	2547.738660
779.246889	2548.794782
779.571086	2545.079451
779.895236	2549.503064
780.219339	2551.761501
780.543397	2552.525236
780.867409	2551.849721
781.191374	2553.052036
781.515294	2548.925852
781.839167	2547.403423
782.162995	2551.307797
782.486776	2551.738816
782.810511	2552.348795
783.134201	2548.487271
783.457844	2549.067004
783.781441	2551.209494
784.104993	2547.902497
784.428498	2549.855945
784.751958	2549.392158
785.075372	2550.201264
785.398739	2550.594474
785.722061	2549.150183
786.045337	2550.682694
786.368568	2549.848383
786.691752	2550.541542
787.014891	2548.106664
787.337983	2550.312169
787.661030	2548.368804
787.984031	2547.605069
788.306987	2547.632796
788.629897	2553.213353
788.952760	2550.415513
789.275579	2550.793599
789.598351	2552.764690
789.921078	2549.523228
790.243759	2548.915769
790.566395	2550.138249
790.888984	2549.513146
791.211529	2551.464073
791.534027	2552.132026
791.856480	2549.152704
792.178888	2548.787220
792.501249	2549.490461
792.823566	2548.126829
793.145836	2549.641696
793.468062	2551.161603
793.790241	2549.256047
794.112375	2551.816953
794.434464	2549.281253
794.756507	2548.242775
795.078505	2550.367622
795.400457	2547.862168
795.722364	2546.271684
796.044226	2548.124308
796.366042	2544.013247
796.687812	2547.980635
797.009538	2550.339895
797.331218	2548.315872
797.652852	2547.526932
797.974442	2550.365101
798.295986	2547.393341
798.617484	2548.124308
798.938938	2549.616490
799.260346	2548.777138
799.581709	2546.770758
799.903026	2550.292004
800.224299	2548.603218
800.545526	2551.214536
800.866708	2550.228990
801.187845	2550.604556
801.508936	2549.114895
801.829983	2548.560368
802.150984	2546.128011
802.471940	2550.806202
802.792851	2547.874771
803.113717	2551.464073
803.434538	2549.838301
803.755314	2548.207487
804.076045	2548.885523
804.396731	2548.940975
804.717372	2549.921480
805.037967	2545.696993
805.358518	2551.403579
805.679024	2550.806202
805.999485	2549.762683
806.319901	2548.895605
806.640272	2549.596325
806.960598	2549.886192
807.280879	2549.334185
807.601115	2548.129349
807.921306	2548.497354
808.241453	2547.743701
808.561554	2550.549103
808.881611	2549.124977
809.201623	2547.597508
809.521590	2548.840152
809.841513	2549.745039
810.161390	2545.775131
810.481223	2548.469627
810.801011	2550.455842
811.120755	2548.336037
811.440453	2552.164793
811.760107	2550.808723
812.079716	2545.593649
812.399281	2544.454348
812.718801	2547.554658
813.038276	2544.655994
813.357707	2550.135729
813.677093	2547.123639
813.996434	2547.771428
814.315731	2546.972405
814.634983	2546.836293
814.954191	2546.743032
815.273354	2550.407951
815.592473	2552.109340
815.911547	2550.720502
816.230577	2552.058929
816.549562	2548.938455
816.868502	2545.576005
817.187399	2548.003321
817.506250	2547.721016
817.825058	2550.319731
818.143821	2549.185471
818.462539	2552.159752
818.781213	2549.815615
819.099843	2547.642878
819.418429	2550.085317
819.736970	2546.622044
820.055466	2548.988866
820.373919	2549.518187
820.692327	2551.789227
821.010691	2549.654298
821.329011	2549.984494
821.647286	2552.179917
821.965517	2549.724875
822.283704	2548.457024
822.601847	2547.874771
822.919945	2546.740512
823.237999	2547.640357
823.556010	2548.388969
823.873976	2550.176058
824.191897	2549.767724
824.509775	2547.514329
824.827609	2548.409133
825.145398	2549.697148
825.463144	2546.596839
825.780845	2549.089689
826.098502	2549.760163
826.416116	2548.653629
826.733685	2548.073897
827.051210	2550.420554
827.368692	2547.166489
827.686129	2548.827549
828.003522	2546.654812
828.320872	2543.012578
828.638177	2547.574822
828.955439	2543.675490
829.272656	2546.160779
829.589830	2545.762528
829.906960	2549.089689
830.224046	2546.312013
830.541088	2549.956768
830.858086	2545.507949
831.175041	2548.197405
831.491952	2546.899308
831.808819	2547.116077
832.125642	2549.003990
832.442421	2547.905018
832.759157	2548.545245
833.075849	2551.345606
833.392497	2548.903167
833.709101	2551.002807
834.025662	2547.708413
834.342179	2548.076417
834.658653	2548.845193
834.975083	2549.135060
835.291469	2553.863662
835.607811	2547.504246
835.924110	2547.259750
836.240366	2548.285625
836.556578	2546.501057
836.872746	2551.726213
837.188871	2547.103475
837.504952	2548.988866
837.820990	2550.876778
838.136984	2547.733619
838.452935	2547.090872
838.768842	2548.363763
839.084706	2546.014585
839.400526	2547.453835
839.716303	2548.215049
840.032037	2547.852086
840.347727	2547.970553
840.663373	2551.794268
840.978977	2547.408464
841.294537	2546.674977
841.610054	2547.647919
841.925527	2549.800492
842.240957	2547.683207
842.556344	2548.227652
842.871687	2548.923331
843.186987	2550.468445
843.502244	2546.347302
843.817458	2548.978784
844.132629	2545.452497
844.447756	2547.085831
844.762840	2544.434184
845.077881	2545.666746
845.392879	2546.173382
845.707833	2548.174720
846.022745	2544.724050
846.337613	2548.651109
846.652438	2548.522559
846.967221	2547.060625
847.281960	2547.690769
847.596656	2548.913249
847.911309	2549.684545
848.225919	2547.456355
848.540485	2548.341078
848.855009	2547.226983
849.169490	2547.088351
849.483928	2546.044832
849.798323	2548.671273
850.112675	2546.692621
850.426984	2546.921993
850.741251	2547.521890
851.055474	2548.247817
851.369654	2548.809905
851.683792	2547.131201
851.997887	2549.399720
852.311938	2546.312013
852.625947	2550.163455
852.939914	2547.219421
853.253837	2548.744370
853.567718	2546.947199
853.881555	2550.992725
854.195350	2549.142621
854.509103	2546.501057
854.822812	2546.606921
855.136479	2547.121119
855.450103	2547.847045
855.763685	2548.693959
856.077224	2548.348640
856.390720	2548.809905
856.704173	2548.068856
857.017584	2547.993238
857.330953	2551.131357
857.644278	2547.395862
857.957561	2552.207643
858.270802	2547.549617
858.584000	2549.717313
858.897155	2550.634803
859.210268	2547.317724
859.523339	2547.942827
859.836367	2549.026675
860.149352	2546.657332
860.462295	2548.383928
860.775195	2544.046015
861.088054	2545.737322
861.400869	2544.686241
861.713642	2541.931251
862.026373	2547.627755
862.339062	2548.731767
862.651708	2545.480223
862.964312	2550.039947
863.276873	2544.855120
863.589392	2545.636499
863.901869	2545.376879
864.214303	2549.203115
864.526696	2547.544576
864.839045	2547.128680
865.151353	2546.450645
865.463619	2549.561037
865.775842	2546.871582
866.088023	2547.431150
866.400162	2546.286808
866.712258	2543.604914
867.024313	2546.564071
867.336325	2547.589946
867.648296	2546.513660
867.960224	2547.242106
868.272110	2547.242106
868.583954	2544.096426
868.895755	2548.288146
869.207515	2545.341591
869.519233	2549.825698
869.830909	2547.766386
870.142542	2546.856458
870.454134	2547.279915
870.765684	2548.399051
871.077191	2545.190357
871.388657	2549.349309
871.700081	2546.788402
872.011463	2546.841335
872.322803	2546.034750
872.634101	2547.713454
872.945357	2547.413506
873.256571	2549.903836
873.567744	2549.639175
873.878874	2548.141952
874.189963	2546.259081
874.501010	2549.124977
874.812015	2547.438711
875.122979	2547.093392
875.433900	2548.068856
875.744780	2545.880995
876.055618	2547.305121
876.366415	2546.939637
876.677169	2549.540872
876.987882	2541.903524
877.298554	2543.176416
877.609183	2544.469472
877.919771	2542.654656
878.230317	2545.588608
878.540822	2549.041798
878.851285	2546.143135
879.161707	2547.453835
879.472087	2544.908052
879.782425	2546.899308
880.092722	2548.840152
880.402977	2547.552137
880.713191	2545.901159
881.023363	2549.664381
881.333494	2548.499874
881.643583	2546.934596
881.953631	2547.292518
882.263637	2545.260933
882.573602	2547.461397
882.883526	2547.199257
883.193408	2546.433001
883.503248	2549.533311
883.813048	2547.645399
884.122806	2549.268650
884.432522	2546.110367
884.742197	2546.584236
885.051831	2546.985008
885.361424	2548.656150
885.670975	2546.407795
885.980485	2545.394523
886.289954	2548.076417
886.599382	2549.286294
886.908768	2549.442570
887.218113	2547.645399
887.527417	2548.026006
887.836680	2547.383259
888.145901	2548.565409
888.455082	2546.488454
888.764221	2547.726057
889.073319	2543.284801
889.382376	2546.380069
889.691392	2546.904349
890.000366	2549.127498
890.309300	2546.145655
890.618193	2545.754966
890.927044	2547.499205
891.235855	2548.847714
891.544625	2545.170192
891.853353	2547.743701
892.162041	2546.982487
892.470687	2547.758825
892.779293	2547.499205
893.087858	2544.734132
893.396381	2545.117260
893.704864	2541.835469
894.013306	2544.338402
894.321707	2545.354194
894.630068	2549.051881
894.938387	2544.908052
895.246665	2546.261602
895.554903	2545.268495
895.863100	2547.942827
896.171256	2546.445604
896.479371	2546.730429
896.787446	2546.710265
897.095480	2544.943340
897.403473	2547.118598
897.711425	2544.729091
898.019336	2543.428473
898.327207	2547.819318
898.635038	2545.578526
898.942827	2545.908721
899.250576	2547.337888
899.558284	2547.156407
899.865952	2546.624565
900.173579	2547.814277
900.481165	2545.452497
900.788711	2545.271015
901.096216	2546.070038
901.403681	2545.780172
901.711105	2550.057591
902.018489	2546.372507
902.325832	2546.586756
902.633135	2547.093392
902.940397	2545.760007
903.247619	2544.724050
903.554800	2545.926365
903.861941	2546.564071
904.169041	2545.666746
904.476101	2546.619524
904.783121	2546.359904
905.090100	2546.120450
905.397039	2545.754966
905.703938	2544.623227
906.010796	2545.215562
906.317614	2543.867054
906.624391	2549.064483
906.931129	2545.225645
907.237826	2544.960984
907.544483	2545.628937
907.851099	2546.296890
908.157675	2548.862837
908.464211	2545.931406
908.770707	2542.722712
909.077163	2541.830428
909.383578	2542.082485
909.689954	2542.488298
909.996289	2541.616179
910.302584	2547.675646
910.608839	2547.836962
910.915054	2548.948537
911.221229	2543.088196
911.527363	2546.637168
911.833458	2541.291024
912.139513	2546.677497
912.445527	2546.546427
912.751502	2545.427291
913.057436	2547.085831
913.363331	2546.337219
913.669186	2546.251520
913.975000	2546.306972
914.280775	2545.633978
914.586510	2544.872764
914.892205	2544.124153
915.197859	2545.500388
915.503475	2545.611293
915.809050	2545.727240
916.114585	2545.311344
916.420081	2546.208670
916.725536	2545.941489
917.030952	2545.533155
917.336328	2544.265305
917.641665	2545.215563
917.946961	2547.486602
918.252218	2543.383103
918.557435	2546.785882
918.862612	2546.997610
919.167750	2545.979297
919.472848	2546.576674
919.777906	2543.977959
920.082925	2542.916796
920.387904	2545.397044
920.692843	2545.996941
920.997743	2546.571633
921.302603	2546.248999
921.607423	2546.458207
921.912204	2543.743546
922.216946	2545.376879
922.521647	2544.431663
922.826310	2542.785726
923.130932	2548.199926
923.435516	2544.882846
923.740059	2547.537014
924.044564	2544.267826
924.349028	2544.829914
924.653454	2541.928730
924.957840	2544.527445
925.262186	2543.980480
925.566493	2545.500388
925.870761	2542.389996
926.174989	2546.919473
926.479178	2547.930224
926.783328	2543.788916
927.087438	2545.278577
927.391509	2546.344781
927.695541	2541.825387
927.999533	2545.500388
928.303486	2544.666077
928.607400	2546.624565
928.911275	2546.695141
929.215110	2545.560882
929.518906	2545.828063
929.822663	2546.120450
930.126381	2543.027702
930.430060	2546.410316
930.733699	2544.734132
931.037299	2544.948381
931.340861	2543.955274
931.644383	2544.514842
931.947866	2545.119781
932.251309	2547.020296
932.554714	2545.555840
932.858080	2546.266643
933.161407	2545.545758
933.464694	2546.778320
933.767943	2544.529966
934.071153	2543.935109
934.374323	2547.625234
934.677455	2542.067362
934.980548	2543.927548
935.283602	2545.455017
935.586617	2545.792775
935.889593	2544.842517
936.192530	2547.738660
936.495428	2545.550799
936.798287	2545.603731
937.101108	2547.564740
937.403890	2547.552137
937.706632	2548.953578
938.009336	2546.261602
938.312002	2545.281098
938.614628	2547.446273
938.917216	2546.901828
939.219765	2543.768751
939.522275	2544.998793
939.824747	2545.044163
940.127179	2542.463093
940.429573	2539.892104
940.731929	2542.735315
941.034246	2539.370345
941.336524	2543.688093
941.638763	2542.700027
941.940964	2544.620706
942.243126	2546.921993
942.545250	2546.541386
942.847335	2544.038453
943.149381	2543.504091
943.451389	2543.589790
943.753359	2545.880995
944.055290	2545.641540
944.357182	2544.807229
944.659036	2542.836138
944.960851	2544.348484
945.262628	2543.589790
945.564367	2544.865202
945.866067	2542.878988
946.167729	2545.946530
946.469352	2544.020809
946.770937	2542.954605
947.072484	2547.229503
947.373992	2544.814791
947.675462	2543.446118
947.976893	2546.453166
948.278286	2543.494008
948.579641	2543.844369
948.880958	2544.545089
949.182236	2544.456869
949.483476	2545.336550
949.784678	2546.861499
950.085841	2545.543237
950.386967	2542.493339
950.688054	2544.955943
950.989103	2543.123484
951.290114	2545.394523
951.591087	2544.429142
951.892021	2544.383772
952.192917	2544.590459
952.493776	2543.057949
952.794596	2546.717826
953.095378	2543.688093
953.396122	2544.587939
953.696828	2543.370500
953.997496	2545.976777
954.298126	2541.928730
954.598718	2544.265305
954.899272	2545.717157
955.199788	2545.031560
955.500266	2547.428629
955.800706	2545.717157
956.101108	2541.064172
956.401472	2540.033256
956.701798	2541.671631
957.002087	2541.774975
957.302337	2543.282280
957.602550	2544.471992
957.902724	2542.548792
958.202861	2545.190357
958.502960	2545.586087
958.803022	2544.681200
959.103045	2543.221786
959.403031	2544.240099
959.702979	2544.471992
960.002889	2545.361756
960.302762	2545.833104
960.602596	2543.791437
960.902393	2545.608773
961.202153	2542.730274
961.501875	2544.640871
961.801559	2542.921837
962.101205	2545.250851
962.400814	2545.092054
962.700385	2543.050387
962.999918	2548.015923
963.299414	2542.866385
963.598873	2546.921993
963.898293	2542.543751
964.197677	2547.015254
964.497022	2544.106509
964.796331	2542.417722
965.095601	2545.303783
965.394835	2543.529297
965.694030	2544.146838
965.993189	2546.049873
966.292309	2543.662887
966.591393	2542.579039
966.890439	2542.531148
967.189447	2544.693803
967.488419	2543.418391
967.787353	2545.926365
968.086249	2542.160623
968.385108	2542.536189
968.683930	2543.342774
968.982714	2543.602393
969.281462	2543.244471
969.580172	2544.242620
969.878844	2544.136756
970.177480	2546.246478
970.476078	2544.751776
970.774639	2544.300593
971.073162	2544.298072
971.371649	2542.072403
971.670098	2542.619368
971.968510	2543.194060
972.266885	2538.750283
972.565223	2544.139276
972.863524	2540.910417
973.161788	2544.784544
973.460014	2542.561395
973.758204	2544.131714
974.056356	2544.081303
974.354471	2544.040974
974.652550	2543.975439
974.950591	2543.962836
975.248595	2541.999306
975.546563	2542.410160
975.844493	2545.155069
976.142386	2544.434184
976.440243	2542.364790
976.738062	2546.158258
977.035845	2544.129194
977.333590	2544.852599
977.631299	2543.819163
977.928971	2544.877805
978.226606	2545.205480
978.524204	2542.662218
978.821765	2544.381252
979.119290	2543.143648
979.416777	2543.579708
979.714228	2543.856972
980.011642	2543.171375
980.309020	2547.738660
980.606360	2544.217414
980.903664	2544.383772
981.200931	2543.741025
981.498162	2543.980480
981.795356	2543.927548
982.092513	2543.219266
982.389633	2541.374203
982.686717	2543.186498
982.983764	2544.068700
983.280775	2543.730943
983.577749	2542.790768
983.874686	2545.407126
984.171587	2543.025181
984.468451	2542.079965
984.765279	2541.225489
985.062070	2544.857641
985.358824	2543.960315
985.655543	2543.367980
985.952224	2543.317568
986.248869	2542.949564
986.545478	2541.994265
986.842050	2542.576518
987.138586	2539.660211
987.435086	2541.238092
987.731549	2540.060983
988.027975	2543.423432
988.324366	2541.359080
988.620719	2544.782023
988.917037	2542.808412
989.213318	2546.412837
989.509563	2541.732125
989.805772	2544.383772
990.101944	2543.627599
990.398080	2542.463092
990.694180	2542.778165
990.990244	2543.428473
991.286271	2542.871426
991.582262	2544.212373
991.878217	2541.578370
992.174136	2543.156251
992.470019	2542.604245
992.765865	2544.459389
993.061676	2544.444266
993.357450	2543.534338
993.653188	2543.829245
993.948890	2545.283618
994.244556	2540.600386
994.540186	2544.782023
994.835780	2540.771785
995.131337	2544.101467
995.426859	2543.786395
995.722345	2542.508463
996.017795	2544.673638
996.313208	2543.012578
996.608586	2545.462579
996.903928	2544.935778
997.199234	2542.705068
997.494504	2545.250851
997.789738	2540.292876
998.084936	2542.034594
998.380099	2544.345963
998.675225	2543.032743
998.970316	2545.298742
999.265371	2543.148689
999.560390	2543.345294
999.855373	2545.129863
1000.150320	2541.089378
1000.445232	2545.507949
1000.740108	2542.601724
1001.034948	2544.804708
1001.329752	2542.455531
1001.624521	2542.518545
1001.919254	2536.585107
1002.213951	2538.077289
1002.508613	2541.631302
1002.803239	2541.520397
1003.097829	2539.612320
1003.392384	2541.880839
1003.686903	2542.581560
1003.981386	2543.887218
1004.275834	2545.772610
1004.570246	2545.994421
1004.864623	2544.635830
1005.158964	2540.839841
1005.453270	2544.202291
1005.747540	2539.508976
1006.041775	2541.785057
1006.335974	2542.276570
1006.630138	2542.614327
1006.924266	2543.967877
1007.218359	2546.183464
1007.512416	2543.771272
1007.806438	2543.804039
1008.100425	2543.748587
1008.394376	2544.540048
1008.688292	2543.365459
1008.982172	2542.949564
1009.276017	2542.667259
1009.569827	2542.105171
1009.863602	2544.242620
1010.157341	2542.579039
1010.451045	2545.656663
1010.744714	2545.081972
1011.038347	2541.517876
1011.331945	2541.298586
1011.625508	2544.000644
1011.919036	2541.122146
1012.212528	2542.833617
1012.505986	2543.340253
1012.799408	2545.828063
1013.092795	2541.442259
1013.386147	2544.063659
1013.679464	2544.839997
1013.972745	2544.202291
1014.265992	2540.018133
1014.559204	2542.707588
1014.852380	2546.228834
1015.145521	2540.882691
1015.438628	2542.382434
1015.731699	2543.486447
1016.024736	2543.917465
1016.317737	2541.621220
1016.610703	2545.608772
1016.903635	2539.856816
1017.196531	2539.035108
1017.489393	2538.747762
1017.782219	2539.922351
1018.075011	2541.419574
1018.367768	2539.125849
1018.660490	2543.466282
1018.953177	2543.466282
1019.245829	2543.466282
