Dividing Wavelength (nm)	Counts (n)	Blue Motor Position (mm): 27.300000	Red Motor Position (mm): 0.000000	
326.493990	2134.081740
326.888308	2134.081740
327.282561	2134.081740
327.676750	2098.108066
328.070874	2098.249218
328.464933	2103.310537
328.858929	2107.131732
329.252859	2117.113216
329.646726	2126.673764
330.040528	2141.003244
330.434265	2157.281130
330.827938	2175.986331
331.221547	2195.901410
331.615091	2214.374718
332.008571	2232.525392
332.401986	2252.506006
332.795338	2270.560898
333.188625	2293.546039
333.581847	2312.140335
333.975006	2329.348314
334.368100	2348.066118
334.761129	2361.926770
335.154095	2378.691128
335.546996	2400.463871
335.939833	2425.021852
336.332606	2437.624737
336.725315	2451.621500
337.117960	2461.532409
337.510540	2471.304685
337.903056	2481.427322
338.295508	2486.778507
338.687896	2497.604385
339.080220	2505.075375
339.472480	2513.141221
339.864676	2516.392765
340.256807	2521.859897
340.648875	2524.143539
341.040879	2523.967099
341.432818	2528.741072
341.824694	2527.107738
342.216506	2531.927081
342.608253	2533.000847
342.999937	2529.535053
343.391557	2527.563962
343.783113	2527.841226
344.174605	2525.497089
344.566033	2523.596574
344.957397	2524.335103
345.348697	2521.968282
345.739934	2517.973167
346.131106	2520.012314
346.522215	2517.821933
346.913260	2514.956037
347.304241	2514.341016
347.695159	2512.848834
348.086012	2511.122239
348.476802	2509.461179
348.867528	2505.592093
349.258191	2503.212669
349.648789	2506.081085
350.039324	2501.037411
350.429796	2504.672083
350.820203	2497.070023
351.210548	2497.921978
351.600828	2499.310816
351.991045	2497.279231
352.381198	2498.509272
352.771288	2500.306443
353.161314	2496.081957
353.551276	2496.986844
353.941175	2495.769405
354.331010	2494.541884
354.720782	2493.417707
355.110490	2494.516678
355.500135	2497.274189
355.889717	2496.263438
356.279235	2496.381905
356.668689	2496.633963
357.058080	2496.328973
357.447408	2495.333345
357.836672	2491.302943
358.225873	2494.330156
358.615010	2493.649600
359.004084	2501.145796
359.393095	2498.438696
359.782043	2499.358707
360.170927	2498.085815
360.559748	2501.443224
360.948505	2504.654439
361.337199	2503.641167
361.725830	2500.722339
362.114398	2503.951198
362.502903	2503.316012
362.891344	2502.038080
363.279722	2502.227123
363.668037	2502.401043
364.056289	2506.244923
364.444478	2507.462361
364.832603	2505.372803
365.220665	2506.043277
365.608665	2504.717453
365.996601	2508.417660
366.384474	2510.063597
366.772284	2508.672238
367.160031	2508.911693
367.547715	2510.083761
367.935336	2509.355315
368.322893	2510.749194
368.710388	2507.812722
369.097820	2512.400172
369.485189	2507.043946
369.872495	2510.741632
370.259738	2510.242558
370.646918	2508.757938
371.034035	2509.070489
371.421090	2514.502333
371.808081	2510.650891
372.195010	2513.809174
372.581875	2512.367404
372.968678	2512.881602
373.355418	2511.943947
373.742096	2515.752539
374.128710	2512.377486
374.515262	2515.833197
374.901751	2512.095182
375.288177	2514.499812
375.674540	2514.850172
376.060841	2513.640295
376.447079	2514.494771
376.833254	2515.235821
377.219367	2508.949502
377.605417	2512.526200
377.991404	2510.040912
378.377329	2510.615603
378.763191	2512.858917
379.148991	2517.965605
379.534727	2518.764628
379.920402	2516.559123
380.306013	2517.448887
380.691563	2519.004083
381.077049	2518.356295
381.462474	2519.601460
381.847835	2517.385873
382.233134	2517.610204
382.618371	2518.358815
383.003545	2517.524504
383.388657	2519.233456
383.773706	2517.779083
384.158693	2517.703465
384.543618	2520.186234
384.928480	2517.930317
385.313280	2520.463497
385.698017	2517.983249
386.082692	2521.945596
386.467305	2520.019876
386.851856	2523.089938
387.236344	2519.825791
387.620770	2523.031965
388.005133	2522.681605
388.389435	2521.393590
388.773674	2520.760925
389.157851	2521.592716
389.541965	2521.396111
389.926018	2521.131450
390.310008	2521.091121
390.693936	2525.986081
391.077802	2522.459794
391.461606	2525.343334
391.845348	2522.593385
392.229027	2525.446678
392.612645	2523.452901
392.996200	2523.334434
393.379694	2524.337624
393.763125	2524.536749
394.146494	2525.638242
394.529801	2524.662778
394.913047	2524.695546
395.296230	2525.441637
395.679351	2523.528519
396.062410	2526.785104
396.445408	2527.044723
396.828343	2527.226205
397.211217	2522.545494
397.594028	2523.863755
397.976778	2523.442819
398.359466	2526.754857
398.742092	2521.804444
399.124656	2526.538087
399.507158	2526.780063
399.889598	2528.675537
400.271977	2528.481452
400.654294	2528.463808
401.036549	2528.405835
401.418742	2528.829292
401.800874	2529.061185
402.182944	2526.908612
402.564952	2532.106042
402.946898	2529.784591
403.328783	2528.826771
403.710606	2529.025897
404.092367	2529.151926
404.474067	2531.599406
404.855705	2531.496062
405.237282	2533.116793
405.618797	2529.288037
406.000250	2532.736186
406.381642	2532.451361
406.762972	2532.383305
407.144240	2530.878521
407.525447	2534.006557
407.906593	2532.111083
408.287677	2533.472195
408.668700	2531.528830
409.049661	2533.517565
409.430560	2530.278624
409.811399	2533.618388
410.192176	2532.446320
410.572891	2533.830117
410.953545	2535.317257
411.334138	2535.007226
411.714669	2534.225847
412.095139	2537.651311
412.475547	2535.551671
412.855894	2534.283820
413.236180	2534.838347
413.616405	2534.961856
413.996568	2537.043852
414.376670	2535.841537
414.756711	2536.174253
415.136691	2535.982689
415.516609	2534.619057
415.896466	2537.185004
416.276262	2537.323636
416.655997	2534.472864
417.035670	2534.916485
417.415283	2534.757689
417.794834	2535.511341
418.174324	2536.166691
418.553753	2535.869263
418.933121	2538.208359
419.312428	2540.590304
419.691674	2538.820859
420.070859	2538.087371
420.449983	2539.183822
420.829045	2539.995448
421.208047	2537.794984
421.586988	2541.170037
421.965867	2541.270860
422.344686	2541.454862
422.723444	2540.045859
423.102141	2541.157434
423.480777	2542.205994
423.859352	2541.021322
424.237866	2540.688606
424.616319	2542.364790
424.994712	2541.901004
425.373044	2542.163144
425.751314	2543.993083
426.129524	2544.003165
426.507673	2545.611293
426.885762	2545.588608
427.263789	2544.109029
427.641756	2545.669266
428.019662	2542.851261
428.397508	2545.248330
428.775292	2545.298742
429.153016	2544.114070
429.530679	2547.289997
429.908282	2548.278063
430.285824	2547.552137
430.663305	2546.185985
431.040726	2547.063145
431.418086	2545.523073
431.795385	2547.385779
432.172624	2549.339226
432.549802	2547.758825
432.926920	2550.181099
433.303977	2550.579350
433.680974	2550.700338
434.057910	2550.239072
434.434786	2552.058929
434.811601	2555.527243
435.188355	2554.566903
435.565050	2553.667057
435.941683	2555.252500
436.318257	2556.858107
436.694770	2557.755433
437.071222	2558.700649
437.447614	2560.097049
437.823946	2563.925805
438.200218	2571.437124
438.576429	2576.175809
438.952580	2576.442990
439.328670	2579.966757
439.704700	2585.040678
440.080670	2592.690629
440.456580	2595.979982
440.832429	2602.372165
441.208218	2606.374841
441.583947	2613.490430
441.959616	2622.970319
442.335224	2629.044910
442.710773	2637.927423
443.086261	2648.135759
443.461689	2652.123312
443.837057	2666.130158
444.212365	2680.953671
444.587612	2687.330731
444.962800	2706.025850
445.337927	2718.301059
445.712995	2713.131356
446.088002	2756.079466
446.462949	2759.056267
446.837837	2772.823659
447.212664	2795.622277
447.587431	2828.173007
447.962139	2886.461349
448.336786	2981.051039
448.711374	2979.420226
449.085901	2924.736309
449.460369	2939.292641
449.834776	2960.722586
450.209124	3025.564427
450.583412	3077.780699
450.957640	3110.313785
451.331808	3117.918366
451.705917	3092.687391
452.079965	3113.020885
452.453954	3173.214782
452.827883	3185.621062
453.201752	3230.033627
453.575562	3231.054461
453.949311	3304.002478
454.323001	3317.054025
454.696632	3364.629914
455.070202	3434.281017
455.443713	3503.969927
455.817164	3568.786563
456.190556	3631.788383
456.563888	3697.646017
456.937160	3749.693410
457.310373	3713.346691
457.683526	3764.640431
458.056619	3785.548617
458.429653	3826.941531
458.802628	3856.359184
459.175542	3934.217285
459.548398	4100.257769
459.921194	4205.915312
460.293930	4264.755660
460.666607	4516.460472
461.039224	4691.141493
461.411782	4804.499399
461.784280	4874.773084
462.156719	4897.949789
462.529099	4912.947222
462.901419	4815.693282
463.273680	4830.045447
463.645882	4892.767483
464.018024	4914.363786
464.390106	5045.307757
464.762130	5291.270694
465.134094	5592.025933
465.505999	6163.806205
465.877845	6864.032556
466.249631	7282.085362
466.621358	7194.177722
466.993026	6970.312682
467.364634	6918.071205
467.736184	6811.102962
468.107674	6700.799995
468.479105	6814.072201
468.850477	6736.796354
469.221790	6680.688312
469.593043	6550.240894
469.964238	6541.529780
470.335373	6615.647345
470.706449	6725.330249
471.077467	6769.954543
471.448425	7736.341215
471.819324	8546.424391
472.190164	8631.337587
472.560945	7836.811411
472.931667	7347.239755
473.302330	7298.370810
473.672934	7097.594255
474.043479	7430.799401
474.413965	7444.536545
474.784393	7407.481544
475.154761	7586.762619
475.525070	7714.182823
475.895321	7627.530430
476.265513	7824.326994
476.635645	8004.031525
477.005719	8064.938746
477.375734	8205.327319
477.745691	8452.732026
478.115588	8616.307386
478.485427	8872.032518
478.855207	9371.026090
479.224928	10111.924471
479.594591	10706.200892
479.964194	10607.038876
480.333739	10609.030131
480.703226	10602.862280
481.072653	10730.317772
481.442022	10978.050155
481.811333	11180.328973
482.180584	11060.238606
482.549777	10847.980824
482.918912	10723.474406
483.287988	10782.145875
483.657005	10824.844448
484.025964	10568.337937
484.394864	10725.916845
484.763706	10731.948586
485.132489	10532.772597
485.501213	10530.148677
485.869879	10621.748962
486.238487	10495.528552
486.607036	10627.606783
486.975527	10441.890676
487.343959	10638.087342
487.712333	10708.262724
488.080648	10647.962963
488.448905	10715.025432
488.817104	10663.270426
489.185244	10940.758219
489.553326	11109.072264
489.921350	11646.257618
490.289315	12679.729444
490.657222	13031.365048
491.025070	12947.200464
491.392861	12839.090399
491.760593	12480.659320
492.128267	12146.836633
492.495883	11840.687360
492.863440	11513.816424
493.230939	11200.717920
493.598380	11138.852880
493.965763	11012.002326
494.333088	10915.827193
494.700354	10841.160143
495.067563	10903.536860
495.434713	10743.061809
495.801805	10878.540298
496.168839	10804.311828
496.535815	10745.960473
496.902733	10747.820658
497.269593	10681.433703
497.636395	10782.614702
498.003139	10771.239339
498.369825	10647.627726
498.736453	10800.904008
499.103023	10731.474717
499.469535	10765.671384
499.835989	10754.510270
500.202385	10716.580628
500.568723	10572.542260
500.935003	10791.572833
501.301226	10594.120919
501.667390	10859.204953
502.033497	10959.314706
502.399546	10816.345063
502.765537	10734.000335
503.131470	10807.487755
503.497345	10974.072684
503.863163	10590.803840
504.228923	10894.987063
504.594625	10961.434512
504.960269	10715.887469
505.325856	10928.934193
505.691385	10725.064890
506.056856	10883.601617
506.422270	10908.759495
506.787625	10803.444750
507.152924	10923.424212
507.518164	10900.330686
507.883347	10818.225413
508.248472	10736.500747
508.613540	10972.235184
508.978550	10859.588080
509.343503	10834.669657
509.708398	10948.778695
510.073236	11064.276571
510.438016	11077.728890
510.802738	11020.826866
511.167403	11075.346944
511.532010	10968.108999
511.896561	11199.218177
512.261053	11270.860535
512.625488	11135.692077
512.989866	11123.575663
513.354186	11112.548139
513.718449	11012.138437
514.082655	11210.260824
514.446803	11098.871489
514.810894	11222.924203
515.174927	11092.239851
515.538904	11119.378903
515.902822	11270.795000
516.266684	11154.755200
516.630488	11095.904770
516.994235	11155.705457
517.357925	11220.698533
517.721558	11307.287912
518.085133	11322.791981
518.448651	11330.305821
518.812112	11214.001360
519.175516	11230.561551
519.538863	11348.620333
519.902152	11265.078331
520.265385	11428.409195
520.628560	11340.347799
520.991678	11316.296454
521.354739	11384.241126
521.717743	11307.847480
522.080690	11293.810387
522.443580	11426.264184
522.806413	11385.934953
523.169189	11415.438306
523.531908	11473.923253
523.894569	11290.793257
524.257174	11300.628548
524.619722	11409.308263
524.982213	11355.924965
525.344647	11411.927143
525.707025	11361.634071
526.069345	11456.185953
526.431608	11379.741896
526.793815	11477.688995
527.155964	11269.451532
527.518057	11324.967239
527.880093	11272.438416
528.242072	11343.339724
528.603995	11248.175342
528.965860	11168.268013
529.327669	11224.590304
529.689421	11169.815647
530.051117	11142.101904
530.412755	11240.996739
530.774337	11133.010183
531.135862	11118.244643
531.497331	11143.591565
531.858743	10991.368883
532.220098	11156.615386
532.581396	11036.333455
532.942638	11016.297389
533.303824	10978.856739
533.664953	10992.130097
534.026025	10901.497713
534.387040	11003.339103
534.747999	11000.863896
535.108902	11063.291025
535.469748	10827.886784
535.830537	10926.564850
536.191270	10908.255380
536.551947	10929.665160
536.912567	10921.085116
537.273131	10858.791578
537.633638	10828.216980
537.994089	10817.713736
538.354483	10775.176480
538.714821	10914.960114
539.075103	10918.577142
539.435328	10889.300641
539.795497	10715.027953
540.155609	10873.605009
540.515665	10958.377052
540.875665	10698.815602
541.235609	10764.766497
541.595496	10751.004147
541.955328	10911.857284
542.315102	10793.692638
542.674821	10745.030380
543.034483	10751.936761
543.394090	10750.316030
543.753640	10677.499083
544.113134	10909.611450
544.472571	10757.174519
544.831953	10891.932123
545.191278	10697.998935
545.550548	10728.911290
545.909761	10873.116017
546.268918	10843.463950
546.628019	10935.028948
546.987064	10789.546289
547.346053	10715.640453
547.704986	10813.199383
548.063863	10810.673765
548.422684	10790.945209
548.781449	10708.570235
549.140158	10813.350617
549.498811	10689.630620
549.857408	10548.606861
550.215949	10771.030131
550.574434	10623.964550
550.932864	10721.994827
551.291237	10786.181319
551.649555	10733.377753
552.007817	10748.488611
552.366022	10700.229646
552.724173	10702.170490
553.082267	10677.138640
553.440305	10825.119191
553.798288	10631.599377
554.156215	10773.991809
554.514086	10756.965312
554.871902	10607.028793
555.229661	10635.947372
555.587365	10608.442837
555.945014	10505.406693
556.302606	10636.648093
556.660143	10530.405775
557.017625	10681.171563
557.375050	10577.164998
557.732421	10722.773686
558.089735	10629.156938
558.446994	10630.442432
558.804197	10666.191775
559.161345	10670.103710
559.518437	10514.470688
559.875474	10604.997208
560.232455	10637.893258
560.589381	10580.245143
560.946251	10583.930226
561.303065	10683.626605
561.659825	10624.055290
562.016528	10551.455113
562.373177	10433.456825
562.729770	10545.554443
563.086307	10459.862389
563.442789	10550.086440
563.799216	10428.571947
564.155587	10481.607406
564.511904	10438.994533
564.868164	10425.317882
565.224370	10441.290778
565.580520	10372.746209
565.936615	10373.126817
566.292654	10243.974976
566.648638	10375.647393
567.004567	10332.447226
567.360441	10311.256735
567.716260	10225.194157
568.072023	10319.123456
568.427732	10271.025807
568.783385	10178.941570
569.138982	10248.575028
569.494525	10260.434343
569.850013	10147.247836
570.205445	10230.343696
570.560823	10115.725501
570.916145	10037.970744
571.271412	10106.396846
571.626625	10050.258557
571.981782	10024.084886
572.336884	10000.872893
572.691931	10010.559470
573.046923	9956.180544
573.401860	9914.228061
573.756743	9845.242392
574.111570	9890.784175
574.466342	9867.526812
574.821059	9906.752030
575.175722	9793.865472
575.530330	9806.909458
575.884882	9800.577768
576.239380	9723.798475
576.593823	9705.063027
576.948211	9721.051046
577.302544	9601.058982
577.656823	9614.876784
578.011047	9618.554306
578.365216	9587.677239
578.719330	9516.624696
579.073389	9521.307928
579.427394	9474.795722
579.781344	9448.501063
580.135239	9393.270182
580.489080	9403.511286
580.842866	9304.981934
581.196597	9311.749683
581.550273	9354.493626
581.903895	9321.095982
582.257463	9385.196774
582.610975	9269.766954
582.964434	9287.753791
583.317837	9216.572698
583.671186	9192.581847
584.024481	9191.419861
584.377721	9108.281152
584.730906	9094.052495
585.084037	9121.360426
585.437113	9050.872492
585.790135	9076.481553
586.143103	8979.870361
586.496016	8948.617727
586.848874	9006.795163
587.201679	8998.323504
587.554428	8882.863437
587.907124	8926.424047
588.259765	8900.028566
588.612352	8903.617867
588.964884	8777.833517
589.317362	8797.088204
589.669786	8797.279768
590.022155	8842.624947
590.374470	8856.480558
590.726731	8799.954100
591.078937	8644.033732
591.431090	8757.794931
591.783188	8628.925394
592.135232	8623.551524
592.487222	8619.858879
592.839157	8675.213269
593.191038	8613.043239
593.542866	8558.147594
593.894639	8454.514074
594.246358	8505.646498
594.598022	8528.601392
594.949633	8423.473169
595.301190	8397.198676
595.652692	8426.636493
596.004141	8533.461064
596.355535	8313.795306
596.706876	8297.766957
597.058162	8229.023263
597.409395	8310.523597
597.760573	8369.028708
598.111698	8276.100078
598.462768	8258.521574
598.813785	8228.141061
599.164748	8193.982202
599.515657	8181.351591
599.866511	8098.291020
600.217312	8216.037250
600.568060	8081.579595
600.918753	8185.858383
601.269392	8151.881006
601.619978	8068.928819
601.970510	8129.031976
602.320988	8123.496789
602.671412	8179.582146
603.021783	8118.851366
603.372100	8089.910102
603.722363	8097.953263
604.072572	8069.296824
604.422728	8083.896005
604.772830	8014.575099
605.122878	8020.858897
605.472872	8010.827001
605.822813	8041.414202
606.172701	7987.710790
606.522534	8065.016884
606.872314	8059.627891
607.222041	8033.290382
607.571714	8079.966426
607.921333	8040.090899
608.270899	8053.185296
608.620411	8139.207545
608.969870	8047.125829
609.319276	8037.376237
609.668627	8052.393835
610.017926	8090.157118
610.367171	8137.536403
610.716362	8114.117722
611.065500	8107.196218
611.414585	8132.507852
611.763616	8117.306252
612.112594	8100.201617
612.461518	8111.440870
612.810389	8175.816404
613.159207	8116.522353
613.507971	8067.595434
613.856682	8182.052312
614.205340	8135.104046
614.553945	8217.882313
614.902496	8117.273485
615.250994	8166.112183
615.599439	8151.386973
615.947830	8167.382554
616.296169	8136.253429
616.644454	8150.771952
616.992686	8148.596694
617.340864	8207.800005
617.688990	8106.251002
618.037063	8200.336577
618.385082	8147.769945
618.733048	8233.898058
619.080961	8173.613420
619.428821	8194.947583
619.776628	8186.372581
620.124382	8146.943196
620.472083	8136.192935
620.819731	8152.697673
621.167326	8052.207312
621.514868	8058.309629
621.862357	7947.011034
622.209793	7960.571738
622.557176	7898.646204
622.904506	7871.378603
623.251783	7800.900752
623.599007	7756.919205
623.946179	7760.574042
624.293297	7713.630817
624.640363	7640.173644
624.987376	7617.619521
625.334336	7567.888539
625.681243	7513.993563
626.028097	7510.648757
626.374899	7481.873851
626.721647	7474.478478
627.068343	7405.044146
627.414987	7376.833849
627.761577	7333.313568
628.108115	7374.436780
628.454600	7268.406192
628.801032	7317.307904
629.147412	7283.028058
629.493739	7266.921572
629.840014	7204.285235
630.186236	7258.470077
630.532405	7138.848538
630.878521	7196.037907
631.224585	7157.158008
631.570597	7077.265802
631.916556	7106.486851
632.262462	7101.228927
632.608316	7068.965543
632.954117	7045.141049
633.299866	7031.391302
633.645562	7019.179107
633.991206	6941.983918
634.336797	6887.912502
634.682336	6843.172262
635.027823	6814.508261
635.373257	6802.555685
635.718639	6738.840542
636.063968	6748.217088
636.409245	6644.850749
636.754470	6637.523432
637.099642	6602.578153
637.444762	6544.713269
637.789829	6550.896244
638.134845	6495.720815
638.479808	6479.531150
638.824719	6485.298230
639.169577	6410.164873
639.514383	6437.704696
639.859137	6360.491863
640.203839	6368.406475
640.548489	6358.689651
640.893086	6331.540517
641.237632	6305.192926
641.582125	6327.641184
641.926566	6297.643798
642.270955	6306.352392
642.615292	6306.680067
642.959576	6319.842519
643.303809	6313.566283
643.647990	6315.335728
643.992118	6309.278781
644.336195	6255.189721
644.680219	6280.587054
645.024192	6266.703717
645.368112	6361.941195
645.711981	6385.337190
646.055797	6463.404498
646.399562	6419.191059
646.743274	6542.769904
647.086935	6594.000630
647.430544	6595.797801
647.774101	6611.853876
648.117606	6617.421831
648.461059	6611.513598
648.804460	6575.522281
649.147810	6483.175904
649.491108	6452.208096
649.834354	6424.925371
650.177548	6344.524008
650.520690	6264.079796
650.863781	6242.279326
651.206820	6258.839517
651.549807	6184.525347
651.892742	6118.836592
652.235626	6126.725998
652.578458	6107.430981
652.921238	6021.189442
653.263967	6058.625050
653.606644	6002.350650
653.949269	6000.422409
654.291843	5948.039779
654.634365	5996.165154
654.976836	5951.021622
655.319255	5949.665551
655.661622	5925.538589
656.003938	5922.380306
656.346203	5881.494028
656.688416	5917.346714
657.030577	5866.597418
657.372687	5841.626063
657.714746	5826.192570
658.056753	5871.167224
658.398708	5804.500485
658.740612	5793.546058
659.082465	5848.227453
659.424266	5839.904508
659.766016	5843.443398
660.107715	5816.962217
660.449362	5830.754814
660.790958	5821.741231
661.132503	5810.824613
661.473996	5843.985322
661.815438	5830.943858
662.156829	5827.069731
662.498168	5825.534699
662.839456	5802.975536
663.180693	5832.438560
663.521879	5835.359908
663.863013	5819.891128
664.204097	5839.193706
664.545129	5883.845726
664.886110	5877.932453
665.227040	5915.486528
665.567918	5881.672989
665.908746	5911.461167
666.249522	5908.242390
666.590248	5897.426594
666.930922	5922.982724
667.271545	5938.267502
667.612118	5940.767915
667.952639	5912.058543
668.293109	5931.673673
668.633528	5897.048508
668.973896	5895.142952
669.314213	5890.812601
669.654480	5870.148911
669.994695	5861.515935
670.334859	5853.752558
670.674973	5844.688563
671.015035	5847.284758
671.355047	5848.754254
671.695008	5833.829918
672.034918	5809.597092
672.374777	5818.754348
672.714585	5804.777748
673.054342	5805.155835
673.394049	5798.708199
673.733705	5833.033416
674.073310	5816.392567
674.412864	5781.928719
674.752368	5769.308190
675.091820	5771.901864
675.431223	5713.744592
675.770574	5707.871648
676.109875	5666.824053
676.449125	5669.994939
676.788324	5636.869517
677.127473	5583.269448
677.466571	5572.882151
677.805619	5559.528134
678.144616	5550.413728
678.483562	5525.684348
678.822458	5494.522456
679.161303	5490.799563
679.500098	5480.883614
679.838842	5459.766220
680.177535	5466.113033
680.516179	5482.426207
680.854771	5495.132435
681.193314	5576.907512
681.531805	5686.189645
681.870247	5832.093241
682.208638	5936.871103
682.546978	5943.049037
682.885268	5928.313744
683.223508	5835.135577
683.561697	5788.731756
683.899836	5758.220172
684.237925	5711.922215
684.575963	5675.474673
684.913951	5632.299711
685.251889	5695.767838
685.589776	5665.392365
685.927614	5641.850177
686.265401	5708.930290
686.603137	5693.401016
686.940824	5767.936996
687.278460	5792.358866
687.616046	5800.321368
687.953582	5866.078179
688.291068	5844.328121
688.628504	5912.910498
688.965889	5873.428182
689.303224	5818.928267
689.640510	5773.845228
689.977745	5696.818918
690.314930	5599.380976
690.652065	5543.116658
690.989150	5450.578717
691.326185	5377.182038
691.663170	5321.263039
692.000105	5247.586576
692.336990	5169.453732
692.673825	5145.563704
693.010610	5075.237087
693.347345	5010.047406
693.684030	4995.607021
694.020665	4954.269560
694.357251	4860.274726
694.693786	4872.484400
695.030272	4841.027600
695.366707	4805.091735
695.703093	4776.493269
696.039429	4795.891629
696.375716	4777.027632
696.711952	4750.312037
697.048139	4738.825768
697.384276	4719.697109
697.720363	4732.005087
698.056400	4739.652517
698.392388	4690.849107
698.728326	4673.068957
699.064214	4646.751613
699.400053	4642.201972
699.735842	4607.758288
700.071581	4585.035287
700.407270	4556.288108
700.742910	4541.217578
701.078501	4487.662880
701.414042	4485.603569
701.749533	4457.983087
702.084974	4390.177047
702.420366	4448.518321
702.755709	4388.296697
703.091002	4334.149663
703.426246	4383.134555
703.761440	4339.561342
704.096584	4303.600271
704.431679	4323.031398
704.766725	4304.593378
705.101721	4297.853356
705.436668	4324.967202
705.771565	4271.099952
706.106413	4301.767812
706.441212	4333.060774
706.775961	4343.049820
707.110661	4322.373528
707.445311	4349.358824
707.779913	4373.657186
708.114465	4386.093712
708.448967	4405.955859
708.783421	4472.801559
709.117825	4509.952342
709.452180	4517.670348
709.786485	4560.936051
710.120742	4645.541736
710.454949	4627.174292
710.789107	4697.064849
711.123216	4771.958751
711.457275	4760.890898
711.791286	4834.378318
712.125247	4851.367007
712.459159	4754.367645
712.793023	4827.650898
713.126837	4791.248727
713.460602	4783.069454
713.794318	4700.596177
714.127985	4708.581365
714.461602	4622.312099
714.795171	4597.325620
715.128691	4530.013614
715.462162	4470.061692
715.795584	4427.872275
716.128957	4406.064243
716.462281	4357.903580
716.795556	4330.419209
717.128782	4291.725833
717.461960	4220.113722
717.795088	4233.757605
718.128167	4192.518446
718.461198	4131.956544
718.794180	4128.679794
719.127113	4109.324284
719.459997	4089.459617
719.792833	4046.347670
720.125619	4038.516237
720.458357	4001.650279
720.791046	4005.950383
721.123686	3979.827124
721.456278	3940.218778
721.788821	3954.265953
722.121315	3930.817026
722.453761	3900.184455
722.786158	3914.922268
723.118506	3937.730969
723.450805	3887.836149
723.783056	3912.058893
724.115259	3928.987087
724.447412	3933.259465
724.779518	3920.943927
725.111574	3927.590688
725.443582	3962.283909
725.775542	3947.387299
726.107453	3997.917305
726.439315	3996.349506
726.771129	4014.749717
727.102895	4046.952608
727.434612	4094.324331
727.766281	4106.309674
728.097901	4105.518213
728.429473	4111.807052
728.760996	4119.404071
729.092471	4109.515848
729.423897	4098.810958
729.755276	4106.833954
730.086606	4103.728603
730.417887	4141.401146
730.749120	4205.358265
731.080305	4269.650620
731.411442	4293.240700
731.742530	4264.022172
732.073570	4270.258079
732.404562	4325.108354
732.735506	4317.518897
733.066401	4274.104480
733.397249	4212.370510
733.728048	4133.199189
734.058798	4051.406467
734.389501	3985.526148
734.720156	3919.073658
735.050762	3877.663100
735.381320	3867.868138
735.711831	3818.230417
736.042293	3791.661016
736.372707	3812.060045
736.703073	3785.982156
737.033391	3774.954632
737.363661	3794.214360
737.693883	3816.468534
738.024056	3828.055626
738.354182	3823.390038
738.684260	3888.141138
739.014290	3905.674272
739.344272	3900.328128
739.674207	3946.152216
740.004093	3951.407619
740.333931	3945.030560
740.663722	3945.900159
740.993464	3941.017801
741.323159	3917.964605
741.652806	3889.650964
741.982405	3863.487376
742.311956	3829.789783
742.641460	3819.861230
742.970915	3797.032365
743.300323	3756.536776
743.629683	3726.337744
743.958996	3714.992627
744.288260	3690.094368
744.617477	3655.476765
744.946647	3641.263232
745.275768	3618.951085
745.604842	3612.271556
745.933869	3568.116089
746.262847	3559.790624
746.591778	3596.338989
746.920662	3565.676171
747.249498	3534.499155
747.578286	3580.870209
747.907027	3596.696911
748.235720	3593.672219
748.564365	3618.726753
748.892963	3622.497537
749.221514	3604.911471
749.550017	3583.751228
749.878473	3577.510280
750.206881	3550.729150
750.535242	3552.107905
750.863555	3547.344015
751.191821	3539.686502
751.520039	3523.902650
751.848210	3501.910616
752.176334	3535.353631
752.504411	3543.767316
752.832440	3504.279958
753.160421	3485.085765
753.488356	3494.298474
753.816243	3504.421111
754.144082	3462.622383
754.471875	3449.656536
754.799620	3470.615133
755.127318	3463.965851
755.454969	3459.229687
755.782572	3463.859987
756.110129	3440.930298
756.437638	3434.212961
756.765100	3443.738221
757.092515	3455.156435
757.419882	3461.195737
757.747203	3433.192127
758.074477	3437.653548
758.401703	3453.802885
758.728882	3472.911378
759.056014	3480.495794
759.383099	3486.116681
759.710138	3480.984786
760.037129	3496.614884
760.364073	3529.571427
760.690970	3515.514170
761.017820	3490.918380
761.344623	3510.019312
761.671379	3553.607649
761.998088	3607.434569
762.324751	3734.181779
762.651366	3980.444665
762.977935	4454.177016
763.304456	4892.401999
763.630931	4982.563036
763.957359	4619.993169
764.283740	4283.105460
764.610074	4093.696707
764.936362	3897.820154
765.262602	3737.350145
765.588796	3626.033906
765.914943	3540.266235
766.241044	3451.972946
766.567097	3423.104778
766.893104	3376.476626
767.219064	3346.138962
767.544978	3319.655260
767.870845	3259.733585
768.196665	3245.857809
768.522438	3252.302924
768.848165	3248.315372
769.173846	3212.434959
769.499479	3197.435006
769.825066	3180.189219
770.150607	3162.124244
770.476101	3175.422808
770.801548	3174.911131
771.126949	3125.376753
771.452303	3110.243209
771.777611	3120.368367
772.102872	3123.839201
772.428087	3099.487907
772.753256	3091.134715
773.078378	3079.318251
773.403453	3046.321378
773.728482	3037.317878
774.053465	3058.450394
774.378401	3045.376162
774.703291	3012.422139
775.028135	3014.489012
775.352932	3010.761079
775.677683	2997.926301
776.002388	2992.186948
776.327046	2994.843636
776.651658	2985.668736
776.976224	2973.534678
777.300743	2974.971407
777.625216	2964.397587
777.949643	2958.098665
778.274024	2962.708801
778.598359	2952.127419
778.922647	2956.235959
779.246889	2955.855352
779.571086	2938.818773
779.895236	2934.803493
780.219339	2945.901594
780.543397	2957.617235
780.867409	2960.833491
781.191374	2952.223201
781.515294	2948.906121
781.839167	2952.480299
782.162995	2941.293979
782.486776	2950.499126
782.810511	2950.015175
783.134201	2934.974893
783.457844	2944.530400
783.781441	2932.698812
784.104993	2912.309865
784.428498	2915.142993
784.751958	2927.440888
785.075372	2921.394024
785.398739	2905.411046
785.722061	2922.402255
786.045337	2932.275355
786.368568	2918.618869
786.691752	2907.167888
787.014891	2957.642441
787.337983	2987.365084
787.661030	3012.220493
787.984031	3080.979311
788.306987	3127.672998
788.629897	3120.358284
788.952760	3104.579473
789.275579	3086.854776
789.598351	3029.047865
789.921078	2984.307624
790.243759	2975.841006
790.566395	2959.863069
790.888984	2936.567897
791.211529	2922.009045
791.534027	2910.074113
791.856480	2899.742268
792.178888	2886.146277
792.501249	2876.681510
792.823566	2870.884183
793.145836	2869.215561
793.468062	2864.444109
793.790241	2862.578882
794.112375	2872.736807
794.434464	2883.439177
794.756507	2887.658623
795.078505	2894.796897
795.400457	2906.666293
795.722364	2944.885801
796.044226	2969.191724
796.366042	2971.442600
796.687812	2960.941876
797.009538	2981.076245
797.331218	2966.857670
797.652852	2953.178499
797.974442	2936.774585
798.295986	2933.817948
798.617484	2925.651279
798.938938	2910.621078
799.260346	2896.707494
799.581709	2891.293295
799.903026	2881.642006
800.224299	2875.799308
800.545526	2869.618854
800.866708	2852.080679
801.187845	2843.329236
801.508936	2844.420646
801.829983	2851.200998
802.150984	2838.608196
802.471940	2821.858962
802.792851	2825.218891
803.113717	2826.970692
803.434538	2831.180056
803.755314	2822.829384
804.076045	2817.422747
804.396731	2818.395689
804.717372	2818.589774
805.037967	2811.391006
805.358518	2819.794610
805.679024	2830.696105
805.999485	2828.893892
806.319901	2832.778101
806.640272	2823.411637
806.960598	2829.753409
807.280879	2839.432424
807.601115	2846.278311
807.921306	2831.389263
808.241453	2825.314673
808.561554	2832.692402
808.881611	2835.656600
809.201623	2829.501351
809.521590	2829.723162
809.841513	2826.181752
810.161390	2829.713080
810.481223	2822.920125
810.801011	2812.580718
811.120755	2812.520225
811.440453	2814.314875
811.760107	2813.835966
812.079716	2811.413691
812.399281	2799.682926
812.718801	2794.455250
813.038276	2788.831843
813.357707	2795.881896
813.677093	2805.971766
813.996434	2798.165539
814.315731	2795.622277
814.634983	2788.620114
814.954191	2787.790844
815.273354	2803.630150
815.592473	2809.470327
815.911547	2814.221614
816.230577	2820.507933
816.549562	2832.594099
816.868502	2830.262566
817.187399	2839.187928
817.506250	2858.059488
817.825058	2850.243179
818.143821	2861.744571
818.462539	2875.791747
818.781213	2904.329718
819.099843	2939.590069
819.418429	2994.629387
819.736970	3058.394942
820.055466	3130.937146
820.373919	3240.045359
820.692327	3375.034856
821.010691	3543.520300
821.329011	3982.589676
821.647286	4882.503693
821.965517	6257.019660
822.283704	6992.103070
822.601847	6963.481919
822.919945	6333.020095
823.237999	5830.159958
823.556010	5252.549592
823.873976	4704.167835
824.191897	4298.765804
824.509775	4003.202954
824.827609	3735.704208
825.145398	3611.555712
825.463144	3604.351903
825.780845	3697.419165
826.098502	3800.601502
826.416116	4079.475612
826.733685	4396.080238
827.051210	4455.724650
827.368692	4343.969831
827.686129	4076.806321
828.003522	3754.994183
828.320872	3493.779235
828.638177	3300.355203
828.955439	3166.250428
829.272656	3080.160123
829.589830	3017.256606
829.906960	2967.903710
830.224046	2923.004673
830.541088	2890.254817
830.858086	2873.608927
831.175041	2857.530167
831.491952	2858.790455
831.808819	2870.133051
832.125642	2893.476114
832.442421	2936.472115
832.759157	3018.267357
833.075849	3195.126157
833.392497	3478.955722
833.709101	3680.720343
834.025662	3630.069350
834.342179	3469.246460
834.658653	3294.714152
834.975083	3147.489774
835.291469	3049.222562
835.607811	2967.190386
835.924110	2905.658063
836.240366	2856.279961
836.556578	2814.887046
836.872746	2793.552883
837.188871	2770.938267
837.504952	2752.318765
837.820990	2743.582446
838.136984	2730.324211
838.452935	2723.657285
838.768842	2719.841132
839.084706	2739.980541
839.400526	2819.414002
839.716303	2952.941565
840.032037	3030.436703
840.347727	3015.603107
840.663373	2951.812347
840.978977	2879.514639
841.294537	2810.070224
841.610054	2761.236567
841.925527	2740.356107
842.240957	2717.121429
842.556344	2694.658048
842.871687	2680.263033
843.186987	2671.173832
843.502244	2665.459685
843.817458	2662.853408
844.132629	2647.956798
844.447756	2637.393061
844.762840	2633.960035
845.077881	2640.397588
845.392879	2635.164871
845.707833	2632.588841
846.022745	2623.151801
846.337613	2625.841257
846.652438	2625.435444
846.967221	2627.121710
847.281960	2626.060547
847.596656	2623.729013
847.911309	2623.960906
848.225919	2620.916049
848.540485	2615.436315
848.855009	2616.008486
849.169490	2614.881788
849.483928	2617.518312
849.798323	2613.624020
850.112675	2615.015379
850.426984	2615.199381
850.741251	2613.276181
851.055474	2611.017744
851.369654	2619.234824
851.683792	2617.233486
851.997887	2614.289452
852.311938	2613.651747
852.625947	2614.473455
852.939914	2618.203908
853.253837	2618.035030
853.567718	2613.117384
853.881555	2611.935234
854.195350	2615.448918
854.509103	2614.924638
854.822812	2614.191150
855.136479	2611.723505
855.450103	2614.604525
855.763685	2614.380193
856.077224	2612.976232
856.390720	2608.857609
856.704173	2615.784155
857.017584	2618.997890
857.330953	2618.990328
857.644278	2621.520988
857.957561	2621.087448
858.270802	2616.532766
858.584000	2616.384052
858.897155	2618.002262
859.210268	2621.236162
859.523339	2618.135853
859.836367	2609.908690
860.149352	2612.761983
860.462295	2613.041767
860.775195	2611.168978
861.088054	2610.672425
861.400869	2608.981117
861.713642	2607.040273
862.026373	2610.299379
862.339062	2607.730911
862.651708	2615.514453
862.964312	2619.123919
863.276873	2616.777262
863.589392	2616.971346
863.901869	2621.528549
864.214303	2629.531381
864.526696	2629.612040
864.839045	2630.889972
865.151353	2631.746968
865.463619	2630.872328
865.775842	2632.798049
866.088023	2633.115642
866.400162	2635.185035
866.712258	2632.750158
867.024313	2632.263687
867.336325	2628.888634
867.648296	2631.512555
867.960224	2638.234933
868.272110	2634.670837
868.583954	2627.973665
868.895755	2627.449385
869.207515	2635.958852
869.519233	2638.686117
869.830909	2642.514873
870.142542	2633.526496
870.454134	2633.987761
870.765684	2640.304327
871.077191	2640.253915
871.388657	2647.046870
871.700081	2645.365645
872.011463	2643.684421
872.322803	2645.960502
872.634101	2647.435039
872.945357	2657.340906
873.256571	2658.127326
873.567744	2659.075063
873.878874	2654.404434
874.189963	2658.775115
874.501010	2662.180414
874.812015	2670.271466
875.122979	2667.299706
875.433900	2659.173366
875.744780	2658.686894
876.055618	2664.065806
876.366415	2667.561846
876.677169	2666.813234
876.987882	2662.729900
877.298554	2660.665547
877.609183	2670.735252
877.919771	2678.271777
878.230317	2686.730833
878.540822	2695.479756
878.851285	2709.713454
879.161707	2730.871176
879.472087	2772.243926
879.782425	2816.900987
880.092722	2930.949531
880.402977	3119.768469
880.713191	3376.789178
881.023363	3669.523940
881.333494	3860.722303
881.643583	4030.425185
881.953631	4026.535935
882.263637	3848.908359
882.573602	3631.773260
882.883526	3499.369874
883.193408	3385.563306
883.503248	3289.892288
883.813048	3175.271573
884.122806	3057.485013
884.432522	2975.243630
884.742197	2911.926737
885.051831	2874.942312
885.361424	2835.384378
885.670975	2804.393885
885.980485	2769.226795
886.289954	2754.282295
886.599382	2741.069431
886.908768	2730.067112
887.218113	2708.987527
887.527417	2698.436392
887.836680	2689.717717
888.145901	2686.521625
888.455082	2675.909997
888.764221	2663.279386
889.073319	2658.646565
889.382376	2657.124137
889.691392	2660.743685
890.000366	2657.154384
890.309300	2656.985505
890.618193	2659.881648
890.927044	2661.315856
891.235855	2664.617812
891.544625	2660.161432
891.853353	2660.194199
892.162041	2670.790705
892.470687	2689.243848
892.779293	2700.054603
893.087858	2709.151365
893.396381	2730.724983
893.704864	2772.634615
894.013306	2843.795543
894.321707	2935.398350
894.630068	2984.983139
894.938387	3004.288238
895.246665	2996.580313
895.554903	2953.443160
895.863100	2911.772982
896.171256	2853.502285
896.479371	2793.550363
896.787446	2755.373705
897.095480	2735.040211
897.403473	2729.925960
897.711425	2715.631768
898.019336	2695.515044
898.327207	2682.420647
898.635038	2682.803774
898.942827	2677.934020
899.250576	2667.133348
899.558284	2660.675630
899.865952	2654.235556
900.173579	2652.370329
900.481165	2650.404279
900.788711	2638.852475
901.096216	2635.754686
901.403681	2632.959366
901.711105	2632.170425
902.018489	2629.806124
902.325832	2632.160343
902.633135	2631.966258
902.940397	2650.522746
903.247619	2688.424661
903.554800	2754.015114
903.861941	2884.412120
904.169041	3008.096829
904.476101	3068.295768
904.783121	3063.718400
905.090100	3005.493073
905.397039	2932.756785
905.703938	2856.930269
906.010796	2797.016156
906.317614	2743.544637
906.624391	2707.618854
906.931129	2682.143383
907.237826	2659.014569
907.544483	2642.928247
907.851099	2629.082718
908.157675	2615.524535
908.464211	2612.010851
908.770707	2601.129520
909.077163	2596.917636
909.383578	2592.436051
909.689954	2594.024014
909.996289	2591.289188
910.302584	2589.476893
910.608839	2586.873137
910.915054	2588.030082
911.221229	2590.724579
911.527363	2591.720207
911.833458	2590.192737
912.139513	2591.836153
912.445527	2593.905547
912.751502	2598.311515
913.057436	2600.522061
913.363331	2608.718978
913.669186	2621.803292
913.975000	2631.779736
914.280775	2651.311686
914.586510	2667.982782
914.892205	2707.018957
915.197859	2770.986158
915.503475	2857.164683
915.809050	2920.496699
916.114585	2934.445572
916.420081	2947.161882
916.725536	2959.613532
917.030952	2931.153698
917.336328	2885.604353
917.641665	2837.259687
917.946961	2784.287242
918.252218	2752.170051
918.557435	2725.716597
918.862612	2704.107691
919.167750	2688.913653
919.472848	2672.988648
919.777906	2657.938283
920.082925	2643.639050
920.387904	2631.986423
920.692843	2629.584313
920.997743	2625.160701
921.302603	2617.651902
921.607423	2610.732918
921.912204	2606.894080
922.216946	2602.422576
922.521647	2601.119438
922.826310	2597.026021
923.130932	2590.112079
923.435516	2589.431523
923.740059	2584.644947
924.044564	2583.268712
924.349028	2582.986408
924.653454	2575.104564
924.957840	2571.961404
925.262186	2569.655076
925.566493	2571.628688
925.870761	2569.309757
926.174989	2567.794891
926.479178	2567.573080
926.783328	2562.484035
927.087438	2560.041596
927.391509	2563.217523
927.695541	2560.812892
927.999533	2558.569579
928.303486	2557.021945
928.607400	2559.078736
928.911275	2555.819630
929.215110	2557.210988
929.518906	2556.018755
929.822663	2557.120247
930.126381	2556.618652
930.430060	2556.217881
930.733699	2554.607232
931.037299	2555.711245
931.340861	2558.730896
931.644383	2558.960268
931.947866	2558.312480
932.251309	2559.971020
932.554714	2556.530432
932.858080	2561.551422
933.161407	2558.015052
933.464694	2557.367264
933.767943	2556.288457
934.071153	2556.157387
934.374323	2554.108158
934.677455	2550.395348
934.980548	2554.660164
935.283602	2553.052036
935.586617	2554.743343
935.889593	2555.801986
936.192530	2553.450287
936.495428	2554.357695
936.798287	2555.307952
937.101108	2559.305588
937.403890	2559.537481
937.706632	2564.233315
938.009336	2565.682647
938.312002	2571.802608
938.614628	2570.746486
938.917216	2577.602455
939.219765	2578.348546
939.522275	2577.630182
939.824747	2577.607497
940.127179	2572.379820
940.429573	2569.839078
940.731929	2567.880590
941.034246	2565.259190
941.336524	2568.694737
941.638763	2570.045766
941.940964	2566.277503
942.243126	2564.997050
942.545250	2566.695919
942.847335	2561.319528
943.149381	2561.049827
943.451389	2561.344734
943.753359	2559.663509
944.055290	2559.411452
944.357182	2560.465053
944.659036	2558.133519
944.960851	2558.007490
945.262628	2557.740309
945.564367	2557.546225
945.866067	2557.460525
946.167729	2558.378015
946.469352	2559.928170
946.770937	2559.973540
947.072484	2556.195196
947.373992	2558.176369
947.675462	2556.880793
947.976893	2557.221070
948.278286	2556.880792
948.579641	2557.563869
948.880958	2556.074208
949.182236	2556.754764
949.483476	2555.660833
949.784678	2554.181255
950.085841	2555.509599
950.386967	2555.065977
950.688054	2555.330638
950.989103	2559.512275
951.290114	2557.677295
951.591087	2560.580999
951.892021	2560.606205
952.192917	2558.766184
952.493776	2561.367419
952.794596	2562.058058
953.095378	2562.063099
953.396122	2564.881104
953.696828	2561.808520
953.997496	2559.441699
954.298126	2556.658982
954.598718	2557.788200
954.899272	2553.304094
955.199788	2554.854249
955.500266	2554.254351
955.800706	2547.032898
956.101108	2546.657332
956.401472	2546.092723
956.701798	2543.115922
957.002087	2542.127856
957.302337	2546.579195
957.602550	2546.498536
957.902724	2544.829914
958.202861	2546.203629
958.502960	2544.834955
958.803022	2544.608103
959.103045	2544.698844
959.403031	2545.384441
959.702979	2541.986703
960.002889	2541.376724
960.302762	2543.667928
960.602596	2545.066848
960.902393	2542.374872
961.202153	2542.453010
961.501875	2539.458565
961.801559	2542.269008
962.101205	2541.245654
962.400814	2539.829090
962.700385	2539.869419
962.999918	2540.212217
963.299414	2540.988555
963.598873	2540.396219
963.898293	2537.230375
964.197677	2540.655839
964.497022	2540.948226
964.796331	2540.214738
965.095601	2538.619213
965.394835	2539.466127
965.694030	2535.138296
965.993189	2542.939482
966.292309	2539.259439
966.591393	2539.511497
966.890439	2538.974614
967.189447	2538.533513
967.488419	2540.802032
967.787353	2538.024357
968.086249	2537.089223
968.385108	2539.698020
968.683930	2540.522248
968.982714	2537.245498
969.281462	2539.012423
969.580172	2537.530323
969.878844	2540.892773
970.177480	2540.658359
970.476078	2539.297248
970.774639	2541.497712
971.073162	2538.984696
971.371649	2538.815818
971.670098	2537.394212
971.968510	2540.509645
972.266885	2535.463450
972.565223	2541.810263
972.863524	2538.488143
973.161788	2541.706919
973.460014	2543.279759
973.758204	2540.469316
974.056356	2538.195756
974.354471	2540.698689
974.652550	2538.631816
974.950591	2541.432177
975.248595	2540.088709
975.546563	2539.022505
975.844493	2539.627443
976.142386	2539.302289
976.440243	2540.250026
976.738062	2541.152392
977.035845	2534.790456
977.333590	2536.290200
977.631299	2537.121990
977.928971	2539.655170
978.226606	2538.881353
978.524204	2542.064841
978.821765	2539.919830
979.119290	2539.612320
979.416777	2537.192566
979.714228	2537.633667
980.011642	2537.437062
980.309020	2540.676003
980.606360	2539.196425
980.903664	2540.953267
981.200931	2540.275232
981.498162	2539.904707
981.795356	2544.633309
982.092513	2546.722868
982.389633	2545.626417
982.686717	2550.249155
982.983764	2552.540359
983.280775	2552.474824
983.577749	2550.783517
983.874686	2555.091183
984.171587	2550.559186
984.468451	2550.526418
984.765279	2545.651622
985.062070	2544.711447
985.358824	2542.185829
985.655543	2543.483926
985.952224	2542.387475
986.248869	2538.858668
986.545478	2535.077802
986.842050	2537.217772
987.138586	2532.887421
987.435086	2534.503111
987.731549	2531.927081
988.027975	2535.924716
988.324366	2534.198121
988.620719	2537.510159
988.917037	2533.416742
989.213318	2538.256250
989.509563	2535.120652
989.805772	2538.157947
990.101944	2535.972607
990.398080	2536.895138
990.694180	2535.397915
990.990244	2537.197607
991.286271	2535.934798
991.582262	2537.605941
991.878217	2534.195600
992.174136	2533.144520
992.470019	2537.399253
992.765865	2535.478574
993.061676	2536.615354
993.357450	2536.161650
993.653188	2534.296423
993.948890	2538.846065
994.244556	2535.163502
994.540186	2537.709284
994.835780	2539.135931
995.131337	2538.762886
995.426859	2536.806918
995.722345	2537.086702
996.017795	2540.232382
996.313208	2538.762886
996.608586	2538.750283
996.903928	2539.405633
997.199234	2538.082330
997.494504	2540.544933
997.789738	2538.586445
998.084936	2538.977135
998.380099	2536.610313
998.675225	2537.931095
998.970316	2538.044521
999.265371	2536.620395
999.560390	2538.031918
999.855373	2536.605272
1000.150320	2537.013605
1000.445232	2536.050745
1000.740108	2532.897503
1001.034948	2533.240302
1001.329752	2535.657535
1001.624521	2537.273225
1001.919254	2528.945238
1002.213951	2534.508152
1002.508613	2529.285516
1002.803239	2533.048738
1003.097829	2529.086391
1003.392384	2533.814993
1003.686903	2531.617050
1003.981386	2534.324150
1004.275834	2532.073274
1004.570246	2536.973276
1004.864623	2534.845909
1005.158964	2536.149047
1005.453270	2533.956145
1005.747540	2535.302133
1006.041775	2535.070240
1006.335974	2533.207534
1006.630138	2534.142668
1006.924266	2534.172915
1007.218359	2535.133255
1007.512416	2533.232740
1007.806438	2534.898841
1008.100425	2530.306350
1008.394376	2530.447502
1008.688292	2534.198121
1008.982172	2534.175436
1009.276017	2534.293903
1009.569827	2535.304654
1009.863602	2532.012781
1010.157341	2535.629808
1010.451045	2531.002029
1010.744714	2534.614016
1011.038347	2535.208872
1011.331945	2533.464633
1011.625508	2532.693336
1011.919036	2530.434899
1012.212528	2533.308357
1012.505986	2533.925898
1012.799408	2535.032432
1013.092795	2531.985054
1013.386147	2534.359438
1013.679464	2530.069416
1013.972745	2531.130579
1014.265992	2532.479087
1014.559204	2532.153933
1014.852380	2533.459592
1015.145521	2535.236598
1015.438628	2532.274921
1015.731699	2531.465815
1016.024736	2533.928419
1016.317737	2533.058820
1016.610703	2534.515713
1016.903635	2532.476567
1017.196531	2529.111597
1017.489393	2528.937677
1017.782219	2529.905578
1018.075011	2531.264169
1018.367768	2533.613347
1018.660490	2533.930940
1018.953177	2533.930940
1019.245829	2533.930940
