Dividing Wavelength (nm)	Counts (n)	Blue Motor Position (mm): 7.800000	Red Motor Position (mm): 0.000000	
326.493990	2142.437453
326.888308	2142.437453
327.282561	2142.437453
327.676750	2108.928903
328.070874	2108.873450
328.464933	2110.557196
328.858929	2119.454832
329.252859	2128.370113
329.646726	2139.616927
330.040528	2150.278967
330.434265	2169.667245
330.827938	2185.803978
331.221547	2204.131093
331.615091	2222.591799
332.008571	2240.419839
332.401986	2265.068561
332.795338	2281.570778
333.188625	2301.032153
333.581847	2320.140646
333.975006	2337.648573
334.368100	2354.808661
334.761129	2373.680221
335.154095	2390.157232
335.546996	2405.920920
335.939833	2423.880031
336.332606	2438.905190
336.725315	2449.955399
337.117960	2458.623663
337.510540	2468.320322
337.903056	2481.782724
338.295508	2485.366984
338.687896	2496.714621
339.080220	2505.140910
339.472480	2511.800274
339.864676	2513.859586
340.256807	2519.949299
340.648875	2519.402334
341.040879	2524.231760
341.432818	2526.129754
341.824694	2529.819879
342.216506	2529.058664
342.608253	2529.504807
342.999937	2526.185207
343.391557	2526.704446
343.783113	2525.003056
344.174605	2523.571368
344.566033	2524.574558
344.957397	2524.141019
345.348697	2521.222191
345.739934	2516.952333
346.131106	2516.009638
346.522215	2515.871006
346.913260	2513.468896
347.304241	2512.407733
347.695159	2509.080572
348.086012	2508.712568
348.476802	2506.295334
348.867528	2508.430263
349.258191	2505.191322
349.648789	2502.496825
350.039324	2499.399036
350.429796	2500.152688
350.820203	2499.593120
351.210548	2495.908037
351.600828	2493.813437
351.991045	2496.036586
352.381198	2495.255207
352.771288	2494.577172
353.161314	2494.819147
353.551276	2494.614981
353.941175	2494.342758
354.331010	2494.252018
354.720782	2494.614981
355.110490	2493.649600
355.500135	2489.800679
355.889717	2492.394353
356.279235	2492.296050
356.668689	2496.381905
357.058080	2493.936946
357.447408	2493.541215
357.836672	2490.025010
358.225873	2496.931391
358.615010	2493.084991
359.004084	2496.225629
359.393095	2497.543891
359.782043	2497.415342
360.170927	2498.564725
360.559748	2497.697646
360.948505	2500.581186
361.337199	2501.730569
361.725830	2502.592607
362.114398	2500.543378
362.502903	2499.436844
362.891344	2500.314005
363.279722	2500.326608
363.668037	2502.587566
364.056289	2501.985148
364.444478	2505.370283
364.832603	2504.588904
365.220665	2504.664521
365.608665	2501.163440
365.996601	2504.586383
366.384474	2506.154182
366.772284	2505.559326
367.160031	2505.708040
367.547715	2505.851713
367.935336	2507.341374
368.322893	2508.301713
368.710388	2506.048318
369.097820	2508.742814
369.485189	2508.468072
369.872495	2508.044615
370.259738	2507.474964
370.646918	2507.336333
371.034035	2507.469923
371.421090	2508.710047
371.808081	2509.314985
372.195010	2510.197187
372.581875	2510.396313
372.968678	2510.305572
373.355418	2512.621982
373.742096	2511.520490
374.128710	2513.415964
374.515262	2510.734070
374.901751	2511.621313
375.288177	2510.403875
375.674540	2511.530573
376.060841	2511.255830
376.447079	2512.755573
376.833254	2512.175840
377.219367	2505.957577
377.605417	2511.981756
377.991404	2510.479492
378.377329	2510.600480
378.763191	2510.139214
379.148991	2511.656601
379.534727	2513.781448
379.920402	2515.046777
380.306013	2514.121726
380.691563	2515.581140
381.077049	2514.303207
381.462474	2513.668022
381.847835	2515.661798
382.233134	2513.574760
382.618371	2515.470234
383.003545	2516.213804
383.388657	2513.675583
383.773706	2517.176665
384.158693	2513.579802
384.543618	2517.020389
384.928480	2517.287570
385.313280	2518.943589
385.698017	2516.448218
386.082692	2515.205574
386.467305	2516.980060
386.851856	2518.005935
387.236344	2519.404855
387.620770	2520.967613
388.005133	2521.660771
388.389435	2517.958044
388.773674	2515.601304
389.157851	2515.021572
389.541965	2520.105575
389.926018	2518.540297
390.310008	2518.268075
390.693936	2517.418640
391.077802	2517.600122
391.461606	2518.835204
391.845348	2517.587519
392.229027	2519.954341
392.612645	2521.144053
392.996200	2521.088600
393.379694	2521.776718
393.763125	2521.328055
394.146494	2519.903929
394.529801	2521.847294
394.913047	2521.446522
395.296230	2522.956348
395.679351	2523.031965
396.062410	2522.603467
396.445408	2523.299146
396.828343	2523.949455
397.211217	2514.409071
397.594028	2522.628673
397.976778	2517.310255
398.359466	2522.704290
398.742092	2519.160359
399.124656	2522.956348
399.507158	2523.266379
399.889598	2526.114631
400.271977	2523.291584
400.654294	2525.708818
401.036549	2521.771677
401.418742	2522.853004
401.800874	2525.786956
402.182944	2525.257634
402.564952	2524.236801
402.946898	2527.478263
403.328783	2528.473891
403.710606	2526.008766
404.092367	2526.041534
404.474067	2524.395597
404.855705	2526.480114
405.237282	2527.049765
405.618797	2527.385001
406.000250	2526.999353
406.381642	2525.396266
406.762972	2530.434899
407.144240	2528.552028
407.525447	2528.673016
407.906593	2528.241997
408.287677	2528.660413
408.668700	2524.940042
409.049661	2526.477594
409.430560	2526.119672
409.811399	2531.042358
410.192176	2529.129241
410.572891	2529.835002
410.953545	2527.889117
411.334138	2529.431710
411.714669	2530.523120
412.095139	2530.989426
412.475547	2525.008097
412.855894	2528.920033
413.236180	2531.029756
413.616405	2531.188552
413.996568	2528.088242
414.376670	2530.059333
414.756711	2529.444313
415.136691	2530.815507
415.516609	2530.024045
415.896466	2531.193593
416.276262	2531.082688
416.655997	2528.473891
417.035670	2527.057326
417.415283	2531.359951
417.794834	2526.701925
418.174324	2530.913809
418.553753	2532.877338
418.933121	2533.628470
419.312428	2532.264838
419.691674	2531.990095
420.070859	2531.382636
420.449983	2535.155940
420.829045	2532.224509
421.208047	2532.474046
421.586988	2533.562935
421.965867	2532.453882
422.344686	2533.885569
422.723444	2533.867925
423.102141	2531.526309
423.480777	2537.242978
423.859352	2534.223327
424.237866	2534.732483
424.616319	2530.316432
424.994712	2533.530168
425.373044	2531.962369
425.751314	2533.260466
426.129524	2533.595703
426.507673	2531.828778
426.885762	2534.409849
427.263789	2534.127545
427.641756	2534.460261
428.019662	2535.539068
428.397508	2535.516383
428.775292	2535.899510
429.153016	2533.116793
429.530679	2532.264838
429.908282	2534.500590
430.285824	2536.312885
430.663305	2535.115611
431.040726	2537.401774
431.418086	2536.154088
431.795385	2535.624767
432.172624	2536.897659
432.549802	2535.942360
432.926920	2537.550488
433.303977	2536.943029
433.680974	2537.139634
434.057910	2538.064686
434.434786	2537.827752
434.811601	2537.043852
435.188355	2536.436393
435.565050	2537.699202
435.941683	2538.316743
436.318257	2535.418080
436.694770	2531.448171
437.071222	2535.516383
437.447614	2532.239632
437.823946	2532.342976
438.200218	2534.477905
438.576429	2539.042670
438.952580	2535.960004
439.328670	2537.608461
439.704700	2540.880170
440.080670	2538.810777
440.456580	2535.463450
440.832429	2538.987217
441.208218	2538.770447
441.583947	2537.495035
441.959616	2537.941178
442.335224	2540.015612
442.710773	2535.763399
443.086261	2539.642567
443.461689	2536.154088
443.837057	2539.493853
444.212365	2537.956301
444.587612	2538.019315
444.962800	2540.474357
445.337927	2541.137269
445.712995	2539.907227
446.088002	2542.014430
446.462949	2541.038967
446.837837	2540.250026
447.212664	2539.428318
447.587431	2539.209028
447.962139	2541.192722
448.336786	2542.488298
448.711374	2538.924202
449.085901	2540.018133
449.460369	2541.044008
449.834776	2540.812115
450.209124	2540.819676
450.583412	2540.807073
450.957640	2541.253216
451.331808	2537.885725
451.705917	2542.042156
452.079965	2538.982176
452.453954	2541.490150
452.827883	2542.652136
453.201752	2542.538710
453.575562	2542.662218
453.949311	2540.643236
454.323001	2540.159285
454.696632	2538.772968
455.070202	2542.909235
455.443713	2541.996786
455.817164	2537.011085
456.190556	2538.372196
456.563888	2540.091230
456.937160	2537.689120
457.310373	2541.003678
457.683526	2540.350849
458.056619	2542.251364
458.429653	2541.432177
458.802628	2542.294214
459.175542	2541.596014
459.548398	2543.015099
459.921194	2541.361600
460.293930	2542.573998
460.666607	2541.260777
461.039224	2546.483413
461.411782	2542.241282
461.784280	2544.484595
462.156719	2540.996117
462.529099	2540.519728
462.901419	2543.541899
463.273680	2542.427804
463.645882	2544.096426
464.018024	2542.437887
464.390106	2540.469316
464.762130	2543.080634
465.134094	2540.421425
465.505999	2544.471992
465.877845	2542.977290
466.249631	2545.056766
466.621358	2543.710778
466.993026	2545.144986
467.364634	2546.982487
467.736184	2542.158103
468.107674	2542.445448
468.479105	2540.726415
468.850477	2541.452341
469.221790	2546.488454
469.593043	2543.186498
469.964238	2546.112888
470.335373	2547.211859
470.706449	2546.001983
471.077467	2543.423432
471.448425	2546.044832
471.819324	2545.492826
472.190164	2543.070552
472.560945	2545.442414
472.931667	2544.696324
473.302330	2545.838145
473.672934	2546.125491
474.043479	2543.869574
474.413965	2547.221942
474.784393	2540.383617
475.154761	2543.458720
475.525070	2543.655325
475.895321	2544.890408
476.265513	2539.272042
476.635645	2546.090203
477.005719	2543.947712
477.375734	2547.703372
477.745691	2545.339071
478.115588	2543.224307
478.485427	2546.324616
478.855207	2547.045501
479.224928	2544.046015
479.594591	2546.153217
479.964194	2545.944009
480.333739	2544.693803
480.703226	2543.788916
481.072653	2544.799667
481.442022	2547.148845
481.811333	2547.151366
482.180584	2547.209339
482.549777	2545.880995
482.918912	2545.031560
483.287988	2544.535007
483.657005	2548.169679
484.025964	2545.606252
484.394864	2544.454348
484.763706	2545.132383
485.132489	2546.947199
485.501213	2548.204967
485.869879	2548.530121
486.238487	2546.969884
486.607036	2545.810419
486.975527	2544.771941
487.343959	2546.518701
487.712333	2547.753783
488.080648	2546.128011
488.448905	2545.603731
488.817104	2545.838145
489.185244	2546.342260
489.553326	2546.680018
489.921350	2547.103475
490.289315	2546.574153
490.657222	2548.245296
491.025070	2545.235727
491.392861	2548.109185
491.760593	2548.787220
492.128267	2548.449463
492.495883	2547.103475
492.863440	2550.397869
493.230939	2549.341747
493.598380	2547.733619
493.965763	2542.329502
494.333088	2546.067517
494.700354	2544.058618
495.067563	2545.260933
495.434713	2544.771941
495.801805	2547.312682
496.168839	2547.486602
496.535815	2549.530790
496.902733	2549.104813
497.269593	2549.803013
497.636395	2549.586243
498.003139	2548.857796
498.369825	2546.846376
498.736453	2548.446942
499.103023	2547.731098
499.469535	2548.361243
499.835989	2546.042312
500.202385	2548.719164
500.568723	2548.467107
500.935003	2549.571119
501.301226	2547.577343
501.667390	2551.438867
502.033497	2552.212684
502.399546	2546.622044
502.765537	2546.130532
503.131470	2546.919473
503.497345	2548.983825
503.863163	2548.467107
504.228923	2545.593649
504.594625	2548.852755
504.960269	2548.946016
505.325856	2550.997766
505.691385	2549.235883
506.056856	2550.828887
506.422270	2548.976263
506.787625	2549.684545
507.152924	2549.369473
507.518164	2548.194884
507.883347	2547.768907
508.248472	2550.158414
508.613540	2549.059442
508.978550	2549.417364
509.343503	2547.524411
509.708398	2552.247972
510.073236	2549.684545
510.438016	2550.312169
510.802738	2549.669422
511.167403	2549.533311
511.532010	2549.797971
511.896561	2551.562375
512.261053	2548.242775
512.625488	2545.515511
512.989866	2545.132383
513.354186	2545.182795
513.718449	2546.004503
514.082655	2548.598177
514.446803	2549.593805
514.810894	2550.637323
515.174927	2550.392827
515.538904	2549.745039
515.902822	2549.800492
516.266684	2553.725030
516.630488	2550.609597
516.994235	2550.344937
517.357925	2551.184289
517.721558	2552.631100
518.085133	2548.635985
518.448651	2550.118085
518.812112	2551.668239
519.175516	2553.142777
519.538863	2549.472817
519.902152	2549.243444
520.265385	2549.664381
520.628560	2549.152704
520.991678	2548.139432
521.354739	2551.842159
521.717743	2550.249155
522.080690	2551.970709
522.443580	2547.698331
522.806413	2549.442570
523.169189	2546.710265
523.531908	2553.021789
523.894569	2549.881150
524.257174	2552.936090
524.619722	2549.530790
524.982213	2550.158414
525.344647	2550.581871
525.707025	2548.212528
526.069345	2548.439380
526.431608	2550.418033
526.793815	2549.276212
527.155964	2552.477345
527.518057	2550.798640
527.880093	2551.206974
528.242072	2550.738147
528.603995	2552.106820
528.965860	2550.833928
529.327669	2552.885678
529.689421	2552.666388
530.051117	2552.472303
530.412755	2551.232180
530.774337	2550.591953
531.135862	2550.957437
531.497331	2549.432488
531.858743	2545.722198
532.220098	2548.449463
532.581396	2546.092723
532.942638	2548.525080
533.303824	2549.866027
533.664953	2551.093548
534.026025	2552.280740
534.387040	2550.544062
534.747999	2549.477858
535.108902	2550.728064
535.469748	2551.562375
535.830537	2552.089176
536.191270	2551.206974
536.551947	2553.256203
536.912567	2551.499361
537.273131	2553.475493
537.633638	2552.789896
537.994089	2552.532797
538.354483	2551.897612
538.714821	2551.950544
539.075103	2553.140256
539.435328	2554.897098
539.795497	2553.052036
540.155609	2551.547252
540.515665	2552.106820
540.875665	2552.941131
541.235609	2553.848538
541.595496	2554.836605
541.955328	2553.450287
542.315102	2554.158569
542.674821	2551.149001
543.034483	2554.221584
543.394090	2553.041954
543.753640	2554.574465
544.113134	2553.087324
544.472571	2554.171172
544.831953	2553.354505
545.191278	2553.697304
545.550548	2554.198899
545.909761	2556.293498
546.268918	2552.895760
546.628019	2553.533466
546.987064	2555.585216
547.346053	2556.848025
547.704986	2552.505071
548.063863	2556.706873
548.422684	2554.818961
548.781449	2555.002963
549.140158	2552.152190
549.498811	2556.452294
549.857408	2555.134033
550.215949	2552.106820
550.574434	2550.765873
550.932864	2554.569423
551.291237	2549.238403
551.649555	2555.086142
552.007817	2555.698642
552.366022	2558.309960
552.724173	2555.673436
553.082267	2557.725186
553.440305	2555.333158
553.798288	2554.166131
554.156215	2555.431461
554.514086	2557.856256
554.871902	2553.004145
555.229661	2553.853580
555.587365	2555.315514
555.945014	2555.751574
556.302606	2556.648899
556.660143	2556.845504
557.017625	2556.114537
557.375050	2554.191337
557.732421	2553.868703
558.089735	2554.140925
558.446994	2556.555638
558.804197	2556.817778
559.161345	2555.335679
559.518437	2556.681667
559.875474	2558.995557
560.232455	2555.338199
560.589381	2556.956410
560.946251	2558.168807
561.303065	2557.016904
561.659825	2556.883313
562.016528	2554.710576
562.373177	2556.487582
562.729770	2556.926163
563.086307	2557.301729
563.442789	2555.708724
563.799216	2558.476318
564.155587	2555.680998
564.511904	2555.050854
564.868164	2554.014897
565.224370	2557.248797
565.580520	2555.993549
565.936615	2557.218550
566.292654	2556.394321
566.648638	2555.300391
567.004567	2555.975905
567.360441	2556.101934
567.716260	2557.004301
568.072023	2555.096224
568.427732	2554.133364
568.783385	2552.129505
569.138982	2554.151008
569.494525	2553.634289
569.850013	2550.022303
570.205445	2558.355330
570.560823	2555.071018
570.916145	2554.629917
571.271412	2557.642007
571.626625	2553.840977
571.981782	2554.193857
572.336884	2555.413817
572.691931	2555.063457
573.046923	2555.481872
573.401860	2555.355843
573.756743	2555.615463
574.111570	2557.243756
574.466342	2554.939948
574.821059	2554.133364
575.175722	2555.446584
575.530330	2557.962120
575.884882	2556.038920
576.239380	2555.348282
576.593823	2555.678477
576.948211	2552.505071
577.302544	2553.843497
577.656823	2554.161090
578.011047	2558.083108
578.365216	2555.360885
578.719330	2554.947510
579.073389	2554.395504
579.427394	2556.207798
579.781344	2554.506409
580.135239	2555.083621
580.489080	2554.980277
580.842866	2555.519681
581.196597	2560.762481
581.550273	2555.988508
581.903895	2555.731409
582.257463	2556.568241
582.610975	2555.668395
582.964434	2554.970195
583.317837	2555.877603
583.671186	2558.622511
584.024481	2553.578837
584.377721	2553.798127
584.730906	2554.256872
585.084037	2555.338199
585.437113	2553.021789
585.790135	2553.049516
586.143103	2554.902140
586.496016	2559.534960
586.848874	2550.443239
587.201679	2553.031872
587.554428	2550.937272
587.907124	2555.771739
588.259765	2549.490461
588.612352	2552.638662
588.964884	2555.897768
589.317362	2552.850390
589.669786	2552.492468
590.022155	2553.409958
590.374470	2556.800134
590.726731	2554.725699
591.078937	2553.803168
591.431090	2553.883827
591.783188	2551.186809
592.135232	2555.756615
592.487222	2554.403065
592.839157	2553.379711
593.191038	2554.599670
593.542866	2554.929866
593.894639	2552.041285
594.246358	2555.658313
594.598022	2552.437015
594.949633	2553.283929
595.301190	2555.035730
595.652692	2553.430123
596.004141	2554.309804
596.355535	2554.607232
596.706876	2553.919115
597.058162	2553.997253
597.409395	2551.338044
597.760573	2554.632438
598.111698	2552.515153
598.462768	2551.005328
598.813785	2556.243087
599.164748	2552.666388
599.515657	2551.010369
599.866511	2550.433157
600.217312	2552.280740
600.568060	2552.684032
600.918753	2555.101265
601.269392	2552.711758
601.619978	2552.878116
601.970510	2554.791234
602.320988	2553.921635
602.671412	2553.089845
603.021783	2549.999618
603.372100	2555.532284
603.722363	2554.455997
604.072572	2556.459856
604.422728	2556.021276
604.772830	2548.192364
605.122878	2550.206305
605.472872	2551.441388
605.822813	2547.128680
606.172701	2550.415513
606.522534	2552.938610
606.872314	2551.670760
607.222041	2553.374670
607.571714	2551.885009
607.921333	2553.941800
608.270899	2553.117571
608.620411	2553.157900
608.969870	2556.033879
609.319276	2555.978426
609.668627	2558.544373
610.017926	2560.462532
610.367171	2564.077040
610.716362	2563.519992
611.065500	2559.204764
611.414585	2557.785680
611.763616	2557.631924
612.112594	2555.532284
612.461518	2558.226781
612.810389	2552.948692
613.159207	2558.821637
613.507971	2553.858621
613.856682	2555.963302
614.205340	2556.243087
614.553945	2556.293498
614.902496	2553.909032
615.250994	2557.145453
615.599439	2552.842828
615.947830	2556.464897
616.296169	2555.428940
616.644454	2553.752757
616.992686	2555.161759
617.340864	2555.993549
617.688990	2554.476162
618.037063	2556.583364
618.385082	2555.658313
618.733048	2554.440874
619.080961	2556.898437
619.428821	2553.803168
619.776628	2557.672254
620.124382	2555.257541
620.472083	2555.769218
620.819731	2553.185627
621.167326	2556.558159
621.514868	2557.316852
621.862357	2556.230484
622.209793	2555.905329
622.557176	2557.057233
622.904506	2553.490617
623.251783	2547.690769
623.599007	2556.157387
623.946179	2551.663198
624.293297	2550.367622
624.640363	2555.761656
624.987376	2554.997922
625.334336	2554.526574
625.681243	2555.013045
626.028097	2554.138405
626.374899	2553.974567
626.721647	2553.997253
627.068343	2554.650082
627.414987	2555.038251
627.761577	2553.205791
628.108115	2554.730740
628.454600	2555.008004
628.801032	2556.631255
629.147412	2556.827860
629.493739	2553.384752
629.840014	2554.390463
630.186236	2555.580175
630.532405	2557.037068
630.878521	2554.657644
631.224585	2558.851884
631.570597	2554.854249
631.916556	2555.658313
632.262462	2552.832746
632.608316	2556.664023
632.954117	2557.513457
633.299866	2554.768549
633.645562	2554.047664
633.991206	2555.348282
634.336797	2555.005483
634.682336	2555.010524
635.027823	2556.303580
635.373257	2557.150494
635.718639	2556.197716
636.063968	2556.106975
636.409245	2554.970195
636.754470	2556.429609
637.099642	2552.875596
637.444762	2557.314332
637.789829	2553.150339
638.134845	2555.560010
638.479808	2555.098745
638.824719	2557.447922
639.169577	2555.008004
639.514383	2554.929866
639.859137	2555.880123
640.203839	2556.061605
640.548489	2554.161090
640.893086	2554.201419
641.237632	2552.109340
641.582125	2554.834084
641.926566	2550.239072
642.270955	2554.705535
642.615292	2555.696121
642.959576	2554.708055
643.303809	2553.528425
643.647990	2556.217881
643.992118	2553.180586
644.336195	2553.863662
644.680219	2556.081770
645.024192	2556.026317
645.368112	2558.962789
645.711981	2553.664536
646.055797	2554.335010
646.399562	2558.559497
646.743274	2555.766697
647.086935	2554.652603
647.430544	2555.426420
647.774101	2558.037737
648.117606	2556.946327
648.461059	2558.446071
648.804460	2560.447409
649.147810	2557.092521
649.491108	2556.974054
649.834354	2556.666543
650.177548	2560.064281
650.520690	2557.833571
650.863781	2554.335010
651.206820	2558.771225
651.549807	2556.797613
651.892742	2556.689229
652.235626	2557.740309
652.578458	2556.674105
652.921238	2555.121430
653.263967	2556.704352
653.606644	2554.370298
653.949269	2559.171997
654.291843	2555.774259
654.634365	2559.136709
654.976836	2556.779969
655.319255	2559.532439
655.661622	2555.950700
656.003938	2556.721996
656.346203	2555.915412
656.688416	2559.867676
657.030577	2557.064795
657.372687	2558.798952
657.714746	2557.964641
658.056753	2557.727706
658.398708	2552.152190
658.740612	2553.931717
659.082465	2554.899619
659.424266	2556.404403
659.766016	2554.980278
660.107715	2558.645196
660.449362	2558.093190
660.790958	2561.483366
661.132503	2558.778787
661.473996	2563.096535
661.815438	2559.295505
662.156829	2560.485218
662.498168	2560.671740
662.839456	2560.006308
663.180693	2561.385063
663.521879	2564.129972
663.863013	2563.051165
664.204097	2560.250804
664.545129	2563.169632
664.886110	2560.790207
665.227040	2563.076371
665.567918	2562.133675
665.908746	2565.697771
666.249522	2567.283213
666.590248	2564.878583
666.930922	2563.691391
667.271545	2564.903789
667.612118	2568.815724
667.952639	2565.720456
668.293109	2568.402350
668.633528	2567.164746
668.973896	2566.832030
669.314213	2566.814386
669.654480	2569.493759
669.994695	2570.892680
670.334859	2569.642473
670.674973	2568.646846
671.015035	2569.445868
671.355047	2573.065417
671.695008	2571.638770
672.034918	2570.340673
672.374777	2570.532237
672.714585	2571.782443
673.054342	2572.790674
673.394049	2571.293451
673.733705	2572.856209
674.073310	2579.076993
674.412864	2574.053483
674.752368	2578.308217
675.091820	2575.893504
675.431223	2575.633885
675.770574	2577.446180
676.109875	2570.471743
676.449125	2576.349729
676.788324	2572.031980
677.127473	2575.500294
677.466571	2575.613720
677.805619	2579.008937
678.144616	2579.099678
678.483562	2577.617579
678.822458	2579.760069
679.161303	2579.676890
679.500098	2582.026068
679.838842	2579.540779
680.177535	2582.923393
680.516179	2583.581264
680.854771	2582.245358
681.193314	2581.932807
681.531805	2587.427664
681.870247	2592.773808
682.208638	2591.216091
682.546978	2595.974941
682.885268	2594.412183
683.223508	2593.134250
683.561697	2595.793459
683.899836	2598.679520
684.237925	2596.310177
684.575963	2598.087184
684.913951	2593.663572
685.251889	2601.905858
685.589776	2600.055755
685.927614	2599.700353
686.265401	2606.654625
686.603137	2607.352825
686.940824	2609.525562
687.278460	2610.216200
687.616046	2612.794750
687.953582	2616.124432
688.291068	2615.106119
688.628504	2624.366719
688.965889	2621.163066
689.303224	2621.498302
689.640510	2622.012500
689.977745	2622.032665
690.314930	2620.699280
690.652065	2619.265071
690.989150	2614.831377
691.326185	2613.180399
691.663170	2614.690224
692.000105	2613.248454
692.336990	2610.884153
692.673825	2614.634772
693.010610	2610.942126
693.347345	2604.973400
693.684030	2608.650922
694.020665	2607.468771
694.357251	2603.650097
694.693786	2611.128649
695.030272	2609.444904
695.366707	2607.466251
695.703093	2603.670262
696.039429	2611.239554
696.375716	2617.596449
696.711952	2613.253495
697.048139	2611.282404
697.384276	2610.594287
697.720363	2614.859103
698.056400	2617.966974
698.392388	2616.941099
698.728326	2613.800461
699.064214	2615.509412
699.400053	2613.475306
699.735842	2616.144597
700.071581	2616.661315
700.407270	2616.532766
700.742910	2615.816922
701.078501	2615.990842
701.414042	2616.011007
701.749533	2616.094186
702.084974	2613.200563
702.420366	2620.069135
702.755709	2613.913887
703.091002	2612.711571
703.426246	2615.869854
703.761440	2615.070831
704.096584	2611.726026
704.431679	2619.239866
704.766725	2618.728188
705.101721	2619.653240
705.436668	2622.342696
705.771565	2615.572426
706.106413	2619.741460
706.441212	2624.361678
706.775961	2631.454581
707.110661	2627.141874
707.445311	2624.543159
707.779913	2631.247894
708.114465	2635.908441
708.448967	2633.811321
708.783421	2639.076806
709.117825	2644.982518
709.452180	2645.831952
709.786485	2646.499905
710.120742	2654.296049
710.454949	2651.077273
710.789107	2657.691267
711.123216	2662.190496
711.457275	2660.985661
711.791286	2670.095026
712.125247	2678.498629
712.459159	2663.849036
712.793023	2669.444717
713.126837	2677.593742
713.460602	2678.780934
713.794318	2666.727535
714.127985	2673.114677
714.461602	2668.433965
714.795171	2662.742503
715.128691	2663.362565
715.462162	2661.189827
715.795584	2661.262924
716.128957	2662.026659
716.462281	2655.382418
716.795556	2655.062305
717.128782	2657.638334
717.461960	2654.346461
717.795088	2655.309321
718.128167	2650.820174
718.461198	2646.762045
718.794180	2647.440080
719.127113	2651.820843
719.459997	2648.924700
719.792833	2645.975625
720.125619	2643.162661
720.458357	2643.104688
720.791046	2649.978301
721.123686	2648.339926
721.456278	2644.939668
721.788821	2647.429998
722.121315	2647.455204
722.453761	2646.164668
722.786158	2650.668939
723.118506	2650.701707
723.450805	2642.840027
723.783056	2643.858340
724.115259	2654.948879
724.447412	2655.354692
724.779518	2650.182468
725.111574	2655.836122
725.443582	2655.440391
725.775542	2657.345947
726.107453	2666.316681
726.439315	2668.018070
726.771129	2671.872032
727.102895	2669.802639
727.434612	2678.579287
727.766281	2679.905111
728.097901	2675.693227
728.429473	2674.856395
728.760996	2681.591377
729.092471	2677.177847
729.423897	2680.303362
729.755276	2686.153621
730.086606	2687.653364
730.417887	2684.333765
730.749120	2692.240814
731.080305	2708.284287
731.411442	2709.980635
731.742530	2700.125179
732.073570	2706.063658
732.404562	2714.358877
732.735506	2715.341902
733.066401	2711.117415
733.397249	2705.849409
733.728048	2698.070909
734.058798	2698.249870
734.389501	2688.832994
734.720156	2678.269257
735.050762	2678.256654
735.381320	2684.421985
735.711831	2674.511076
736.042293	2675.746159
736.372707	2682.818898
736.703073	2678.952333
737.033391	2672.149296
737.363661	2680.068948
737.693883	2681.699762
738.024056	2685.591532
738.354182	2680.464679
738.684260	2691.373736
739.014290	2694.189220
739.344272	2688.969106
739.674207	2698.028059
740.004093	2700.795652
740.333931	2697.584437
740.663722	2704.836137
740.993464	2706.136755
741.323159	2699.621064
741.652806	2701.939994
741.982405	2698.534695
742.311956	2698.791794
742.641460	2696.407328
742.970915	2693.117975
743.300323	2689.899198
743.629683	2686.345185
743.958996	2685.362160
744.288260	2683.585153
744.617477	2678.755728
744.946647	2676.585511
745.275768	2675.423525
745.604842	2681.508198
745.933869	2665.787360
746.262847	2665.563028
746.591778	2683.345698
746.920662	2675.814215
747.249498	2670.669717
747.578286	2682.292097
747.907027	2682.692869
748.235720	2677.681962
748.564365	2684.101872
748.892963	2691.933304
749.221514	2689.269054
749.550017	2681.886284
749.878473	2684.432067
750.206881	2681.699762
750.535242	2684.066583
750.863555	2682.503826
751.191821	2682.032478
751.520039	2679.345543
751.848210	2672.575273
752.176334	2683.633044
752.504411	2686.677901
752.832440	2676.247754
753.160421	2672.492094
753.488356	2680.073990
753.816243	2687.577747
754.144082	2674.790860
754.471875	2672.986127
754.799620	2679.302693
755.127318	2676.104081
755.454969	2678.223886
755.782572	2682.760925
756.110129	2679.131294
756.437638	2674.127949
756.765100	2681.225893
757.092515	2687.565144
757.419882	2684.956347
757.747203	2679.985769
758.074477	2680.222704
758.401703	2686.128415
758.728882	2690.526822
759.056014	2690.345341
759.383099	2690.274764
759.710138	2686.569516
760.037129	2688.102027
760.364073	2699.079140
760.690970	2698.675847
761.017820	2691.887934
761.344623	2695.651155
761.671379	2703.737166
761.998088	2711.649257
762.324751	2734.243708
762.651366	2761.619694
762.977935	2821.604384
763.304456	2899.039028
763.630931	2936.015891
763.957359	2872.134389
764.283740	2823.419199
764.610074	2807.080820
764.936362	2779.374638
765.262602	2747.375914
765.588796	2736.759244
765.914943	2720.594784
766.241044	2701.902186
766.567097	2700.155426
766.893104	2692.490352
767.219064	2685.387366
767.544978	2683.423836
767.870845	2671.607372
768.196665	2664.355672
768.522438	2670.268945
768.848165	2675.355470
769.173846	2669.048986
769.499479	2662.956752
769.825066	2660.176555
770.150607	2658.949034
770.476101	2666.714932
770.801548	2667.428255
771.126949	2653.655823
771.452303	2651.624238
771.777611	2655.934424
772.102872	2661.192348
772.428087	2654.633807
772.753256	2656.957779
773.078378	2652.841677
773.403453	2645.559730
773.728482	2641.725932
774.053465	2648.138280
774.378401	2651.384783
774.703291	2638.182001
775.028135	2640.846251
775.352932	2636.946918
775.677683	2636.319295
776.002388	2638.068575
776.327046	2637.713174
776.651658	2637.105715
776.976224	2631.532719
777.300743	2634.892648
777.625216	2630.663120
777.949643	2629.554066
778.274024	2633.438275
778.598359	2631.051289
778.922647	2629.062554
779.246889	2632.969448
779.571086	2625.523664
779.895236	2627.247738
780.219339	2627.058695
780.543397	2637.985396
780.867409	2635.270735
781.191374	2631.084057
781.515294	2633.370220
781.839167	2633.034983
782.162995	2632.639252
782.486776	2637.279635
782.810511	2637.866929
783.134201	2631.764612
783.457844	2637.763585
783.781441	2634.481794
784.104993	2628.399642
784.428498	2627.003242
784.751958	2635.999182
785.075372	2631.535240
785.398739	2626.826802
785.722061	2633.085395
786.045337	2636.949439
786.368568	2628.190434
786.691752	2627.068777
787.014891	2643.313896
787.337983	2647.303969
787.661030	2647.346819
787.984031	2661.540187
788.306987	2674.884122
788.629897	2669.515293
788.952760	2671.577125
789.275579	2672.666014
789.598351	2660.007677
789.921078	2647.924031
790.243759	2649.900163
790.566395	2649.065852
790.888984	2639.313740
791.211529	2636.566311
791.534027	2636.561270
791.856480	2634.552370
792.178888	2628.019035
792.501249	2625.846298
792.823566	2629.652369
793.145836	2626.244549
793.468062	2625.652213
793.790241	2626.060547
794.112375	2628.495424
794.434464	2632.558594
794.756507	2630.567338
795.078505	2633.138327
795.400457	2632.848460
795.722364	2640.155613
796.044226	2646.515028
796.366042	2643.177785
796.687812	2643.863382
797.009538	2650.709268
797.331218	2652.473672
797.652852	2648.917138
797.974442	2641.176447
798.295986	2642.880357
798.617484	2645.549647
798.938938	2639.943884
799.260346	2634.862401
799.581709	2638.149234
799.903026	2636.236116
800.224299	2635.253091
800.545526	2632.059520
800.866708	2627.986268
801.187845	2624.160032
801.508936	2625.115330
801.829983	2629.823768
802.150984	2628.245887
802.471940	2621.266409
802.792851	2621.016872
803.113717	2622.133488
803.434538	2623.260186
803.755314	2622.309928
804.076045	2621.218518
804.396731	2621.369753
804.717372	2619.386059
805.037967	2618.768518
805.358518	2617.906480
805.679024	2624.651544
805.999485	2624.291102
806.319901	2623.655916
806.640272	2622.277161
806.960598	2622.249434
807.280879	2626.242028
807.601115	2628.497945
807.921306	2625.894189
808.241453	2622.647686
808.561554	2624.951493
808.881611	2626.458798
809.201623	2625.228756
809.521590	2627.023407
809.841513	2622.211626
810.161390	2623.827316
810.481223	2624.452419
810.801011	2619.965792
811.120755	2619.058384
811.440453	2623.038375
811.760107	2622.448560
812.079716	2623.572737
812.399281	2619.837242
812.718801	2617.369597
813.038276	2613.639144
813.357707	2619.628034
813.677093	2624.868314
813.996434	2621.843622
814.315731	2619.323045
814.634983	2618.002262
814.954191	2619.806995
815.273354	2626.340331
815.592473	2630.214457
815.911547	2626.335290
816.230577	2633.569345
816.549562	2633.171094
816.868502	2631.893162
817.187399	2635.454737
817.506250	2644.826242
817.825058	2641.678041
818.143821	2646.298259
818.462539	2650.212715
818.781213	2657.925680
819.099843	2671.551919
819.418429	2682.776048
819.736970	2697.675178
820.055466	2715.485575
820.373919	2753.188364
820.692327	2798.619243
821.010691	2837.279852
821.329011	2935.274841
821.647286	3100.944801
821.965517	3371.024618
822.283704	3519.637833
822.601847	3532.137374
822.919945	3465.168166
823.237999	3427.949327
823.556010	3307.498518
823.873976	3180.027902
824.191897	3078.441090
824.509775	3003.942918
824.827609	2918.520567
825.145398	2883.771893
825.463144	2882.841800
825.780845	2910.111922
826.098502	2925.353851
826.416116	3000.925788
826.733685	3067.663103
827.051210	3088.286463
827.368692	3069.752661
827.686129	3023.129550
828.003522	2933.013884
828.320872	2856.776514
828.638177	2796.950621
828.955439	2746.418095
829.272656	2724.105948
829.589830	2705.771271
829.906960	2691.910619
830.224046	2673.853206
830.541088	2666.301557
830.858086	2660.980619
831.175041	2654.807727
831.491952	2656.146153
831.808819	2663.738131
832.125642	2671.821621
832.442421	2686.574557
832.759157	2705.849409
833.075849	2754.630134
833.392497	2833.103256
833.709101	2899.449882
834.025662	2892.137688
834.342179	2852.350381
834.658653	2801.606127
834.975083	2756.376894
835.291469	2733.290930
835.607811	2698.980837
835.924110	2682.566840
836.240366	2661.666216
836.556578	2646.842703
836.872746	2639.802732
837.188871	2628.893675
837.504952	2622.501492
837.820990	2621.155504
838.136984	2615.310286
838.452935	2614.813732
838.768842	2612.577981
839.084706	2620.190123
839.400526	2644.186015
839.716303	2684.724454
840.032037	2702.534851
840.347727	2705.897300
840.663373	2694.103521
840.978977	2671.735921
841.294537	2645.068217
841.610054	2628.447533
841.925527	2623.600464
842.240957	2615.060749
842.556344	2606.218565
842.871687	2598.863522
843.186987	2597.046186
843.502244	2594.271031
843.817458	2594.843202
844.132629	2588.859352
844.447756	2584.208887
844.762840	2576.901735
845.077881	2583.039340
845.392879	2582.825091
845.707833	2580.856520
846.022745	2573.619944
846.337613	2578.159503
846.652438	2575.820407
846.967221	2579.888619
847.281960	2578.971129
847.596656	2580.831314
847.911309	2580.080182
848.225919	2578.577919
848.540485	2578.091447
848.855009	2575.331416
849.169490	2575.815366
849.483928	2576.818556
849.798323	2575.344018
850.112675	2577.534400
850.426984	2575.374265
850.741251	2574.393761
851.055474	2575.691858
851.369654	2576.342167
851.683792	2575.938875
851.997887	2575.487691
852.311938	2573.350242
852.625947	2574.998699
852.939914	2578.708989
853.253837	2577.998186
853.567718	2576.039698
853.881555	2575.331416
854.195350	2575.409553
854.509103	2575.575912
854.822812	2574.098853
855.136479	2573.599779
855.450103	2572.896538
855.763685	2578.671180
856.077224	2576.800912
856.390720	2575.981724
856.704173	2574.847465
857.017584	2577.874678
857.330953	2577.625141
857.644278	2581.411047
857.957561	2578.416602
858.270802	2575.717064
858.584000	2576.581622
858.897155	2581.980697
859.210268	2579.152610
859.523339	2576.934502
859.836367	2575.187743
860.149352	2577.844431
860.462295	2577.166396
860.775195	2573.100705
861.088054	2572.951991
861.400869	2573.085582
861.713642	2570.517114
862.026373	2573.584656
862.339062	2572.533575
862.651708	2579.855851
862.964312	2577.884760
863.276873	2576.896694
863.589392	2578.250244
863.901869	2580.475913
864.214303	2583.218301
864.526696	2583.394741
864.839045	2584.395410
865.151353	2585.993456
865.463619	2582.875502
865.775842	2586.676532
866.088023	2586.910946
866.400162	2587.498240
866.712258	2587.510843
867.024313	2588.413210
867.336325	2583.858527
867.648296	2584.841552
867.960224	2588.836667
868.272110	2587.450349
868.583954	2582.928434
868.895755	2584.062694
869.207515	2588.100658
869.519233	2588.579568
869.830909	2587.432705
870.142542	2586.306007
870.454134	2587.289033
870.765684	2588.319948
871.077191	2590.139805
871.388657	2592.194075
871.700081	2593.590475
872.011463	2589.315576
872.322803	2590.563262
872.634101	2591.266503
872.945357	2596.426124
873.256571	2599.672627
873.567744	2596.519385
873.878874	2594.505444
874.189963	2598.185487
874.501010	2600.214551
874.812015	2600.454006
875.122979	2603.622371
875.433900	2601.308481
875.744780	2600.338059
876.055618	2599.430652
876.366415	2603.065323
876.677169	2605.527927
876.987882	2600.857298
877.298554	2601.774788
877.609183	2607.103288
877.919771	2611.602517
878.230317	2614.352467
878.540822	2621.639455
878.851285	2626.862090
879.161707	2641.738535
879.472087	2659.395177
879.782425	2680.560461
880.092722	2726.896227
880.402977	2800.799542
880.713191	2866.803369
881.023363	2934.813576
881.333494	2970.101653
881.643583	3036.715460
881.953631	3064.751837
882.263637	3029.990560
882.573602	2962.943214
882.883526	2930.183276
883.193408	2897.274624
883.503248	2865.177597
883.813048	2823.802327
884.122806	2777.090995
884.432522	2744.215111
884.742197	2717.965822
885.051831	2703.449820
885.361424	2686.287212
885.670975	2675.042918
885.980485	2657.260248
886.289954	2649.154072
886.599382	2641.322640
886.908768	2637.967752
887.218113	2628.180352
887.527417	2621.150463
887.836680	2620.003600
888.145901	2616.726850
888.455082	2611.267281
888.764221	2609.439862
889.073319	2603.337546
889.382376	2601.179932
889.691392	2602.299068
890.000366	2604.832248
890.309300	2600.864860
890.618193	2602.825869
890.927044	2602.825869
891.235855	2601.235385
891.544625	2599.609612
891.853353	2602.631784
892.162041	2606.357197
892.470687	2617.893878
892.779293	2622.113323
893.087858	2623.577778
893.396381	2631.129427
893.704864	2651.904022
894.013306	2680.515091
894.321707	2721.030844
894.630068	2736.552557
894.938387	2751.038312
895.246665	2757.286822
895.554903	2735.554408
895.863100	2724.481514
896.171256	2701.519058
896.479371	2665.058913
896.787446	2648.841521
897.095480	2642.998824
897.403473	2642.293062
897.711425	2634.557412
898.019336	2624.391925
898.327207	2617.770369
898.635038	2615.640482
898.942827	2613.414812
899.250576	2607.476333
899.558284	2602.896445
899.865952	2601.260590
900.173579	2602.392329
900.481165	2601.177411
900.788711	2596.226998
901.096216	2592.914960
901.403681	2588.957654
901.711105	2591.730289
902.018489	2590.522933
902.325832	2595.806062
902.633135	2592.236925
902.940397	2603.340066
903.247619	2621.752881
903.554800	2649.960657
903.861941	2702.711291
904.169041	2748.149731
904.476101	2774.426746
904.783121	2775.497991
905.090100	2760.377050
905.397039	2734.137844
905.703938	2702.938143
906.010796	2671.337670
906.317614	2646.348670
906.624391	2628.573562
906.931129	2618.604680
907.237826	2606.362238
907.544483	2595.425455
907.851099	2585.179310
908.157675	2582.683938
908.464211	2582.704103
908.770707	2573.693041
909.077163	2573.325036
909.383578	2570.154151
909.689954	2571.656414
909.996289	2569.889490
910.302584	2573.153637
910.608839	2568.311609
910.915054	2568.326732
911.221229	2569.440827
911.527363	2570.537278
911.833458	2567.124417
912.139513	2570.247412
912.445527	2570.643142
912.751502	2573.496436
913.057436	2577.055490
913.363331	2579.424832
913.669186	2587.359609
913.975000	2590.180134
914.280775	2600.653131
914.586510	2608.845006
914.892205	2624.313787
915.197859	2655.410144
915.503475	2695.361289
915.809050	2722.981771
916.114585	2722.407079
916.420081	2730.677092
916.725536	2742.712847
917.030952	2732.265055
917.336328	2714.653784
917.641665	2689.445495
917.946961	2669.147289
918.252218	2653.696152
918.557435	2637.534213
918.862612	2628.876031
919.167750	2620.563168
919.472848	2611.841972
919.777906	2603.052721
920.082925	2597.192379
920.387904	2590.754826
920.692843	2589.683581
920.997743	2588.345154
921.302603	2584.307190
921.607423	2579.361818
921.912204	2579.104719
922.216946	2576.296797
922.521647	2574.665983
922.826310	2572.485684
923.130932	2572.468040
923.435516	2569.027453
923.740059	2567.487380
924.044564	2566.771536
924.349028	2566.464026
924.653454	2560.631411
924.957840	2558.662840
925.262186	2558.715773
925.566493	2558.680484
925.870761	2553.256203
926.174989	2557.329455
926.479178	2557.556307
926.783328	2555.658313
927.087438	2554.357695
927.391509	2555.476831
927.695541	2554.090514
927.999533	2552.114382
928.303486	2554.541697
928.607400	2553.727551
928.911275	2552.245452
929.215110	2555.076059
929.518906	2550.662529
929.822663	2552.958775
930.126381	2554.944989
930.430060	2553.130174
930.733699	2552.583209
931.037299	2552.636141
931.340861	2553.667057
931.644383	2554.370298
931.947866	2554.332489
932.251309	2553.440205
932.554714	2553.104968
932.858080	2552.936090
933.161407	2554.811399
933.464694	2549.918959
933.767943	2550.327293
934.071153	2552.454659
934.374323	2550.476007
934.677455	2551.529608
934.980548	2550.700338
935.283602	2550.279402
935.586617	2546.019627
935.889593	2551.706048
936.192530	2549.467776
936.495428	2551.310317
936.798287	2550.259237
937.101108	2550.886861
937.403890	2551.738816
937.706632	2560.129816
938.009336	2554.385421
938.312002	2559.507234
938.614628	2558.589744
938.917216	2560.548232
939.219765	2561.964796
939.522275	2563.830023
939.824747	2565.387740
940.127179	2558.405742
940.429573	2555.922973
940.731929	2557.359702
941.034246	2553.054557
941.336524	2554.924825
941.638763	2556.258210
941.940964	2559.126627
942.243126	2557.649568
942.545250	2556.376677
942.847335	2555.350802
943.149381	2555.358364
943.451389	2553.288970
943.753359	2555.474311
944.055290	2555.426420
944.357182	2552.895760
944.659036	2552.114382
944.960851	2552.603373
945.262628	2552.242931
945.564367	2553.372149
945.866067	2551.975750
946.167729	2553.654454
946.469352	2553.798127
946.770937	2553.969526
947.072484	2552.389124
947.373992	2551.002807
947.675462	2550.418033
947.976893	2552.699155
948.278286	2552.258054
948.579641	2550.619679
948.880958	2549.596325
949.182236	2551.446429
949.483476	2549.392158
949.784678	2551.874927
950.085841	2550.443239
950.386967	2554.708055
950.688054	2551.995914
950.989103	2550.854093
951.290114	2553.130174
951.591087	2554.695452
951.892021	2551.653116
952.192917	2556.336348
952.493776	2553.619166
952.794596	2559.807182
953.095378	2556.260731
953.396122	2555.635627
953.696828	2554.377860
953.997496	2554.813919
954.298126	2551.461552
954.598718	2552.036244
954.899272	2549.351829
955.199788	2548.409133
955.500266	2550.539021
955.800706	2546.105326
956.101108	2544.333361
956.401472	2546.004503
956.701798	2542.526107
957.002087	2543.884698
957.302337	2545.187836
957.602550	2545.633978
957.902724	2547.239586
958.202861	2545.124822
958.502960	2547.005172
958.803022	2545.051725
959.103045	2545.608773
959.403031	2546.117929
959.702979	2543.665408
960.002889	2546.054915
960.302762	2543.398227
960.602596	2545.031560
960.902393	2544.043494
961.202153	2544.358566
961.501875	2544.408978
961.801559	2545.734801
962.101205	2545.021478
962.400814	2544.093906
962.700385	2544.308155
962.999918	2544.303114
963.299414	2542.808412
963.598873	2544.633309
963.898293	2542.082485
964.197677	2540.683565
964.497022	2543.118442
964.796331	2541.343956
965.095601	2542.727753
965.394835	2543.413350
965.694030	2541.618699
965.993189	2544.935778
966.292309	2542.495860
966.591393	2543.940151
966.890439	2541.646426
967.189447	2542.919317
967.488419	2541.285983
967.787353	2543.073072
968.086249	2542.523586
968.385108	2546.793444
968.683930	2542.059800
968.982714	2544.056097
969.281462	2541.412012
969.580172	2544.862682
969.878844	2544.643392
970.177480	2541.681714
970.476078	2544.605583
970.774639	2544.040974
971.073162	2543.940151
971.371649	2540.058462
971.670098	2542.069883
971.968510	2541.036446
972.266885	2534.966897
972.565223	2543.428473
972.863524	2544.814791
973.161788	2542.568957
973.460014	2547.221942
973.758204	2544.285470
974.056356	2545.886036
974.354471	2543.705737
974.652550	2542.286652
974.950591	2543.965356
975.248595	2543.756148
975.546563	2544.053577
975.844493	2546.349822
976.142386	2544.577857
976.440243	2543.632640
976.738062	2542.296734
977.035845	2543.221786
977.333590	2543.395706
977.631299	2542.526107
977.928971	2541.618699
978.226606	2543.166333
978.524204	2545.218083
978.821765	2541.517876
979.119290	2543.990562
979.416777	2542.573998
979.714228	2542.561395
980.011642	2544.343443
980.309020	2545.293700
980.606360	2540.519728
980.903664	2540.638195
981.200931	2541.903524
981.498162	2542.410160
981.795356	2545.318906
982.092513	2546.773279
982.389633	2547.879812
982.686717	2548.565409
982.983764	2550.886861
983.280775	2553.500699
983.577749	2551.060780
983.874686	2552.013558
984.171587	2549.283774
984.468451	2547.718495
984.765279	2548.099102
985.062070	2545.828063
985.358824	2548.152035
985.655543	2545.472661
985.952224	2546.017106
986.248869	2542.586601
986.545478	2537.641229
986.842050	2539.967721
987.138586	2538.503266
987.435086	2539.274563
987.731549	2536.161650
988.027975	2543.025181
988.324366	2540.759183
988.620719	2544.582898
988.917037	2539.410674
989.213318	2540.857485
989.509563	2540.292876
989.805772	2543.035263
990.101944	2539.909748
990.398080	2542.085006
990.694180	2540.567619
990.990244	2541.059131
991.286271	2540.920499
991.582262	2543.425953
991.878217	2540.877650
992.174136	2542.541230
992.470019	2542.221117
992.765865	2542.939482
993.061676	2540.804553
993.357450	2543.665408
993.653188	2539.849254
993.948890	2541.719522
994.244556	2542.954605
994.540186	2540.529810
994.835780	2543.809081
995.131337	2542.014430
995.426859	2542.037115
995.722345	2541.046528
996.017795	2542.092568
996.313208	2543.413350
996.608586	2544.255223
996.903928	2546.390151
997.199234	2542.528628
997.494504	2543.917465
997.789738	2545.611293
998.084936	2543.851930
998.380099	2544.139276
998.675225	2543.042825
998.970316	2539.849254
999.265371	2542.445448
999.560390	2541.515356
999.855373	2542.498381
1000.150320	2540.862526
1000.445232	2539.781199
1000.740108	2540.252547
1001.034948	2538.563760
1001.329752	2542.392516
1001.624521	2542.503422
1001.919254	2536.325488
1002.213951	2537.978986
1002.508613	2535.894469
1002.803239	2539.481250
1003.097829	2536.499407
1003.392384	2539.161137
1003.686903	2541.192722
1003.981386	2542.263967
1004.275834	2541.258257
1004.570246	2541.560726
1004.864623	2541.573329
1005.158964	2540.653318
1005.453270	2538.473019
1005.747540	2542.500901
1006.041775	2538.901517
1006.335974	2538.868750
1006.630138	2540.731456
1006.924266	2539.269522
1007.218359	2538.833462
1007.512416	2539.587114
1007.806438	2539.047711
1008.100425	2543.889739
1008.394376	2539.622402
1008.688292	2539.811446
1008.982172	2543.423432
1009.276017	2541.008720
1009.569827	2539.216589
1009.863602	2540.378575
1010.157341	2543.269677
1010.451045	2543.859492
1010.744714	2541.880839
1011.038347	2542.122815
1011.331945	2540.681045
1011.625508	2540.555016
1011.919036	2539.443441
1012.212528	2540.539892
1012.505986	2538.818338
1012.799408	2542.720191
1013.092795	2541.850592
1013.386147	2542.667259
1013.679464	2539.526620
1013.972745	2539.052752
1014.265992	2538.775488
1014.559204	2540.136600
1014.852380	2539.425797
1015.145521	2540.597866
1015.438628	2539.156096
1015.731699	2542.485778
1016.024736	2540.524769
1016.317737	2540.544933
1016.610703	2543.430994
1016.903635	2535.886907
1017.196531	2536.038142
1017.489393	2537.714326
1017.782219	2536.559901
1018.075011	2537.242978
1018.367768	2540.623071
1018.660490	2538.538554
1018.953177	2538.538554
1019.245829	2538.538554
