Dividing Wavelength (nm)	Counts (n)	Blue Motor Position (mm): 19.300000	Red Motor Position (mm): 0.000000	
326.493990	2134.263222
326.888308	2134.263222
327.282561	2134.263222
327.676750	2099.885073
328.070874	2099.842223
328.464933	2104.943871
328.858929	2109.715323
329.252859	2118.073556
329.646726	2130.255504
330.040528	2143.044912
330.434265	2161.689619
330.827938	2179.202588
331.221547	2194.862932
331.615091	2215.496375
332.008571	2235.013202
332.401986	2254.202354
332.795338	2272.698347
333.188625	2291.907664
333.581847	2308.727474
333.975006	2330.527944
334.368100	2350.369925
334.761129	2366.254601
335.154095	2383.578526
335.546996	2402.404715
335.939833	2422.110586
336.332606	2437.808739
336.725315	2450.840121
337.117960	2460.861935
337.510540	2466.364355
337.903056	2480.199801
338.295508	2485.803044
338.687896	2496.462564
339.080220	2505.866836
339.472480	2511.273474
339.864676	2513.857065
340.256807	2522.535411
340.648875	2520.224042
341.040879	2522.835360
341.432818	2525.925587
341.824694	2529.156967
342.216506	2528.305012
342.608253	2527.758047
342.999937	2527.296781
343.391557	2527.228726
343.783113	2526.018849
344.174605	2525.078673
344.566033	2524.307377
344.957397	2521.229752
345.348697	2520.758405
345.739934	2519.089783
346.131106	2515.003927
346.522215	2514.638444
346.913260	2511.323885
347.304241	2509.740963
347.695159	2509.776251
348.086012	2507.422032
348.476802	2505.319871
348.867528	2504.830879
349.258191	2503.414315
349.648789	2502.489263
350.039324	2501.866681
350.429796	2498.652945
350.820203	2495.895434
351.210548	2501.201248
351.600828	2494.488952
351.991045	2497.027173
352.381198	2495.209837
352.771288	2493.626915
353.161314	2493.200937
353.551276	2494.257059
353.941175	2494.357882
354.331010	2495.063643
354.720782	2494.952738
355.110490	2493.793273
355.500135	2490.619866
355.889717	2492.422079
356.279235	2493.190855
356.668689	2497.564056
357.058080	2493.994919
357.447408	2494.226812
357.836672	2492.946359
358.225873	2494.461226
358.615010	2492.069198
359.004084	2495.897954
359.393095	2498.663027
359.782043	2497.891731
360.170927	2497.649755
360.559748	2498.151350
360.948505	2501.503718
361.337199	2499.635970
361.725830	2501.450785
362.114398	2501.894407
362.502903	2502.665703
362.891344	2503.187463
363.279722	2503.159737
363.668037	2504.450272
364.056289	2503.071516
364.444478	2505.554285
364.832603	2502.496825
365.220665	2503.409274
365.608665	2504.541013
365.996601	2507.235509
366.384474	2505.145951
366.772284	2508.102588
367.160031	2505.408091
367.547715	2507.416991
367.935336	2508.193329
368.322893	2509.914883
368.710388	2506.292814
369.097820	2507.779954
369.485189	2509.660304
369.872495	2508.190808
370.259738	2507.931189
370.646918	2508.178205
371.034035	2508.437825
371.421090	2509.912362
371.808081	2510.565192
372.195010	2507.298524
372.581875	2509.335150
372.968678	2510.126611
373.355418	2510.603000
373.742096	2509.052845
374.128710	2509.914883
374.515262	2510.913031
374.901751	2513.229441
375.288177	2512.992507
375.674540	2511.964112
376.060841	2512.811026
376.447079	2512.868999
376.833254	2511.638957
377.219367	2505.518997
377.605417	2512.475789
377.991404	2508.369769
378.377329	2511.828001
378.763191	2506.219717
379.148991	2515.414782
379.534727	2511.250788
379.920402	2514.209946
380.306013	2511.011334
380.691563	2513.846983
381.077049	2514.318331
381.462474	2514.749349
381.847835	2514.262878
382.233134	2516.675070
382.618371	2514.688855
383.003545	2514.756911
383.388657	2518.154649
383.773706	2513.501664
384.158693	2516.612056
384.543618	2514.996366
384.928480	2517.494258
385.313280	2515.447549
385.698017	2517.101048
386.082692	2515.238341
386.467305	2518.290760
386.851856	2517.060718
387.236344	2517.320338
387.620770	2519.666995
388.005133	2518.507529
388.389435	2520.793693
388.773674	2519.041892
389.157851	2518.348733
389.541965	2519.278826
389.926018	2517.882426
390.310008	2520.891995
390.693936	2520.075328
391.077802	2519.044412
391.461606	2517.693383
391.845348	2522.212778
392.229027	2519.253620
392.612645	2523.047088
392.996200	2522.343847
393.379694	2522.749660
393.763125	2521.932993
394.146494	2521.204547
394.529801	2524.541791
394.913047	2522.270751
395.296230	2524.670340
395.679351	2523.097500
396.062410	2521.217150
396.445408	2524.856863
396.828343	2524.357788
397.211217	2519.871162
397.594028	2521.507016
397.976778	2519.989629
398.359466	2522.830319
398.742092	2520.750843
399.124656	2522.139681
399.507158	2524.188910
399.889598	2523.538601
400.271977	2525.315608
400.654294	2523.462984
401.036549	2523.278982
401.418742	2525.880217
401.800874	2527.400125
402.182944	2527.407687
402.564952	2526.399456
402.946898	2526.351565
403.328783	2523.606657
403.710606	2527.238808
404.092367	2526.457429
404.474067	2526.132275
404.855705	2523.525998
405.237282	2528.657893
405.618797	2529.061185
406.000250	2525.655886
406.381642	2525.897861
406.762972	2527.780732
407.144240	2524.619928
407.525447	2528.877183
407.906593	2528.095804
408.287677	2526.651513
408.668700	2525.597912
409.049661	2529.842564
409.430560	2529.885414
409.811399	2532.025383
410.192176	2525.461801
410.572891	2530.059333
410.953545	2530.291227
411.334138	2530.996988
411.714669	2532.080836
412.095139	2530.535723
412.475547	2530.008922
412.855894	2529.711494
413.236180	2528.428520
413.616405	2532.915147
413.996568	2532.131248
414.376670	2530.087060
414.756711	2531.664941
415.136691	2530.896165
415.516609	2528.110928
415.896466	2530.835671
416.276262	2531.755682
416.655997	2526.394415
417.035670	2527.122861
417.415283	2529.905578
417.794834	2526.059178
418.174324	2528.627646
418.553753	2533.396577
418.933121	2532.642925
419.312428	2531.627132
419.691674	2532.731145
420.070859	2530.961700
420.449983	2534.422452
420.829045	2530.497914
421.208047	2532.816845
421.586988	2532.509334
421.965867	2531.911958
422.344686	2533.749458
422.723444	2536.017977
423.102141	2532.025383
423.480777	2534.253573
423.859352	2533.734335
424.237866	2531.942204
424.616319	2535.844057
424.994712	2534.815662
425.373044	2534.926568
425.751314	2536.542257
426.129524	2532.834489
426.507673	2536.373379
426.885762	2537.981507
427.263789	2536.396064
427.641756	2532.862215
428.019662	2534.747607
428.397508	2536.665766
428.775292	2533.429345
429.153016	2535.498738
429.530679	2536.874973
429.908282	2536.232226
430.285824	2536.408667
430.663305	2533.658717
431.040726	2537.489994
431.418086	2533.157123
431.795385	2535.796167
432.172624	2537.560570
432.549802	2538.757844
432.926920	2537.618544
433.303977	2539.332536
433.680974	2537.011085
434.057910	2536.877494
434.434786	2538.609130
434.811601	2535.912113
435.188355	2538.157947
435.565050	2536.902700
435.941683	2540.083668
436.318257	2535.123172
436.694770	2535.188708
437.071222	2533.898172
437.447614	2536.002854
437.823946	2533.948584
438.200218	2535.881866
438.576429	2540.668442
438.952580	2537.384130
439.328670	2538.097453
439.704700	2541.790098
440.080670	2538.951929
440.456580	2539.617361
440.832429	2538.856147
441.208218	2539.675334
441.583947	2538.929244
441.959616	2539.236754
442.335224	2541.729605
442.710773	2538.959491
443.086261	2539.945036
443.461689	2538.367155
443.837057	2539.897145
444.212365	2539.962680
444.587612	2541.462423
444.962800	2539.274563
445.337927	2539.899666
445.712995	2538.273894
446.088002	2541.759852
446.462949	2540.023174
446.837837	2542.538710
447.212664	2540.451672
447.587431	2541.091899
447.962139	2541.868236
448.336786	2544.804708
448.711374	2543.607434
449.085901	2541.003678
449.460369	2545.039122
449.834776	2540.925541
450.209124	2540.965870
450.583412	2543.778834
450.957640	2544.371169
451.331808	2543.239430
451.705917	2542.117773
452.079965	2543.705737
452.453954	2542.740356
452.827883	2543.786395
453.201752	2540.824718
453.575562	2543.703216
453.949311	2542.458051
454.323001	2544.663556
454.696632	2543.829245
455.070202	2543.277239
455.443713	2543.798998
455.817164	2542.601724
456.190556	2540.917979
456.563888	2541.011240
456.937160	2541.235572
457.310373	2544.867723
457.683526	2544.217414
458.056619	2543.287321
458.429653	2545.512991
458.802628	2543.282280
459.175542	2543.390665
459.548398	2546.301931
459.921194	2544.272867
460.293930	2544.199770
460.666607	2547.542055
461.039224	2547.370656
461.411782	2547.443752
461.784280	2548.358722
462.156719	2549.334185
462.529099	2546.485933
462.901419	2548.358722
463.273680	2548.260419
463.645882	2545.946530
464.018024	2546.148176
464.390106	2547.189174
464.762130	2549.124977
465.134094	2547.007693
465.505999	2549.142621
465.877845	2548.756973
466.249631	2550.536500
466.621358	2552.250493
466.993026	2554.748384
467.364634	2553.820812
467.736184	2548.129349
468.107674	2546.954761
468.479105	2551.280071
468.850477	2549.503064
469.221790	2548.663712
469.593043	2547.660522
469.964238	2548.686397
470.335373	2551.390976
470.706449	2550.753270
471.077467	2551.010369
471.448425	2551.348126
471.819324	2552.895760
472.190164	2551.985832
472.560945	2550.130687
472.931667	2552.126984
473.302330	2548.855276
473.672934	2549.883671
474.043479	2550.758311
474.413965	2551.383414
474.784393	2549.097251
475.154761	2548.809905
475.525070	2549.092210
475.895321	2549.203115
476.265513	2545.505429
476.635645	2552.008517
477.005719	2551.305276
477.375734	2553.546069
477.745691	2552.931048
478.115588	2552.265616
478.485427	2555.718807
478.855207	2555.096224
479.224928	2554.645041
479.594591	2556.124619
479.964194	2556.227963
480.333739	2556.699311
480.703226	2555.343241
481.072653	2556.825340
481.442022	2558.889692
481.811333	2558.330124
482.180584	2556.664023
482.549777	2558.292316
482.918912	2556.359033
483.287988	2559.855073
483.657005	2557.974723
484.025964	2559.353478
484.394864	2554.773590
484.763706	2562.955383
485.132489	2559.131668
485.501213	2561.944632
485.869879	2562.277348
486.238487	2560.248283
486.607036	2561.969837
486.975527	2562.657955
487.343959	2563.038562
487.712333	2563.257852
488.080648	2562.849519
488.448905	2564.558470
488.817104	2562.327759
489.185244	2565.102914
489.553326	2566.307750
489.921350	2567.895714
490.289315	2569.309757
490.657222	2575.558267
491.025070	2573.428380
491.392861	2575.505335
491.760593	2573.282187
492.128267	2579.618917
492.495883	2577.380645
492.863440	2578.257805
493.230939	2578.903073
493.598380	2582.908270
493.965763	2575.381827
494.333088	2583.619072
494.700354	2582.578074
495.067563	2588.120823
495.434713	2586.774835
495.801805	2596.595003
496.168839	2596.461412
496.535815	2600.234716
496.902733	2604.146651
497.269593	2609.044132
497.636395	2613.671911
498.003139	2619.885133
498.369825	2621.745319
498.736453	2628.175311
499.103023	2630.360651
499.469535	2636.311733
499.835989	2641.738535
500.202385	2650.502581
500.568723	2652.937458
500.935003	2663.725528
501.301226	2670.878925
501.667390	2677.772703
502.033497	2688.878365
502.399546	2691.610670
502.765537	2698.965714
503.131470	2706.676158
503.497345	2721.265258
503.863163	2722.245762
504.228923	2738.135479
504.594625	2748.033785
504.960269	2754.975453
505.325856	2768.591610
505.691385	2776.276849
506.056856	2793.000877
506.422270	2805.545788
506.787625	2813.800678
507.152924	2832.473112
507.518164	2840.964935
507.883347	2857.857842
508.248472	2865.071733
508.613540	2890.905126
508.978550	2906.963721
509.343503	2920.153900
509.708398	2942.176181
510.073236	2964.447999
510.438016	2983.140597
510.802738	2999.103411
511.167403	3024.331865
511.532010	3045.499670
511.896561	3071.701067
512.261053	3100.443206
512.625488	3113.945937
512.989866	3134.158443
513.354186	3158.114006
513.718449	3178.359280
514.082655	3218.307903
514.446803	3241.540061
514.810894	3273.047272
515.174927	3293.032927
515.538904	3322.064932
515.902822	3364.937425
516.266684	3384.335785
516.630488	3415.772420
516.994235	3448.643264
517.357925	3492.287053
517.721558	3528.835419
518.085133	3567.755647
518.448651	3600.944083
518.812112	3626.442239
519.175516	3666.945390
519.538863	3716.257957
519.902152	3738.852408
520.265385	3809.216834
520.628560	3822.865758
520.991678	3869.577089
521.354739	3912.247936
521.717743	3943.727421
522.080690	3975.249756
522.443580	4052.835635
522.806413	4091.526490
523.169189	4134.497286
523.531908	4195.301163
523.894569	4205.789283
524.257174	4258.028240
524.619722	4331.341741
524.982213	4350.931664
525.344647	4424.716513
525.707025	4452.488229
526.069345	4522.328375
526.431608	4571.489707
526.793815	4641.707939
527.155964	4648.347138
527.518057	4703.459553
527.880093	4744.313064
528.242072	4811.746058
528.603995	4844.949618
528.965860	4874.984812
529.327669	4946.198672
529.689421	4983.820803
530.051117	5026.302607
530.412755	5118.288541
530.774337	5134.846211
531.135862	5197.028844
531.497331	5241.592644
531.858743	5260.277680
532.220098	5363.165110
532.581396	5376.955186
532.942638	5427.404533
533.303824	5468.666378
533.664953	5538.330082
534.026025	5559.109719
534.387040	5656.557743
534.747999	5705.572882
535.108902	5794.317354
535.469748	5755.387044
535.830537	5847.609912
536.191270	5903.004631
536.551947	5973.898378
536.912567	6026.689341
537.273131	6046.370005
537.633638	6089.121511
537.994089	6149.978320
538.354483	6182.334966
538.714821	6294.241019
539.075103	6358.505649
539.435328	6402.822432
539.795497	6368.860179
540.155609	6507.081055
540.515665	6598.036074
540.875665	6533.242123
541.235609	6628.688810
541.595496	6675.216139
541.955328	6816.970865
542.315102	6806.003834
542.674821	6840.102199
543.034483	6888.623305
543.394090	6946.460463
543.753640	6969.710264
544.113134	7141.348950
544.472571	7118.545291
544.831953	7262.692044
545.191278	7208.300514
545.550548	7268.378465
545.909761	7397.336222
546.268918	7448.829088
546.628019	7548.079325
546.987064	7525.646190
547.346053	7520.174018
547.704986	7650.162690
548.063863	7684.540839
548.422684	7720.441416
548.781449	7731.935247
549.140158	7841.474478
549.498811	7823.895975
549.857408	7763.807942
550.215949	7976.378276
550.574434	7925.898682
550.932864	8046.909059
551.291237	8117.346582
551.649555	8146.308010
552.007817	8200.412194
552.366022	8215.175213
552.724173	8266.327801
553.082267	8298.006412
553.440305	8448.142056
553.798288	8337.216507
554.156215	8500.590220
554.514086	8533.153554
554.871902	8461.407852
555.229661	8530.668265
555.587365	8549.388590
555.945014	8514.123198
556.302606	8655.225094
556.660143	8605.657949
557.017625	8771.705995
557.375050	8733.027742
557.732421	8876.052838
558.089735	8854.829581
558.446994	8885.492399
558.804197	8957.943862
559.161345	8994.822423
559.518437	8907.184484
559.875474	9020.207153
560.232455	9082.954395
560.589381	9066.076612
560.946251	9112.382131
561.303065	9216.807112
561.659825	9212.965753
562.016528	9189.126136
562.373177	9114.630485
562.729770	9248.311803
563.086307	9208.768992
563.442789	9308.926637
563.799216	9253.884798
564.155587	9315.492740
564.511904	9311.238006
564.868164	9330.711983
565.224370	9365.705153
565.580520	9334.323970
565.936615	9357.742650
566.292654	9278.042008
566.648638	9408.509590
567.004567	9399.947190
567.360441	9413.704499
567.716260	9354.420530
568.072023	9466.901275
568.427732	9447.964180
568.783385	9381.211742
569.138982	9467.206265
569.494525	9508.790743
569.850013	9414.775744
570.205445	9511.989355
570.560823	9432.011449
570.916145	9378.630671
571.271412	9460.612435
571.626625	9426.874513
571.981782	9424.797558
572.336884	9419.847145
572.691931	9440.316750
573.046923	9408.197038
573.401860	9384.680056
573.756743	9345.371658
574.111570	9399.143126
574.466342	9397.290502
574.821059	9437.276934
575.175722	9353.750056
575.530330	9374.895176
575.884882	9377.834169
576.239380	9325.469183
576.593823	9312.016864
576.948211	9341.371503
577.302544	9238.211851
577.656823	9267.112786
578.011047	9280.771792
578.365216	9263.031972
578.719330	9203.170791
579.073389	9221.255930
579.427394	9186.983646
579.781344	9170.075616
580.135239	9131.810738
580.489080	9154.314448
580.842866	9059.165190
581.196597	9075.226306
581.550273	9112.359445
581.903895	9096.026107
582.257463	9170.032766
582.610975	9057.254593
582.964434	9089.515457
583.317837	9020.260085
583.671186	9003.084874
584.024481	9007.427828
584.377721	8938.227909
584.730906	8920.755270
585.084037	8957.399417
585.437113	8898.732989
585.790135	8926.466897
586.143103	8824.910332
586.496016	8810.006161
586.848874	8870.948670
587.201679	8866.862815
587.554428	8756.438860
587.907124	8800.241446
588.259765	8782.115978
588.612352	8787.230228
588.964884	8664.289089
589.317362	8685.013272
589.669786	8684.945217
590.022155	8737.007733
590.374470	8759.024972
590.726731	8700.156898
591.078937	8560.751350
591.431090	8671.825614
591.783188	8545.403557
592.135232	8546.391624
592.487222	8544.329792
592.839157	8598.010518
593.191038	8528.777832
593.542866	8483.324268
593.894639	8386.788693
594.246358	8434.442720
594.598022	8453.016852
594.949633	8358.066719
595.301190	8333.375147
595.652692	8368.264973
596.004141	8473.579718
596.355535	8255.509485
596.706876	8237.126917
597.058162	8181.409565
597.409395	8251.859690
597.760573	8311.935120
598.111698	8225.789362
598.462768	8211.689255
598.813785	8180.988628
599.164748	8143.497567
599.515657	8137.783419
599.866511	8059.617808
600.217312	8176.963267
600.568060	8038.656691
600.918753	8146.000500
601.269392	8112.847352
601.619978	8028.226543
601.970510	8089.766429
602.320988	8090.688960
602.671412	8149.007548
603.021783	8085.665450
603.372100	8055.789052
603.722363	8057.235863
604.072572	8037.872791
604.422728	8050.528608
604.772830	7975.785940
605.122878	7990.813620
605.472872	7986.783217
605.822813	8010.416147
606.172701	7955.880944
606.522534	8030.847943
606.872314	8028.889455
607.222041	8001.347111
607.571714	8060.557983
607.921333	8018.325717
608.270899	8026.295781
608.620411	8111.012372
608.969870	8016.652054
609.319276	8007.908173
609.668627	8027.291409
610.017926	8063.943118
610.367171	8111.559337
610.716362	8087.964216
611.065500	8081.619924
611.414585	8111.874409
611.763616	8095.248684
612.112594	8076.319151
612.461518	8092.912109
612.810389	8153.995770
613.159207	8093.320442
613.507971	8040.748769
613.856682	8159.916605
614.205340	8119.373125
614.553945	8195.371040
614.902496	8092.826409
615.250994	8142.675859
615.599439	8132.880897
615.947830	8145.052763
616.296169	8117.868341
616.644454	8132.575907
616.992686	8122.491079
617.340864	8182.561468
617.688990	8090.431861
618.037063	8171.639808
618.385082	8130.113304
618.733048	8212.480716
619.080961	8155.248497
619.428821	8170.001433
619.776628	8177.222886
620.124382	8122.753219
620.472083	8110.346939
620.819731	8139.182339
621.167326	8032.340125
621.514868	8038.036629
621.862357	7931.181811
622.209793	7946.113709
622.557176	7886.701190
622.904506	7850.414965
623.251783	7794.042262
623.599007	7743.943275
623.946179	7743.570230
624.293297	7707.054632
624.640363	7625.241746
624.987376	7610.070393
625.334336	7554.310191
625.681243	7502.706419
626.028097	7488.729820
626.374899	7464.010523
626.721647	7460.703526
627.068343	7397.391674
627.414987	7362.595110
627.761577	7322.366702
628.108115	7357.944646
628.454600	7252.743327
628.801032	7302.423898
629.147412	7269.878208
629.493739	7251.656958
629.840014	7186.963831
630.186236	7247.606391
630.532405	7132.786550
630.878521	7181.113572
631.224585	7135.775954
631.570597	7063.682413
631.916556	7094.342711
632.262462	7090.219047
632.608316	7052.362502
632.954117	7031.358535
633.299866	7021.011567
633.645562	7011.917325
633.991206	6931.957063
634.336797	6876.093517
634.682336	6834.728329
635.027823	6802.938813
635.373257	6794.646115
635.718639	6724.259004
636.063968	6736.332568
636.409245	6634.612165
636.754470	6632.462113
637.099642	6592.243788
637.444762	6531.770106
637.789829	6540.861827
638.134845	6485.252859
638.479808	6471.356919
638.824719	6480.809082
639.169577	6404.841414
639.514383	6429.767399
639.859137	6351.662282
640.203839	6363.572008
640.548489	6350.275965
640.893086	6322.587427
641.237632	6298.745290
641.582125	6315.360933
641.926566	6287.105266
642.270955	6301.389376
642.615292	6298.478109
642.959576	6309.223329
643.303809	6297.492564
643.647990	6308.573020
643.992118	6296.721267
644.336195	6246.415593
644.680219	6269.977946
645.024192	6261.730618
645.368112	6356.116142
645.711981	6376.245469
646.055797	6451.396470
646.399562	6413.111427
646.743274	6539.858638
647.086935	6584.034269
647.430544	6582.332879
647.774101	6606.112002
648.117606	6606.822805
648.461059	6605.038236
648.804460	6560.615589
649.147810	6468.758204
649.491108	6442.904646
649.834354	6414.795172
650.177548	6335.369273
650.520690	6249.999853
650.863781	6228.481688
651.206820	6245.977012
651.549807	6168.814591
651.892742	6110.251507
652.235626	6116.119410
652.578458	6102.659529
652.921238	6011.828019
653.263967	6047.831940
653.606644	5994.514176
653.949269	5994.264639
654.291843	5937.458397
654.634365	5982.251570
654.976836	5940.057112
655.319255	5934.055618
655.661622	5918.246560
656.003938	5917.810500
656.346203	5873.075301
656.688416	5904.579992
657.030577	5856.530234
657.372687	5825.819525
657.714746	5814.824768
658.056753	5863.214804
658.398708	5801.543848
658.740612	5792.852899
659.082465	5839.654971
659.424266	5827.246171
659.766016	5828.710626
660.107715	5809.420651
660.449362	5819.901210
660.790958	5816.316950
661.132503	5801.755577
661.473996	5834.717161
661.815438	5819.560932
662.156829	5820.669986
662.498168	5811.411907
662.839456	5789.971880
663.180693	5827.914124
663.521879	5828.687941
663.863013	5813.814017
664.204097	5834.439898
664.545129	5871.895671
664.886110	5867.635896
665.227040	5899.286780
665.567918	5872.087235
665.908746	5896.347788
666.249522	5898.066821
666.590248	5888.730604
666.930922	5915.791518
667.271545	5934.184168
667.612118	5928.041522
667.952639	5902.379528
668.293109	5927.809629
668.633528	5882.666096
668.973896	5886.822527
669.314213	5876.767946
669.654480	5857.624164
669.994695	5849.291137
670.334859	5847.221743
670.674973	5837.767059
671.015035	5836.647923
671.355047	5838.283778
671.695008	5820.271735
672.034918	5795.567560
672.374777	5810.693543
672.714585	5796.175019
673.054342	5795.043280
673.394049	5787.892404
673.733705	5821.201828
674.073310	5807.573068
674.412864	5767.377428
674.752368	5758.119349
675.091820	5763.289052
675.431223	5699.848652
675.770574	5705.101534
676.109875	5652.413915
676.449125	5653.407022
676.788324	5626.517507
677.127473	5564.463424
677.466571	5560.362445
677.805619	5550.048245
678.144616	5540.490217
678.483562	5516.529613
678.822458	5485.345035
679.161303	5480.497966
679.500098	5470.448425
679.838842	5450.495538
680.177535	5457.996775
680.516179	5472.999249
680.854771	5485.869315
681.193314	5561.378238
681.531805	5675.419220
681.870247	5826.598383
682.208638	5923.822076
682.546978	5935.457059
682.885268	5912.676085
683.223508	5826.338763
683.561697	5775.554180
683.899836	5744.982102
684.237925	5704.254620
684.575963	5666.244320
684.913951	5628.629751
685.251889	5688.271642
685.589776	5654.770654
685.927614	5625.347960
686.265401	5700.587181
686.603137	5675.918294
686.940824	5759.160347
687.278460	5780.368482
687.616046	5788.547754
687.953582	5854.962435
688.291068	5837.046174
688.628504	5899.669908
688.965889	5859.501994
689.303224	5806.292615
689.640510	5755.848309
689.977745	5684.868863
690.314930	5586.536116
690.652065	5528.676273
690.989150	5437.300318
691.326185	5365.214339
691.663170	5312.758612
692.000105	5231.233073
692.336990	5161.327392
692.673825	5133.424606
693.010610	5066.843566
693.347345	4999.181199
693.684030	4980.438189
694.020665	4940.396304
694.357251	4854.106874
694.693786	4863.004510
695.030272	4829.692566
695.366707	4796.083193
695.703093	4759.807050
696.039429	4782.038538
696.375716	4767.159573
696.711952	4739.584461
697.048139	4731.332092
697.384276	4712.321901
697.720363	4721.244744
698.056400	4729.895364
698.392388	4680.229916
698.728326	4663.722658
699.064214	4642.060820
699.400053	4630.985405
699.735842	4602.480200
700.071581	4574.620263
700.407270	4552.028333
700.742910	4532.609808
701.078501	4476.370696
701.414042	4475.440603
701.749533	4447.729380
702.084974	4380.964338
702.420366	4440.273513
702.755709	4378.499214
703.091002	4327.150021
703.426246	4375.847567
703.761440	4328.155731
704.096584	4292.645844
704.431679	4311.746776
704.766725	4295.350423
705.101721	4287.834062
705.436668	4317.607117
705.771565	4264.962347
706.106413	4294.763128
706.441212	4324.228673
706.775961	4334.144622
707.110661	4314.272394
707.445311	4341.502186
707.779913	4362.430536
708.114465	4376.689440
708.448967	4400.264396
708.783421	4460.667501
709.117825	4499.060929
709.452180	4503.930684
709.786485	4552.817273
710.120742	4634.615035
710.454949	4620.348570
710.789107	4685.782747
711.123216	4758.529117
711.457275	4749.823045
711.791286	4824.442204
712.125247	4840.679761
712.459159	4738.651848
712.793023	4817.379547
713.126837	4779.497797
713.460602	4768.429944
713.794318	4690.937327
714.127985	4697.657185
714.461602	4609.570583
714.795171	4580.470522
715.128691	4521.481461
715.462162	4462.391576
715.795584	4412.126231
716.128957	4396.949837
716.462281	4345.482177
716.795556	4319.295903
717.128782	4279.276704
717.461960	4213.197259
717.795088	4226.158066
718.128167	4182.927651
718.461198	4122.864823
718.794180	4119.320892
719.127113	4099.448664
719.459997	4080.617433
719.792833	4037.228222
720.125619	4027.418137
720.458357	3990.640399
720.791046	3997.826564
721.123686	3971.844457
721.456278	3930.479269
721.788821	3943.823203
722.121315	3917.047115
722.453761	3894.631624
722.786158	3904.900454
723.118506	3929.196295
723.450805	3879.329202
723.783056	3904.015732
724.115259	3917.079882
724.447412	3922.085748
724.779518	3917.369748
725.111574	3924.172786
725.443582	3951.344605
725.775542	3935.104528
726.107453	3986.675532
726.439315	3986.194101
726.771129	4000.011904
727.102895	4039.650497
727.434612	4084.375614
727.766281	4096.973457
728.097901	4096.416410
728.429473	4104.764560
728.760996	4106.841516
729.092471	4104.207513
729.423897	4087.443156
729.755276	4093.179989
730.086606	4092.711162
730.417887	4129.451091
730.749120	4196.667316
731.080305	4257.972788
731.411442	4284.025471
731.742530	4255.598404
732.073570	4254.824587
732.404562	4312.767609
732.735506	4305.684788
733.066401	4263.928911
733.397249	4203.508161
733.728048	4126.466728
734.058798	4042.947411
734.389501	3972.603151
734.720156	3911.703492
735.050762	3865.264382
735.381320	3862.353116
735.711831	3812.748162
736.042293	3784.119449
736.372707	3803.064106
736.703073	3776.469498
737.033391	3767.602109
737.363661	3785.157927
737.693883	3810.179694
738.024056	3821.378617
738.354182	3813.952998
738.684260	3878.479767
739.014290	3896.917787
739.344272	3896.113723
739.674207	3932.626801
740.004093	3939.286165
740.333931	3934.862552
740.663722	3937.415897
740.993464	3933.859363
741.323159	3906.881628
741.652806	3883.508318
741.982405	3850.599666
742.311956	3824.030264
742.641460	3811.959222
742.970915	3792.512971
743.300323	3746.542689
743.629683	3714.155796
743.958996	3705.089281
744.288260	3681.552133
744.617477	3647.466372
744.946647	3630.956593
745.275768	3609.256946
745.604842	3603.568004
745.933869	3558.290881
746.262847	3549.912483
746.591778	3586.649892
746.920662	3558.308525
747.249498	3525.730068
747.578286	3572.022984
747.907027	3591.186930
748.235720	3585.361877
748.564365	3612.291721
748.892963	3613.340281
749.221514	3596.651541
749.550017	3573.356369
749.878473	3569.585586
750.206881	3540.470402
750.535242	3538.229609
750.863555	3537.977551
751.191821	3532.659134
751.520039	3515.937627
751.848210	3491.316631
752.176334	3531.824823
752.504411	3536.792880
752.832440	3494.432064
753.160421	3476.457830
753.488356	3487.671877
753.816243	3500.960358
754.144082	3454.186013
754.471875	3441.131945
754.799620	3461.399904
755.127318	3452.439253
755.454969	3452.832463
755.782572	3456.840180
756.110129	3431.515944
756.437638	3425.401024
756.765100	3436.325204
757.092515	3446.599076
757.419882	3454.841363
757.747203	3428.135850
758.074477	3430.001077
758.401703	3448.565126
758.728882	3468.207982
759.056014	3474.222078
759.383099	3475.958756
759.710138	3474.585042
760.037129	3489.648009
760.364073	3520.651105
760.690970	3501.782067
761.017820	3481.062924
761.344623	3502.301305
761.671379	3545.624982
761.998088	3595.539966
762.324751	3722.133422
762.651366	3970.947132
762.977935	4438.461219
763.304456	4872.665882
763.630931	4960.079489
763.957359	4600.650261
764.283740	4262.295577
764.610074	4076.781115
764.936362	3884.846744
765.262602	3722.203998
765.588796	3615.555868
765.914943	3531.262734
766.241044	3445.179991
766.567097	3413.047677
766.893104	3368.317518
767.219064	3337.344669
767.544978	3307.599341
767.870845	3254.831063
768.196665	3236.672827
768.522438	3249.079107
768.848165	3241.719022
769.173846	3205.213506
769.499479	3189.394366
769.825066	3171.833506
770.150607	3157.763646
770.476101	3172.559432
770.801548	3166.961231
771.126949	3122.576392
771.452303	3105.595265
771.777611	3112.758745
772.102872	3118.246041
772.428087	3093.370467
772.753256	3083.754466
773.078378	3073.881366
773.403453	3040.836603
773.728482	3030.227495
774.053465	3052.025444
774.378401	3040.062786
774.703291	3009.399968
775.028135	3009.084895
775.352932	3002.909482
775.677683	2991.055209
776.002388	2991.390445
776.327046	2990.178048
776.651658	2981.391317
776.976224	2969.153916
777.300743	2968.843885
777.625216	2960.783080
777.949643	2955.726803
778.274024	2956.551031
778.598359	2946.723302
778.922647	2949.115329
779.246889	2948.772531
779.571086	2932.913061
779.895236	2928.827206
780.219339	2941.793053
780.543397	2952.830660
780.867409	2953.828808
781.191374	2947.418981
781.515294	2944.520318
781.839167	2947.529886
782.162995	2938.236519
782.486776	2944.825307
782.810511	2943.297838
783.134201	2932.484563
783.457844	2940.230296
783.781441	2928.098759
784.104993	2906.739390
784.428498	2910.731984
784.751958	2923.314704
785.075372	2915.407654
785.398739	2900.979872
785.722061	2916.413364
786.045337	2927.551794
786.368568	2912.193918
786.691752	2905.930285
787.014891	2953.881740
787.337983	2983.690083
787.661030	3008.001047
787.984031	3075.711305
788.306987	3123.766104
788.629897	3112.582304
788.952760	3097.010180
789.275579	3082.189188
789.598351	3026.388656
789.921078	2981.043477
790.243759	2971.437558
790.566395	2956.099848
790.888984	2930.901640
791.211529	2911.765420
791.534027	2906.227713
791.856480	2894.832185
792.178888	2877.800646
792.501249	2874.564226
792.823566	2869.838144
793.145836	2867.277238
793.468062	2864.935622
793.790241	2862.868749
794.112375	2867.463760
794.434464	2879.978425
794.756507	2884.107130
795.078505	2888.838253
795.400457	2905.612692
795.722364	2940.139555
796.044226	2965.998153
796.366042	2962.360961
796.687812	2956.324179
797.009538	2972.975110
797.331218	2960.253759
797.652852	2947.194650
797.974442	2930.561363
798.295986	2924.489293
798.617484	2921.474683
798.938938	2906.704102
799.260346	2891.321021
799.581709	2885.858931
799.903026	2879.360883
800.224299	2874.034904
800.545526	2867.357896
800.866708	2848.415761
801.187845	2838.613237
801.508936	2840.165912
801.829983	2848.559433
802.150984	2833.451095
802.471940	2821.589260
802.792851	2823.273006
803.113717	2822.123623
803.434538	2827.119406
803.755314	2818.042809
804.076045	2814.577015
804.396731	2812.555513
804.717372	2812.389155
805.037967	2806.276756
805.358518	2817.211018
805.679024	2826.453974
805.999485	2821.143118
806.319901	2826.350630
806.640272	2820.228149
806.960598	2821.927018
807.280879	2832.815910
807.601115	2837.176508
807.921306	2827.121927
808.241453	2822.705876
808.561554	2830.365909
808.881611	2832.097546
809.201623	2825.843994
809.521590	2826.504385
809.841513	2818.604897
810.161390	2823.807368
810.481223	2819.648416
810.801011	2810.375214
811.120755	2805.220634
811.440453	2808.109215
811.760107	2808.414205
812.079716	2809.997127
812.399281	2797.636218
812.718801	2790.253448
813.038276	2785.368570
813.357707	2790.606329
813.677093	2798.848615
813.996434	2791.521298
814.315731	2788.763787
814.634983	2785.318158
814.954191	2786.666667
815.273354	2800.071095
815.592473	2806.062507
815.911547	2809.964360
816.230577	2818.128508
816.549562	2824.986998
816.868502	2825.861638
817.187399	2834.464367
817.506250	2850.747294
817.825058	2844.544154
818.143821	2858.006556
818.462539	2869.843185
818.781213	2897.781260
819.099843	2935.244594
819.418429	2986.003973
819.736970	3049.462017
820.055466	3119.619755
820.373919	3226.149418
820.692327	3361.451467
821.010691	3528.008669
821.329011	3960.882468
821.647286	4844.251418
821.965517	6201.294745
822.283704	6917.108345
822.601847	6883.085597
822.919945	6264.498212
823.237999	5771.944713
823.556010	5201.860790
823.873976	4662.560672
824.191897	4263.583592
824.509775	3976.099191
824.827609	3713.429870
825.145398	3593.510902
825.463144	3584.688883
825.780845	3672.699867
826.098502	3779.335394
826.416116	4056.140111
826.733685	4364.694014
827.051210	4422.185853
827.368692	4309.521106
827.686129	4049.294224
828.003522	3727.353537
828.320872	3475.255515
828.638177	3289.887247
828.955439	3153.163593
829.272656	3071.617888
829.589830	3007.653208
829.906960	2959.023717
830.224046	2914.482602
830.541088	2882.763662
830.858086	2868.134234
831.175041	2849.918024
831.491952	2851.276615
831.808819	2864.295395
832.125642	2890.317831
832.442421	2931.829213
832.759157	3009.430214
833.075849	3185.048891
833.392497	3460.442084
833.709101	3662.443640
834.025662	3608.858695
834.342179	3451.549489
834.658653	3278.484157
834.975083	3132.245325
835.291469	3037.885007
835.607811	2954.476596
835.924110	2898.802093
836.240366	2848.773682
836.556578	2809.399750
836.872746	2788.665485
837.188871	2761.934766
837.504952	2746.960019
837.820990	2743.252250
838.136984	2727.745661
838.452935	2722.888509
838.768842	2716.282077
839.084706	2735.239336
839.400526	2814.682880
839.716303	2944.769855
840.032037	3019.731812
840.347727	3006.168588
840.663373	2946.768672
840.978977	2873.412322
841.294537	2800.849953
841.610054	2757.435537
841.925527	2734.349572
842.240957	2713.650595
842.556344	2690.909950
842.871687	2676.819925
843.186987	2670.669717
843.502244	2665.678975
843.817458	2658.404590
844.132629	2647.200625
844.447756	2639.482619
844.762840	2631.605816
845.077881	2634.748975
845.392879	2632.863584
845.707833	2631.623460
846.022745	2623.151801
846.337613	2626.864611
846.652438	2624.346554
846.967221	2622.463683
847.281960	2622.677932
847.596656	2623.287912
847.911309	2619.590226
848.225919	2616.487396
848.540485	2614.828856
848.855009	2616.089144
849.169490	2614.722992
849.483928	2614.334823
849.798323	2612.381376
850.112675	2611.756273
850.426984	2615.653085
850.741251	2612.255347
851.055474	2613.689555
851.369654	2617.601491
851.683792	2614.992693
851.997887	2613.500512
852.311938	2611.453803
852.625947	2613.775255
852.939914	2618.166100
853.253837	2617.059567
853.567718	2613.407251
853.881555	2611.375666
854.195350	2615.978239
854.509103	2615.673249
854.822812	2609.850717
855.136479	2611.015223
855.450103	2612.406582
855.763685	2615.579988
856.077224	2612.109153
856.390720	2609.149996
856.704173	2610.564040
857.017584	2616.386572
857.330953	2619.123919
857.644278	2619.680967
857.957561	2619.824639
858.270802	2615.222066
858.584000	2612.714092
858.897155	2619.572582
859.210268	2620.535442
859.523339	2615.030502
859.836367	2610.085130
860.149352	2607.244440
860.462295	2610.319544
860.775195	2608.761827
861.088054	2606.374841
861.400869	2609.036570
861.713642	2604.388626
862.026373	2605.442227
862.339062	2610.601848
862.651708	2614.959926
862.964312	2614.271808
863.276873	2615.436315
863.589392	2617.654423
863.901869	2621.614249
864.214303	2626.040382
864.526696	2626.665485
864.839045	2631.855353
865.151353	2631.159674
865.463619	2632.056999
865.775842	2628.341669
866.088023	2631.739407
866.400162	2630.209416
866.712258	2632.359468
867.024313	2630.395939
867.336325	2627.371247
867.648296	2630.915178
867.960224	2635.139665
868.272110	2634.403656
868.583954	2627.320835
868.895755	2628.956690
869.207515	2630.532050
869.519233	2639.124697
869.830909	2635.779891
870.142542	2627.051133
870.454134	2635.709315
870.765684	2634.706126
871.077191	2639.313740
871.388657	2642.913124
871.700081	2639.787609
872.011463	2642.464461
872.322803	2643.286169
872.634101	2644.937147
872.945357	2652.090545
873.256571	2656.166317
873.567744	2654.706903
873.878874	2654.941317
874.189963	2652.226656
874.501010	2657.461894
874.812015	2666.846002
875.122979	2666.704850
875.433900	2655.705052
875.744780	2652.587098
876.055618	2659.122954
876.366415	2666.283913
876.677169	2665.280724
876.987882	2656.125988
877.298554	2657.870227
877.609183	2669.084274
877.919771	2674.632064
878.230317	2678.743125
878.540822	2690.615042
878.851285	2705.919985
879.161707	2727.304560
879.472087	2763.855446
879.782425	2812.074082
880.092722	2921.827563
880.402977	3103.278855
880.713191	3354.502236
881.023363	3633.827530
881.333494	3817.996003
881.643583	3988.049246
881.953631	3984.492712
882.263637	3809.436124
882.573602	3596.719596
882.883526	3471.782160
883.193408	3361.806868
883.503248	3262.110489
883.813048	3153.803819
884.122806	3043.964639
884.432522	2960.475569
884.742197	2898.860067
885.051831	2861.280785
885.361424	2828.188131
885.670975	2793.925929
885.980485	2767.018770
886.289954	2748.782396
886.599382	2736.391240
886.908768	2725.993860
887.218113	2704.112732
887.527417	2694.431196
887.836680	2687.502130
888.145901	2680.303362
888.455082	2672.668535
888.764221	2660.647903
889.073319	2651.374701
889.382376	2653.234887
889.691392	2654.293529
890.000366	2656.667912
890.309300	2653.514671
890.618193	2654.099444
890.927044	2659.589261
891.235855	2656.826709
891.544625	2657.466935
891.853353	2656.705721
892.162041	2666.137720
892.470687	2685.127746
892.779293	2694.635363
893.087858	2702.796991
893.396381	2725.923284
893.704864	2762.259921
894.013306	2835.175170
894.321707	2922.409817
894.630068	2969.216930
894.938387	2989.878099
895.246665	2985.109168
895.554903	2938.201231
895.863100	2895.106928
896.171256	2842.757065
896.479371	2783.853703
896.787446	2745.856006
897.095480	2728.910167
897.403473	2722.028992
897.711425	2707.686910
898.019336	2689.203519
898.327207	2676.409071
898.635038	2677.170285
898.942827	2672.880263
899.250576	2664.506907
899.558284	2655.730258
899.865952	2649.448980
900.173579	2647.278763
900.481165	2645.312713
900.788711	2637.887094
901.096216	2632.795528
901.403681	2629.387708
901.711105	2628.629015
902.018489	2625.742954
902.325832	2630.189252
902.633135	2630.537091
902.940397	2646.751963
903.247619	2681.190605
903.554800	2749.795668
903.861941	2870.949718
904.169041	2989.908346
904.476101	3048.489074
904.783121	3042.903476
905.090100	2986.775269
905.397039	2914.853127
905.703938	2844.980214
906.010796	2785.857562
906.317614	2737.497773
906.624391	2702.774305
906.931129	2675.554595
907.237826	2653.625576
907.544483	2639.575880
907.851099	2623.164404
908.157675	2614.579319
908.464211	2609.001282
908.770707	2597.625918
909.077163	2594.651638
909.383578	2592.758684
909.689954	2592.284816
909.996289	2589.050916
910.302584	2590.714497
910.608839	2586.134608
910.915054	2585.176789
911.221229	2591.475711
911.527363	2589.943200
911.833458	2588.191399
912.139513	2589.686101
912.445527	2591.422779
912.751502	2596.544591
913.057436	2597.361258
913.363331	2605.404419
913.669186	2619.940586
913.975000	2630.713532
914.280775	2646.961171
914.586510	2661.933397
914.892205	2696.898841
915.197859	2761.347472
915.503475	2841.693382
915.809050	2906.668814
916.114585	2915.652150
916.420081	2927.844181
916.725536	2937.757610
917.030952	2916.118457
917.336328	2868.734131
917.641665	2824.505568
917.946961	2774.882970
918.252218	2741.886097
918.557435	2718.926162
918.862612	2695.147040
919.167750	2683.136491
919.472848	2668.363389
919.777906	2650.605925
920.082925	2638.834831
920.387904	2630.312760
920.692843	2625.669857
920.997743	2620.671553
921.302603	2615.340533
921.607423	2607.985490
921.912204	2603.571959
922.216946	2602.004161
922.521647	2601.217741
922.826310	2593.592995
923.130932	2589.260124
923.435516	2585.864907
923.740059	2583.896336
924.044564	2583.170410
924.349028	2580.866603
924.653454	2571.263204
924.957840	2572.105077
925.262186	2566.080898
925.566493	2569.526527
925.870761	2566.985785
926.174989	2567.626012
926.479178	2564.739951
926.783328	2562.514282
927.087438	2564.646690
927.391509	2562.718449
927.695541	2561.647203
927.999533	2560.870866
928.303486	2557.251317
928.607400	2559.020762
928.911275	2557.717624
929.215110	2556.109496
929.518906	2558.025134
929.822663	2558.945145
930.126381	2553.301573
930.430060	2554.753426
930.733699	2556.515309
931.037299	2560.515464
931.340861	2556.868190
931.644383	2559.424055
931.947866	2557.921791
932.251309	2559.340876
932.554714	2557.546225
932.858080	2559.053530
933.161407	2558.196534
933.464694	2557.372305
933.767943	2556.409445
934.071153	2554.614794
934.374323	2553.919115
934.677455	2555.905329
934.980548	2552.510112
935.283602	2554.493806
935.586617	2553.306614
935.889593	2554.299722
936.192530	2554.183775
936.495428	2555.902809
936.798287	2557.946997
937.101108	2559.938252
937.403890	2560.296174
937.706632	2564.082081
938.009336	2567.099211
938.312002	2567.505024
938.614628	2571.364027
938.917216	2576.702609
939.219765	2574.645819
939.522275	2575.558267
939.824747	2576.201015
940.127179	2571.237999
940.429573	2568.213306
940.731929	2568.596434
941.034246	2566.068295
941.336524	2567.530230
941.638763	2566.045610
941.940964	2569.687844
942.243126	2563.353634
942.545250	2564.389591
942.847335	2562.935218
943.149381	2560.220557
943.451389	2559.456822
943.753359	2558.675443
944.055290	2562.249621
944.357182	2559.237532
944.659036	2557.369784
944.960851	2556.913560
945.262628	2556.623694
945.564367	2554.942469
945.866067	2556.532953
946.167729	2556.036399
946.469352	2559.315670
946.770937	2556.893395
947.072484	2558.884651
947.373992	2556.462377
947.675462	2556.331307
947.976893	2556.366595
948.278286	2553.414999
948.579641	2555.154197
948.880958	2555.595298
949.182236	2554.934907
949.483476	2556.099414
949.784678	2553.256203
950.085841	2554.980277
950.386967	2555.179403
950.688054	2553.271326
950.989103	2555.973385
951.290114	2559.615618
951.591087	2561.337172
951.892021	2555.474311
952.192917	2560.580999
952.493776	2561.508572
952.794596	2560.913716
953.095378	2561.861453
953.396122	2563.625856
953.696828	2560.901113
953.997496	2559.106462
954.298126	2558.277192
954.598718	2557.137891
954.899272	2555.696121
955.199788	2553.659495
955.500266	2553.127653
955.800706	2548.386448
956.101108	2546.092723
956.401472	2545.631458
956.701798	2544.860161
957.002087	2543.299924
957.302337	2549.296377
957.602550	2546.690100
957.902724	2547.108516
958.202861	2545.636499
958.502960	2545.379400
958.803022	2547.186654
959.103045	2544.421581
959.403031	2545.202960
959.702979	2542.339584
960.002889	2544.320758
960.302762	2542.145500
960.602596	2543.990562
960.902393	2542.818494
961.202153	2542.256405
961.501875	2542.826056
961.801559	2543.473844
962.101205	2542.568957
962.400814	2543.433515
962.700385	2542.057280
962.999918	2541.578370
963.299414	2541.701878
963.598873	2541.437218
963.898293	2542.011909
964.197677	2540.741538
964.497022	2541.434697
964.796331	2541.033925
965.095601	2542.536189
965.394835	2545.225645
965.694030	2538.281455
965.993189	2541.008720
966.292309	2540.441590
966.591393	2540.923020
966.890439	2539.957639
967.189447	2539.473688
967.488419	2541.033925
967.787353	2537.369007
968.086249	2543.216745
968.385108	2543.126004
968.683930	2539.824048
968.982714	2541.868236
969.281462	2540.277752
969.580172	2540.416384
969.878844	2541.535520
970.177480	2539.647608
970.476078	2540.464275
970.774639	2543.360418
971.073162	2540.466796
971.371649	2541.195242
971.670098	2538.074768
971.968510	2537.006043
972.266885	2537.449665
972.565223	2543.262115
972.863524	2542.001827
973.161788	2542.490819
973.460014	2540.602907
973.758204	2541.401930
974.056356	2539.687937
974.354471	2542.458051
974.652550	2539.912269
974.950591	2543.307486
975.248595	2540.983514
975.546563	2542.634492
975.844493	2541.427135
976.142386	2541.419574
976.440243	2540.565098
976.738062	2541.966539
977.035845	2540.754141
977.333590	2540.020653
977.631299	2538.757844
977.928971	2538.543595
978.226606	2541.621220
978.524204	2541.182639
978.821765	2540.726415
979.119290	2539.430838
979.416777	2537.575694
979.714228	2541.099460
980.011642	2540.028215
980.309020	2540.933102
980.606360	2537.671476
980.903664	2539.345139
981.200931	2541.429656
981.498162	2541.648946
981.795356	2543.269677
982.092513	2545.112219
982.389633	2549.654298
982.686717	2550.352498
982.983764	2551.743857
983.280775	2554.297201
983.577749	2555.769218
983.874686	2552.623538
984.171587	2551.764021
984.468451	2548.169679
984.765279	2549.828218
985.062070	2543.851930
985.358824	2543.620037
985.655543	2541.918648
985.952224	2538.263811
986.248869	2541.013761
986.545478	2535.904551
986.842050	2537.484953
987.138586	2535.337422
987.435086	2536.267514
987.731549	2535.057638
988.027975	2538.563760
988.324366	2538.450334
988.620719	2537.457227
988.917037	2535.866743
989.213318	2539.849254
989.509563	2538.072248
989.805772	2537.923533
990.101944	2534.729963
990.398080	2537.144675
990.694180	2534.281300
990.990244	2540.310520
991.286271	2535.309695
991.582262	2535.687782
991.878217	2538.283976
992.174136	2538.094933
992.470019	2537.976466
992.765865	2535.977648
993.061676	2536.259953
993.357450	2537.190046
993.653188	2538.089892
993.948890	2539.229192
994.244556	2539.650129
994.540186	2539.471168
994.835780	2536.360776
995.131337	2539.990407
995.426859	2541.648946
995.722345	2541.328833
996.017795	2538.447813
996.313208	2540.670962
996.608586	2543.647764
996.903928	2542.546272
997.199234	2541.041487
997.494504	2539.859337
997.789738	2539.103163
998.084936	2540.136600
998.380099	2537.706764
998.675225	2540.895294
998.970316	2538.714995
999.265371	2537.043852
999.560390	2538.962011
999.855373	2538.750283
1000.150320	2537.348842
1000.445232	2537.686599
1000.740108	2537.802546
1001.034948	2536.118800
1001.329752	2538.387320
1001.624521	2535.440765
1001.919254	2530.644107
1002.213951	2533.666279
1002.508613	2531.667462
1002.803239	2532.549663
1003.097829	2531.294416
1003.392384	2536.829603
1003.686903	2532.834489
1003.981386	2535.526465
1004.275834	2533.880528
1004.570246	2536.398584
1004.864623	2534.616537
1005.158964	2534.175436
1005.453270	2534.888759
1005.747540	2534.130065
1006.041775	2537.442103
1006.335974	2533.084026
1006.630138	2537.074099
1006.924266	2537.812628
1007.218359	2535.574356
1007.512416	2533.452030
1007.806438	2538.231044
1008.100425	2538.077289
1008.394376	2535.942360
1008.688292	2536.383461
1008.982172	2537.220292
1009.276017	2533.023532
1009.569827	2536.872453
1009.863602	2537.404295
1010.157341	2535.692823
1010.451045	2535.602082
1010.744714	2533.391536
1011.038347	2537.737011
1011.331945	2535.097967
1011.625508	2536.403626
1011.919036	2534.069571
1012.212528	2536.050745
1012.505986	2532.020342
1012.799408	2535.962525
1013.092795	2533.073943
1013.386147	2533.983872
1013.679464	2533.678882
1013.972745	2534.049407
1014.265992	2535.866743
1014.559204	2534.170394
1014.852380	2536.990920
1015.145521	2535.501259
1015.438628	2534.102339
1015.731699	2535.332380
1016.024736	2535.402957
1016.317737	2537.235416
1016.610703	2535.193749
1016.903635	2531.657379
1017.196531	2534.041845
1017.489393	2533.963707
1017.782219	2530.669313
1018.075011	2532.133768
1018.367768	2534.992102
1018.660490	2534.782895
1018.953177	2534.782895
1019.245829	2534.782895
